Time:250Hz,Epoch,Channel 1,Channel 2,Channel 3,Channel 4,Channel 5,Channel 6,Channel 7,Channel 8,Event Id,Event Date,Event Duration
0.0000000000,0,160534.2500000000,152563.9687500000,166860.2187500000,142633.7031250000,143157.3437500000,149642.2656250000,153069.5937500000,163660.7968750000,,,
0.0040000000,0,161826.1093750000,153857.1093750000,168202.5625000000,143922.7968750000,144483.0781250000,150895.9531250000,154375.7656250000,164903.3281250000,,,
0.0079999999,0,162611.5156250000,154650.9062500000,168973.7968750000,144695.4062500000,145249.3593750000,151687.5781250000,155147.5937500000,165697.1562500000,,,
0.0119999999,0,161816.4843750000,153856.0625000000,168133.0625000000,143896.3437500000,144413.3125000000,150930.8437500000,154333.9531250000,164952.7343750000,,,
0.0159999998,0,160528.7812500000,152561.4218750000,166825.9375000000,142618.9531250000,143119.7500000000,149664.2031250000,153044.8281250000,163684.8281250000,,,
0.0199999998,0,160523.8281250000,152554.8750000000,166858.2343750000,142625.7031250000,143151.2812500000,149637.5937500000,153057.4062500000,163648.5625000000,,,
0.0240000000,0,161814.3906250000,153855.2031250000,168197.1718750000,143912.1718750000,144486.4062500000,150892.5468750000,154362.3281250000,164900.1875000000,,,
0.0279999999,0,162600.5156250000,154652.1093750000,168971.6250000000,144698.7031250000,145255.7187500000,151677.5468750000,155137.8906250000,165702.5000000000,,,
0.0319999999,0,161816.0781250000,153860.5937500000,168131.1875000000,143905.2343750000,144411.1406250000,150929.0000000000,154332.3437500000,164964.9687500000,,,
0.0359999998,0,160541.0625000000,152574.0156250000,166831.7656250000,142626.5156250000,143118.0000000000,149674.8437500000,153054.1875000000,163700.4218750000,,,
0.0399999998,0,160544.2812500000,152572.1406250000,166869.5468750000,142635.8437500000,143155.5468750000,149656.2656250000,153073.0468750000,163663.7812500000,,,
0.0440000000,0,161842.9062500000,153876.8281250000,168209.9531250000,143937.1250000000,144488.0468750000,150920.1718750000,154380.7500000000,164922.0312500000,,,
0.0480000000,0,162633.2500000000,154675.8593750000,168988.9218750000,144720.9687500000,145267.5468750000,151708.4687500000,155159.8906250000,165728.5625000000,,,
0.0519999999,0,161850.5781250000,153884.3593750000,168158.4062500000,143932.5625000000,144447.1718750000,150955.7968750000,154360.8593750000,164986.9687500000,,,
0.0559999999,0,160560.4375000000,152584.2968750000,166842.5468750000,142648.9062500000,143141.8906250000,149684.7968750000,153069.4843750000,163715.6562500000,,,
0.0599999998,0,160530.8750000000,152555.9218750000,166848.6562500000,142630.0468750000,143145.2031250000,149638.9375000000,153051.3750000000,163651.8750000000,,,
0.0639999998,0,161803.9375000000,153841.1250000000,168170.8750000000,143905.9218750000,144454.5468750000,150882.6718750000,154336.4218750000,164885.3125000000,,,
0.0680000000,0,162603.0937500000,154648.8437500000,168965.0625000000,144702.4062500000,145245.5468750000,151684.0156250000,155128.1250000000,165700.0312500000,,,
0.0719999999,0,161815.6562500000,153860.7031250000,168134.8125000000,143918.9843750000,144423.8593750000,150928.2968750000,154318.5781250000,164966.7968750000,,,
0.0759999999,0,160538.7343750000,152571.7656250000,166831.2500000000,142635.9843750000,143121.4062500000,149671.9218750000,153039.0625000000,163701.2187500000,,,
0.0799999998,0,160525.1093750000,152548.7500000000,166844.1250000000,142623.8750000000,143133.7656250000,149633.3281250000,153041.3125000000,163646.5312500000,,,
0.0839999998,0,161804.2500000000,153830.3437500000,168154.2500000000,143900.0468750000,144444.9218750000,150875.2968750000,154324.6406250000,164884.6875000000,,,
0.0880000000,0,162602.7968750000,154635.9218750000,168942.8281250000,144689.3125000000,145227.7656250000,151674.7500000000,155110.8593750000,165687.9062500000,,,
0.0919999999,0,161818.5781250000,153851.5625000000,168110.9375000000,143903.6406250000,144399.0156250000,150925.1250000000,154310.8125000000,164950.0781250000,,,
0.0959999999,0,160523.5000000000,152549.9062500000,166799.0312500000,142621.3281250000,143095.8125000000,149646.5000000000,153013.6406250000,163683.1406250000,,,
0.0999999999,0,160511.1406250000,152527.0000000000,166826.0156250000,142619.0781250000,143123.1718750000,149606.5625000000,153019.4218750000,163633.3281250000,,,
0.1039999998,0,161778.5000000000,153801.2656250000,168138.2968750000,143881.4375000000,144426.4062500000,150845.6562500000,154302.0937500000,164857.3906250000,,,
0.1079999998,0,162572.5937500000,154605.8750000000,168927.9843750000,144670.1406250000,145212.1562500000,151644.4687500000,155087.8437500000,165663.1562500000,,,
0.1120000000,0,161810.7968750000,153840.5000000000,168116.2656250000,143906.4375000000,144405.5468750000,150912.7656250000,154304.5312500000,164944.4218750000,,,
0.1159999999,0,160546.1406250000,152563.4218750000,166830.2031250000,142645.9531250000,143126.6562500000,149665.5625000000,153038.5000000000,163693.9218750000,,,
0.1199999999,0,160527.3593750000,152540.5781250000,166844.0156250000,142630.0781250000,143147.8750000000,149623.0312500000,153033.8906250000,163643.7343750000,,,
0.1239999998,0,161788.7031250000,153807.5625000000,168139.3593750000,143888.3593750000,144437.3437500000,150851.8593750000,154302.3593750000,164862.7500000000,,,
0.1279999998,1,162603.2812500000,154633.7500000000,168934.0781250000,144692.7500000000,145233.8281250000,151671.9375000000,155102.7343750000,165684.0781250000,,,
0.1319999998,1,161823.4375000000,153850.8593750000,168117.8750000000,143911.0156250000,144416.1406250000,150925.3281250000,154301.8437500000,164953.1093750000,,,
0.1359999997,1,160524.2500000000,152540.5156250000,166803.1406250000,142620.3125000000,143101.0468750000,149644.3750000000,153004.4687500000,163675.1562500000,,,
0.1399999997,1,160516.0156250000,152526.8125000000,166833.3437500000,142617.1718750000,143129.6718750000,149613.9843750000,153017.1250000000,163626.4062500000,,,
0.1439999996,1,161795.6406250000,153813.6562500000,168156.4531250000,143897.5625000000,144448.2656250000,150860.3593750000,154304.0937500000,164861.7031250000,,,
0.1479999996,1,162615.9375000000,154641.9218750000,168966.8593750000,144706.7500000000,145247.7343750000,151682.2656250000,155118.2812500000,165692.8750000000,,,
0.1519999998,1,161839.8281250000,153865.7500000000,168145.6875000000,143930.6875000000,144432.9062500000,150939.7031250000,154325.0468750000,164969.4531250000,,,
0.1559999997,1,160552.0156250000,152572.8437500000,166841.9062500000,142657.2812500000,143139.8125000000,149672.1093750000,153034.8281250000,163714.4375000000,,,
0.1599999997,1,160535.9218750000,152551.0312500000,166848.7187500000,142643.1875000000,143153.5156250000,149634.3125000000,153028.7656250000,163655.4843750000,,,
0.1639999996,1,161807.8750000000,153832.1718750000,168154.0312500000,143913.0937500000,144450.0156250000,150878.0625000000,154307.0781250000,164884.1562500000,,,
0.1679999996,1,162628.0156250000,154661.6718750000,168967.0625000000,144726.2812500000,145251.5156250000,151697.7656250000,155116.9218750000,165717.2031250000,,,
0.1719999998,1,161863.8281250000,153888.2968750000,168154.5781250000,143946.1562500000,144441.9843750000,150960.3437500000,154331.5625000000,164990.9062500000,,,
0.1759999997,1,160581.6250000000,152590.4375000000,166850.9687500000,142659.9062500000,143142.2656250000,149692.0625000000,153050.5468750000,163719.4531250000,,,
0.1799999997,1,160554.4843750000,152550.2343750000,166859.6250000000,142637.7500000000,143149.8125000000,149639.7968750000,153043.9375000000,163648.1406250000,,,
0.1839999997,1,161834.1562500000,153837.3906250000,168184.2187500000,143923.2187500000,144471.5468750000,150884.0468750000,154335.8281250000,164892.5312500000,,,
0.1879999996,1,162652.0937500000,154670.3281250000,168991.0937500000,144738.3281250000,145280.8750000000,151711.9531250000,155136.5781250000,165729.0312500000,,,
0.1919999996,1,161878.7968750000,153896.6250000000,168175.8125000000,143954.0156250000,144459.2343750000,150976.2031250000,154349.9687500000,165000.7812500000,,,
0.1959999998,1,160570.2968750000,152579.9687500000,166849.4062500000,142650.7343750000,143137.7656250000,149688.8750000000,153042.3281250000,163713.8281250000,,,
0.1999999997,1,160533.4843750000,152538.1093750000,166841.8437500000,142622.9218750000,143138.6562500000,149633.1093750000,153016.2343750000,163640.2031250000,,,
0.2039999997,1,161776.5156250000,153789.9218750000,168127.3750000000,143868.5312500000,144419.0312500000,150842.0312500000,154266.8906250000,164847.2968750000,,,
0.2079999996,1,162616.4062500000,154635.7500000000,168959.1093750000,144703.0000000000,145251.5937500000,151678.2968750000,155097.0625000000,165695.4375000000,,,
0.2119999996,1,161863.1250000000,153880.2031250000,168146.0468750000,143943.5312500000,144446.6562500000,150958.7187500000,154324.9062500000,164986.4062500000,,,
0.2159999998,1,160566.6875000000,152573.4062500000,166832.8593750000,142650.4843750000,143133.6406250000,149683.1562500000,153025.9687500000,163708.5937500000,,,
0.2199999997,1,160501.4843750000,152514.1562500000,166806.3125000000,142596.6562500000,143107.8906250000,149598.3437500000,152970.7968750000,163613.9218750000,,,
0.2239999997,1,161767.4218750000,153785.9843750000,168106.4218750000,143861.6718750000,144400.8750000000,150831.0937500000,154247.2031250000,164842.8750000000,,,
0.2279999997,1,162601.8125000000,154622.0781250000,168937.7812500000,144690.3437500000,145223.0000000000,151664.2968750000,155078.7500000000,165679.8281250000,,,
0.2319999996,1,161840.1093750000,153864.8593750000,168134.8281250000,143928.7812500000,144423.0000000000,150938.1875000000,154298.2187500000,164971.7343750000,,,
0.2359999996,1,160546.4375000000,152571.9218750000,166822.3125000000,142640.9375000000,143121.8593750000,149678.1250000000,153000.0937500000,163703.5000000000,,,
0.2399999998,1,160513.9843750000,152537.8125000000,166831.9687500000,142615.8125000000,143131.6250000000,149626.8125000000,152987.4531250000,163635.7812500000,,,
0.2439999997,1,161772.9843750000,153807.1093750000,168133.6250000000,143885.8125000000,144430.3437500000,150850.7500000000,154254.0156250000,164860.7343750000,,,
0.2479999997,1,162591.4062500000,154636.9687500000,168942.6406250000,144699.9687500000,145232.7656250000,151672.2812500000,155061.9843750000,165694.2343750000,,,
0.2519999996,1,161847.8906250000,153896.0312500000,168160.7968750000,143955.2031250000,144445.4218750000,150967.4843750000,154301.5468750000,165001.5625000000,,,
0.2559999996,2,160550.7187500000,152589.1250000000,166844.9843750000,142662.3125000000,143138.0156250000,149688.8437500000,153003.2343750000,163718.7343750000,,,
0.2599999995,2,160504.2968750000,152533.5156250000,166829.2187500000,142621.0156250000,143129.0781250000,149620.2343750000,152975.4062500000,163632.7656250000,,,
0.2639999995,2,161761.7656250000,153798.9375000000,168125.8750000000,143882.1875000000,144422.4062500000,150847.2187500000,154239.9375000000,164855.1406250000,,,
0.2679999995,2,162580.9375000000,154631.6718750000,168937.4218750000,144699.7187500000,145238.2812500000,151667.7812500000,155046.7968750000,165693.7031250000,,,
0.2719999994,2,161838.9062500000,153883.1875000000,168147.7343750000,143947.9531250000,144445.9062500000,150954.1875000000,154289.0781250000,164993.9375000000,,,
0.2759999994,2,160560.1718750000,152588.5000000000,166846.8125000000,142666.5000000000,143146.4062500000,149692.9062500000,153012.0312500000,163723.8281250000,,,
0.2799999996,2,160493.0312500000,152516.8906250000,166815.4531250000,142616.0000000000,143120.4375000000,149601.4062500000,152960.5468750000,163626.4375000000,,,
0.2839999995,2,161747.9531250000,153773.5000000000,168113.5312500000,143863.5937500000,144411.6093750000,150823.3906250000,154233.6093750000,164833.7812500000,,,
0.2879999995,2,162583.3593750000,154617.7812500000,168932.9843750000,144684.1406250000,145229.5156250000,151663.0625000000,155059.2812500000,165674.2031250000,,,
0.2919999994,2,161844.3593750000,153879.7968750000,168156.8750000000,143940.8437500000,144444.5156250000,150956.7031250000,154297.1718750000,164980.5781250000,,,
0.2959999994,2,160542.6562500000,152574.6875000000,166831.9218750000,142644.1093750000,143130.1250000000,149680.7968750000,152984.0781250000,163697.5468750000,,,
0.2999999996,2,160484.5781250000,152514.9375000000,166806.5468750000,142591.5156250000,143107.5937500000,149603.2656250000,152941.1875000000,163611.9531250000,,,
0.3039999995,2,161734.2812500000,153767.5000000000,168100.1562500000,143843.8281250000,144396.3593750000,150813.6093750000,154204.7968750000,164824.2343750000,,,
0.3079999995,2,162572.6250000000,154616.0625000000,168930.8281250000,144678.2656250000,145220.5625000000,151652.1250000000,155036.5625000000,165672.1406250000,,,
0.3119999995,2,161834.3437500000,153879.1093750000,168145.1875000000,143932.8281250000,144432.2500000000,150954.5625000000,154277.4687500000,164979.7187500000,,,
0.3159999994,2,160538.3906250000,152577.3437500000,166828.4375000000,142646.6875000000,143121.5937500000,149684.2656250000,152973.2187500000,163705.4843750000,,,
0.3199999994,2,160474.8125000000,152512.4687500000,166802.2031250000,142595.4843750000,143091.8750000000,149599.3750000000,152926.0312500000,163610.5625000000,,,
0.3239999996,2,161726.8750000000,153771.7656250000,168093.7187500000,143848.0468750000,144377.7187500000,150820.2812500000,154189.2500000000,164822.6562500000,,,
0.3279999995,2,162550.6875000000,154608.2031250000,168905.5156250000,144664.4218750000,145192.6875000000,151649.2500000000,155002.0937500000,165658.6406250000,,,
0.3319999995,2,161813.3437500000,153869.9062500000,168120.5156250000,143927.5937500000,144416.1875000000,150944.0156250000,154249.1406250000,164971.4375000000,,,
0.3359999994,2,160532.2500000000,152577.1562500000,166821.5937500000,142656.6562500000,143124.6718750000,149677.3125000000,152965.7500000000,163716.1406250000,,,
0.3399999994,2,160481.2343750000,152517.9062500000,166802.1250000000,142607.9218750000,143107.0625000000,149600.9843750000,152925.9218750000,163623.8437500000,,,
0.3439999996,2,161744.3593750000,153783.1093750000,168098.3281250000,143862.4687500000,144394.3281250000,150832.0000000000,154196.5625000000,164838.7656250000,,,
0.3479999995,2,162573.6718750000,154626.3437500000,168920.6093750000,144692.6093750000,145214.8437500000,151662.6093750000,155012.0468750000,165688.3906250000,,,
0.3519999995,2,161829.7343750000,153877.7656250000,168130.9687500000,143947.5000000000,144422.7812500000,150949.8125000000,154249.0000000000,164992.4375000000,,,
0.3559999994,2,160543.5312500000,152575.1406250000,166835.6250000000,142657.2968750000,143124.8437500000,149677.3437500000,152969.9687500000,163717.0781250000,,,
0.3599999994,2,160472.1093750000,152498.2500000000,166796.7031250000,142590.8437500000,143090.1250000000,149585.0468750000,152912.4375000000,163610.1875000000,,,
0.3639999994,2,161720.2812500000,153754.9218750000,168081.6093750000,143841.2500000000,144374.8593750000,150800.8125000000,154167.4375000000,164818.0625000000,,,
0.3679999996,2,162563.9375000000,154600.5625000000,168911.0937500000,144669.0625000000,145202.4218750000,151641.6250000000,155008.9531250000,165666.2812500000,,,
0.3719999995,2,161851.8593750000,153888.0312500000,168159.7031250000,143952.4062500000,144448.9375000000,150966.0937500000,154278.3281250000,164996.6250000000,,,
0.3759999995,2,160575.5000000000,152604.4062500000,166870.3906250000,142681.6875000000,143164.1562500000,149709.3750000000,152994.4062500000,163740.1718750000,,,
0.3799999994,2,160494.9375000000,152517.2343750000,166819.9062500000,142608.4531250000,143118.8281250000,149606.5781250000,152924.8593750000,163626.8906250000,,,
0.3839999994,3,161736.3125000000,153763.3437500000,168102.6250000000,143841.0937500000,144393.0625000000,150815.8906250000,154176.8281250000,164821.0625000000,,,
0.3879999993,3,162579.4687500000,154617.9375000000,168934.1562500000,144673.1406250000,145219.8906250000,151661.2187500000,155006.7656250000,165671.3281250000,,,
0.3919999993,3,161862.4062500000,153900.0468750000,168169.2968750000,143952.9218750000,144456.7656250000,150975.7656250000,154269.4687500000,164999.4687500000,,,
0.3959999993,3,160569.2031250000,152597.2968750000,166858.3906250000,142668.7031250000,143155.5156250000,149700.7031250000,152971.4375000000,163727.7968750000,,,
0.3999999992,3,160485.2031250000,152511.9218750000,166799.7031250000,142589.1718750000,143108.7656250000,149600.5312500000,152897.3281250000,163610.5625000000,,,
0.4039999992,3,161724.2187500000,153757.6562500000,168073.0937500000,143825.0312500000,144376.7343750000,150808.4531250000,154142.8437500000,164807.2343750000,,,
0.4079999994,3,162548.5625000000,154592.5781250000,168891.2343750000,144644.4218750000,145187.6250000000,151633.1250000000,154954.9843750000,165642.6093750000,,,
0.4119999993,3,161823.3750000000,153867.8906250000,168121.6562500000,143919.6250000000,144418.8125000000,150937.0468750000,154211.8906250000,164969.5781250000,,,
0.4159999993,3,160554.0000000000,152587.1562500000,166831.0937500000,142654.3593750000,143133.0937500000,149687.9687500000,152938.4531250000,163718.8906250000,,,
0.4199999992,3,160478.8906250000,152503.0781250000,166789.1406250000,142582.5000000000,143091.5000000000,149594.1406250000,152877.8125000000,163605.3281250000,,,
0.4239999992,3,161717.2187500000,153747.1718750000,168067.3437500000,143817.3593750000,144362.5156250000,150801.6718750000,154123.5625000000,164798.8125000000,,,
0.4279999994,3,162549.2343750000,154588.2812500000,168891.7187500000,144649.8906250000,145181.5625000000,151632.4531250000,154942.6875000000,165642.3281250000,,,
0.4319999993,3,161850.4687500000,153879.6406250000,168138.6093750000,143943.2656250000,144436.4375000000,150961.2343750000,154228.0625000000,164983.7500000000,,,
0.4359999993,3,160578.7187500000,152599.8437500000,166848.3906250000,142671.9687500000,143151.5000000000,149712.6718750000,152953.5468750000,163732.2343750000,,,
0.4399999992,3,160495.7656250000,152515.1718750000,166814.0625000000,142596.8750000000,143112.2656250000,149609.5937500000,152882.7656250000,163617.1406250000,,,
0.4439999992,3,161724.0000000000,153743.4843750000,168084.2500000000,143831.8437500000,144379.6250000000,150793.1093750000,154122.9218750000,164806.0468750000,,,
0.4479999992,3,162569.9218750000,154594.0156250000,168918.9218750000,144672.4218750000,145212.9687500000,151636.7812500000,154956.9218750000,165659.1250000000,,,
0.4519999993,3,161857.5156250000,153882.0781250000,168161.3125000000,143948.4375000000,144460.0625000000,150961.3906250000,154226.9062500000,164992.8593750000,,,
0.4559999993,3,160570.9531250000,152588.2031250000,166856.0312500000,142670.5312500000,143158.6093750000,149695.5000000000,152938.7968750000,163730.0781250000,,,
0.4599999993,3,160476.9062500000,152489.0156250000,166794.6093750000,142586.0937500000,143097.4218750000,149579.8750000000,152857.0781250000,163603.4062500000,,,
0.4639999992,3,161700.1875000000,153716.6093750000,168062.4375000000,143805.1562500000,144357.7968750000,150763.7656250000,154090.1718750000,164781.7187500000,,,
0.4679999992,3,162541.1875000000,154567.2500000000,168894.7031250000,144639.5156250000,145190.4843750000,151602.3906250000,154919.8750000000,165633.7187500000,,,
0.4719999994,3,161842.3437500000,153871.5468750000,168142.9062500000,143935.0781250000,144445.7187500000,150945.5781250000,154194.4531250000,164982.1406250000,,,
0.4759999993,3,160586.6406250000,152599.2031250000,166867.8437500000,142679.7031250000,143173.3906250000,149703.7031250000,152935.5312500000,163739.3906250000,,,
0.4799999993,3,160519.0468750000,152519.8437500000,166827.9531250000,142615.7812500000,143133.9531250000,149608.0312500000,152887.8437500000,163627.5937500000,,,
0.4839999992,3,161747.5000000000,153756.0781250000,168087.6562500000,143833.7968750000,144383.5000000000,150809.6406250000,154119.3281250000,164808.7031250000,,,
0.4879999992,3,162578.7656250000,154607.2500000000,168913.5625000000,144669.1250000000,145209.8281250000,151644.5000000000,154933.3437500000,165658.8593750000,,,
0.4919999992,3,161881.1562500000,153905.3593750000,168173.9062500000,143969.5781250000,144473.3750000000,150980.0625000000,154217.3906250000,165009.5000000000,,,
0.4959999993,3,160610.5625000000,152624.6406250000,166879.5312500000,142701.6718750000,143184.9531250000,149729.7187500000,152948.7031250000,163758.8593750000,,,
0.4999999993,3,160512.8281250000,152522.8750000000,166817.0156250000,142619.7500000000,143129.2968750000,149606.7500000000,152864.5000000000,163633.6250000000,,,
0.5039999993,3,161711.3437500000,153729.3593750000,168061.0937500000,143818.9375000000,144365.8437500000,150772.4062500000,154064.5312500000,164790.8750000000,,,
0.5079999992,3,162549.2187500000,154577.6093750000,168890.7031250000,144653.6406250000,145191.9687500000,151612.2343750000,154887.5312500000,165643.7343750000,,,
0.5119999992,4,161850.6875000000,153878.0312500000,168141.6250000000,143953.5312500000,144451.0312500000,150947.7656250000,154166.5781250000,164991.2343750000,,,
0.5159999991,4,160586.3750000000,152601.5468750000,166851.2343750000,142689.8906250000,143166.9531250000,149701.5625000000,152898.4375000000,163744.0781250000,,,
0.5199999991,4,160510.8906250000,152514.5625000000,166801.1250000000,142613.9062500000,143113.9531250000,149606.4843750000,152836.4687500000,163625.2031250000,,,
0.5239999990,4,161718.6093750000,153724.9531250000,168047.9531250000,143815.4218750000,144353.9843750000,150779.1718750000,154050.1250000000,164787.1093750000,,,
0.5279999990,4,162545.3281250000,154559.3593750000,168870.0468750000,144638.9687500000,145176.2187500000,151597.7500000000,154863.5000000000,165627.7968750000,,,
0.5319999990,4,161851.9218750000,153864.5156250000,168135.0781250000,143939.1875000000,144443.3125000000,150936.5312500000,154148.8750000000,164983.5312500000,,,
0.5359999991,4,160590.6562500000,152601.4843750000,166852.4062500000,142682.7343750000,143168.6093750000,149702.3593750000,152875.3593750000,163746.3125000000,,,
0.5399999991,4,160489.2500000000,152497.7343750000,166780.5625000000,142589.0156250000,143095.5156250000,149584.3437500000,152787.9531250000,163606.9375000000,,,
0.5439999991,4,161686.6093750000,153699.0937500000,168021.1562500000,143788.7656250000,144335.0312500000,150743.9531250000,154005.1406250000,164764.7187500000,,,
0.5479999990,4,162510.7812500000,154531.9218750000,168840.0156250000,144608.2656250000,145149.3125000000,151567.8906250000,154818.0156250000,165598.9687500000,,,
0.5519999990,4,161817.3437500000,153846.6250000000,168099.1093750000,143916.7343750000,144414.0156250000,150910.1875000000,154097.7812500000,164958.4531250000,,,
0.5559999992,4,160579.3437500000,152592.9843750000,166837.2812500000,142676.9687500000,143158.2656250000,149690.2968750000,152860.3437500000,163730.6406250000,,,
0.5599999991,4,160488.2500000000,152490.5781250000,166777.5468750000,142587.0312500000,143097.5625000000,149578.2812500000,152785.1875000000,163600.1250000000,,,
0.5639999991,4,161691.0312500000,153694.7812500000,168019.9843750000,143787.8281250000,144335.4218750000,150741.7968750000,153995.4062500000,164758.3593750000,,,
0.5679999990,4,162527.0312500000,154533.9843750000,168848.7812500000,144615.1562500000,145161.9218750000,151572.2656250000,154817.1718750000,165594.2656250000,,,
0.5719999990,4,161830.4531250000,153842.4375000000,168099.0468750000,143921.2187500000,144423.2656250000,150910.7812500000,154091.4218750000,164949.9531250000,,,
0.5759999990,4,160586.9843750000,152588.0781250000,166828.8125000000,142682.3593750000,143161.8281250000,149689.2187500000,152845.2500000000,163728.9218750000,,,
0.5799999991,4,160488.5468750000,152485.2187500000,166758.8281250000,142589.1250000000,143097.8750000000,149569.6718750000,152765.4218750000,163597.0937500000,,,
0.5839999991,4,161651.3437500000,153648.4375000000,167955.3593750000,143762.5000000000,144302.6718750000,150689.9375000000,153937.3281250000,164724.0312500000,,,
0.5879999991,4,162488.9218750000,154491.0468750000,168790.7187500000,144585.1718750000,145126.8906250000,151525.6718750000,154760.7656250000,165560.3437500000,,,
0.5919999990,4,161829.8437500000,153831.4062500000,168082.7968750000,143917.1093750000,144420.6718750000,150901.0781250000,154082.6250000000,164944.0781250000,,,
0.5959999990,4,160586.3750000000,152578.2343750000,166810.8125000000,142683.5312500000,143160.3281250000,149675.3593750000,152831.0312500000,163721.9062500000,,,
0.5999999992,4,160495.5000000000,152480.2812500000,166745.1562500000,142598.9375000000,143097.8593750000,149562.9531250000,152747.2343750000,163594.8437500000,,,
0.6039999991,4,161681.1406250000,153667.7187500000,167966.3281250000,143778.7031250000,144308.8437500000,150715.1718750000,153936.0468750000,164735.7500000000,,,
0.6079999991,4,162482.5625000000,154481.3906250000,168769.4218750000,144579.3437500000,145106.4062500000,151511.6718750000,154729.0937500000,165553.3593750000,,,
0.6119999990,4,161821.5312500000,153817.5937500000,168061.6562500000,143914.9687500000,144399.2343750000,150883.1562500000,154051.0312500000,164937.7187500000,,,
0.6159999990,4,160583.8281250000,152573.8281250000,166798.7968750000,142672.5937500000,143140.9531250000,149673.2968750000,152804.5781250000,163716.2187500000,,,
0.6199999989,4,160467.2812500000,152458.8437500000,166720.2031250000,142565.2187500000,143066.4687500000,149536.2031250000,152698.1562500000,163570.2187500000,,,
0.6239999991,4,161658.0000000000,153657.9843750000,167955.4218750000,143757.0156250000,144299.0000000000,150694.4687500000,153898.9218750000,164722.9531250000,,,
0.6279999991,4,162502.9687500000,154509.0468750000,168796.8593750000,144600.7500000000,145139.1718750000,151536.5625000000,154739.9062500000,165582.6875000000,,,
0.6319999991,4,161864.5468750000,153865.2968750000,168109.3750000000,143959.9687500000,144454.3281250000,150924.1093750000,154082.4218750000,164978.9218750000,,,
0.6359999990,4,160615.9062500000,152613.2031250000,166828.5625000000,142708.3437500000,143179.9843750000,149704.3281250000,152823.4062500000,163748.9687500000,,,
0.6399999990,5,160505.1562500000,152497.4375000000,166743.5156250000,142597.4062500000,143097.6718750000,149576.6718750000,152719.2031250000,163602.6250000000,,,
0.6439999989,5,161662.0468750000,153657.2343750000,167946.0312500000,143759.6562500000,144298.7812500000,150693.8437500000,153885.9687500000,164724.7500000000,,,
0.6479999989,5,162511.2812500000,154506.0468750000,168790.5468750000,144598.0625000000,145129.8750000000,151535.8125000000,154731.5156250000,165569.6718750000,,,
0.6519999988,5,161855.5156250000,153854.2968750000,168085.3125000000,143937.5781250000,144431.3750000000,150918.7812500000,154051.6562500000,164961.0781250000,,,
0.6559999988,5,160612.5156250000,152605.0000000000,166809.0468750000,142702.6093750000,143174.2187500000,149699.8437500000,152797.0781250000,163741.7187500000,,,
0.6599999988,5,160501.5781250000,152488.4531250000,166731.9218750000,142595.6718750000,143093.6250000000,149567.1093750000,152698.0468750000,163596.4843750000,,,
0.6639999989,5,161643.2343750000,153631.5312500000,167922.7187500000,143742.8437500000,144276.1250000000,150671.5625000000,153850.8125000000,164698.2187500000,,,
0.6679999989,5,162465.5468750000,154463.1875000000,168745.6718750000,144560.8125000000,145095.6250000000,151492.0781250000,154666.5000000000,165529.8125000000,,,
0.6719999989,5,161821.5625000000,153816.6406250000,168052.1093750000,143909.6875000000,144402.2656250000,150879.9062500000,154005.3593750000,164926.4062500000,,,
0.6759999988,5,160602.2968750000,152577.9843750000,166806.8906250000,142692.5781250000,143157.0000000000,149677.4531250000,152781.9218750000,163717.8281250000,,,
0.6799999988,5,160483.8593750000,152452.7812500000,166717.9062500000,142576.7031250000,143070.0937500000,149538.3750000000,152671.6250000000,163566.1718750000,,,
0.6839999990,5,161665.9375000000,153640.0625000000,167936.9843750000,143762.9062500000,144293.0000000000,150682.6406250000,153857.5156250000,164714.0468750000,,,
0.6879999989,5,162529.5312500000,154509.2343750000,168795.6250000000,144618.0781250000,145147.9531250000,151540.5625000000,154711.8750000000,165579.2812500000,,,
0.6919999989,5,161881.4687500000,153863.3125000000,168099.4062500000,143959.8906250000,144449.4687500000,150929.0781250000,154043.1250000000,164968.7031250000,,,
0.6959999988,5,160633.9062500000,152608.9687500000,166824.5937500000,142715.8281250000,143182.7812500000,149705.3125000000,152786.9375000000,163743.4687500000,,,
0.6999999988,5,160508.5312500000,152480.9531250000,166727.9375000000,142598.7500000000,143094.7656250000,149558.6875000000,152669.6406250000,163588.3750000000,,,
0.7039999987,5,161667.9687500000,153645.7500000000,167935.3281250000,143759.5625000000,144294.9062500000,150678.8750000000,153842.8906250000,164708.1250000000,,,
0.7079999989,5,162511.1718750000,154496.5781250000,168782.5781250000,144596.5468750000,145129.7343750000,151515.6406250000,154680.8906250000,165561.5937500000,,,
0.7119999989,5,161866.8281250000,153849.8125000000,168090.4687500000,143951.1406250000,144444.0000000000,150898.9531250000,154013.8281250000,164965.4218750000,,,
0.7159999989,5,160632.2968750000,152609.8593750000,166823.6093750000,142718.5312500000,143189.7968750000,149694.4843750000,152770.6875000000,163748.8593750000,,,
0.7199999988,5,160513.4687500000,152490.8437500000,166730.3125000000,142609.4218750000,143100.2656250000,149560.6875000000,152662.0000000000,163600.7187500000,,,
0.7239999988,5,161646.7812500000,153627.8281250000,167905.2343750000,143745.7500000000,144267.4375000000,150659.9375000000,153805.1875000000,164701.3906250000,,,
0.7279999990,5,162478.6406250000,154466.4843750000,168731.9687500000,144570.9218750000,145088.5937500000,151487.1093750000,154630.6093750000,165541.0625000000,,,
0.7319999989,5,161842.1875000000,153827.0156250000,168050.9843750000,143927.5937500000,144409.7812500000,150875.1093750000,153974.3281250000,164941.4687500000,,,
0.7359999989,5,160608.6406250000,152582.7187500000,166798.0468750000,142695.3906250000,143161.7968750000,149662.0781250000,152730.5781250000,163722.0312500000,,,
0.7399999988,5,160473.1250000000,152443.1250000000,166682.4218750000,142566.5625000000,143055.2656250000,149510.1875000000,152602.7968750000,163553.1875000000,,,
0.7439999988,5,161637.0781250000,153606.1406250000,167883.5312500000,143728.5468750000,144252.2812500000,150635.7812500000,153778.4062500000,164676.2343750000,,,
0.7479999987,5,162489.6093750000,154466.9062500000,168735.8281250000,144575.0625000000,145094.7656250000,151486.1718750000,154624.1718750000,165537.5156250000,,,
0.7519999989,5,161851.5156250000,153828.1718750000,168057.5781250000,143937.3281250000,144422.7656250000,150876.7656250000,153965.2031250000,164945.6875000000,,,
0.7559999989,5,160606.0781250000,152570.2343750000,166786.7500000000,142685.5156250000,143166.0937500000,149649.9531250000,152714.3750000000,163709.8906250000,,,
0.7599999988,5,160476.8281250000,152427.3593750000,166685.6562500000,142560.5312500000,143057.5156250000,149493.7500000000,152603.5468750000,163535.8125000000,,,
0.7639999988,5,161626.7968750000,153579.2343750000,167878.5468750000,143717.4687500000,144244.9062500000,150603.6093750000,153767.5468750000,164649.5468750000,,,
0.7679999988,6,162460.4531250000,154427.6093750000,168702.9218750000,144547.7968750000,145070.1875000000,151438.5312500000,154590.4062500000,165496.8593750000,,,
0.7719999987,6,161832.6250000000,153800.4687500000,168030.4375000000,143915.2343750000,144401.5156250000,150844.2343750000,153939.0312500000,164912.7968750000,,,
0.7759999987,6,160605.5156250000,152565.3281250000,166773.9531250000,142688.9062500000,143148.8125000000,149639.2031250000,152701.6875000000,163707.2031250000,,,
0.7799999986,6,160459.2656250000,152417.5156250000,166663.2656250000,142555.7343750000,143042.5781250000,149468.7968750000,152573.0000000000,163533.5625000000,,,
0.7839999986,6,161602.4687500000,153562.7656250000,167855.6406250000,143702.9687500000,144230.7187500000,150577.2031250000,153730.7500000000,164638.9687500000,,,
0.7879999985,6,162447.1250000000,154424.6875000000,168688.0156250000,144540.7500000000,145058.7187500000,151429.8906250000,154559.0156250000,165491.9375000000,,,
0.7919999987,6,161821.4218750000,153804.4531250000,168017.8906250000,143912.1718750000,144390.4062500000,150834.7968750000,153910.7812500000,164914.4687500000,,,
0.7959999987,6,160603.8281250000,152570.7812500000,166776.2968750000,142689.3593750000,143151.5312500000,149631.9375000000,152699.4375000000,163707.5781250000,,,
0.7999999986,6,160487.9531250000,152443.4843750000,166685.3437500000,142581.1562500000,143068.8281250000,149491.8437500000,152596.6093750000,163556.3750000000,,,
0.8039999986,6,161637.1718750000,153599.3437500000,167877.7187500000,143730.7187500000,144248.0156250000,150610.5156250000,153746.9218750000,164663.7343750000,,,
0.8079999986,6,162469.4687500000,154446.8750000000,168705.9843750000,144561.3281250000,145071.4531250000,151441.3281250000,154564.2968750000,165513.4062500000,,,
0.8119999988,6,161848.0781250000,153825.5937500000,168040.6562500000,143930.5156250000,144403.6093750000,150850.4531250000,153927.5937500000,164933.7812500000,,,
0.8159999987,6,160623.9531250000,152591.5937500000,166794.2968750000,142705.5000000000,143164.0468750000,149650.0937500000,152705.5312500000,163727.1093750000,,,
0.8199999987,6,160469.9687500000,152436.5625000000,166677.5937500000,142568.0937500000,143053.5156250000,149473.4375000000,152569.9375000000,163552.5781250000,,,
0.8239999986,6,161607.9687500000,153576.8125000000,167855.2187500000,143702.4843750000,144224.3906250000,150579.1875000000,153720.5625000000,164645.9687500000,,,
0.8279999986,6,162452.3593750000,154434.7968750000,168686.8281250000,144537.6406250000,145055.3281250000,151427.5156250000,154553.1718750000,165499.1093750000,,,
0.8319999985,6,161847.0312500000,153826.1250000000,168031.6718750000,143928.6406250000,144400.6562500000,150846.0000000000,153929.8281250000,164935.1093750000,,,
0.8359999987,6,160614.1562500000,152582.4218750000,166775.4687500000,142701.8750000000,143153.7812500000,149628.6093750000,152695.1250000000,163720.1562500000,,,
0.8399999987,6,160488.5312500000,152442.2500000000,166680.2500000000,142574.5625000000,143062.5000000000,149477.8906250000,152586.3593750000,163554.7968750000,,,
0.8439999986,6,161656.0937500000,153606.0000000000,167887.1093750000,143741.1562500000,144260.9687500000,150604.8281250000,153765.4062500000,164672.7500000000,,,
0.8479999986,6,162485.2187500000,154443.3906250000,168710.0312500000,144562.7500000000,145083.9218750000,151435.1562500000,154587.9531250000,165505.6718750000,,,
0.8519999986,6,161862.5625000000,153823.7968750000,168046.9687500000,143943.5312500000,144418.4218750000,150844.6875000000,153947.5781250000,164929.3750000000,,,
0.8559999987,6,160649.0312500000,152597.7656250000,166810.6562500000,142728.2500000000,143192.1093750000,149648.3281250000,152731.4687500000,163729.0312500000,,,
0.8599999987,6,160493.7031250000,152436.8281250000,166681.5000000000,142575.2812500000,143057.1406250000,149477.7656250000,152586.0156250000,163542.7812500000,,,
0.8639999987,6,161615.9062500000,153570.3750000000,167840.2187500000,143699.8750000000,144218.8906250000,150572.4531250000,153712.0000000000,164630.3437500000,,,
0.8679999986,6,162472.0468750000,154439.3125000000,168681.3125000000,144555.2343750000,145074.6718750000,151424.4062500000,154561.1093750000,165498.9687500000,,,
0.8719999986,6,161866.9687500000,153828.0937500000,168039.2968750000,143949.1875000000,144427.9062500000,150837.8593750000,153947.2031250000,164934.6562500000,,,
0.8759999985,6,160640.8437500000,152593.6562500000,166803.7656250000,142734.5468750000,143189.4843750000,149631.0000000000,152718.8125000000,163731.2656250000,,,
0.8799999987,6,160475.3750000000,152432.4218750000,166665.7812500000,142582.8906250000,143058.7031250000,149454.2656250000,152562.2656250000,163544.7343750000,,,
0.8839999987,6,161601.4062500000,153564.7187500000,167833.7031250000,143715.0312500000,144228.4062500000,150543.5937500000,153697.4687500000,164638.0312500000,,,
0.8879999986,6,162431.8593750000,154405.8593750000,168655.6562500000,144540.6718750000,145046.4062500000,151373.4843750000,154519.1562500000,165477.3281250000,,,
0.8919999986,6,161820.7500000000,153797.3437500000,167994.9062500000,143924.6406250000,144386.8437500000,150795.9375000000,153885.5625000000,164911.0312500000,,,
0.8959999986,7,160612.6250000000,152578.9062500000,166763.0468750000,142716.4687500000,143159.2031250000,149605.8906250000,152673.4218750000,163717.7187500000,,,
0.8999999985,7,160472.0312500000,152430.0937500000,166658.1406250000,142584.6093750000,143050.5937500000,149440.1875000000,152551.4843750000,163545.2500000000,,,
0.9039999985,7,161575.8125000000,153534.0312500000,167803.8750000000,143686.7343750000,144195.2500000000,150509.1250000000,153666.2187500000,164604.7500000000,,,
0.9079999984,7,162427.6250000000,154395.3281250000,168646.7343750000,144535.7656250000,145043.2656250000,151360.3750000000,154507.5468750000,165465.6875000000,,,
0.9119999984,7,161828.9843750000,153796.4843750000,167989.0468750000,143927.9687500000,144385.5000000000,150792.8125000000,153887.6875000000,164913.3906250000,,,
0.9159999983,7,160618.4687500000,152577.2343750000,166756.4687500000,142715.0312500000,143158.5312500000,149602.1093750000,152671.5000000000,163716.5937500000,,,
0.9199999985,7,160459.3125000000,152411.4531250000,166630.0625000000,142567.6875000000,143031.0468750000,149420.4062500000,152525.7187500000,163529.1562500000,,,
0.9239999985,7,161569.7968750000,153521.5937500000,167782.5468750000,143675.5156250000,144177.0937500000,150491.6562500000,153649.2343750000,164599.7656250000,,,
0.9279999984,7,162404.5000000000,154365.0156250000,168609.0937500000,144502.9375000000,144999.8906250000,151326.6250000000,154472.9687500000,165442.8593750000,,,
0.9319999984,7,161809.7187500000,153775.7812500000,167974.4062500000,143911.0937500000,144370.1406250000,150763.3437500000,153859.7968750000,164897.5625000000,,,
0.9359999984,7,160615.0156250000,152565.2500000000,166759.2812500000,142714.6250000000,143158.4531250000,149582.1250000000,152669.1093750000,163713.9062500000,,,
0.9399999985,7,160459.8750000000,152400.0312500000,166623.5625000000,142565.0312500000,143036.2500000000,149409.0937500000,152530.5625000000,163525.4062500000,,,
0.9439999985,7,161583.7031250000,153526.1718750000,167794.1093750000,143681.0000000000,144192.6875000000,150503.9687500000,153660.4531250000,164601.0937500000,,,
0.9479999985,7,162422.6875000000,154374.1875000000,168624.9843750000,144518.5156250000,145013.5468750000,151342.4531250000,154486.8593750000,165450.1562500000,,,
0.9519999984,7,161822.3125000000,153777.8750000000,167982.1875000000,143921.9687500000,144375.2656250000,150771.9843750000,153868.0781250000,164895.5312500000,,,
0.9559999984,7,160614.3125000000,152562.4062500000,166753.6250000000,142717.4687500000,143153.7187500000,149584.5625000000,152654.6250000000,163705.3750000000,,,
0.9599999983,7,160450.9531250000,152395.4687500000,166615.6093750000,142555.3750000000,143018.4375000000,149405.5000000000,152501.6875000000,163511.7500000000,,,
0.9639999985,7,161549.0156250000,153501.3906250000,167758.8593750000,143658.0156250000,144156.4687500000,150469.6406250000,153610.2343750000,164574.9843750000,,,
0.9679999985,7,162371.3593750000,154328.4062500000,168585.2812500000,144476.0781250000,144971.5156250000,151283.0000000000,154428.2343750000,165399.7500000000,,,
0.9719999984,7,161777.7500000000,153732.2187500000,167945.5781250000,143882.7031250000,144337.7031250000,150716.8593750000,153817.5468750000,164849.2812500000,,,
0.9759999984,7,160585.0312500000,152536.1250000000,166719.1562500000,142688.5468750000,143123.5312500000,149550.9531250000,152613.5000000000,163675.5468750000,,,
0.9799999984,7,160463.3906250000,152404.5312500000,166618.6250000000,142560.1875000000,143025.4375000000,149412.8437500000,152503.1562500000,163514.6718750000,,,
0.9839999985,7,161626.5781250000,153564.8593750000,167824.4687500000,143720.6875000000,144223.2343750000,150538.4062500000,153680.6406250000,164633.8437500000,,,
0.9879999985,7,162465.8281250000,154410.2656250000,168663.1718750000,144557.9375000000,145054.3125000000,151370.2656250000,154513.6093750000,165481.0781250000,,,
0.9919999985,7,161859.7187500000,153807.0937500000,168013.5625000000,143950.2656250000,144404.4062500000,150793.7656250000,153889.0000000000,164915.1406250000,,,
0.9959999984,7,160639.1093750000,152580.9218750000,166761.7500000000,142731.2812500000,143162.9531250000,149600.9843750000,152657.6562500000,163716.1562500000,,,
0.9999999984,7,160453.3906250000,152387.8437500000,166608.8125000000,142546.4687500000,143012.7968750000,149395.9531250000,152482.9531250000,163502.7968750000,,,
1.0039999983,7,161552.8437500000,153482.8125000000,167748.8593750000,143642.5312500000,144147.3437500000,150454.7500000000,153595.0781250000,164553.6562500000,,,
1.0079999985,7,162390.9843750000,154333.1406250000,168570.6718750000,144484.2031250000,144976.6562500000,151287.5000000000,154424.2343750000,165405.0937500000,,,
1.0119999985,7,161823.0312500000,153771.0625000000,167959.1718750000,143907.0781250000,144364.1250000000,150754.7343750000,153839.0781250000,164882.2187500000,,,
1.0159999984,7,160630.5156250000,152571.9218750000,166753.9218750000,142714.5937500000,143151.7187500000,149585.9531250000,152647.1875000000,163708.2500000000,,,
1.0199999984,7,160464.0937500000,152400.8281250000,166620.5312500000,142559.7500000000,143024.8125000000,149401.9531250000,152493.0468750000,163517.4843750000,33029,1.0218895702,0.0000000000
1.0239999983,8,161582.5625000000,153517.8906250000,167777.7812500000,143679.7343750000,144178.9218750000,150484.5312500000,153622.2031250000,164587.4531250000,,,
1.0279999983,8,162427.1406250000,154372.3125000000,168619.3125000000,144515.7812500000,145011.1093750000,151327.5156250000,154459.6718750000,165436.8437500000,,,
1.0319999983,8,161845.3125000000,153794.1250000000,167991.4687500000,143931.2500000000,144382.0468750000,150778.0156250000,153857.7187500000,164895.6406250000,,,
1.0359999982,8,160641.1093750000,152584.8281250000,166758.4218750000,142724.9687500000,143157.9375000000,149598.4375000000,152643.2500000000,163711.1406250000,,,
1.0399999982,8,160465.4843750000,152402.5468750000,166612.2500000000,142551.2968750000,143009.9062500000,149404.0468750000,152479.7656250000,163502.9531250000,,,
1.0439999981,8,161554.5937500000,153492.6718750000,167747.7031250000,143646.0156250000,144143.2187500000,150455.6093750000,153586.4687500000,164554.3281250000,,,
1.0479999983,8,162409.1406250000,154359.7343750000,168605.4843750000,144499.3437500000,144993.5937500000,151305.2500000000,154439.3125000000,165422.5312500000,,,
1.0519999983,8,161838.9687500000,153789.8437500000,167990.7187500000,143927.0625000000,144380.8906250000,150761.2812500000,153849.2968750000,164894.1875000000,,,
1.0559999982,8,160636.2031250000,152573.7187500000,166765.8593750000,142725.0625000000,143162.3437500000,149576.2031250000,152642.6562500000,163710.3906250000,,,
1.0599999982,8,160453.3281250000,152386.0000000000,166607.1250000000,142545.4218750000,143005.1093750000,149380.5625000000,152471.0312500000,163490.5625000000,,,
1.0639999982,8,161533.1875000000,153468.1875000000,167725.1562500000,143622.6250000000,144124.8750000000,150425.2968750000,153562.3281250000,164524.8750000000,,,
1.0679999983,8,162373.3906250000,154322.2343750000,168566.5625000000,144462.9375000000,144967.5468750000,151265.2968750000,154392.8593750000,165378.5937500000,,,
1.0719999983,8,161823.3593750000,153771.5000000000,167970.4687500000,143907.9843750000,144356.9375000000,150748.4531250000,153826.2656250000,164868.0937500000,,,
1.0759999983,8,160639.4531250000,152582.8437500000,166754.7812500000,142724.0937500000,143150.9843750000,149589.0468750000,152636.8437500000,163703.0468750000,,,
1.0799999982,8,160457.4843750000,152395.0312500000,166602.5937500000,142550.6875000000,143004.5156250000,149388.6875000000,152469.0937500000,163493.7031250000,,,
1.0839999982,8,161545.2656250000,153486.5156250000,167730.2812500000,143641.4375000000,144130.1093750000,150444.9687500000,153569.7031250000,164546.9218750000,,,
1.0879999981,8,162397.9687500000,154347.4375000000,168574.5468750000,144493.8437500000,144977.3906250000,151292.4687500000,154416.0000000000,165408.2031250000,,,
1.0919999983,8,161827.2968750000,153773.5625000000,167964.3437500000,143920.2500000000,144360.6406250000,150744.8281250000,153830.1250000000,164877.5312500000,,,
1.0959999983,8,160632.1250000000,152570.8593750000,166751.4531250000,142728.1718750000,143151.1250000000,149568.1250000000,152631.4687500000,163700.3281250000,,,
1.0999999982,8,160440.8125000000,152369.9843750000,166581.7187500000,142529.5781250000,142989.9218750000,149364.5625000000,152449.8125000000,163466.7343750000,,,
1.1039999982,8,161497.7031250000,153425.8125000000,167680.0937500000,143589.2343750000,144083.1406250000,150387.5625000000,153519.3593750000,164486.4687500000,,,
1.1079999981,8,162344.2343750000,154279.0000000000,168525.6093750000,144435.5781250000,144924.8906250000,151224.6875000000,154358.7968750000,165340.7187500000,,,
1.1119999983,8,161810.3906250000,153749.2812500000,167950.6406250000,143900.7812500000,144349.1562500000,150717.6093750000,153805.1875000000,164849.2343750000,,,
1.1159999983,8,160624.6250000000,152560.0781250000,166743.9218750000,142719.5000000000,143149.5156250000,149559.8906250000,152613.1562500000,163688.5000000000,,,
1.1199999982,8,160431.1250000000,152363.7968750000,166578.2343750000,142534.1406250000,142987.0781250000,149354.1093750000,152430.0937500000,163470.0937500000,,,
1.1239999982,8,161498.0000000000,153436.6250000000,167688.7812500000,143604.7968750000,144096.5781250000,150386.5156250000,153513.7812500000,164503.9218750000,,,
1.1279999982,8,162362.3906250000,154313.3593750000,168550.0625000000,144464.7031250000,144950.7812500000,151249.5781250000,154377.1562500000,165379.1093750000,,,
1.1319999981,8,161825.1562500000,153779.0000000000,167971.3750000000,143924.4062500000,144370.8593750000,150740.7343750000,153823.7968750000,164884.5000000000,,,
1.1359999983,8,160629.7656250000,152578.3593750000,166752.5781250000,142734.4218750000,143160.5937500000,149564.9062500000,152620.5000000000,163712.3437500000,,,
1.1399999983,8,160441.9062500000,152382.7187500000,166594.0312500000,142557.0937500000,143004.8906250000,149354.3750000000,152442.6718750000,163498.1250000000,,,
1.1439999982,8,161510.8750000000,153446.0937500000,167698.8437500000,143624.8281250000,144113.5781250000,150386.6250000000,153525.7187500000,164520.4687500000,,,
1.1479999982,8,162354.3437500000,154299.6250000000,168531.2968750000,144450.2031250000,144936.1093750000,151235.5468750000,154360.7187500000,165354.8750000000,,,
1.1519999981,9,161806.8593750000,153764.2500000000,167943.7187500000,143902.2812500000,144343.9843750000,150723.6406250000,153793.6250000000,164855.2968750000,,,
1.1559999981,9,160630.7656250000,152580.1406250000,166743.9531250000,142734.7343750000,143155.3906250000,149563.6718750000,152613.3750000000,163705.0000000000,,,
1.1599999981,9,160451.8593750000,152380.8750000000,166595.4375000000,142557.4375000000,143008.5625000000,149358.1093750000,152456.9687500000,163487.7968750000,,,
1.1639999980,9,161517.2343750000,153450.8125000000,167703.2031250000,143622.9218750000,144110.3125000000,150390.4062500000,153535.1875000000,164511.9375000000,,,
1.1679999980,9,162356.2187500000,154300.3437500000,168539.1250000000,144459.4843750000,144942.8593750000,151227.6875000000,154367.4062500000,165363.5156250000,,,
1.1719999979,9,161816.6250000000,153762.3750000000,167954.0000000000,143920.1718750000,144360.5000000000,150719.1093750000,153809.3125000000,164867.3906250000,,,
1.1759999981,9,160635.9843750000,152578.0937500000,166747.2656250000,142745.4062500000,143163.1718750000,149561.9062500000,152621.7656250000,163708.4062500000,,,
1.1799999981,9,160453.5000000000,152390.7500000000,166585.4218750000,142569.3281250000,143017.5312500000,149364.8906250000,152454.0937500000,163498.3906250000,,,
1.1839999980,9,161532.0156250000,153469.4687500000,167719.7343750000,143646.2812500000,144138.1250000000,150409.3750000000,153545.8593750000,164534.6562500000,,,
1.1879999980,9,162370.2812500000,154311.0781250000,168565.7500000000,144479.0937500000,144968.0781250000,151238.7343750000,154382.1250000000,165377.6875000000,,,
1.1919999979,9,161846.4531250000,153781.9062500000,167992.9687500000,143949.0625000000,144399.3125000000,150734.7187500000,153843.5937500000,164892.3281250000,,,
1.1959999981,9,160680.8437500000,152605.3750000000,166790.9687500000,142779.1250000000,143207.8750000000,149590.1093750000,152669.0000000000,163740.6718750000,,,
1.1999999981,9,160471.8593750000,152390.5000000000,166602.4062500000,142569.7343750000,143022.4062500000,149365.2968750000,152467.5312500000,163495.8125000000,,,
1.2039999980,9,161509.7187500000,153429.6250000000,167685.0468750000,143609.1875000000,144103.0468750000,150366.5625000000,153518.1562500000,164499.1250000000,,,
1.2079999980,9,162369.7187500000,154296.8906250000,168540.0000000000,144463.9843750000,144954.3437500000,151225.9687500000,154369.7343750000,165363.8125000000,,,
1.2119999980,9,161849.6875000000,153787.6406250000,167970.4375000000,143938.7812500000,144386.9062500000,150743.2812500000,153829.0781250000,164886.4843750000,,,
1.2159999979,9,160671.7656250000,152605.5156250000,166767.6562500000,142765.7656250000,143190.3906250000,149586.5000000000,152648.2656250000,163731.9843750000,,,
1.2199999981,9,160469.9843750000,152396.6718750000,166594.1093750000,142567.9843750000,143020.4531250000,149366.1250000000,152462.0625000000,163498.7343750000,,,
1.2239999981,9,161504.6718750000,153438.9843750000,167674.3750000000,143605.2031250000,144091.9375000000,150371.9218750000,153505.2031250000,164495.1562500000,,,
1.2279999980,9,162360.8593750000,154308.7343750000,168530.1875000000,144463.3750000000,144943.8125000000,151227.8125000000,154356.2187500000,165364.0625000000,,,
1.2319999980,9,161850.8125000000,153798.2343750000,167978.4843750000,143947.3593750000,144387.4375000000,150745.9687500000,153837.3906250000,164896.6562500000,,,
1.2359999979,9,160674.7031250000,152616.1250000000,166778.3906250000,142776.0156250000,143196.7812500000,149591.5156250000,152661.1406250000,163742.5312500000,,,
1.2399999981,9,160470.7187500000,152400.6718750000,166605.7812500000,142582.8437500000,143030.3906250000,149366.3593750000,152470.7500000000,163501.5312500000,,,
1.2439999981,9,161503.7656250000,153436.0000000000,167680.8906250000,143618.8437500000,144100.6875000000,150366.4843750000,153512.8281250000,164499.9218750000,,,
1.2479999980,9,162342.6562500000,154282.2343750000,168512.4375000000,144444.0625000000,144923.1562500000,151206.4687500000,154345.0000000000,165340.4062500000,,,
1.2519999980,9,161826.5937500000,153769.8281250000,167956.4843750000,143923.1718750000,144365.2187500000,150718.1250000000,153815.6093750000,164861.3593750000,,,
1.2559999980,9,160665.9218750000,152598.7031250000,166769.2968750000,142766.7343750000,143186.6562500000,149577.1093750000,152648.9687500000,163719.5625000000,,,
1.2599999979,9,160457.7031250000,152383.2656250000,166576.5468750000,142564.1250000000,143008.8125000000,149349.2031250000,152449.6718750000,163484.0625000000,,,
1.2639999981,9,161508.5937500000,153436.5937500000,167684.0625000000,143619.0156250000,144103.6875000000,150362.1406250000,153511.1093750000,164500.2500000000,,,
1.2679999981,9,162383.7500000000,154312.7031250000,168558.2500000000,144483.3281250000,144962.5000000000,151228.4843750000,154388.4843750000,165378.2187500000,,,
1.2719999980,9,161886.1093750000,153809.6562500000,168016.6562500000,143983.0312500000,144423.5937500000,150751.2500000000,153875.5156250000,164917.7656250000,,,
1.2759999980,9,160703.7500000000,152620.0781250000,166809.3906250000,142805.0312500000,143225.4531250000,149582.9531250000,152684.9375000000,163759.5781250000,,,
1.2799999979,10,160476.0000000000,152392.0937500000,166602.6406250000,142578.0468750000,143021.2500000000,149351.5312500000,152465.3906250000,163501.0468750000,,,
1.2839999979,10,161513.8750000000,153437.8750000000,167682.6875000000,143607.7500000000,144091.4062500000,150370.1562500000,153514.7031250000,164494.7187500000,,,
1.2879999978,10,162385.6250000000,154312.4218750000,168550.2812500000,144472.5468750000,144953.2968750000,151237.1250000000,154380.7031250000,165367.0937500000,,,
1.2919999978,10,161864.0625000000,153795.4218750000,167978.3593750000,143948.4062500000,144389.2343750000,150744.6718750000,153837.5625000000,164892.1406250000,,,
1.2959999978,10,160681.3281250000,152608.7812500000,166765.1406250000,142770.3906250000,143186.7968750000,149586.3906250000,152645.7187500000,163731.7500000000,,,
1.2999999977,10,160450.5937500000,152372.5937500000,166567.6093750000,142555.0312500000,142995.9062500000,149338.2031250000,152425.2187500000,163478.9218750000,,,
1.3039999979,10,161519.0000000000,153442.8437500000,167679.3437500000,143623.2968750000,144106.1250000000,150374.2656250000,153510.9218750000,164506.2343750000,,,
1.3079999979,10,162399.4375000000,154332.6718750000,168557.8750000000,144497.3593750000,144979.2656250000,151253.6562500000,154389.9531250000,165388.9531250000,,,
1.3119999978,10,161871.9218750000,153810.0312500000,167988.9218750000,143969.5468750000,144412.3593750000,150756.4218750000,153846.8906250000,164905.9843750000,,,
1.3159999978,10,160699.5312500000,152628.7968750000,166791.5000000000,142803.8906250000,143220.2187500000,149605.3593750000,152667.9531250000,163756.4687500000,,,
1.3199999977,10,160477.4531250000,152400.8593750000,166598.8906250000,142592.0937500000,143035.0625000000,149362.9531250000,152459.6562500000,163510.9375000000,,,
1.3239999979,10,161497.0937500000,153428.5781250000,167662.0625000000,143618.2031250000,144098.2968750000,150352.0312500000,153492.5937500000,164499.0156250000,,,
1.3279999979,10,162340.8593750000,154289.7500000000,168504.6875000000,144465.1093750000,144939.7500000000,151198.8593750000,154326.9531250000,165352.5468750000,,,
1.3319999978,10,161840.2968750000,153788.1562500000,167966.7656250000,143962.1093750000,144395.0312500000,150725.3593750000,153814.6562500000,164893.3750000000,,,
1.3359999978,10,160692.8593750000,152626.0000000000,166798.5312500000,142811.5312500000,143225.3750000000,149590.3593750000,152669.2968750000,163757.7343750000,,,
1.3399999978,10,160485.0312500000,152410.0625000000,166614.9531250000,142598.5937500000,143042.4687500000,149369.8593750000,152472.9843750000,163514.4062500000,,,
1.3439999977,10,161529.8437500000,153458.0312500000,167696.8593750000,143647.3125000000,144128.4218750000,150384.9062500000,153529.5625000000,164522.7031250000,,,
1.3479999979,10,162386.1562500000,154322.8437500000,168547.0625000000,144503.5468750000,144979.9843750000,151236.5312500000,154382.5000000000,165382.5156250000,,,
1.3519999979,10,161874.6562500000,153816.9062500000,167994.5312500000,143984.9218750000,144419.7500000000,150754.2500000000,153854.0781250000,164910.8437500000,,,
1.3559999978,10,160694.5937500000,152633.4531250000,166797.4531250000,142801.3125000000,143219.3906250000,149599.3750000000,152666.8281250000,163747.5625000000,,,
1.3599999978,10,160469.2187500000,152400.8281250000,166594.6562500000,142578.5781250000,143024.8750000000,149362.2031250000,152455.4062500000,163490.0000000000,,,
1.3639999977,10,161496.4375000000,153425.7500000000,167666.5468750000,143611.0156250000,144092.4531250000,150353.6875000000,153497.1093750000,164484.1562500000,,,
1.3679999979,10,162367.4375000000,154301.3906250000,168538.5312500000,144477.7187500000,144955.2343750000,151215.3437500000,154368.1562500000,165359.0625000000,,,
1.3719999979,10,161873.0468750000,153810.7031250000,168001.2031250000,143983.9218750000,144419.0781250000,150748.7187500000,153857.0000000000,164909.0468750000,,,
1.3759999978,10,160701.1718750000,152632.8437500000,166802.0156250000,142812.5468750000,143229.0937500000,149598.9218750000,152677.6875000000,163758.1406250000,,,
1.3799999978,10,160468.6250000000,152390.3437500000,166597.3593750000,142581.0468750000,143028.0937500000,149350.1406250000,152457.6875000000,163494.6875000000,,,
1.3839999977,10,161484.6093750000,153413.7187500000,167655.9218750000,143600.9531250000,144084.1093750000,150335.8281250000,153485.7500000000,164474.5312500000,,,
1.3879999977,10,162348.1875000000,154290.9531250000,168524.0937500000,144467.2031250000,144944.5312500000,151196.7343750000,154345.6718750000,165350.8593750000,,,
1.3919999979,10,161853.4531250000,153801.3750000000,167987.9062500000,143975.8281250000,144410.4687500000,150730.4062500000,153834.6093750000,164903.4687500000,,,
1.3959999979,10,160675.0937500000,152617.6875000000,166784.2343750000,142806.4843750000,143215.3906250000,149572.7656250000,152652.9531250000,163749.6406250000,,,
1.3999999978,10,160447.7343750000,152383.5000000000,166579.3437500000,142581.6406250000,143014.5781250000,149334.1250000000,152436.9531250000,163492.7343750000,,,
1.4039999978,10,161481.1875000000,153419.3437500000,167656.4062500000,143616.1093750000,144087.4531250000,150335.3906250000,153481.6250000000,164483.5156250000,,,
1.4079999977,11,162345.9062500000,154291.3906250000,168521.5781250000,144480.2656250000,144946.7031250000,151195.6562500000,154339.2031250000,165345.9843750000,,,
1.4119999977,11,161867.1250000000,153808.7031250000,167994.4375000000,143993.9531250000,144417.7968750000,150738.3125000000,153847.9843750000,164902.6093750000,,,
1.4159999976,11,160706.6718750000,152638.7500000000,166810.3906250000,142830.7656250000,143239.3906250000,149595.5156250000,152688.9531250000,163758.0000000000,,,
1.4199999976,11,160468.6250000000,152396.5468750000,166600.0781250000,142597.7500000000,143032.8906250000,149340.8906250000,152461.2812500000,163494.8281250000,,,
1.4239999976,11,161485.9531250000,153414.5156250000,167659.3906250000,143619.0625000000,144093.7031250000,150319.4062500000,153488.8437500000,164476.1093750000,,,
1.4279999975,11,162362.5625000000,154298.0156250000,168528.6093750000,144485.1250000000,144959.9843750000,151196.0312500000,154357.4531250000,165352.2031250000,,,
1.4319999977,11,161871.0937500000,153814.7031250000,167987.2812500000,143990.2812500000,144422.6250000000,150738.3125000000,153843.5625000000,164901.1562500000,,,
1.4359999977,11,160705.3281250000,152642.5312500000,166785.1406250000,142820.3593750000,143232.0781250000,149596.6406250000,152670.6406250000,163754.1093750000,,,
1.4399999976,11,160471.5468750000,152396.4531250000,166595.8906250000,142589.4375000000,143032.0000000000,149339.5468750000,152454.4531250000,163490.8750000000,,,
1.4439999976,11,161503.7187500000,153425.7812500000,167673.3906250000,143610.3437500000,144096.8125000000,150340.2187500000,153506.5937500000,164473.4531250000,,,
1.4479999975,11,162357.7500000000,154294.3125000000,168519.9687500000,144460.0156250000,144940.8750000000,151193.8437500000,154351.5156250000,165338.7968750000,,,
1.4519999977,11,161879.8906250000,153813.5312500000,167999.3750000000,143977.8906250000,144418.5000000000,150738.9843750000,153858.6406250000,164896.3593750000,,,
1.4559999977,11,160713.1875000000,152641.1875000000,166808.2343750000,142814.0468750000,143234.1093750000,149595.6718750000,152685.6875000000,163751.3750000000,,,
1.4599999976,11,160468.7031250000,152394.1250000000,166585.5937500000,142576.1718750000,143016.0156250000,149338.9218750000,152451.3906250000,163485.4687500000,,,
1.4639999976,11,161493.8906250000,153419.5312500000,167649.8281250000,143596.8281250000,144075.9843750000,150324.9687500000,153490.4531250000,164471.2500000000,,,
1.4679999975,11,162350.5937500000,154285.1562500000,168512.1718750000,144447.4062500000,144926.6875000000,151176.2656250000,154346.9687500000,165332.4843750000,,,
1.4719999975,11,161865.0000000000,153804.2968750000,167991.1406250000,143966.8125000000,144399.9375000000,150720.2187500000,153847.1250000000,164892.6093750000,,,
1.4759999977,11,160690.9843750000,152627.8281250000,166793.0312500000,142805.8906250000,143210.8906250000,149569.4062500000,152668.1718750000,163741.7968750000,,,
1.4799999977,11,160445.2812500000,152372.7968750000,166570.8281250000,142569.3281250000,142997.5156250000,149307.7812500000,152435.6406250000,163467.3593750000,,,
1.4839999976,11,161469.0312500000,153398.5781250000,167632.7031250000,143597.4218750000,144064.3125000000,150303.5781250000,153469.6718750000,164451.5625000000,,,
1.4879999976,11,162359.2812500000,154307.9375000000,168521.6875000000,144487.6406250000,144950.7187500000,151197.2968750000,154356.0781250000,165356.5468750000,,,
1.4919999975,11,161880.0781250000,153835.4062500000,168003.2500000000,144006.6093750000,144431.3125000000,150746.5312500000,153864.1093750000,164922.2968750000,,,
1.4959999977,11,160706.0000000000,152654.2656250000,166804.2968750000,142836.5000000000,143233.0312500000,149589.0937500000,152683.8593750000,163771.6250000000,,,
1.4999999977,11,160449.6562500000,152385.4062500000,166572.0468750000,142587.2187500000,143006.4531250000,149310.0937500000,152439.0468750000,163486.3281250000,,,
1.5039999976,11,161460.9843750000,153398.1875000000,167618.4531250000,143602.7343750000,144057.2031250000,150290.0625000000,153457.0312500000,164458.7031250000,,,
1.5079999976,11,162352.5000000000,154292.5625000000,168512.6406250000,144478.2031250000,144940.5312500000,151171.4062500000,154351.1406250000,165346.2187500000,,,
1.5119999975,11,161892.6093750000,153833.5312500000,168013.2187500000,144007.0468750000,144434.2968750000,150738.2968750000,153878.9218750000,164921.8125000000,,,
1.5159999975,11,160722.2031250000,152662.6875000000,166809.0937500000,142839.7500000000,143240.5000000000,149597.2500000000,152694.6406250000,163775.8593750000,,,
1.5199999977,11,160499.4375000000,152434.5781250000,166617.9062500000,142625.2500000000,143053.6562500000,149357.4687500000,152486.2343750000,163528.2656250000,,,
1.5239999976,11,161533.4843750000,153460.7031250000,167693.4218750000,143651.2968750000,144122.7812500000,150352.5312500000,153535.5156250000,164513.4218750000,,,
1.5279999976,11,162406.5937500000,154347.9843750000,168562.1562500000,144517.7343750000,144987.8437500000,151227.7656250000,154400.7343750000,165390.7500000000,,,
1.5319999976,11,161894.3750000000,153844.5312500000,168011.0156250000,144013.1250000000,144437.8125000000,150749.0468750000,153872.4218750000,164926.3125000000,,,
1.5359999975,12,160706.1562500000,152655.5625000000,166797.5312500000,142833.1250000000,143233.7031250000,149589.0468750000,152679.8906250000,163766.3437500000,,,
1.5399999975,12,160459.1562500000,152401.9375000000,166575.9062500000,142588.9843750000,143019.2968750000,149325.8593750000,152445.5468750000,163492.9687500000,,,
1.5439999974,12,161492.3906250000,153434.5000000000,167651.5000000000,143625.2343750000,144089.5156250000,150319.7812500000,153490.6718750000,164488.3750000000,,,
1.5479999974,12,162359.9843750000,154304.5781250000,168527.0781250000,144484.5000000000,144947.1875000000,151177.4687500000,154358.2812500000,165356.8750000000,,,
1.5519999973,12,161898.7812500000,153843.9687500000,168023.5937500000,144014.7656250000,144437.4531250000,150746.3125000000,153884.2343750000,164929.1562500000,,,
1.5559999973,12,160724.8750000000,152666.6875000000,166817.4843750000,142846.9062500000,143243.7656250000,149598.6718750000,152703.0312500000,163778.2031250000,,,
1.5599999975,12,160466.9843750000,152407.6718750000,166584.7500000000,142598.6093750000,143019.4062500000,149327.9375000000,152456.9218750000,163501.2031250000,,,
1.5639999975,12,161485.5781250000,153427.6406250000,167643.5312500000,143617.0468750000,144079.4375000000,150307.8281250000,153486.3437500000,164481.9843750000,,,
1.5679999974,12,162383.2031250000,154327.8437500000,168537.7343750000,144500.8593750000,144967.8437500000,151196.7656250000,154383.4687500000,165373.0937500000,,,
1.5719999974,12,161916.3125000000,153859.0625000000,168040.7187500000,144030.2968750000,144456.8281250000,150756.5000000000,153907.5937500000,164938.5000000000,,,
1.5759999973,12,160730.4843750000,152670.3437500000,166828.8437500000,142853.9687500000,143253.7187500000,149595.9843750000,152716.9062500000,163778.6875000000,,,
1.5799999975,12,160469.5625000000,152402.2187500000,166592.0781250000,142599.2343750000,143024.9531250000,149320.5468750000,152466.4375000000,163493.1875000000,,,
1.5839999975,12,161471.6562500000,153408.2343750000,167628.6718750000,143599.8906250000,144060.3593750000,150293.8281250000,153474.8437500000,164456.9375000000,,,
1.5879999974,12,162343.5468750000,154288.5625000000,168503.7968750000,144468.9687500000,144930.9375000000,151159.2343750000,154345.8281250000,165333.7968750000,,,
1.5919999974,12,161868.4062500000,153814.7500000000,167991.2812500000,143990.5468750000,144414.5468750000,150711.0625000000,153859.1406250000,164897.9218750000,,,
1.5959999973,12,160692.3906250000,152636.6562500000,166789.0000000000,142821.0468750000,143218.9062500000,149561.0937500000,152678.4687500000,163745.1250000000,,,
1.5999999973,12,160452.5312500000,152387.1562500000,166573.9218750000,142582.9843750000,143008.2187500000,149305.3437500000,152451.0625000000,163474.4375000000,,,
1.6039999975,12,161483.6562500000,153419.3750000000,167650.0000000000,143610.0000000000,144074.6875000000,150305.2500000000,153499.9687500000,164463.9843750000,,,
1.6079999974,12,162333.9062500000,154283.5312500000,168498.7812500000,144457.5156250000,144919.7187500000,151154.5468750000,154348.1406250000,165324.5781250000,,,
1.6119999974,12,161864.7656250000,153816.2812500000,167990.1562500000,143988.4218750000,144411.8125000000,150708.2031250000,153868.2187500000,164899.3593750000,,,
1.6159999974,12,160699.2968750000,152641.1093750000,166803.4687500000,142822.5312500000,143222.1718750000,149562.2187500000,152699.0625000000,163751.1562500000,,,
1.6199999973,12,160432.3906250000,152367.6562500000,166559.4843750000,142553.1250000000,142974.3437500000,149288.1875000000,152440.5781250000,163449.6250000000,,,
1.6239999975,12,161442.4843750000,153372.6718750000,167609.4375000000,143558.7656250000,144020.7968750000,150260.2187500000,153465.2656250000,164414.0937500000,,,
1.6279999975,12,162298.2343750000,154234.4375000000,168461.0625000000,144411.3125000000,144870.3125000000,151102.4843750000,154314.3125000000,165276.7500000000,,,
1.6319999974,12,161821.7500000000,153760.8125000000,167936.7968750000,143934.5156250000,144352.4375000000,150648.9531250000,153821.1406250000,164840.6562500000,,,
1.6359999974,12,160651.4687500000,152587.8593750000,166741.3125000000,142767.8437500000,143161.9062500000,149500.3125000000,152645.7968750000,163695.8593750000,,,
1.6399999973,12,160393.0625000000,152321.5468750000,166515.0156250000,142521.2031250000,142941.0468750000,149221.2343750000,152401.8750000000,163415.1562500000,,,
1.6439999973,12,161417.2656250000,153342.3906250000,167587.9843750000,143552.4062500000,144008.2812500000,150204.6875000000,153442.5781250000,164400.2812500000,,,
1.6479999975,12,162326.3125000000,154263.7812500000,168501.8125000000,144461.3593750000,144915.6093750000,151113.0156250000,154350.2656250000,165315.1093750000,,,
1.6519999974,12,161873.0000000000,153823.7656250000,168003.4375000000,144005.7031250000,144419.5156250000,150699.2031250000,153876.9843750000,164907.5781250000,,,
1.6559999974,12,160703.1875000000,152642.5468750000,166809.6562500000,142824.2656250000,143220.9218750000,149553.5312500000,152706.5156250000,163748.7968750000,,,
1.6599999974,12,160446.8437500000,152375.3437500000,166583.2031250000,142570.3125000000,142993.1093750000,149278.6250000000,152466.4843750000,163463.6875000000,,,
1.6639999973,13,161471.7187500000,153400.3593750000,167645.2812500000,143594.6875000000,144058.4062500000,150267.2656250000,153502.0625000000,164447.0156250000,,,
1.6679999973,13,162356.9218750000,154294.9531250000,168524.9843750000,144482.3125000000,144942.1093750000,151145.6875000000,154377.6250000000,165335.0312500000,,,
1.6719999972,13,161898.6406250000,153840.5312500000,168024.1093750000,144014.6875000000,144435.9843750000,150716.3281250000,153902.2187500000,164913.7187500000,,,
1.6759999972,13,160715.4375000000,152652.5000000000,166814.6718750000,142832.9062500000,143229.8281250000,149556.5625000000,152711.2500000000,163757.8437500000,,,
1.6799999971,13,160433.0781250000,152361.4531250000,166558.2500000000,142557.9062500000,142978.0625000000,149252.3750000000,152441.6562500000,163453.4843750000,,,
1.6839999971,13,161453.0156250000,153376.1406250000,167622.8593750000,143573.1718750000,144035.3437500000,150232.9375000000,153483.7656250000,164427.8906250000,,,
1.6879999973,13,162347.2343750000,154280.1406250000,168515.5468750000,144455.2968750000,144920.6875000000,151127.5625000000,154375.6093750000,165312.4531250000,,,
1.6919999972,13,161880.1093750000,153824.1406250000,168005.8437500000,143988.6718750000,144410.5625000000,150694.6250000000,153890.7656250000,164889.6562500000,,,
1.6959999972,13,160696.6875000000,152635.1718750000,166800.3750000000,142811.0937500000,143209.3593750000,149534.0625000000,152704.5625000000,163734.7500000000,,,
1.6999999972,13,160420.9531250000,152348.3593750000,166548.2031250000,142532.0937500000,142959.1562500000,149240.7656250000,152440.4218750000,163427.4687500000,,,
1.7039999971,13,161397.0625000000,153318.5156250000,167565.4218750000,143503.6250000000,143972.5000000000,150176.2656250000,153429.4843750000,164361.4531250000,,,
1.7079999973,13,162278.1250000000,154208.1562500000,168447.4687500000,144379.5468750000,144844.9687500000,151052.5937500000,154307.6718750000,165243.2031250000,,,
1.7119999973,13,161824.7500000000,153762.5937500000,167944.9375000000,143920.4375000000,144349.0468750000,150634.7812500000,153838.8906250000,164826.7031250000,,,
1.7159999972,13,160661.4687500000,152599.0781250000,166750.1718750000,142760.7500000000,143161.3906250000,149500.8281250000,152670.6406250000,163693.5156250000,,,
1.7199999972,13,160401.5625000000,152336.5312500000,166526.5000000000,142509.7812500000,142931.6093750000,149229.7343750000,152421.6250000000,163410.5000000000,,,
1.7239999971,13,161435.4218750000,153369.5156250000,167606.9218750000,143547.0156250000,144008.2031250000,150228.2187500000,153471.7812500000,164399.4531250000,,,
1.7279999971,13,162349.7343750000,154289.1406250000,168527.1875000000,144460.7343750000,144923.6875000000,151129.6562500000,154385.8281250000,165319.2968750000,,,
1.7319999973,13,161895.9843750000,153835.4687500000,168030.5937500000,144004.0625000000,144426.2500000000,150702.5156250000,153915.0781250000,164904.5468750000,,,
1.7359999972,13,160712.9687500000,152646.5000000000,166818.1406250000,142821.1562500000,143218.7968750000,149545.5937500000,152727.5312500000,163742.3593750000,,,
1.7399999972,13,160443.6718750000,152368.8906250000,166567.1093750000,142552.7500000000,142970.7656250000,149260.6875000000,152472.1250000000,163445.1250000000,,,
1.7439999972,13,161459.1562500000,153385.1250000000,167620.0937500000,143571.6406250000,144025.8125000000,150241.6250000000,153495.8437500000,164421.4687500000,,,
1.7479999971,13,162352.4687500000,154279.7656250000,168514.4687500000,144458.1875000000,144914.2500000000,151124.1718750000,154386.7187500000,165312.6875000000,,,
1.7519999973,13,161902.6875000000,153832.1093750000,168032.5312500000,144002.0000000000,144423.3437500000,150700.7187500000,153928.6093750000,164901.5937500000,,,
1.7559999973,13,160719.6718750000,152642.0937500000,166824.0156250000,142815.3906250000,143219.0156250000,149539.3750000000,152738.0937500000,163738.4687500000,,,
1.7599999972,13,160437.1250000000,152351.2968750000,166556.7343750000,142533.7031250000,142958.0781250000,149243.1406250000,152463.6250000000,163424.7187500000,,,
1.7639999972,13,161450.9843750000,153366.1250000000,167610.0312500000,143546.6718750000,144007.0937500000,150223.2031250000,153490.6406250000,164394.2968750000,,,
1.7679999971,13,162369.4687500000,154296.1406250000,168534.1250000000,144469.5312500000,144926.5312500000,151132.7031250000,154408.5781250000,165321.5156250000,,,
1.7719999971,13,161907.1718750000,153840.0468750000,168034.0937500000,144008.5781250000,144425.2343750000,150698.2968750000,153932.6718750000,164906.0625000000,,,
1.7759999973,13,160705.8125000000,152638.0937500000,166800.6718750000,142807.8281250000,143205.8906250000,149527.1718750000,152723.3437500000,163729.9531250000,,,
1.7799999972,13,160431.9531250000,152353.2968750000,166548.2500000000,142533.1093750000,142959.0468750000,149238.7500000000,152462.7968750000,163422.0625000000,,,
1.7839999972,13,161461.9218750000,153381.7656250000,167621.6718750000,143555.7656250000,144019.4375000000,150235.0781250000,153509.2500000000,164409.2187500000,,,
1.7879999971,13,162382.7812500000,154309.6250000000,168542.2812500000,144471.2031250000,144934.1718750000,151150.9687500000,154424.8593750000,165334.4687500000,,,
1.7919999971,14,161928.7343750000,153859.3593750000,168040.0625000000,144018.3593750000,144437.1875000000,150724.6875000000,153951.7343750000,164926.8750000000,,,
1.7959999971,14,160727.1406250000,152658.5312500000,166806.7031250000,142826.2812500000,143220.2500000000,149548.2187500000,152740.4218750000,163756.2031250000,,,
1.7999999970,14,160437.7812500000,152363.4687500000,166559.8593750000,142547.4375000000,142966.1875000000,149240.6250000000,152463.3281250000,163441.0468750000,,,
1.8039999970,14,161441.7812500000,153366.3750000000,167609.0156250000,143553.6093750000,144011.9531250000,150207.0312500000,153481.4687500000,164397.8750000000,,,
1.8079999969,14,162360.0156250000,154288.3593750000,168527.8906250000,144470.2656250000,144927.5000000000,151115.6250000000,154400.1250000000,165316.3437500000,,,
1.8119999969,14,161923.5937500000,153855.6562500000,168053.0000000000,144030.8593750000,144454.1093750000,150709.2187500000,153949.5156250000,164920.0468750000,,,
1.8159999971,14,160726.3750000000,152658.1093750000,166822.0468750000,142829.0937500000,143227.5468750000,149547.3906250000,152740.3750000000,163743.1093750000,,,
1.8199999970,14,160428.2031250000,152355.3750000000,166547.4687500000,142539.6875000000,142959.5000000000,149236.7656250000,152453.0468750000,163421.9531250000,,,
1.8239999970,14,161441.9375000000,153370.2656250000,167607.2187500000,143556.9687500000,144009.3750000000,150215.2031250000,153482.0000000000,164397.6562500000,,,
1.8279999970,14,162364.6250000000,154298.5468750000,168532.4218750000,144475.0312500000,144927.5312500000,151127.0781250000,154403.7500000000,165324.3281250000,,,
1.8319999969,14,161932.5937500000,153865.6406250000,168061.4687500000,144039.6875000000,144456.2343750000,150717.9531250000,153954.8281250000,164933.3437500000,,,
1.8359999971,14,160721.2343750000,152650.9531250000,166818.4062500000,142826.1718750000,143220.1718750000,149532.3437500000,152733.0781250000,163746.4375000000,,,
1.8399999971,14,160421.2812500000,152344.8750000000,166540.0781250000,142533.9687500000,142946.0625000000,149223.0312500000,152449.6406250000,163424.2500000000,,,
1.8439999970,14,161430.2187500000,153355.0468750000,167595.7812500000,143545.5156250000,144000.0468750000,150198.7031250000,153474.7343750000,164395.5156250000,,,
1.8479999970,14,162352.1562500000,154289.7500000000,168518.9531250000,144457.4687500000,144913.3593750000,151119.7343750000,154393.3437500000,165316.9062500000,,,
1.8519999969,14,161911.0000000000,153853.5468750000,168036.0468750000,144010.5000000000,144428.6093750000,150709.4218750000,153936.1250000000,164911.4843750000,,,
1.8559999969,14,160704.3906250000,152643.2968750000,166807.0625000000,142811.2031250000,143207.0000000000,149526.3906250000,152727.5312500000,163732.6875000000,,,
1.8599999971,14,160414.6093750000,152344.5625000000,166540.2031250000,142524.9375000000,142946.8281250000,149222.5156250000,152451.9843750000,163413.9062500000,,,
1.8639999970,14,161451.0625000000,153384.3906250000,167616.1250000000,143557.9843750000,144022.3125000000,150227.3593750000,153499.5781250000,164400.5312500000,,,
1.8679999970,14,162394.8750000000,154336.9843750000,168564.3593750000,144494.7968750000,144962.9375000000,151165.2187500000,154440.2500000000,165346.6718750000,,,
1.8719999969,14,161948.1250000000,153897.6718750000,168088.1093750000,144049.4843750000,144473.7968750000,150744.1718750000,153981.2343750000,164951.2031250000,,,
1.8759999969,14,160730.5625000000,152679.3750000000,166848.3437500000,142842.3750000000,143243.4218750000,149550.9531250000,152756.3593750000,163767.2500000000,,,
1.8799999971,14,160421.4218750000,152359.8125000000,166557.3906250000,142541.2656250000,142963.0781250000,149229.2500000000,152459.5937500000,163428.2187500000,,,
1.8839999971,14,161450.6250000000,153386.0625000000,167630.1406250000,143568.2656250000,144032.4375000000,150220.1406250000,153513.2500000000,164411.2343750000,,,
1.8879999970,14,162384.6875000000,154323.8906250000,168564.3281250000,144496.6250000000,144958.4218750000,151143.2187500000,154446.5468750000,165345.2343750000,,,
1.8919999970,14,161928.6562500000,153876.9062500000,168058.5468750000,144042.0000000000,144457.8437500000,150718.8125000000,153970.7500000000,164932.0937500000,,,
1.8959999969,14,160719.8125000000,152663.6093750000,166815.3437500000,142840.1562500000,143228.3437500000,149535.0468750000,152753.1406250000,163753.7343750000,,,
1.8999999969,14,160420.0937500000,152356.5000000000,166544.5468750000,142537.5937500000,142950.6875000000,149225.8437500000,152460.9375000000,163419.5312500000,,,
1.9039999971,14,161442.1562500000,153378.4218750000,167615.7187500000,143559.8593750000,144012.5937500000,150210.1875000000,153505.2343750000,164399.2187500000,,,
1.9079999970,14,162384.8125000000,154328.7812500000,168564.8125000000,144500.4687500000,144956.2031250000,151143.9531250000,154448.5625000000,165344.3125000000,,,
1.9119999970,14,161944.0312500000,153892.8906250000,168080.0000000000,144058.7343750000,144469.5937500000,150735.0468750000,153988.8906250000,164949.9531250000,,,
1.9159999969,14,160733.4375000000,152679.1875000000,166833.9531250000,142841.0625000000,143232.4218750000,149554.6875000000,152769.7968750000,163759.2656250000,,,
1.9199999969,15,160416.0781250000,152353.8125000000,166543.8281250000,142522.6093750000,142943.6875000000,149224.6875000000,152468.8281250000,163411.8593750000,,,
1.9239999969,15,161432.5468750000,153369.3437500000,167610.5625000000,143543.0781250000,144005.3750000000,150204.6093750000,153502.6875000000,164390.1250000000,,,
1.9279999968,15,162384.4218750000,154330.5156250000,168565.4062500000,144491.3906250000,144952.3125000000,151147.2968750000,154450.0937500000,165346.1093750000,,,
1.9319999968,15,161962.1875000000,153908.6406250000,168096.4218750000,144063.6718750000,144483.2656250000,150750.5781250000,154009.5468750000,164968.9687500000,,,
1.9359999967,15,160744.3593750000,152686.4062500000,166850.7031250000,142849.5937500000,143244.8437500000,149557.7968750000,152785.4062500000,163778.7343750000,,,
1.9399999967,15,160435.5156250000,152372.0468750000,166562.7343750000,142542.0781250000,142960.3125000000,149240.0937500000,152488.5625000000,163442.8750000000,,,
1.9439999969,15,161428.9375000000,153366.2656250000,167606.7343750000,143542.8906250000,143997.4375000000,150196.7812500000,153499.2968750000,164394.6718750000,,,
1.9479999968,15,162364.8125000000,154308.7187500000,168552.1875000000,144473.4062500000,144934.4218750000,151126.5156250000,154439.2812500000,165324.4375000000,,,
1.9519999968,15,161933.2656250000,153891.2812500000,168077.8125000000,144041.0312500000,144462.8906250000,150735.7187500000,153992.6875000000,164938.8125000000,,,
1.9559999967,15,160711.8750000000,152665.3437500000,166827.2812500000,142826.3281250000,143222.5468750000,149541.1093750000,152766.0156250000,163745.7968750000,,,
1.9599999967,15,160385.0937500000,152327.0625000000,166526.9218750000,142509.9218750000,142929.9531250000,149192.5937500000,152453.5625000000,163394.0000000000,,,
1.9639999969,15,161406.7187500000,153349.5625000000,167593.7187500000,143534.3906250000,143996.4218750000,150180.2031250000,153491.6093750000,164375.8750000000,,,
1.9679999969,15,162364.8437500000,154319.1250000000,168555.7187500000,144486.0937500000,144947.8593750000,151134.9375000000,154446.6250000000,165336.0781250000,,,
1.9719999968,15,161942.7343750000,153896.9687500000,168087.9218750000,144057.7656250000,144481.2656250000,150738.7656250000,154002.4531250000,164950.7031250000,,,
1.9759999968,15,160733.3593750000,152673.7656250000,166847.3906250000,142849.6718750000,143248.8593750000,149550.5312500000,152785.4843750000,163760.0625000000,,,
1.9799999967,15,160405.7968750000,152340.2656250000,166539.1250000000,142532.9843750000,142949.0937500000,149211.4687500000,152469.4687500000,163406.8281250000,,,
1.9839999967,15,161423.1093750000,153354.4843750000,167598.0625000000,143548.4375000000,144009.1875000000,150191.2343750000,153505.5468750000,164381.7812500000,,,
1.9879999969,15,162348.0468750000,154281.9375000000,168538.4218750000,144464.8125000000,144929.7187500000,151105.9062500000,154429.0937500000,165305.7968750000,,,
1.9919999968,15,161934.6093750000,153872.3750000000,168078.1250000000,144044.2656250000,144467.6406250000,150723.9375000000,153991.8593750000,164932.9218750000,,,
1.9959999968,15,160714.0468750000,152647.8593750000,166829.8593750000,142820.8437500000,143213.8281250000,149529.9843750000,152766.6562500000,163737.0000000000,,,
1.9999999967,15,160399.0937500000,152319.8750000000,166541.1406250000,142510.4218750000,142926.4375000000,149197.7031250000,152469.5468750000,163390.4531250000,,,
2.0039999967,15,161432.6406250000,153352.8593750000,167617.0000000000,143545.3750000000,143997.9843750000,150195.7031250000,153516.4218750000,164381.3750000000,,,
2.0079999969,15,162414.8906250000,154348.3906250000,168602.8750000000,144526.3125000000,144984.6250000000,151168.8593750000,154493.7656250000,165370.0312500000,,,
2.0119999968,15,161983.6875000000,153927.2968750000,168121.5625000000,144090.5468750000,144505.3437500000,150773.9687500000,154041.5937500000,164979.9375000000,,,
2.0159999968,15,160756.3125000000,152691.9843750000,166864.0000000000,142859.3281250000,143252.4375000000,149572.1718750000,152811.6406250000,163771.0937500000,,,
2.0199999968,15,160410.9062500000,152332.9375000000,166549.0781250000,142521.9843750000,142937.7343750000,149205.6718750000,152484.9218750000,163402.1562500000,,,
2.0239999967,15,161426.3281250000,153350.2500000000,167616.0156250000,143544.0468750000,144001.7031250000,150181.0000000000,153517.9687500000,164375.7968750000,,,
2.0279999967,15,162373.0156250000,154308.8750000000,168564.3593750000,144489.8437500000,144946.4375000000,151121.7656250000,154458.3750000000,165321.9687500000,,,
2.0319999969,15,161946.8750000000,153884.5468750000,168090.1250000000,144056.8593750000,144471.6093750000,150722.5781250000,154012.9687500000,164935.8906250000,,,
2.0359999968,15,160734.5937500000,152664.8906250000,166840.2968750000,142844.2187500000,143236.9218750000,149529.0937500000,152790.6406250000,163749.1250000000,,,
2.0399999968,15,160390.9687500000,152315.8906250000,166523.5468750000,142511.6562500000,142926.6718750000,149168.6406250000,152460.5156250000,163385.9843750000,,,
2.0439999967,15,161446.3906250000,153366.9843750000,167624.6562500000,143553.7968750000,144013.6093750000,150189.0468750000,153539.4062500000,164389.2343750000,,,
2.0479999967,16,162442.4843750000,154371.9843750000,168624.8906250000,144539.1093750000,145007.1875000000,151179.6406250000,154531.5312500000,165383.2812500000,,,
2.0519999966,16,161997.8281250000,153938.6562500000,168140.4687500000,144094.6718750000,144520.1718750000,150767.6875000000,154068.0312500000,164983.7500000000,,,
2.0559999966,16,160751.4062500000,152692.0937500000,166862.1250000000,142859.0000000000,143256.1406250000,149550.6562500000,152811.7500000000,163770.0937500000,,,
2.0599999966,16,160401.9218750000,152339.7500000000,166529.8281250000,142525.9218750000,142945.7500000000,149185.3125000000,152473.1718750000,163404.3281250000,,,
2.0639999965,16,161441.8593750000,153378.9218750000,167626.6093750000,143567.9062500000,144026.6718750000,150187.4375000000,153530.9843750000,164397.6875000000,,,
2.0679999965,16,162426.7968750000,154367.9687500000,168622.9375000000,144544.2968750000,145006.8437500000,151162.5937500000,154520.7187500000,165376.3906250000,,,
2.0719999967,16,162003.5156250000,153941.0937500000,168157.8437500000,144116.9375000000,144540.1875000000,150765.1093750000,154082.2812500000,164991.2031250000,,,
2.0759999966,16,160762.2187500000,152690.2343750000,166887.0468750000,142875.2343750000,143276.2031250000,149546.4843750000,152833.2343750000,163773.2031250000,,,
2.0799999966,16,160395.7656250000,152315.9687500000,166534.6562500000,142509.8906250000,142929.2031250000,149168.8750000000,152473.1718750000,163380.2656250000,,,
2.0839999965,16,161408.4687500000,153332.0625000000,167596.9687500000,143524.4375000000,143983.4062500000,150146.6718750000,153502.2500000000,164353.2656250000,,,
2.0879999965,16,162411.8750000000,154349.0000000000,168615.0000000000,144531.8125000000,144991.7656250000,151138.1875000000,154505.0312500000,165367.1406250000,,,
2.0919999967,16,162009.5000000000,153950.6718750000,168170.3750000000,144122.1718750000,144544.9687500000,150763.2031250000,154088.1875000000,165002.5156250000,,,
2.0959999966,16,160770.1250000000,152706.3593750000,166902.2031250000,142883.3593750000,143284.0312500000,149556.0468750000,152844.8125000000,163789.2968750000,,,
2.0999999966,16,160413.2656250000,152345.8125000000,166562.5781250000,142531.3437500000,142951.7500000000,149187.8125000000,152500.9375000000,163411.2656250000,,,
2.1039999966,16,161441.9375000000,153379.8593750000,167634.9687500000,143561.0468750000,144023.5937500000,150182.1093750000,153542.9375000000,164392.4218750000,,,
2.1079999965,16,162435.7812500000,154381.2968750000,168630.6406250000,144550.7500000000,145016.1718750000,151168.1875000000,154532.4843750000,165389.2968750000,,,
2.1119999965,16,162016.0156250000,153963.8906250000,168168.4375000000,144134.3750000000,144546.1875000000,150776.5937500000,154093.0625000000,165014.6406250000,,,
2.1159999967,16,160761.6562500000,152699.6875000000,166892.5156250000,142882.4531250000,143274.0781250000,149543.4687500000,152837.0625000000,163783.4375000000,,,
2.1199999966,16,160425.7656250000,152353.1718750000,166586.8437500000,142551.8906250000,142969.7031250000,149191.0000000000,152520.1562500000,163417.6093750000,,,
2.1239999966,16,161458.5468750000,153396.8906250000,167658.7343750000,143582.2968750000,144037.7812500000,150201.9531250000,153557.8750000000,164410.5625000000,,,
2.1279999965,16,162436.9062500000,154393.9531250000,168635.9687500000,144554.2656250000,145012.3437500000,151182.1093750000,154529.4062500000,165391.1406250000,,,
2.1319999965,16,162018.9375000000,153980.3281250000,168172.3593750000,144137.0000000000,144555.1562500000,150791.5781250000,154100.7812500000,165017.6250000000,,,
2.1359999967,16,160772.7812500000,152725.5625000000,166890.5312500000,142892.0468750000,143290.8906250000,149566.7812500000,152850.5312500000,163803.4062500000,,,
2.1399999966,16,160391.7812500000,152339.0000000000,166540.3125000000,142515.2031250000,142930.9218750000,149179.0156250000,152481.9375000000,163390.7812500000,,,
2.1439999966,16,161409.8593750000,153360.9843750000,167606.5468750000,143537.9843750000,143990.7968750000,150164.4062500000,153517.1406250000,164366.3593750000,,,
2.1479999966,16,162423.7656250000,154381.4843750000,168624.3593750000,144546.8593750000,145006.1875000000,151166.1093750000,154530.6875000000,165384.2500000000,,,
2.1519999965,16,162038.8750000000,153994.7656250000,168196.9531250000,144154.3437500000,144575.9375000000,150807.0156250000,154127.7656250000,165038.3750000000,,,
2.1559999965,16,160787.9687500000,152732.5937500000,166918.6875000000,142902.2343750000,143298.4062500000,149583.2812500000,152870.8593750000,163806.3437500000,,,
2.1599999967,16,160430.1250000000,152364.3281250000,166586.3593750000,142546.6562500000,142967.2812500000,149209.8125000000,152526.4375000000,163418.2968750000,,,
2.1639999966,16,161477.4531250000,153413.2031250000,167677.5468750000,143593.7500000000,144054.2812500000,150220.5156250000,153584.5937500000,164422.6250000000,,,
2.1679999966,16,162464.7500000000,154409.1406250000,168670.3593750000,144578.7343750000,145040.2812500000,151198.7968750000,154567.8906250000,165413.0312500000,,,
2.1719999965,16,162063.4375000000,154007.8437500000,168230.7500000000,144173.6406250000,144600.4218750000,150825.2187500000,154149.7656250000,165048.3593750000,,,
2.1759999965,17,160799.3125000000,152739.4375000000,166932.5781250000,142915.5156250000,143311.3593750000,149585.7656250000,152876.0937500000,163817.0156250000,,,
2.1799999964,17,160427.6718750000,152358.1093750000,166586.6406250000,142548.7031250000,142964.2812500000,149196.2031250000,152527.1562500000,163418.7812500000,,,
2.1839999964,17,161420.7187500000,153352.0000000000,167625.5625000000,143538.4062500000,143995.3281250000,150156.7812500000,153535.3750000000,164365.2812500000,,,
2.1879999964,17,162398.7968750000,154344.6250000000,168608.2187500000,144510.7031250000,144969.9375000000,151132.5468750000,154506.4531250000,165345.0468750000,,,
2.1919999963,17,161994.3906250000,153950.1093750000,168160.8437500000,144111.9687500000,144526.7968750000,150755.9687500000,154085.5312500000,164992.4062500000,,,
2.1959999963,17,160741.2968750000,152692.5781250000,166875.1562500000,142863.8125000000,143250.8437500000,149530.7031250000,152828.6406250000,163767.4218750000,,,
2.1999999965,17,160348.5937500000,152294.8281250000,166504.8750000000,142477.1718750000,142884.3281250000,149128.5937500000,152446.0312500000,163350.1718750000,,,
2.2039999964,17,161372.5000000000,153320.1250000000,167572.4843750000,143503.0000000000,143951.5156250000,150114.4375000000,153485.1718750000,164329.3437500000,,,
2.2079999964,17,162398.7656250000,154353.0156250000,168602.9843750000,144516.9843750000,144969.6562500000,151134.7968750000,154513.2812500000,165348.9531250000,,,
2.2119999963,17,162004.8906250000,153968.0937500000,168159.3281250000,144116.1093750000,144533.0312500000,150774.0468750000,154101.4375000000,164998.0937500000,,,
2.2159999963,17,160754.6718750000,152715.3125000000,166880.5000000000,142865.9218750000,143260.0468750000,149552.9375000000,152842.8906250000,163776.8906250000,,,
2.2199999965,17,160385.5000000000,152340.5000000000,166544.0156250000,142503.0468750000,142916.9062500000,149171.3125000000,152483.9531250000,163383.8125000000,,,
2.2239999964,17,161390.0468750000,153345.1093750000,167591.5312500000,143511.2343750000,143963.6250000000,150140.4062500000,153499.5937500000,164347.8281250000,,,
2.2279999964,17,162395.3906250000,154347.2812500000,168600.6250000000,144505.4218750000,144961.5937500000,151133.1718750000,154505.6718750000,165341.6093750000,,,
2.2319999964,17,162012.6562500000,153961.9843750000,168183.8593750000,144115.3281250000,144537.1250000000,150776.1093750000,154110.7187500000,164994.1250000000,,,
2.2359999963,17,160761.5156250000,152704.7500000000,166895.3906250000,142863.2500000000,143258.3593750000,149557.2812500000,152853.2968750000,163768.0937500000,,,
2.2399999963,17,160376.9375000000,152315.0312500000,166536.1875000000,142490.1250000000,142907.1250000000,149160.6406250000,152481.6718750000,163358.4062500000,,,
2.2439999965,17,161390.9843750000,153329.2812500000,167598.2500000000,143510.1718750000,143965.4218750000,150136.4218750000,153510.4375000000,164331.2187500000,,,
2.2479999964,17,162408.7656250000,154354.2812500000,168613.1562500000,144524.8437500000,144980.6093750000,151142.2031250000,154519.0312500000,165349.7031250000,,,
2.2519999964,17,162029.3437500000,153976.1406250000,168184.8281250000,144127.3750000000,144549.5000000000,150797.8125000000,154121.9843750000,165006.0625000000,,,
2.2559999963,17,160768.1093750000,152710.3593750000,166899.4531250000,142875.7968750000,143271.4218750000,149564.5312500000,152859.8593750000,163773.6406250000,,,
2.2599999963,17,160382.4218750000,152316.0781250000,166544.0625000000,142503.3125000000,142915.0156250000,149158.6250000000,152492.7500000000,163365.4375000000,,,
2.2639999965,17,161403.5312500000,153337.7031250000,167608.2812500000,143526.9843750000,143978.0000000000,150144.4687500000,153526.5312500000,164339.4531250000,,,
2.2679999964,17,162434.2812500000,154379.9843750000,168640.3750000000,144548.0468750000,145003.8281250000,151175.1718750000,154550.6718750000,165367.0625000000,,,
2.2719999964,17,162055.4687500000,154004.7656250000,168222.9687500000,144162.6875000000,144583.1250000000,150827.2812500000,154159.3906250000,165032.7812500000,,,
2.2759999963,17,160792.0468750000,152729.5937500000,166936.0468750000,142901.0312500000,143298.0625000000,149582.3906250000,152893.4687500000,163795.2031250000,,,
2.2799999963,17,160391.1250000000,152323.3125000000,166554.4218750000,142505.4062500000,142923.1093750000,149172.6875000000,152500.5312500000,163369.7187500000,,,
2.2839999963,17,161412.5156250000,153355.9375000000,167612.2812500000,143526.2656250000,143979.6875000000,150171.0781250000,153530.0468750000,164349.5312500000,,,
2.2879999964,17,162447.6406250000,154397.2500000000,168650.8906250000,144552.6875000000,145011.9375000000,151193.9218750000,154558.3437500000,165383.0000000000,,,
2.2919999964,17,162052.5781250000,153998.3750000000,168204.4062500000,144147.0781250000,144571.0625000000,150819.6406250000,154146.2031250000,165023.6093750000,,,
2.2959999964,17,160773.9843750000,152716.4218750000,166895.6562500000,142874.9687500000,143269.1718750000,149571.0937500000,152855.2812500000,163775.3281250000,,,
2.2999999963,17,160367.3437500000,152305.4843750000,166524.8906250000,142473.4375000000,142890.1250000000,149154.4218750000,152465.0468750000,163342.9062500000,,,
2.3039999963,18,161415.6093750000,153354.0625000000,167622.9375000000,143524.3750000000,143980.7812500000,150164.2656250000,153540.0468750000,164347.7968750000,,,
2.3079999962,18,162455.2500000000,154405.3593750000,168662.0468750000,144557.3750000000,145015.8437500000,151199.5000000000,154576.5000000000,165388.7343750000,,,
2.3119999962,18,162069.2031250000,154025.8437500000,168230.2656250000,144170.4218750000,144589.5937500000,150849.4375000000,154169.4218750000,165047.2343750000,,,
2.3159999961,18,160787.2656250000,152742.9531250000,166924.0781250000,142896.0781250000,143292.4218750000,149594.2812500000,152879.7656250000,163798.4531250000,,,
2.3199999961,18,160376.9375000000,152328.9531250000,166541.7343750000,142498.0312500000,142909.0000000000,149171.1250000000,152483.4218750000,163368.6562500000,,,
2.3239999961,18,161386.6093750000,153342.2031250000,167599.0937500000,143512.9843750000,143962.7343750000,150145.3906250000,153507.7031250000,164336.0156250000,,,
2.3279999963,18,162438.9218750000,154398.6250000000,168655.1562500000,144554.4531250000,145014.5625000000,151191.4687500000,154557.3281250000,165380.0468750000,,,
2.3319999962,18,162039.0312500000,154004.2343750000,168211.9218750000,144153.3125000000,144574.3281250000,150823.2968750000,154140.5312500000,165025.2343750000,,,
2.3359999962,18,160767.5468750000,152724.2812500000,166910.1093750000,142886.6093750000,143280.4062500000,149581.2656250000,152863.9687500000,163781.7656250000,,,
2.3399999961,18,160370.4531250000,152317.5468750000,166535.5312500000,142492.9375000000,142905.8437500000,149170.7031250000,152488.0000000000,163356.7656250000,,,
2.3439999961,18,161399.2343750000,153346.3125000000,167612.4218750000,143524.8125000000,143976.7343750000,150159.3593750000,153536.2031250000,164337.2500000000,,,
2.3479999963,18,162447.0468750000,154401.6718750000,168672.7812500000,144575.8125000000,145033.4218750000,151191.9843750000,154583.7812500000,165384.9531250000,,,
2.3519999962,18,162078.9687500000,154037.3593750000,168263.0625000000,144201.5781250000,144627.3906250000,150851.3125000000,154196.1406250000,165059.4062500000,,,
2.3559999962,18,160806.7656250000,152758.5625000000,166953.4062500000,142919.0000000000,143319.7343750000,149614.9843750000,152910.1562500000,163800.4843750000,,,
2.3599999961,18,160386.2812500000,152328.5156250000,166552.5937500000,142505.9531250000,142920.4843750000,149182.0468750000,152501.3281250000,163350.6562500000,,,
2.3639999961,18,161412.7031250000,153352.5312500000,167620.4687500000,143531.8437500000,143987.1093750000,150168.4062500000,153540.1250000000,164330.4375000000,,,
2.3679999961,18,162474.8906250000,154421.0468750000,168694.4218750000,144586.2656250000,145048.9531250000,151216.9531250000,154598.6875000000,165387.3906250000,,,
2.3719999962,18,162109.5468750000,154056.2968750000,168287.3437500000,144210.1093750000,144638.4062500000,150874.5156250000,154214.7343750000,165060.9062500000,,,
2.3759999962,18,160825.6562500000,152756.9218750000,166961.3593750000,142917.3906250000,143320.1093750000,149614.0625000000,152928.9531250000,163794.6875000000,,,
2.3799999962,18,160413.5000000000,152343.5625000000,166554.6406250000,142507.8437500000,142925.9218750000,149203.3750000000,152528.9843750000,163354.7031250000,,,
2.3839999961,18,161429.0156250000,153369.5625000000,167632.8906250000,143536.3906250000,143990.8125000000,150186.2656250000,153562.3281250000,164337.2500000000,,,
2.3879999961,18,162465.3906250000,154421.2031250000,168683.2343750000,144567.1718750000,145029.7656250000,151216.1718750000,154598.0468750000,165379.9375000000,,,
2.3919999963,18,162082.9843750000,154045.4218750000,168261.6406250000,144177.0468750000,144606.3281250000,150865.6718750000,154198.2343750000,165042.1093750000,,,
2.3959999962,18,160799.3437500000,152755.4687500000,166946.1562500000,142891.8593750000,143298.0000000000,149611.6562500000,152903.4843750000,163783.2656250000,,,
2.3999999962,18,160376.8125000000,152322.8281250000,166547.7968750000,142472.7343750000,142896.3906250000,149175.0468750000,152494.1406250000,163336.7031250000,,,
2.4039999961,18,161404.3906250000,153352.2031250000,167617.4531250000,143507.0312500000,143962.1718750000,150163.1093750000,153536.5312500000,164323.7812500000,,,
2.4079999961,18,162469.6562500000,154426.7031250000,168685.3750000000,144568.0312500000,145025.7812500000,151218.9687500000,154601.1562500000,165384.3281250000,,,
2.4119999961,18,162114.5937500000,154076.8437500000,168281.1718750000,144201.5312500000,144624.4375000000,150898.6562500000,154225.5312500000,165068.0937500000,,,
2.4159999962,18,160807.8125000000,152768.7187500000,166942.4062500000,142904.9843750000,143297.7343750000,149619.9218750000,152908.4687500000,163800.1875000000,,,
2.4199999962,18,160361.8750000000,152313.9218750000,166520.9687500000,142480.0156250000,142885.8750000000,149160.9375000000,152476.3281250000,163341.4843750000,,,
2.4239999962,18,161389.3437500000,153339.5781250000,167599.0937500000,143518.4062500000,143963.8593750000,150148.2500000000,153524.7343750000,164327.5937500000,,,
2.4279999961,18,162475.9062500000,154432.7187500000,168700.0000000000,144608.0781250000,145056.2656250000,151222.9375000000,154614.0625000000,165416.7656250000,,,
2.4319999961,19,162106.1875000000,154073.2968750000,168291.8281250000,144232.6250000000,144645.7343750000,150888.9687500000,154225.8906250000,165091.8906250000,,,
2.4359999960,19,160803.4375000000,152766.1406250000,166960.2656250000,142931.0000000000,143319.9375000000,149617.8750000000,152915.1718750000,163818.8281250000,,,
2.4399999960,19,160363.1093750000,152315.4843750000,166544.6562500000,142498.7031250000,142908.1406250000,149163.6406250000,152489.1250000000,163356.5781250000,,,
2.4439999959,19,161399.9062500000,153353.2500000000,167617.7812500000,143542.8125000000,143986.2031250000,150165.5312500000,153538.8437500000,164347.6562500000,,,
2.4479999959,19,162454.3750000000,154414.7187500000,168680.9062500000,144594.8437500000,145043.3906250000,151206.3125000000,154591.6875000000,165401.2812500000,,,
2.4519999959,19,162081.8125000000,154041.9687500000,168260.3125000000,144214.5468750000,144629.0781250000,150858.8750000000,154201.7656250000,165068.7656250000,,,
2.4559999960,19,160796.1718750000,152744.9375000000,166935.5156250000,142917.3437500000,143307.9843750000,149603.3906250000,152909.9687500000,163803.5468750000,,,
2.4599999960,19,160359.0000000000,152298.1250000000,166528.0312500000,142486.1562500000,142894.1406250000,149155.4375000000,152487.1250000000,163342.1562500000,,,
2.4639999960,19,161389.5625000000,153332.3125000000,167603.0625000000,143518.4531250000,143966.6718750000,150151.0156250000,153531.6562500000,164329.9531250000,,,
2.4679999959,19,162455.5156250000,154405.0781250000,168675.8593750000,144572.7187500000,145032.2343750000,151203.6562500000,154592.3906250000,165387.4218750000,,,
2.4719999959,19,162072.8750000000,154022.6093750000,168252.7187500000,144180.5781250000,144603.2187500000,150845.6093750000,154189.3593750000,165040.7968750000,,,
2.4759999961,19,160783.3750000000,152731.5937500000,166926.1250000000,142894.1093750000,143286.0156250000,149587.4375000000,152888.1875000000,163786.3750000000,,,
2.4799999960,19,160357.6875000000,152297.7343750000,166521.9687500000,142476.2500000000,142883.0312500000,149151.3281250000,152474.4843750000,163338.9843750000,,,
2.4839999960,19,161428.7656250000,153370.9375000000,167634.0156250000,143536.2343750000,143984.1718750000,150194.7343750000,153560.0781250000,164353.7500000000,,,
2.4879999959,19,162505.2187500000,154456.1875000000,168710.7343750000,144599.8437500000,145060.3437500000,151262.2656250000,154632.4531250000,165418.6875000000,,,
2.4919999959,19,162132.4218750000,154085.4531250000,168292.9687500000,144219.2343750000,144641.2031250000,150912.7968750000,154241.7656250000,165091.8125000000,,,
2.4959999959,19,160838.3906250000,152780.3125000000,166967.4218750000,142927.7968750000,143315.1093750000,149641.8281250000,152944.1718750000,163826.1875000000,,,
2.4999999960,19,160396.7343750000,152329.7187500000,166548.0937500000,142495.6250000000,142901.1718750000,149188.1406250000,152513.1875000000,163359.8281250000,,,
2.5039999960,19,161396.7187500000,153332.2343750000,167599.2968750000,143503.3281250000,143948.9687500000,150151.2343750000,153532.9843750000,164320.2812500000,,,
2.5079999960,19,162483.0468750000,154429.5000000000,168693.4843750000,144582.7343750000,145038.5937500000,151232.7031250000,154619.2656250000,165404.8281250000,,,
2.5119999959,19,162129.8437500000,154084.9687500000,168298.9062500000,144234.9218750000,144646.3437500000,150911.4062500000,154246.4531250000,165096.0468750000,,,
2.5159999959,19,160821.7656250000,152772.5625000000,166962.5468750000,142929.5156250000,143315.7656250000,149630.4375000000,152927.9843750000,163821.0000000000,,,
2.5199999961,19,160360.5312500000,152304.5156250000,166525.4062500000,142477.7031250000,142886.3125000000,149151.1718750000,152479.6093750000,163342.3437500000,,,
2.5239999960,19,161380.6250000000,153326.3750000000,167594.5000000000,143506.6250000000,143952.5937500000,150126.8281250000,153524.7343750000,164320.9218750000,,,
2.5279999960,19,162478.8906250000,154435.2343750000,168691.0625000000,144597.7500000000,145053.4843750000,151214.8125000000,154624.6562500000,165411.3437500000,,,
2.5319999959,19,162122.4687500000,154087.2500000000,168290.3437500000,144234.4687500000,144656.5937500000,150894.8750000000,154242.7031250000,165095.7343750000,,,
2.5359999959,19,160820.0937500000,152775.7187500000,166969.0625000000,142933.8437500000,143330.5312500000,149620.0000000000,152931.8750000000,163829.1093750000,,,
2.5399999958,19,160381.5781250000,152323.5781250000,166549.8125000000,142504.3593750000,142918.3281250000,149165.4687500000,152504.2500000000,163368.9531250000,,,
2.5439999960,19,161433.8906250000,153376.4375000000,167645.2187500000,143559.2500000000,144009.5156250000,150180.3906250000,153567.7187500000,164371.9843750000,,,
2.5479999960,19,162516.2812500000,154462.3750000000,168731.6718750000,144623.5000000000,145081.8906250000,151251.2968750000,154656.5937500000,165438.7500000000,,,
2.5519999960,19,162146.9062500000,154096.3281250000,168320.0625000000,144244.9531250000,144666.9218750000,150909.6875000000,154271.4531250000,165109.8593750000,,,
2.5559999959,19,160835.6875000000,152779.0000000000,166975.4687500000,142935.6875000000,143331.0781250000,149626.5156250000,152947.8437500000,163830.4531250000,,,
2.5599999959,20,160368.2187500000,152304.2968750000,166524.3750000000,142475.0156250000,142888.0000000000,149149.1406250000,152488.1875000000,163340.5156250000,,,
2.5639999958,20,161383.2031250000,153317.5312500000,167579.7968750000,143489.6250000000,143940.4218750000,150127.8125000000,153516.6250000000,164307.0781250000,,,
2.5679999958,20,162471.9687500000,154416.6250000000,168678.7500000000,144572.0000000000,145029.9062500000,151210.9218750000,154606.7031250000,165393.4531250000,,,
2.5719999957,20,162119.4687500000,154068.6875000000,168291.2031250000,144212.8281250000,144631.0625000000,150889.2500000000,154239.2500000000,165084.5156250000,,,
2.5759999957,20,160814.8906250000,152758.3437500000,166956.7500000000,142909.7500000000,143298.2500000000,149611.7812500000,152926.7031250000,163812.6093750000,,,
2.5799999957,20,160353.1562500000,152290.1875000000,166514.9843750000,142462.8125000000,142869.2031250000,149135.7500000000,152477.3593750000,163334.8593750000,,,
2.5839999958,20,161395.2656250000,153332.3281250000,167601.5781250000,143509.5468750000,143954.6093750000,150138.5000000000,153535.4062500000,164327.1875000000,,,
2.5879999958,20,162494.1718750000,154439.8437500000,168712.9531250000,144605.5000000000,145057.1093750000,151225.9375000000,154634.1250000000,165419.7187500000,,,
2.5919999958,20,162138.7031250000,154088.9375000000,168317.1093750000,144247.5625000000,144661.8281250000,150902.7968750000,154261.3437500000,165111.8750000000,,,
2.5959999957,20,160828.7812500000,152772.1875000000,166972.7968750000,142937.4375000000,143326.0312500000,149624.2656250000,152944.2500000000,163830.5781250000,,,
2.5999999957,20,160364.9062500000,152301.8281250000,166529.2812500000,142478.5625000000,142885.9687500000,149147.3593750000,152490.2812500000,163344.3750000000,,,
2.6039999959,20,161380.2500000000,153318.6093750000,167582.7187500000,143486.3437500000,143935.7187500000,150131.9531250000,153518.2968750000,164306.1406250000,,,
2.6079999958,20,162466.8125000000,154410.7500000000,168671.8437500000,144561.3437500000,145023.1250000000,151205.8750000000,154606.0625000000,165383.6562500000,,,
2.6119999958,20,162127.6718750000,154076.6718750000,168302.9531250000,144223.1718750000,144644.0468750000,150891.6562500000,154252.7031250000,165091.1875000000,,,
2.6159999957,20,160818.7031250000,152765.2656250000,166967.0312500000,142921.8750000000,143312.7500000000,149612.2500000000,152935.0468750000,163818.4062500000,,,
2.6199999957,20,160351.0937500000,152289.8906250000,166522.7656250000,142460.8906250000,142874.5312500000,149135.1093750000,152482.1875000000,163326.6562500000,,,
2.6239999956,20,161350.2031250000,153296.7968750000,167569.4687500000,143469.0000000000,143917.5937500000,150105.0781250000,153493.7968750000,164281.9531250000,,,
2.6279999958,20,162442.4062500000,154398.3593750000,168666.7343750000,144561.5156250000,145014.3281250000,151185.4218750000,154583.0000000000,165373.8125000000,,,
2.6319999958,20,162142.0000000000,154096.5000000000,168319.0156250000,144244.5468750000,144663.0625000000,150913.9531250000,154269.3906250000,165110.3437500000,,,
2.6359999957,20,160826.8281250000,152780.5000000000,166966.5625000000,142925.8437500000,143315.5781250000,149632.1718750000,152945.2343750000,163827.4218750000,,,
2.6399999957,20,160349.9531250000,152302.6406250000,166509.5156250000,142460.2968750000,142867.1093750000,149147.5781250000,152476.2031250000,163337.1562500000,,,
2.6439999957,20,161364.6093750000,153317.0000000000,167572.2968750000,143481.3906250000,143926.8437500000,150125.2500000000,153506.9687500000,164308.0468750000,,,
2.6479999959,20,162472.3125000000,154433.4375000000,168695.3125000000,144585.4062500000,145046.2343750000,151217.9531250000,154614.7031250000,165410.7500000000,,,
2.6519999958,20,162135.4218750000,154098.1562500000,168316.4375000000,144240.3125000000,144666.0156250000,150908.3125000000,154261.4062500000,165118.7343750000,,,
2.6559999958,20,160813.0156250000,152770.3906250000,166966.7343750000,142917.9375000000,143313.2968750000,149618.5468750000,152938.6718750000,163830.5312500000,,,
2.6599999957,20,160314.0781250000,152267.9218750000,166498.9218750000,142429.7656250000,142843.6875000000,149110.9375000000,152457.9375000000,163313.2656250000,,,
2.6639999957,20,161322.5000000000,153277.3437500000,167550.7343750000,143444.9062500000,143893.0468750000,150084.0468750000,153483.2656250000,164268.7812500000,,,
2.6679999956,20,162430.3281250000,154392.1093750000,168659.3906250000,144547.9843750000,145000.9062500000,151179.6250000000,154587.7500000000,165369.1562500000,,,
2.6719999958,20,162105.9687500000,154068.7031250000,168287.8750000000,144216.4687500000,144632.9843750000,150881.6250000000,154242.6718750000,165089.2656250000,,,
2.6759999958,20,160802.9375000000,152757.3281250000,166950.5781250000,142914.6406250000,143299.9375000000,149606.5000000000,152931.3437500000,163816.6875000000,,,
2.6799999957,20,160341.4843750000,152296.4687500000,166516.8125000000,142466.9218750000,142869.8906250000,149133.4687500000,152485.2968750000,163341.9687500000,,,
2.6839999957,20,161390.1406250000,153348.4218750000,167613.0937500000,143517.2656250000,143961.3906250000,150144.2812500000,153550.7187500000,164343.6875000000,,,
2.6879999957,21,162495.7031250000,154457.6875000000,168729.0468750000,144612.6875000000,145069.2812500000,151238.0937500000,154653.5937500000,165437.5156250000,,,
2.6919999956,21,162164.7187500000,154123.2343750000,168348.6093750000,144278.0312500000,144694.6875000000,150929.1093750000,154308.9843750000,165145.1875000000,,,
2.6959999956,21,160849.5781250000,152800.6875000000,167000.4375000000,142960.1718750000,143348.5937500000,149645.3125000000,152983.4062500000,163858.0000000000,,,
2.6999999955,21,160366.6718750000,152316.7656250000,166544.3281250000,142487.0937500000,142890.7031250000,149159.6562500000,152507.9062500000,163355.6250000000,,,
2.7039999955,21,161355.4687500000,153312.1718750000,167579.9062500000,143487.6406250000,143933.1562500000,150111.6718750000,153508.7656250000,164305.8750000000,,,
2.7079999954,21,162496.4062500000,154463.6718750000,168734.2500000000,144627.5000000000,145078.9843750000,151241.0937500000,154649.7812500000,165443.9375000000,,,
2.7119999956,21,162148.7031250000,154118.0312500000,168340.3750000000,144266.4062500000,144681.8593750000,150929.1562500000,154283.3125000000,165131.5312500000,,,
2.7159999956,21,160827.2656250000,152786.2656250000,166980.0312500000,142942.3437500000,143324.0781250000,149640.2812500000,152950.8125000000,163839.2968750000,,,
2.7199999955,21,160330.4062500000,152283.8593750000,166504.6875000000,142451.2500000000,142851.9531250000,149134.0937500000,152464.6718750000,163321.1718750000,,,
2.7239999955,21,161314.0781250000,153271.6875000000,167531.8437500000,143436.3281250000,143879.0000000000,150080.0000000000,153463.0468750000,164259.3906250000,,,
2.7279999955,21,162431.2500000000,154399.1875000000,168657.3281250000,144541.8437500000,144994.7187500000,151188.6875000000,154579.5937500000,165369.7656250000,,,
2.7319999957,21,162120.3750000000,154091.6718750000,168310.1875000000,144224.8593750000,144646.0000000000,150904.2187500000,154252.6875000000,165100.4218750000,,,
2.7359999956,21,160804.2500000000,152770.7031250000,166960.6406250000,142917.9531250000,143304.6875000000,149615.4062500000,152927.6718750000,163819.6093750000,,,
2.7399999956,21,160319.2500000000,152281.3125000000,166491.7343750000,142446.6718750000,142849.3437500000,149121.9062500000,152451.7187500000,163320.5625000000,,,
2.7439999955,21,161333.7968750000,153297.5781250000,167550.7343750000,143467.3906250000,143909.7812500000,150103.4687500000,153483.7500000000,164289.7968750000,,,
2.7479999955,21,162468.9531250000,154441.0312500000,168705.5312500000,144594.2812500000,145050.7656250000,151223.1562500000,154629.3906250000,165420.8437500000,,,
2.7519999954,21,162155.0937500000,154135.6093750000,168356.2187500000,144275.7187500000,144695.9218750000,150942.7500000000,154302.0000000000,165153.4687500000,,,
2.7559999956,21,160828.3593750000,152803.9375000000,166997.3281250000,142949.1875000000,143342.8281250000,149656.5781250000,152967.1250000000,163854.9687500000,,,
2.7599999956,21,160323.7812500000,152291.3437500000,166510.3593750000,142450.6718750000,142867.7968750000,149140.3125000000,152478.1250000000,163329.3593750000,,,
2.7639999955,21,161334.9687500000,153304.5781250000,167565.2187500000,143468.4375000000,143923.9531250000,150117.1093750000,153503.0000000000,164291.6562500000,,,
2.7679999955,21,162455.0156250000,154430.9375000000,168698.2343750000,144581.1718750000,145034.0156250000,151226.7500000000,154615.8593750000,165403.1093750000,,,
2.7719999955,21,162136.5781250000,154112.2656250000,168333.7187500000,144254.6093750000,144671.7500000000,150931.5625000000,154278.6406250000,165126.0312500000,,,
2.7759999956,21,160815.5937500000,152783.7656250000,166980.1718750000,142935.0937500000,143327.0312500000,149637.3437500000,152953.1250000000,163837.6406250000,,,
2.7799999956,21,160315.6875000000,152273.6093750000,166502.2812500000,142443.7500000000,142855.5781250000,149126.3281250000,152464.6093750000,163316.2187500000,,,
2.7839999956,21,161306.1406250000,153268.9062500000,167538.5468750000,143437.8593750000,143887.4687500000,150079.1093750000,153468.8593750000,164257.1406250000,,,
2.7879999955,21,162459.6250000000,154420.7187500000,168704.0312500000,144583.9531250000,145038.9687500000,151215.2656250000,154629.1250000000,165397.7187500000,,,
2.7919999955,21,162161.7656250000,154120.0468750000,168370.3593750000,144279.6093750000,144698.8593750000,150941.3593750000,154316.8437500000,165138.7031250000,,,
2.7959999954,21,160830.2031250000,152783.6875000000,167001.0312500000,142953.3593750000,143339.0468750000,149638.7656250000,152974.3906250000,163843.6406250000,,,
2.7999999956,21,160325.1250000000,152272.3593750000,166504.5625000000,142450.1093750000,142851.7656250000,149131.0312500000,152474.7812500000,163313.8593750000,,,
2.8039999956,21,161323.7031250000,153275.7187500000,167539.4375000000,143447.1093750000,143888.1718750000,150093.7031250000,153485.0000000000,164266.0156250000,,,
2.8079999955,21,162454.1562500000,154413.0781250000,168675.6718750000,144565.2656250000,145018.4531250000,151211.7812500000,154614.1562500000,165382.1406250000,,,
2.8119999955,21,162142.1562500000,154106.1562500000,168338.7812500000,144249.7031250000,144661.9843750000,150931.4843750000,154284.2187500000,165115.7656250000,,,
2.8159999955,22,160824.3593750000,152779.1875000000,166985.5781250000,142934.3750000000,143317.6562500000,149640.5468750000,152953.6406250000,163832.0000000000,,,
2.8199999954,22,160323.0781250000,152269.4218750000,166494.6406250000,142432.5000000000,142836.3593750000,149129.3906250000,152461.7968750000,163304.6875000000,,,
2.8239999954,22,161321.5937500000,153274.3437500000,167545.1250000000,143437.0000000000,143886.0468750000,150094.6093750000,153478.7343750000,164256.2031250000,,,
2.8279999953,22,162427.0625000000,154389.4687500000,168666.2656250000,144541.3125000000,144998.6562500000,151186.4843750000,154582.2500000000,165356.2187500000,,,
2.8319999953,22,162128.1562500000,154094.9218750000,168323.9062500000,144231.4843750000,144658.5000000000,150919.5468750000,154262.7343750000,165100.9843750000,,,
2.8359999952,22,160806.4531250000,152764.4843750000,166972.3593750000,142909.2500000000,143304.6875000000,149628.1250000000,152938.0000000000,163808.6406250000,,,
2.8399999954,22,160291.1406250000,152247.3750000000,166474.5937500000,142404.1562500000,142818.4218750000,149109.9687500000,152432.3125000000,163277.1562500000,,,
2.8439999954,22,161317.4843750000,153281.5000000000,167549.8125000000,143439.8906250000,143894.9531250000,150101.5312500000,153478.8125000000,164263.4843750000,,,
2.8479999953,22,162476.4218750000,154447.4375000000,168726.8437500000,144593.2343750000,145059.2500000000,151243.7812500000,154647.2812500000,165417.2187500000,,,
2.8519999953,22,162173.8125000000,154144.1875000000,168382.3437500000,144283.3906250000,144712.9531250000,150962.2812500000,154328.1250000000,165155.8906250000,,,
2.8559999953,22,160849.6250000000,152815.1250000000,167019.0312500000,142958.1093750000,143356.6093750000,149665.9218750000,152989.8750000000,163864.7500000000,,,
2.8599999954,22,160353.8281250000,152317.5156250000,166540.1718750000,142469.5468750000,142883.3906250000,149166.9375000000,152501.3593750000,163347.4687500000,,,
2.8639999954,22,161403.2343750000,153365.1406250000,167625.0781250000,143520.8437500000,143968.8437500000,150179.7187500000,153560.3437500000,164343.6875000000,,,
2.8679999954,22,162529.4218750000,154495.4687500000,168758.2031250000,144642.7343750000,145096.8281250000,151289.5156250000,154683.0937500000,165464.0468750000,,,
2.8719999953,22,162220.1093750000,154184.8437500000,168411.0781250000,144322.4375000000,144741.4375000000,151006.0781250000,154364.6562500000,165193.8750000000,,,
2.8759999953,22,160882.9375000000,152834.3906250000,167046.6250000000,142985.5312500000,143379.0000000000,149695.5312500000,153025.7656250000,163884.0156250000,,,
2.8799999952,22,160346.8750000000,152295.1562500000,166530.6250000000,142462.6875000000,142872.6562500000,149151.7031250000,152500.4687500000,163331.9062500000,,,
2.8839999954,22,161357.3750000000,153308.8906250000,167579.7968750000,143471.1718750000,143917.0781250000,150130.0468750000,153521.5625000000,164289.7031250000,,,
2.8879999954,22,162469.0468750000,154434.1093750000,168698.0156250000,144578.4062500000,145030.5781250000,151235.5937500000,154628.7812500000,165398.1250000000,,,
2.8919999953,22,162152.2500000000,154121.3281250000,168343.3125000000,144257.7031250000,144670.7500000000,150945.3906250000,154294.9218750000,165129.3906250000,,,
2.8959999953,22,160843.3593750000,152804.9531250000,167006.5312500000,142953.4218750000,143343.5468750000,149661.8906250000,152980.2343750000,163853.3750000000,,,
2.8999999953,22,160338.4062500000,152291.1250000000,166511.1875000000,142455.8906250000,142868.5781250000,149145.0781250000,152485.3437500000,163324.4531250000,,,
2.9039999954,22,161372.4218750000,153321.2343750000,167593.5312500000,143477.1718750000,143929.7500000000,150146.3593750000,153538.8906250000,164297.9062500000,,,
2.9079999954,22,162503.6875000000,154462.2187500000,168735.6718750000,144601.7500000000,145057.8593750000,151265.9062500000,154669.2343750000,165424.9218750000,,,
2.9119999954,22,162181.9375000000,154142.3593750000,168374.2500000000,144279.3750000000,144700.9531250000,150967.7031250000,154327.3750000000,165149.4531250000,,,
2.9159999953,22,160861.6406250000,152815.3906250000,167025.7187500000,142967.2031250000,143362.1875000000,149674.3437500000,153001.8906250000,163863.5468750000,,,
2.9199999953,22,160352.4062500000,152297.2968750000,166533.9531250000,142460.2968750000,142880.1406250000,149156.7500000000,152508.8125000000,163333.9218750000,,,
2.9239999952,22,161339.9687500000,153294.4062500000,167562.2812500000,143449.7812500000,143902.5156250000,150117.3281250000,153510.4843750000,164274.2500000000,,,
2.9279999954,22,162502.2187500000,154466.7968750000,168735.3750000000,144604.1093750000,145060.1093750000,151270.6875000000,154673.8750000000,165430.2187500000,,,
2.9319999954,22,162207.0937500000,154169.2187500000,168412.7968750000,144301.8750000000,144726.4687500000,151000.6406250000,154371.3125000000,165175.0937500000,,,
2.9359999953,22,160866.1562500000,152823.3281250000,167042.6875000000,142966.5625000000,143365.3750000000,149687.9843750000,153022.0000000000,163872.1562500000,,,
2.9399999953,22,160334.5937500000,152287.8906250000,166522.6562500000,142438.3750000000,142856.9062500000,149153.5625000000,152497.2031250000,163320.8906250000,,,
2.9439999952,23,161337.9218750000,153301.5625000000,167564.2656250000,143447.5156250000,143902.3281250000,150129.5312500000,153513.7656250000,164281.1093750000,,,
