Time:250Hz,Epoch,Channel 1,Channel 2,Channel 3,Channel 4,Channel 5,Channel 6,Channel 7,Channel 8,Event Id,Event Date,Event Duration
0.0000000000,0,128623.6328125000,142293.0625000000,161980.9375000000,148592.3593750000,159054.3437500000,138388.2656250000,150334.3750000000,148535.2031250000,,,
0.0040000000,0,128543.3046875000,142205.7812500000,161921.3906250000,148503.0468750000,159050.4062500000,138305.9218750000,150258.5468750000,148546.9531250000,,,
0.0079999999,0,128455.4609375000,142079.1562500000,161852.7500000000,148382.2031250000,159001.5937500000,138220.7187500000,150178.4843750000,148510.7343750000,,,
0.0119999999,0,128475.7109375000,142107.0937500000,161839.6875000000,148436.2500000000,159007.0000000000,138238.1250000000,150200.3750000000,148483.4843750000,,,
0.0159999998,0,128578.8437500000,142250.1406250000,161907.0937500000,148569.1562500000,159039.6406250000,138329.9531250000,150303.9375000000,148478.0781250000,,,
0.0199999998,0,128614.4062500000,142280.2968750000,161921.0625000000,148599.2031250000,159048.6875000000,138355.8125000000,150345.1093750000,148523.8281250000,,,
0.0240000000,0,128530.5078125000,142190.9531250000,161895.3750000000,148503.4687500000,159019.4843750000,138278.8906250000,150266.5625000000,148546.3281250000,,,
0.0279999999,0,128465.2500000000,142137.8125000000,161863.1250000000,148432.6562500000,159008.7500000000,138221.5156250000,150202.1406250000,148571.1406250000,,,
0.0319999999,0,128511.7578125000,142161.9062500000,161881.6875000000,148495.0468750000,159007.4843750000,138251.2968750000,150255.2968750000,148518.5156250000,,,
0.0359999998,0,128606.3046875000,142268.1875000000,161956.4687500000,148622.3281250000,159026.5625000000,138332.4218750000,150343.8906250000,148527.1875000000,,,
0.0399999998,0,128630.7421875000,142328.7812500000,161978.1093750000,148626.0156250000,159049.6718750000,138356.5156250000,150367.9843750000,148536.7656250000,,,
0.0440000000,0,128545.4218750000,142238.7187500000,161922.5937500000,148527.2968750000,159022.8281250000,138278.1406250000,150290.0468750000,148563.7968750000,,,
0.0480000000,0,128468.6796875000,142138.7500000000,161897.4375000000,148474.5625000000,158973.5781250000,138202.3906250000,150225.0000000000,148551.9062500000,,,
0.0519999999,0,128517.4765625000,142175.7187500000,161939.3281250000,148514.6562500000,158972.5625000000,138246.5156250000,150273.1718750000,148535.7343750000,,,
0.0559999999,0,128612.1015625000,142266.9843750000,161958.5625000000,148609.4687500000,159032.9687500000,138329.5781250000,150351.4687500000,148534.1250000000,,,
0.0599999998,0,128640.0781250000,142286.0312500000,161971.9531250000,148634.2031250000,159066.8437500000,138350.4531250000,150382.6875000000,148546.1406250000,,,
0.0639999998,0,128580.3203125000,142242.5312500000,161937.7187500000,148564.2500000000,159073.0156250000,138299.4375000000,150328.2812500000,148606.6250000000,,,
0.0680000000,0,128541.9375000000,142184.0312500000,161923.5312500000,148509.0781250000,159078.1718750000,138259.6250000000,150293.6562500000,148625.5937500000,,,
0.0719999999,0,128585.9531250000,142207.9531250000,161974.2187500000,148549.5468750000,159059.3906250000,138276.4843750000,150349.1250000000,148576.2656250000,,,
0.0759999999,0,128679.4218750000,142348.4218750000,162044.9062500000,148664.4062500000,159094.0625000000,138356.6406250000,150440.6406250000,148566.0468750000,,,
0.0799999998,0,128701.6875000000,142375.1406250000,162064.2968750000,148731.1093750000,159153.0312500000,138384.7343750000,150456.4218750000,148624.9531250000,,,
0.0839999998,0,128616.2890625000,142295.8281250000,162010.1875000000,148651.0468750000,159144.8437500000,138312.7656250000,150373.4531250000,148686.2343750000,,,
0.0880000000,0,128528.3359375000,142214.1718750000,161928.8437500000,148530.4843750000,159099.6250000000,138237.2343750000,150290.3125000000,148636.8125000000,,,
0.0919999999,0,128559.3125000000,142271.0625000000,161962.5000000000,148569.2656250000,159080.8437500000,138263.6875000000,150323.1718750000,148616.7968750000,,,
0.0959999999,0,128654.6640625000,142350.7031250000,162055.3125000000,148686.1562500000,159105.0156250000,138348.5781250000,150424.9531250000,148605.0156250000,,,
0.0999999999,0,128667.2734375000,142326.1250000000,162037.4531250000,148722.2812500000,159162.3906250000,138355.1250000000,150433.6250000000,148599.4687500000,,,
0.1039999998,0,128573.5312500000,142243.5156250000,161962.5625000000,148615.7500000000,159154.8281250000,138276.0156250000,150339.6406250000,148636.3281250000,,,
0.1079999998,0,128490.8906250000,142170.1875000000,161897.3593750000,148517.3437500000,159107.6718750000,138207.1093750000,150262.2187500000,148635.2812500000,,,
0.1120000000,0,128514.4687500000,142168.4218750000,161922.0000000000,148553.6250000000,159089.5625000000,138216.6406250000,150292.0781250000,148566.6093750000,,,
0.1159999999,0,128595.6875000000,142262.9375000000,162020.9531250000,148661.8906250000,159099.7500000000,138291.3437500000,150392.3593750000,148566.6093750000,,,
0.1199999999,0,128614.2500000000,142306.3125000000,162067.6718750000,148687.8750000000,159097.2812500000,138319.3125000000,150429.1093750000,148626.2187500000,,,
0.1239999998,0,128528.3359375000,142185.7500000000,161979.9375000000,148598.0156250000,159096.1875000000,138244.2031250000,150346.1250000000,148608.7812500000,,,
0.1279999998,1,128455.7265625000,142150.6093750000,161856.0000000000,148528.6250000000,159091.1406250000,138165.9375000000,150256.6406250000,148628.0937500000,,,
0.1319999998,1,128482.6015625000,142163.0781250000,161875.4375000000,148554.3281250000,159076.4531250000,138172.0312500000,150270.8906250000,148536.2968750000,,,
0.1359999997,1,128576.2421875000,142254.0312500000,161967.7812500000,148637.2031250000,159098.7343750000,138260.9687500000,150352.7031250000,148528.9531250000,,,
0.1399999997,1,128608.4765625000,142276.2187500000,161994.0156250000,148685.6718750000,159138.7343750000,138281.8750000000,150385.8437500000,148560.9843750000,,,
0.1439999996,1,128540.5390625000,142204.2031250000,161965.4062500000,148620.1562500000,159138.2968750000,138220.5312500000,150326.1718750000,148605.7500000000,,,
0.1479999996,1,128459.2968750000,142130.0937500000,161899.1250000000,148508.1875000000,159109.1406250000,138146.7656250000,150245.0000000000,148591.7656250000,,,
0.1519999998,1,128492.4218750000,142175.3593750000,161912.2343750000,148520.0468750000,159084.7031250000,138175.7343750000,150272.6093750000,148558.5625000000,,,
0.1559999997,1,128585.1484375000,142272.1875000000,161990.7500000000,148631.9218750000,159108.4687500000,138257.4375000000,150364.2031250000,148536.6250000000,,,
0.1599999997,1,128622.3437500000,142321.3281250000,162045.3906250000,148660.6718750000,159138.0625000000,138293.7968750000,150406.0781250000,148568.8906250000,,,
0.1639999996,1,128548.9921875000,142219.6250000000,162003.0000000000,148573.5937500000,159119.6093750000,138227.7968750000,150333.9687500000,148602.3125000000,,,
0.1679999996,1,128458.8906250000,142133.2031250000,161918.1875000000,148484.9062500000,159079.0156250000,138141.8906250000,150247.3437500000,148582.4375000000,,,
0.1719999998,1,128502.8515625000,142171.4531250000,161940.5312500000,148535.1562500000,159063.2812500000,138171.1250000000,150294.6718750000,148558.6250000000,,,
0.1759999997,1,128604.4296875000,142227.1875000000,161982.7343750000,148667.8593750000,159119.9062500000,138266.0156250000,150386.8593750000,148565.1875000000,,,
0.1799999997,1,128625.3750000000,142219.9687500000,161980.8281250000,148707.0000000000,159177.9218750000,138290.1250000000,150405.2187500000,148580.5937500000,,,
0.1839999997,1,128543.4062500000,142201.9218750000,161965.6406250000,148604.5312500000,159150.4687500000,138210.2187500000,150325.2343750000,148617.6250000000,,,
0.1879999996,1,128459.4062500000,142133.8125000000,161914.6250000000,148506.9531250000,159098.5781250000,138136.7812500000,150244.8437500000,148583.6718750000,,,
0.1919999996,1,128487.6718750000,142183.0625000000,161933.0000000000,148541.1875000000,159079.2343750000,138156.8281250000,150275.1562500000,148565.1406250000,,,
0.1959999998,1,128592.3046875000,142270.9843750000,162023.9218750000,148664.4843750000,159106.3281250000,138259.2031250000,150377.1875000000,148555.0781250000,,,
0.1999999997,1,128629.6718750000,142305.1875000000,162048.6093750000,148709.2812500000,159141.4062500000,138293.2343750000,150414.3906250000,148584.4531250000,,,
0.2039999997,1,128556.4453125000,142226.9218750000,161982.6718750000,148614.6718750000,159121.3437500000,138224.6093750000,150341.0781250000,148619.1875000000,,,
0.2079999996,1,128478.6328125000,142143.0937500000,161921.1718750000,148511.7656250000,159065.9531250000,138152.7968750000,150264.6718750000,148598.0468750000,,,
0.2119999996,1,128510.6562500000,142165.0312500000,161961.6718750000,148537.4062500000,159036.3437500000,138182.8125000000,150299.7187500000,148586.1406250000,,,
0.2159999998,1,128622.5312500000,142280.6406250000,162055.8437500000,148658.1875000000,159065.5000000000,138283.1875000000,150414.4375000000,148620.5312500000,,,
0.2199999997,1,128652.0156250000,142308.3437500000,162053.6250000000,148709.5468750000,159105.4218750000,138311.2656250000,150444.7968750000,148612.6718750000,,,
0.2239999997,1,128574.7656250000,142188.3750000000,161991.4531250000,148630.2031250000,159117.7812500000,138244.4531250000,150361.1250000000,148589.1093750000,,,
0.2279999997,1,128490.0312500000,142168.2031250000,161933.8593750000,148526.4843750000,159050.9687500000,138160.5781250000,150284.6250000000,148598.2656250000,,,
0.2319999996,1,128515.2187500000,142209.0312500000,161955.9062500000,148573.1875000000,159041.2812500000,138179.3281250000,150313.2343750000,148546.1406250000,,,
0.2359999996,1,128614.6484375000,142293.9218750000,162034.4375000000,148681.2812500000,159084.4062500000,138270.2343750000,150415.5625000000,148566.2031250000,,,
0.2399999998,1,128657.8359375000,142321.1875000000,162086.2656250000,148731.2500000000,159122.3125000000,138318.0781250000,150462.6406250000,148617.0937500000,,,
0.2439999997,1,128560.6015625000,142219.3281250000,162009.7187500000,148625.4375000000,159095.6562500000,138228.6875000000,150367.4531250000,148605.8750000000,,,
0.2479999997,1,128470.5625000000,142121.7187500000,161933.8906250000,148493.7656250000,159033.3906250000,138143.0625000000,150271.2031250000,148591.8281250000,,,
0.2519999996,1,128513.5000000000,142165.2812500000,161960.9531250000,148536.2968750000,159029.2343750000,138176.5937500000,150309.9218750000,148606.3125000000,,,
0.2559999996,2,128604.3203125000,142236.0937500000,162035.7343750000,148661.2343750000,159066.4687500000,138264.6250000000,150398.1250000000,148595.7187500000,,,
0.2599999995,2,128634.0703125000,142293.2656250000,162066.4375000000,148685.9375000000,159099.7031250000,138296.8906250000,150432.4687500000,148596.2031250000,,,
0.2639999995,2,128538.4765625000,142221.8125000000,161992.1406250000,148571.0937500000,159054.0781250000,138208.2968750000,150345.7968750000,148602.7968750000,,,
0.2679999995,2,128448.2734375000,142124.0468750000,161902.6093750000,148481.3437500000,159006.2343750000,138123.1875000000,150258.2812500000,148602.2031250000,,,
0.2719999994,2,128470.8828125000,142167.3125000000,161904.5937500000,148518.7812500000,158997.8593750000,138137.3750000000,150277.3750000000,148558.2656250000,,,
0.2759999994,2,128565.1328125000,142257.2500000000,161981.1406250000,148635.8125000000,159028.8906250000,138225.8125000000,150362.2500000000,148541.4218750000,,,
0.2799999996,2,128614.4375000000,142283.5312500000,162020.5000000000,148687.2343750000,159061.5937500000,138275.5156250000,150410.5000000000,148581.9531250000,,,
0.2839999995,2,128546.9218750000,142219.5625000000,161968.6250000000,148588.8281250000,159051.9062500000,138214.4062500000,150345.3437500000,148630.0937500000,,,
0.2879999995,2,128446.7421875000,142118.0156250000,161891.8281250000,148485.0000000000,159020.6875000000,138118.2500000000,150249.8906250000,148606.0156250000,,,
0.2919999994,2,128464.0468750000,142102.3593750000,161912.6093750000,148525.8125000000,159008.8593750000,138132.3281250000,150269.7031250000,148544.4375000000,,,
0.2959999994,2,128585.6796875000,142230.8281250000,162011.1875000000,148661.0000000000,159047.3125000000,138247.2187500000,150389.0156250000,148563.8437500000,,,
0.2999999996,2,128632.1875000000,142318.5156250000,162058.0937500000,148718.7968750000,159099.0312500000,138296.6250000000,150433.3437500000,148584.3125000000,,,
0.3039999995,2,128570.5781250000,142257.1718750000,162023.1562500000,148637.3437500000,159106.6250000000,138243.7812500000,150375.8906250000,148623.3906250000,,,
0.3079999995,2,128489.1250000000,142150.3437500000,161955.7968750000,148539.9843750000,159081.3281250000,138163.8437500000,150295.3437500000,148611.7031250000,,,
0.3119999995,2,128513.7968750000,142138.0312500000,161962.8281250000,148572.5156250000,159065.0468750000,138181.5468750000,150314.9375000000,148588.6406250000,,,
0.3159999994,2,128614.5937500000,142303.0937500000,162041.3906250000,148715.5625000000,159102.0312500000,138281.4062500000,150413.7656250000,148607.5937500000,,,
0.3199999994,2,128647.4765625000,142353.8125000000,162079.2031250000,148744.5468750000,159139.3750000000,138321.3281250000,150453.3125000000,148631.2812500000,,,
0.3239999996,2,128565.1328125000,142256.5312500000,162008.6718750000,148646.4687500000,159112.6250000000,138250.7343750000,150376.9375000000,148674.1718750000,,,
0.3279999995,2,128471.5546875000,142160.6875000000,161961.4062500000,148540.6562500000,159042.2500000000,138157.6250000000,150285.6406250000,148645.9218750000,,,
0.3319999995,2,128482.0390625000,142167.6406250000,161932.2968750000,148561.0312500000,159063.7031250000,138160.4375000000,150282.8437500000,148564.3906250000,,,
0.3359999994,2,128571.0390625000,142247.0625000000,161989.2500000000,148668.8593750000,159096.2500000000,138236.2656250000,150364.9062500000,148536.8906250000,,,
0.3399999994,2,128620.1718750000,142279.2656250000,162040.3906250000,148704.6875000000,159122.7656250000,138284.6093750000,150421.7656250000,148608.1562500000,,,
0.3439999996,2,128541.0234375000,142208.8437500000,161989.1093750000,148606.5000000000,159103.9687500000,138213.1562500000,150350.2031250000,148624.7343750000,,,
0.3479999995,2,128440.9765625000,142122.8437500000,161909.3906250000,148494.5625000000,159051.0156250000,138118.6093750000,150251.0156250000,148585.1250000000,,,
0.3519999995,2,128460.1562500000,142144.5937500000,161930.2187500000,148528.9843750000,159034.7968750000,138132.1406250000,150270.9375000000,148558.3437500000,,,
0.3559999994,2,128566.5312500000,142260.5000000000,161993.4375000000,148653.9218750000,159065.4531250000,138235.3593750000,150377.2968750000,148583.2187500000,,,
0.3599999994,2,128606.6562500000,142303.7031250000,162035.8593750000,148700.9375000000,159089.5937500000,138281.1250000000,150412.0312500000,148610.0156250000,,,
0.3639999994,2,128532.6562500000,142226.5937500000,161999.9531250000,148616.2656250000,159084.0156250000,138215.2187500000,150344.2500000000,148620.5781250000,,,
0.3679999996,2,128468.2812500000,142148.0000000000,161973.8750000000,148525.2187500000,159037.8750000000,138156.1250000000,150283.8750000000,148636.1406250000,,,
0.3719999995,2,128496.0390625000,142172.6875000000,161963.6875000000,148573.5625000000,159038.2500000000,138170.3437500000,150302.7031250000,148598.1250000000,,,
0.3759999995,2,128581.6562500000,142269.4843750000,161968.4843750000,148680.8437500000,159085.2500000000,138240.7031250000,150380.0312500000,148570.0781250000,,,
0.3799999994,2,128612.2109375000,142301.7500000000,162019.6406250000,148693.4062500000,159102.0625000000,138274.1093750000,150412.4843750000,148591.6875000000,,,
0.3839999994,3,128535.6875000000,142214.9062500000,161986.6406250000,148609.5000000000,159097.3437500000,138201.3281250000,150339.7187500000,148608.1875000000,,,
0.3879999993,3,128453.2031250000,142121.7500000000,161889.2812500000,148500.5468750000,159088.5156250000,138124.8281250000,150257.8593750000,148593.7500000000,,,
0.3919999993,3,128481.3984375000,142133.3593750000,161924.0156250000,148536.3906250000,159092.1406250000,138145.9062500000,150286.6875000000,148563.5000000000,,,
0.3959999993,3,128590.4296875000,142258.5625000000,162033.6562500000,148662.7500000000,159136.6406250000,138245.5000000000,150397.5625000000,148562.1562500000,,,
0.3999999992,3,128647.7734375000,142329.5156250000,162104.1250000000,148724.4531250000,159179.6250000000,138303.9375000000,150456.3593750000,148619.9687500000,,,
0.4039999992,3,128585.0625000000,142264.3593750000,162059.5937500000,148651.6406250000,159194.9218750000,138252.5468750000,150392.9062500000,148667.5781250000,,,
0.4079999994,3,128485.9296875000,142131.9687500000,161961.4062500000,148533.7343750000,159148.6562500000,138159.2656250000,150297.1406250000,148608.6406250000,,,
0.4119999993,3,128501.4062500000,142157.5312500000,161951.9687500000,148556.7968750000,159141.4062500000,138166.9375000000,150311.2500000000,148554.2500000000,,,
0.4159999993,3,128597.0781250000,142275.8906250000,162048.0156250000,148675.6406250000,159159.9687500000,138255.3125000000,150406.5312500000,148568.0625000000,,,
0.4199999992,3,128638.8984375000,142327.5781250000,162052.1406250000,148732.0000000000,159198.5937500000,138305.2500000000,150446.2187500000,148620.2500000000,,,
0.4239999992,3,128560.3593750000,142245.2343750000,161971.8906250000,148634.3593750000,159218.0468750000,138241.9375000000,150371.1250000000,148621.2968750000,,,
0.4279999994,3,128457.0937500000,142127.8125000000,161908.6718750000,148518.1718750000,159169.2500000000,138135.7343750000,150271.1093750000,148575.0625000000,,,
0.4319999993,3,128476.3046875000,142145.5312500000,161927.6093750000,148544.8125000000,159148.8437500000,138146.7187500000,150287.7656250000,148556.3437500000,,,
0.4359999993,3,128585.5468750000,142261.1093750000,162025.2656250000,148662.8281250000,159182.5000000000,138247.7968750000,150397.6562500000,148569.9375000000,,,
0.4399999992,3,128635.2500000000,142316.0937500000,162080.4687500000,148708.0781250000,159226.7812500000,138299.7031250000,150443.6718750000,148617.0312500000,,,
0.4439999992,3,128566.3984375000,142244.8125000000,162030.0937500000,148638.9531250000,159233.7343750000,138237.5312500000,150373.7812500000,148638.2812500000,,,
0.4479999992,3,128485.9531250000,142145.4531250000,161956.8750000000,148546.7656250000,159184.9218750000,138159.6093750000,150295.9687500000,148629.4843750000,,,
0.4519999993,3,128527.5859375000,142173.4843750000,161983.3750000000,148586.2187500000,159167.7031250000,138193.2812500000,150332.3593750000,148623.9843750000,,,
0.4559999993,3,128622.1562500000,142284.7968750000,162050.8593750000,148681.9218750000,159207.8750000000,138275.5937500000,150421.6093750000,148565.8593750000,,,
0.4599999993,3,128648.9296875000,142312.2031250000,162064.2968750000,148705.7343750000,159245.7500000000,138305.8750000000,150450.7031250000,148579.5937500000,,,
0.4639999992,3,128577.6093750000,142242.7343750000,162024.3906250000,148631.8437500000,159252.0468750000,138245.6250000000,150384.8750000000,148612.6875000000,,,
0.4679999992,3,128490.2734375000,142159.6718750000,161973.9843750000,148529.1718750000,159203.0156250000,138165.6718750000,150301.8906250000,148600.8593750000,,,
0.4719999994,3,128503.2812500000,142173.8125000000,161960.5937500000,148547.8125000000,159163.6250000000,138174.0625000000,150317.4531250000,148556.2031250000,,,
0.4759999993,3,128608.4296875000,142286.2968750000,162049.4375000000,148670.8125000000,159208.7812500000,138274.9531250000,150419.8906250000,148590.0312500000,,,
0.4799999993,3,128648.7656250000,142334.5781250000,162090.7187500000,148725.1093750000,159256.5781250000,138315.2812500000,150460.4375000000,148617.3125000000,,,
0.4839999992,3,128579.3281250000,142259.3125000000,162028.1875000000,148644.0781250000,159260.6093750000,138250.6406250000,150391.9062500000,148642.6250000000,,,
0.4879999992,3,128484.6171875000,142102.7500000000,161932.0625000000,148555.7031250000,159216.5625000000,138153.6875000000,150293.9062500000,148590.7187500000,,,
0.4919999992,3,128503.3671875000,142124.7187500000,161951.8281250000,148620.8437500000,159198.9687500000,138163.6406250000,150308.0156250000,148572.7812500000,,,
0.4959999993,3,128609.1796875000,142276.8906250000,162038.7812500000,148687.4218750000,159213.5312500000,138263.2343750000,150411.1093750000,148593.0781250000,,,
0.4999999993,3,128663.0625000000,142349.1093750000,162099.9218750000,148697.7656250000,159199.3125000000,138320.9531250000,150472.0468750000,148639.0000000000,,,
0.5039999993,3,128576.7500000000,142251.1562500000,162046.4531250000,148633.2656250000,159190.5468750000,138241.1562500000,150387.0312500000,148622.8906250000,,,
0.5079999992,3,128458.7343750000,142133.5781250000,161927.6093750000,148517.3906250000,159164.6718750000,138129.2500000000,150272.7343750000,148588.9218750000,,,
0.5119999992,4,128477.8593750000,142156.7500000000,161932.0937500000,148535.1562500000,159150.4687500000,138145.3906250000,150294.4843750000,148579.1093750000,,,
0.5159999991,4,128589.7578125000,142265.0625000000,162033.9531250000,148644.0937500000,159180.6250000000,138254.2187500000,150400.8906250000,148599.4218750000,,,
0.5199999991,4,128647.2890625000,142304.1093750000,162090.0781250000,148712.6250000000,159221.4218750000,138307.9375000000,150459.5312500000,148641.3125000000,,,
0.5239999990,4,128572.4062500000,142226.3593750000,162030.9843750000,148633.4062500000,159202.1093750000,138238.7968750000,150385.9531250000,148615.4062500000,,,
0.5279999990,4,128478.7421875000,142139.0468750000,161946.8750000000,148522.7656250000,159139.4218750000,138139.9531250000,150294.5468750000,148576.3437500000,,,
0.5319999990,4,128485.9531250000,142128.8750000000,161924.4375000000,148529.8906250000,159112.0937500000,138140.3281250000,150300.3125000000,148538.4531250000,,,
0.5359999991,4,128579.9375000000,142235.2500000000,162004.6718750000,148655.3906250000,159157.9375000000,138236.0000000000,150384.4843750000,148553.8125000000,,,
0.5399999991,4,128626.9843750000,142302.9531250000,162067.3593750000,148708.9062500000,159199.8281250000,138277.0937500000,150435.3125000000,148593.5625000000,,,
0.5439999991,4,128567.6328125000,142241.7187500000,162048.1718750000,148637.1562500000,159191.4375000000,138227.3125000000,150382.8125000000,148628.6718750000,,,
0.5479999990,4,128467.6093750000,142135.1250000000,161941.8750000000,148517.6093750000,159139.4531250000,138133.7500000000,150279.3125000000,148607.2968750000,,,
0.5519999990,4,128479.4140625000,142162.1718750000,161936.8906250000,148532.3125000000,159101.2656250000,138146.5468750000,150292.4218750000,148576.5625000000,,,
0.5559999992,4,128585.6015625000,142264.8906250000,162018.7500000000,148653.3593750000,159130.5468750000,138252.0468750000,150395.5781250000,148602.9218750000,,,
0.5599999991,4,128614.9453125000,142284.8750000000,162040.2031250000,148702.2031250000,159185.6093750000,138286.4218750000,150426.2968750000,148582.2968750000,,,
0.5639999991,4,128530.4843750000,142212.4843750000,161989.0625000000,148602.7968750000,159165.8750000000,138206.1250000000,150351.3281250000,148595.6562500000,,,
0.5679999990,4,128435.8828125000,142117.8906250000,161913.2656250000,148469.6250000000,159110.6250000000,138114.1562500000,150260.6093750000,148573.0156250000,,,
0.5719999990,4,128455.8125000000,142133.7968750000,161925.6718750000,148509.9843750000,159106.9375000000,138128.7968750000,150280.5156250000,148540.2968750000,,,
0.5759999990,4,128569.3203125000,142247.2500000000,162018.8281250000,148654.0312500000,159146.5625000000,138236.2656250000,150392.9062500000,148555.3125000000,,,
0.5799999991,4,128644.7734375000,142330.8437500000,162095.8593750000,148729.0156250000,159186.6093750000,138314.7187500000,150465.3281250000,148642.1718750000,,,
0.5839999991,4,128563.5546875000,142221.7187500000,162018.7500000000,148626.5312500000,159173.2812500000,138239.7031250000,150388.4687500000,148631.6875000000,,,
0.5879999991,4,128441.8593750000,142043.0000000000,161901.2187500000,148490.1406250000,159113.8593750000,138119.7812500000,150273.9687500000,148562.0468750000,,,
0.5919999990,4,128448.5390625000,142112.4687500000,161917.3593750000,148501.6562500000,159110.7812500000,138114.6562500000,150275.7500000000,148519.5468750000,,,
0.5959999990,4,128567.0937500000,142256.9062500000,162017.4687500000,148645.0625000000,159161.6562500000,138222.6718750000,150386.2187500000,148543.6250000000,,,
0.5999999992,4,128625.2968750000,142310.6875000000,162072.9375000000,148720.6250000000,159209.6406250000,138283.9375000000,150448.3750000000,148596.0156250000,,,
0.6039999991,4,128552.2109375000,142229.6562500000,162021.4062500000,148621.1093750000,159200.9062500000,138223.8281250000,150379.7343750000,148603.3593750000,,,
0.6079999991,4,128456.1562500000,142126.0625000000,161956.6093750000,148499.0468750000,159140.7343750000,138132.2500000000,150284.9218750000,148591.0000000000,,,
0.6119999990,4,128460.0468750000,142137.0937500000,161952.0468750000,148526.4062500000,159126.3906250000,138129.1093750000,150282.3437500000,148566.0000000000,,,
0.6159999990,4,128570.6640625000,142258.1562500000,162014.0000000000,148647.9375000000,159175.8437500000,138236.6718750000,150386.5781250000,148581.2500000000,,,
0.6199999989,4,128629.5390625000,142309.8281250000,162067.1093750000,148703.1406250000,159200.0156250000,138297.2031250000,150451.1250000000,148603.2031250000,,,
0.6239999991,4,128565.4609375000,142211.7656250000,162066.6250000000,148614.3593750000,159122.7656250000,138239.1718750000,150396.0625000000,148644.1875000000,,,
0.6279999991,4,128449.3203125000,142102.7500000000,161933.7812500000,148496.0156250000,159116.0625000000,138121.4687500000,150275.6875000000,148559.7500000000,,,
0.6319999991,4,128453.3437500000,142132.5000000000,161895.5000000000,148509.9062500000,159153.0000000000,138122.5468750000,150267.7812500000,148513.2343750000,,,
0.6359999990,4,128567.3593750000,142250.8125000000,161998.6093750000,148643.1093750000,159193.4531250000,138231.3906250000,150378.0937500000,148556.1250000000,,,
0.6399999990,5,128624.9765625000,142306.6093750000,162057.0468750000,148706.1406250000,159227.1875000000,138290.0000000000,150438.5312500000,148616.2031250000,,,
0.6439999989,5,128553.9531250000,142227.6406250000,162009.9218750000,148619.9687500000,159207.1718750000,138225.9375000000,150374.9375000000,148609.2656250000,,,
0.6479999989,5,128458.7890625000,142125.2656250000,161939.8125000000,148500.5781250000,159162.6562500000,138133.2812500000,150286.0937500000,148591.4687500000,,,
0.6519999988,5,128455.5156250000,142119.9218750000,161929.0312500000,148501.4687500000,159130.2031250000,138126.2968750000,150276.7968750000,148540.1093750000,,,
0.6559999988,5,128561.8906250000,142234.5937500000,162023.9843750000,148622.9062500000,159158.7343750000,138229.2656250000,150376.9687500000,148560.5000000000,,,
0.6599999988,5,128623.6875000000,142303.5000000000,162083.8437500000,148701.7343750000,159198.4062500000,138291.3906250000,150437.8750000000,148619.9062500000,,,
0.6639999989,5,128551.5625000000,142209.3125000000,162025.2187500000,148606.6250000000,159152.3281250000,138230.2656250000,150371.6875000000,148619.1562500000,,,
0.6679999989,5,128442.3671875000,142100.3437500000,161931.2031250000,148470.5156250000,159086.9687500000,138117.1875000000,150267.3750000000,148577.1875000000,,,
0.6719999989,5,128438.2421875000,142111.5468750000,161907.1718750000,148473.9687500000,159098.0156250000,138109.4843750000,150257.4218750000,148540.5468750000,,,
0.6759999988,5,128546.1953125000,142233.1718750000,161971.0937500000,148608.7500000000,159130.9531250000,138211.0000000000,150357.5781250000,148550.2500000000,,,
0.6799999988,5,128619.2656250000,142312.9062500000,162026.7500000000,148691.5156250000,159184.9375000000,138282.8593750000,150425.4375000000,148611.9375000000,,,
0.6839999990,5,128554.7812500000,142235.7343750000,161997.7500000000,148621.5156250000,159180.7343750000,138224.7343750000,150361.8750000000,148648.5312500000,,,
0.6879999989,5,128435.6093750000,142090.3906250000,161902.7187500000,148466.8281250000,159120.5468750000,138110.0000000000,150247.6093750000,148563.3437500000,,,
0.6919999989,5,128437.8906250000,142085.3281250000,161910.7343750000,148465.8125000000,159090.2343750000,138110.0000000000,150248.4687500000,148518.8906250000,,,
0.6959999988,5,128557.0390625000,142223.0000000000,162004.2187500000,148614.0000000000,159141.5468750000,138222.1093750000,150359.1562500000,148564.4687500000,,,
0.6999999988,5,128630.4765625000,142303.0937500000,162062.4218750000,148691.2500000000,159206.4843750000,138294.5312500000,150430.4218750000,148604.4062500000,,,
0.7039999987,5,128558.5390625000,142212.8593750000,162025.3750000000,148613.0937500000,159217.9375000000,138225.8593750000,150367.6875000000,148597.7187500000,,,
0.7079999989,5,128449.7187500000,142106.5625000000,161930.3125000000,148492.0468750000,159178.2031250000,138120.3437500000,150264.0468750000,148560.3593750000,,,
0.7119999989,5,128454.4687500000,142107.7656250000,161915.1562500000,148496.3125000000,159156.7031250000,138121.7656250000,150265.9843750000,148538.6875000000,,,
0.7159999989,5,128560.6015625000,142219.8281250000,162012.6093750000,148617.1406250000,159172.6093750000,138219.5937500000,150369.1718750000,148554.6250000000,,,
0.7199999988,5,128636.1093750000,142321.5468750000,162087.6250000000,148689.3281250000,159196.6406250000,138294.4687500000,150445.3906250000,148603.2812500000,,,
0.7239999988,5,128581.0390625000,142275.6718750000,162046.4375000000,148623.1250000000,159225.3593750000,138247.7187500000,150393.4687500000,148625.7500000000,,,
0.7279999990,5,128462.3515625000,142121.7500000000,161952.9531250000,148504.1718750000,159183.5781250000,138129.7031250000,150279.9843750000,148544.3437500000,,,
0.7319999989,5,128452.4531250000,142095.0781250000,161915.5468750000,148494.0312500000,159161.8281250000,138116.9687500000,150265.2500000000,148526.1406250000,,,
0.7359999989,5,128563.8515625000,142208.9687500000,161970.8125000000,148617.1250000000,159179.9531250000,138224.8125000000,150366.6406250000,148553.5468750000,,,
0.7399999988,5,128632.1640625000,142301.7500000000,162050.9062500000,148698.8750000000,159204.5781250000,138294.9375000000,150431.4375000000,148619.6875000000,,,
0.7439999988,5,128562.6406250000,142238.0937500000,162008.0781250000,148609.7500000000,159195.2968750000,138233.7812500000,150368.5156250000,148631.8437500000,,,
0.7479999987,5,128464.7109375000,142142.7500000000,161929.8281250000,148482.0468750000,159144.5156250000,138142.2656250000,150278.6875000000,148604.2656250000,,,
0.7519999989,5,128463.2890625000,142128.0781250000,161935.7656250000,148496.9531250000,159125.6718750000,138134.4218750000,150278.0468750000,148540.7031250000,,,
0.7559999989,5,128562.6171875000,142248.2343750000,162012.5000000000,148622.0000000000,159147.1718750000,138226.2187500000,150368.6562500000,148534.9843750000,,,
0.7599999988,5,128624.9218750000,142312.1875000000,162047.6406250000,148685.9375000000,159164.5625000000,138289.3750000000,150425.1718750000,148594.7500000000,,,
0.7639999988,5,128560.2031250000,142227.0156250000,161987.6093750000,148599.5156250000,159149.9375000000,138230.3750000000,150365.1875000000,148613.0156250000,,,
0.7679999988,6,128453.5312500000,142115.5000000000,161902.0781250000,148476.5156250000,159127.9218750000,138133.5468750000,150263.0781250000,148595.5468750000,,,
0.7719999987,6,128453.6093750000,142113.9375000000,161918.8906250000,148479.2031250000,159077.3906250000,138128.5000000000,150268.6875000000,148554.5468750000,,,
0.7759999987,6,128551.4062500000,142211.5468750000,161984.7656250000,148598.0468750000,159103.7500000000,138216.3750000000,150356.1875000000,148522.5156250000,,,
0.7799999986,6,128623.9062500000,142294.0468750000,162029.5937500000,148674.8437500000,159152.2968750000,138288.8437500000,150417.2500000000,148575.5781250000,,,
0.7839999986,6,128568.3828125000,142235.9062500000,161992.0625000000,148598.8593750000,159162.2812500000,138238.4687500000,150369.3281250000,148593.7500000000,,,
0.7879999985,6,128473.1640625000,142124.8593750000,161933.3750000000,148489.5000000000,159104.8750000000,138145.4843750000,150293.0625000000,148583.7812500000,,,
0.7919999987,6,128474.8828125000,142110.9843750000,161932.3906250000,148494.3750000000,159081.2812500000,138141.5156250000,150297.8437500000,148569.4062500000,,,
0.7959999987,6,128575.4375000000,142186.9843750000,162001.3125000000,148612.5625000000,159116.9531250000,138230.0781250000,150389.3125000000,148550.2500000000,,,
0.7999999986,6,128626.2656250000,142270.4687500000,162047.2343750000,148674.8593750000,159149.3750000000,138277.9218750000,150435.2343750000,148563.9531250000,,,
0.8039999986,6,128560.4921875000,142217.0781250000,162016.6562500000,148584.2812500000,159124.4062500000,138220.9843750000,150374.7968750000,148578.3593750000,,,
0.8079999986,6,128446.8203125000,142110.6406250000,161897.8437500000,148461.6093750000,159093.5312500000,138113.8750000000,150267.8593750000,148538.9062500000,,,
0.8119999988,6,128442.5312500000,142106.0781250000,161880.4218750000,148459.4375000000,159053.7031250000,138107.0468750000,150258.4218750000,148516.6093750000,,,
0.8159999987,6,128550.9453125000,142222.1093750000,161974.7031250000,148584.4531250000,159067.5937500000,138208.2187500000,150347.4687500000,148562.1875000000,,,
0.8199999987,6,128626.2890625000,142299.3593750000,162043.6093750000,148681.7812500000,159140.8437500000,138286.4218750000,150414.3906250000,148605.6093750000,,,
0.8239999986,6,128553.4687500000,142212.3437500000,161978.5156250000,148611.4375000000,159148.6718750000,138223.4531250000,150348.9375000000,148586.3281250000,,,
0.8279999986,6,128450.4687500000,142093.7656250000,161905.4843750000,148499.4531250000,159082.1406250000,138129.2812500000,150255.5937500000,148582.9531250000,,,
0.8319999985,6,128451.1406250000,142068.0000000000,161904.3750000000,148520.0781250000,159065.4843750000,138121.0156250000,150254.3593750000,148512.6250000000,,,
0.8359999987,6,128559.5859375000,142208.4375000000,161959.7656250000,148641.1250000000,159132.5312500000,138222.2968750000,150350.9843750000,148536.0156250000,,,
0.8399999987,6,128628.7812500000,142304.4843750000,162037.7187500000,148696.6718750000,159154.3593750000,138288.9531250000,150418.7031250000,148602.3437500000,,,
0.8439999986,6,128562.4296875000,142243.5156250000,162008.0156250000,148610.7343750000,159130.0937500000,138228.2812500000,150356.1562500000,148609.6093750000,,,
0.8479999986,6,128441.3281250000,142113.2656250000,161912.0468750000,148466.7343750000,159054.1250000000,138114.0468750000,150247.3906250000,148561.2500000000,,,
0.8519999986,6,128431.2109375000,142101.2031250000,161904.8125000000,148457.5781250000,159026.3750000000,138105.4375000000,150238.1406250000,148522.4062500000,,,
0.8559999987,6,128532.4921875000,142192.3125000000,161969.0468750000,148605.2343750000,159086.7968750000,138197.4843750000,150330.8281250000,148537.3750000000,,,
0.8599999987,6,128595.4140625000,142246.6562500000,162013.9531250000,148663.1718750000,159122.8281250000,138260.0937500000,150391.8750000000,148571.7812500000,,,
0.8639999987,6,128539.6250000000,142183.4687500000,161989.4375000000,148583.0468750000,159102.3906250000,138215.5156250000,150348.2187500000,148591.3437500000,,,
0.8679999986,6,128429.5468750000,142054.7968750000,161896.8125000000,148466.1406250000,159059.8750000000,138113.6875000000,150246.2187500000,148550.0625000000,,,
0.8719999986,6,128424.9609375000,142048.0312500000,161872.0312500000,148466.6718750000,159029.2343750000,138106.9375000000,150236.9375000000,148541.1875000000,,,
0.8759999985,6,128542.9296875000,142181.8281250000,161992.7343750000,148597.3750000000,159026.6718750000,138211.2968750000,150350.2500000000,148558.2187500000,,,
0.8799999987,6,128624.4140625000,142272.3281250000,162081.4062500000,148705.6875000000,159096.4375000000,138287.6093750000,150425.6562500000,148601.3437500000,,,
0.8839999987,6,128559.9843750000,142205.4843750000,161993.9375000000,148669.6406250000,159149.6250000000,138228.9531250000,150364.3437500000,148614.6718750000,,,
0.8879999986,6,128458.6250000000,142118.3125000000,161880.0781250000,148523.1562500000,159090.3750000000,138133.2187500000,150269.5156250000,148623.1250000000,,,
0.8919999986,6,128427.3750000000,142080.4375000000,161878.0468750000,148469.4687500000,159030.8281250000,138094.9375000000,150233.7343750000,148513.4218750000,,,
0.8959999986,7,128526.5390625000,142174.2031250000,161975.7812500000,148573.5625000000,159042.3593750000,138181.9062500000,150322.8906250000,148513.4531250000,,,
0.8999999985,7,128602.4453125000,142247.4687500000,162024.2031250000,148658.7656250000,159098.3281250000,138258.6718750000,150392.3125000000,148561.6718750000,,,
0.9039999985,7,128533.9687500000,142180.7343750000,161970.0625000000,148564.7031250000,159083.6406250000,138201.2343750000,150332.0156250000,148563.2812500000,,,
0.9079999984,7,128428.0468750000,142076.9531250000,161872.0937500000,148442.1562500000,159026.8593750000,138105.7812500000,150234.3281250000,148536.7031250000,,,
0.9119999984,7,128423.1406250000,142063.0312500000,161873.4843750000,148442.2656250000,158984.9062500000,138091.9375000000,150231.3750000000,148506.3906250000,,,
0.9159999983,7,128535.5781250000,142163.1562500000,161975.0781250000,148583.6406250000,159021.4375000000,138193.5625000000,150330.9687500000,148540.8593750000,,,
0.9199999985,7,128625.7031250000,142250.2031250000,162062.2343750000,148704.1875000000,159099.4531250000,138277.0156250000,150413.2656250000,148606.8750000000,,,
0.9239999985,7,128564.8906250000,142217.3593750000,162020.4062500000,148622.1875000000,159074.2812500000,138221.1406250000,150361.2187500000,148599.1250000000,,,
0.9279999984,7,128431.0000000000,142091.8906250000,161887.3437500000,148452.8125000000,159004.4843750000,138094.4375000000,150234.4687500000,148521.6093750000,,,
0.9319999984,7,128414.8281250000,142072.5781250000,161842.6093750000,148463.5937500000,159008.9062500000,138072.1406250000,150214.1562500000,148467.6406250000,,,
0.9359999984,7,128519.5625000000,142177.5625000000,161924.7343750000,148562.5156250000,159009.4687500000,138166.9843750000,150309.5937500000,148515.9218750000,,,
0.9399999985,7,128600.5703125000,142261.1875000000,161998.9531250000,148619.3125000000,159022.2656250000,138245.7968750000,150388.6875000000,148581.1562500000,,,
0.9439999985,7,128537.3203125000,142138.3750000000,161951.7500000000,148565.2500000000,159087.1718750000,138192.8437500000,150332.2812500000,148567.7343750000,,,
0.9479999985,7,128434.0546875000,142036.9375000000,161899.4687500000,148460.8281250000,159061.3750000000,138095.9687500000,150235.4531250000,148518.3281250000,,,
0.9519999984,7,128426.8906250000,142103.6093750000,161870.4531250000,148454.8750000000,159034.8437500000,138080.8125000000,150225.3906250000,148496.6093750000,,,
0.9559999984,7,128523.4843750000,142209.7031250000,161938.4687500000,148566.2343750000,159052.0156250000,138169.2187500000,150313.4531250000,148524.0781250000,,,
0.9599999983,7,128597.5625000000,142281.3593750000,162033.5000000000,148642.6250000000,159096.5156250000,138242.0312500000,150386.0937500000,148555.0468750000,,,
0.9639999985,7,128544.8828125000,142206.2343750000,162010.8906250000,148589.1718750000,159100.1093750000,138195.7187500000,150346.0156250000,148574.1250000000,,,
0.9679999985,7,128440.4375000000,142066.0156250000,161907.2812500000,148476.7343750000,159065.0468750000,138099.2968750000,150257.1250000000,148536.4687500000,,,
0.9719999984,7,128422.8203125000,142061.5781250000,161868.7031250000,148459.3437500000,159038.1250000000,138081.5937500000,150235.7031250000,148503.8281250000,,,
0.9759999984,7,128522.8359375000,142179.7812500000,161963.7187500000,148581.9062500000,159056.7343750000,138174.7968750000,150322.4375000000,148535.5781250000,,,
0.9799999984,7,128602.6562500000,142254.8437500000,162004.1093750000,148685.4687500000,159112.3906250000,138254.2968750000,150393.0312500000,148576.2656250000,,,
0.9839999985,7,128550.8906250000,142204.3281250000,161952.6562500000,148634.6093750000,159124.2500000000,138210.2500000000,150349.4531250000,148590.0312500000,,,
0.9879999985,7,128443.3125000000,142107.9375000000,161902.9375000000,148490.5937500000,159083.1875000000,138112.0000000000,150255.2968750000,148552.9062500000,,,
0.9919999985,7,128418.7968750000,142079.1562500000,161883.0312500000,148467.2968750000,159062.2656250000,138086.7343750000,150227.5937500000,148512.1562500000,,,
0.9959999984,7,128526.4062500000,142187.0312500000,161968.5156250000,148597.5937500000,159094.7343750000,138178.2031250000,150323.0625000000,148499.6875000000,,,
0.9999999984,7,128603.3281250000,142271.0312500000,162023.7187500000,148677.8437500000,159134.8125000000,138250.4062500000,150394.3281250000,148545.5625000000,,,
1.0039999983,7,128540.5156250000,142194.1406250000,161961.1562500000,148589.4375000000,159134.3593750000,138196.3281250000,150336.9843750000,148553.9531250000,,,
1.0079999985,7,128440.6562500000,142088.9687500000,161891.2968750000,148479.5468750000,159090.6875000000,138104.7031250000,150249.8281250000,148541.3125000000,,,
1.0119999985,7,128432.9062500000,142085.4531250000,161889.4218750000,148461.7968750000,159055.6406250000,138094.8437500000,150240.7343750000,148515.9218750000,,,
1.0159999984,7,128522.3828125000,142166.1875000000,161960.5000000000,148559.9375000000,159070.0625000000,138174.6406250000,150317.8750000000,148522.8437500000,,,
1.0199999984,7,128597.6953125000,142261.3750000000,162000.4375000000,148652.8437500000,159128.0000000000,138248.2031250000,150386.0625000000,148583.3750000000,,,
1.0239999983,8,128546.8984375000,142190.6250000000,161984.5000000000,148608.8906250000,159138.7500000000,138203.7031250000,150344.2187500000,148594.4218750000,,,
1.0279999983,8,128421.4531250000,142062.5156250000,161887.7187500000,148474.5312500000,159117.2656250000,138087.1875000000,150228.7500000000,148512.2656250000,33029,1.0306288353,0.0000000000
1.0319999983,8,128409.0312500000,142056.0625000000,161861.0312500000,148456.7812500000,159075.1562500000,138072.4687500000,150214.0468750000,148481.1250000000,,,
1.0359999982,8,128525.9765625000,142176.1093750000,161947.6406250000,148586.5937500000,159110.8906250000,138179.4843750000,150317.7968750000,148518.9687500000,,,
1.0399999982,8,128615.2109375000,142276.2187500000,162037.1250000000,148672.8593750000,159155.1718750000,138269.3437500000,150398.8593750000,148599.3281250000,,,
1.0439999981,8,128555.4296875000,142208.0000000000,162005.7968750000,148602.9218750000,159147.3125000000,138217.0625000000,150349.6093750000,148614.5468750000,,,
1.0479999983,8,128422.0937500000,142053.3281250000,161889.9218750000,148474.1875000000,159106.1718750000,138089.5468750000,150229.8437500000,148509.0000000000,,,
1.0519999983,8,128397.5000000000,142042.8125000000,161853.2812500000,148465.3593750000,159084.4375000000,138062.9531250000,150207.1875000000,148490.2187500000,,,
1.0559999982,8,128501.6718750000,142154.8906250000,161930.5312500000,148590.9687500000,159125.6406250000,138158.0781250000,150299.4218750000,148524.5625000000,,,
1.0599999982,8,128582.6484375000,142238.7968750000,161995.1406250000,148674.5468750000,159165.2343750000,138235.1250000000,150371.5000000000,148571.6250000000,,,
1.0639999982,8,128538.7421875000,142183.8906250000,161969.5312500000,148595.8750000000,159166.4062500000,138197.0000000000,150334.7500000000,148575.5156250000,,,
1.0679999983,8,128428.5859375000,142069.7343750000,161879.8437500000,148468.6562500000,159120.0312500000,138094.3593750000,150236.7500000000,148529.7812500000,,,
1.0719999983,8,128410.7500000000,142066.9531250000,161854.9218750000,148457.9531250000,159086.1093750000,138076.1406250000,150217.2500000000,148487.0625000000,,,
1.0759999983,8,128517.2031250000,142170.4843750000,161936.8125000000,148572.7031250000,159115.2031250000,138171.2343750000,150306.9843750000,148501.0000000000,,,
1.0799999982,8,128611.2421875000,142264.2812500000,162021.2656250000,148664.6406250000,159155.0937500000,138261.0468750000,150392.2343750000,148569.0312500000,,,
1.0839999982,8,128566.7421875000,142230.3437500000,162013.6875000000,148610.7812500000,159135.8281250000,138226.1562500000,150361.8906250000,148594.6093750000,,,
1.0879999981,8,128437.2734375000,142076.8750000000,161943.8125000000,148481.1875000000,159083.4687500000,138105.0000000000,150251.3593750000,148529.2500000000,,,
1.0919999983,8,128412.7578125000,142052.8906250000,161888.5312500000,148468.5468750000,159075.2656250000,138077.4062500000,150225.7500000000,148506.9375000000,,,
1.0959999983,8,128515.3281250000,142184.7031250000,161940.2968750000,148583.6406250000,159111.9843750000,138171.6875000000,150310.6875000000,148514.7187500000,,,
1.0999999982,8,128609.7421875000,142283.1562500000,162031.2968750000,148682.8593750000,159167.0000000000,138265.6718750000,150392.5000000000,148544.0625000000,,,
1.1039999982,8,128556.2578125000,142205.4062500000,162005.6562500000,148619.6718750000,159163.6250000000,138219.9687500000,150346.0468750000,148568.2187500000,,,
1.1079999981,8,128442.4531250000,142083.3125000000,161905.0000000000,148510.0156250000,159098.0156250000,138114.2343750000,150249.4062500000,148544.2656250000,,,
1.1119999983,8,128432.7968750000,142089.7187500000,161860.7968750000,148516.9062500000,159084.0625000000,138101.4375000000,150238.7031250000,148522.8906250000,,,
1.1159999983,8,128540.4843750000,142197.5468750000,161947.9062500000,148680.9531250000,159145.0781250000,138199.1562500000,150329.0625000000,148530.0781250000,,,
1.1199999982,8,128624.2812500000,142281.7968750000,162031.6718750000,148711.5625000000,159170.6406250000,138281.6562500000,150402.4531250000,148571.8125000000,,,
1.1239999982,8,128555.2343750000,142207.6875000000,161984.5468750000,148560.6250000000,159095.8593750000,138221.2031250000,150341.0312500000,148569.4218750000,,,
1.1279999982,8,128436.9296875000,142088.1093750000,161898.3750000000,148430.2500000000,159028.9531250000,138112.2656250000,150238.7031250000,148516.1093750000,,,
1.1319999981,8,128413.0781250000,142048.1406250000,161871.0156250000,148419.3906250000,159005.0468750000,138085.3906250000,150215.6562500000,148474.3906250000,,,
1.1359999983,8,128516.9921875000,142164.1250000000,161940.2187500000,148546.0156250000,159039.0781250000,138179.7500000000,150306.0468750000,148504.6875000000,,,
1.1399999983,8,128621.1406250000,142278.5468750000,162036.6093750000,148668.3750000000,159085.5625000000,138278.7031250000,150405.4531250000,148587.8593750000,,,
1.1439999982,8,128570.5546875000,142201.1093750000,162009.1562500000,148620.9531250000,159083.6093750000,138234.2812500000,150363.2968750000,148600.5937500000,,,
1.1479999982,8,128443.1484375000,142102.8125000000,161903.6250000000,148481.5000000000,159033.9843750000,138115.7343750000,150249.2656250000,148551.8281250000,,,
1.1519999981,9,128414.3671875000,142079.5625000000,161871.1718750000,148430.3281250000,159008.5625000000,138085.5781250000,150221.0468750000,148478.7187500000,,,
1.1559999981,9,128524.3125000000,142160.0156250000,161960.2187500000,148555.2656250000,159044.7656250000,138179.8906250000,150314.9375000000,148478.0781250000,,,
1.1599999981,9,128616.8750000000,142246.4375000000,162027.7031250000,148661.0468750000,159108.9062500000,138265.2187500000,150396.0468750000,148525.3593750000,,,
1.1639999980,9,128570.5234375000,142210.9843750000,161991.1562500000,148610.4375000000,159110.7031250000,138230.8281250000,150360.7968750000,148555.7968750000,,,
1.1679999980,9,128465.4140625000,142107.6093750000,161911.6718750000,148496.7187500000,159055.3125000000,138135.5468750000,150275.5781250000,148536.3281250000,,,
1.1719999979,9,128443.9765625000,142088.3281250000,161899.3906250000,148478.7187500000,159026.6093750000,138113.0000000000,150257.9531250000,148508.4687500000,,,
1.1759999981,9,128548.2890625000,142195.9375000000,161967.5156250000,148605.9843750000,159058.7656250000,138205.5625000000,150343.7031250000,148531.4687500000,,,
1.1799999981,9,128634.8750000000,142266.6875000000,162029.1250000000,148685.5625000000,159101.4531250000,138285.6250000000,150416.5312500000,148572.4375000000,,,
1.1839999980,9,128584.2343750000,142203.5000000000,162019.6093750000,148606.0468750000,159082.4843750000,138243.2187500000,150377.6406250000,148570.9531250000,,,
1.1879999980,9,128471.7421875000,142094.6250000000,161941.0000000000,148485.3906250000,159028.7031250000,138140.9687500000,150282.8750000000,148526.3750000000,,,
1.1919999979,9,128457.0703125000,142102.0625000000,161892.9531250000,148484.0781250000,159035.1093750000,138121.7656250000,150260.4062500000,148507.6875000000,,,
1.1959999981,9,128560.3906250000,142217.9375000000,161954.5937500000,148604.7031250000,159066.6250000000,138212.5625000000,150343.3593750000,148542.4218750000,,,
1.1999999981,9,128639.1640625000,142298.5000000000,162037.8437500000,148700.3281250000,159104.9843750000,138289.5156250000,150408.5937500000,148573.7968750000,,,
1.2039999980,9,128593.9687500000,142259.5312500000,162017.4687500000,148658.3750000000,159106.7343750000,138252.4218750000,150375.1718750000,148600.9218750000,,,
1.2079999980,9,128474.3437500000,142120.5625000000,161934.3437500000,148511.9531250000,159023.0781250000,138144.5937500000,150279.4375000000,148560.5000000000,,,
1.2119999980,9,128441.6718750000,142072.3437500000,161870.7656250000,148468.0937500000,158986.7031250000,138113.2031250000,150246.4531250000,148501.1093750000,,,
1.2159999979,9,128541.8515625000,142196.0468750000,161941.1562500000,148610.8437500000,159040.6093750000,138203.5000000000,150324.6718750000,148535.8281250000,,,
1.2199999981,9,128618.3203125000,142280.9843750000,162008.2343750000,148741.7031250000,159104.3437500000,138275.3437500000,150383.1093750000,148583.8906250000,,,
1.2239999981,9,128570.4765625000,142228.4218750000,161985.8125000000,148662.4218750000,159096.4375000000,138237.4218750000,150348.5156250000,148580.9843750000,,,
1.2279999980,9,128467.6640625000,142103.2187500000,161936.1875000000,148498.0781250000,158998.9531250000,138143.6875000000,150272.4218750000,148532.3906250000,,,
1.2319999980,9,128448.9921875000,142084.1875000000,161904.6250000000,148457.2343750000,158971.8906250000,138121.7968750000,150254.4218750000,148494.7812500000,,,
1.2359999979,9,128550.7031250000,142192.3906250000,161959.7968750000,148600.8593750000,158986.3281250000,138206.6093750000,150335.1875000000,148511.7031250000,,,
1.2399999981,9,128641.4140625000,142279.7500000000,162013.7031250000,148701.4531250000,159063.2187500000,138290.9531250000,150412.8281250000,148545.7968750000,,,
1.2439999981,9,128586.4843750000,142209.6093750000,161997.0000000000,148609.6562500000,159076.8281250000,138243.5937500000,150366.7031250000,148545.7187500000,,,
1.2479999980,9,128467.6406250000,142090.2343750000,161925.5468750000,148480.7500000000,159007.9687500000,138135.7968750000,150267.7031250000,148525.8125000000,,,
1.2519999980,9,128432.5234375000,142056.3281250000,161863.7187500000,148470.4062500000,158969.2968750000,138098.7500000000,150231.4531250000,148512.9375000000,,,
1.2559999980,9,128523.8281250000,142147.1406250000,161927.7968750000,148581.7343750000,158978.0625000000,138178.9531250000,150307.2812500000,148486.8750000000,,,
1.2599999979,9,128612.0468750000,142255.5312500000,162007.0312500000,148689.8593750000,159015.6093750000,138264.1093750000,150382.3906250000,148530.3750000000,,,
1.2639999981,9,128574.5234375000,142219.3593750000,161993.4843750000,148648.2343750000,159003.8125000000,138233.7812500000,150357.8437500000,148571.5781250000,,,
1.2679999981,9,128465.2734375000,142126.8125000000,161909.6406250000,148515.9531250000,158950.5781250000,138137.6250000000,150267.2656250000,148546.7656250000,,,
1.2719999980,9,128431.2968750000,142085.0312500000,161885.0937500000,148449.7968750000,158878.9531250000,138105.0625000000,150235.8125000000,148508.3281250000,,,
1.2759999980,9,128532.1171875000,142166.5937500000,161979.3750000000,148531.6093750000,158884.9843750000,138192.2500000000,150317.9062500000,148521.3437500000,,,
1.2799999979,10,128618.8593750000,142242.8750000000,162021.9687500000,148647.4531250000,158960.0468750000,138268.1875000000,150387.9687500000,148538.2656250000,,,
1.2839999979,10,128574.7656250000,142201.5937500000,161982.8906250000,148617.8906250000,158956.7343750000,138225.3750000000,150352.0000000000,148543.4687500000,,,
1.2879999978,10,128455.2187500000,142094.4218750000,161889.8125000000,148474.9687500000,158885.6562500000,138128.3906250000,150248.2812500000,148537.8906250000,,,
1.2919999978,10,128422.2812500000,142059.6875000000,161855.1875000000,148428.8281250000,158842.6718750000,138109.6406250000,150216.3906250000,148508.5156250000,,,
1.2959999978,10,128502.3437500000,142131.4062500000,161874.7500000000,148543.6250000000,158885.5781250000,138172.3593750000,150273.2968750000,148482.3906250000,,,
1.2999999977,10,128613.9218750000,142258.4843750000,161982.5156250000,148673.0625000000,158945.8750000000,138271.2812500000,150369.1718750000,148560.9062500000,,,
1.3039999979,10,128580.7734375000,142225.8750000000,161991.7187500000,148607.2187500000,158966.2031250000,138245.2031250000,150346.0937500000,148538.7500000000,,,
1.3079999979,10,128467.6875000000,142110.7812500000,161908.1093750000,148466.6718750000,158926.7343750000,138143.5781250000,150253.1250000000,148512.0000000000,,,
1.3119999978,10,128437.9453125000,142045.3281250000,161876.1093750000,148446.0468750000,158895.6406250000,138107.8750000000,150227.0937500000,148479.3593750000,,,
1.3159999978,10,128538.0156250000,142133.4062500000,161947.4531250000,148548.4843750000,158919.2656250000,138193.9687500000,150309.4062500000,148494.5156250000,,,
1.3199999977,10,128648.0390625000,142272.5625000000,162046.8593750000,148653.9218750000,158955.6093750000,138299.5937500000,150408.0000000000,148573.0468750000,,,
1.3239999979,10,128611.0000000000,142237.9375000000,162002.0625000000,148618.7343750000,158999.2031250000,138268.5312500000,150370.9375000000,148622.5156250000,,,
1.3279999979,10,128475.0156250000,142061.0156250000,161891.1250000000,148488.7968750000,158991.6875000000,138139.3593750000,150250.4531250000,148531.3125000000,,,
1.3319999978,10,128438.4843750000,142047.3750000000,161846.6562500000,148452.0000000000,158969.5937500000,138100.1562500000,150218.3437500000,148465.2031250000,,,
1.3359999978,10,128536.4062500000,142169.0625000000,161907.8437500000,148572.5156250000,159041.3125000000,138186.4375000000,150297.4218750000,148488.8281250000,,,
1.3399999978,10,128635.1406250000,142259.4218750000,162005.2031250000,148692.6718750000,159116.7812500000,138277.1718750000,150388.5781250000,148540.0000000000,,,
1.3439999977,10,128605.9843750000,142228.9218750000,162004.9062500000,148643.7812500000,159128.3437500000,138258.1250000000,150372.4375000000,148562.9843750000,,,
1.3479999979,10,128491.6171875000,142119.2812500000,161926.4843750000,148510.3906250000,159088.9687500000,138159.3750000000,150277.8125000000,148545.6875000000,,,
1.3519999979,10,128457.9531250000,142076.7968750000,161887.9062500000,148477.4843750000,159059.6875000000,138126.7812500000,150243.8437500000,148522.1875000000,,,
1.3559999978,10,128558.7812500000,142194.5468750000,161964.6562500000,148591.6875000000,159087.8125000000,138218.1875000000,150326.5468750000,148544.5312500000,,,
1.3599999978,10,128640.8281250000,142277.8750000000,162037.7656250000,148687.9062500000,159148.7656250000,138296.9375000000,150396.1250000000,148560.3593750000,,,
1.3639999977,10,128603.9218750000,142230.1406250000,162044.1718750000,148638.3593750000,159140.9062500000,138265.7187500000,150370.6718750000,148582.2968750000,,,
1.3679999979,10,128492.1015625000,142124.0468750000,161934.3125000000,148510.8437500000,159111.9375000000,138165.0000000000,150274.4843750000,148556.0781250000,,,
1.3719999979,10,128458.4609375000,142110.9062500000,161867.0781250000,148476.2968750000,159100.3750000000,138131.4531250000,150239.6406250000,148516.1562500000,,,
1.3759999978,10,128541.5625000000,142174.7656250000,161912.7187500000,148565.5468750000,159127.7812500000,138203.5468750000,150306.4062500000,148496.3437500000,,,
1.3799999978,10,128629.4531250000,142256.5781250000,161986.2500000000,148662.2031250000,159170.3281250000,138285.2812500000,150385.6093750000,148541.0000000000,,,
1.3839999977,10,128595.3906250000,142224.5625000000,161992.2500000000,148626.2187500000,159179.4375000000,138259.7187500000,150362.3281250000,148574.5312500000,,,
1.3879999977,10,128502.6640625000,142131.5625000000,161943.7031250000,148515.5625000000,159136.5000000000,138179.7343750000,150287.0937500000,148575.0312500000,,,
1.3919999979,10,128466.2187500000,142100.8750000000,161901.3750000000,148473.2187500000,159096.7500000000,138139.9218750000,150252.3281250000,148542.8750000000,,,
1.3959999979,10,128545.6093750000,142169.9218750000,161957.2968750000,148580.0781250000,159134.3906250000,138206.2343750000,150314.9375000000,148514.6093750000,,,
1.3999999978,10,128632.1406250000,142231.8281250000,162025.7500000000,148676.2031250000,159175.6875000000,138286.7812500000,150388.0156250000,148537.3750000000,,,
1.4039999978,10,128593.1953125000,142231.4218750000,161985.4375000000,148633.4062500000,159172.7968750000,138255.7187500000,150355.2968750000,148560.6875000000,,,
1.4079999977,11,128475.3593750000,142107.8281250000,161899.6093750000,148499.4531250000,159107.9375000000,138146.3437500000,150258.6562500000,148519.9218750000,,,
1.4119999977,11,128444.5937500000,142066.5937500000,161893.1093750000,148460.8593750000,159037.9531250000,138114.4375000000,150234.8125000000,148490.7656250000,,,
1.4159999976,11,128554.5156250000,142187.2500000000,161993.8281250000,148572.5625000000,159060.7031250000,138214.8906250000,150330.3281250000,148529.4687500000,,,
1.4199999976,11,128656.1718750000,142295.6562500000,162041.6562500000,148685.7031250000,159153.9843750000,138311.6875000000,150412.2968750000,148601.2187500000,,,
1.4239999976,11,128610.4375000000,142229.5937500000,162000.2968750000,148646.4375000000,159148.3906250000,138266.7343750000,150373.7187500000,148569.9687500000,,,
1.4279999975,11,128492.2031250000,142089.6875000000,161893.8437500000,148518.1406250000,159103.6406250000,138154.7812500000,150270.5937500000,148516.4531250000,,,
1.4319999977,11,128460.6093750000,142075.2656250000,161865.9375000000,148480.4843750000,159059.3281250000,138125.5781250000,150239.1562500000,148495.7812500000,,,
1.4359999977,11,128543.5156250000,142162.5468750000,161925.1875000000,148572.8281250000,159056.2812500000,138199.1718750000,150307.5000000000,148508.2187500000,,,
1.4399999976,11,128632.0000000000,142250.4062500000,162000.0625000000,148668.7187500000,159089.5937500000,138283.1562500000,150386.6562500000,148544.7031250000,,,
1.4439999976,11,128600.9140625000,142238.3437500000,162005.3125000000,148627.7656250000,159096.9062500000,138261.5937500000,150366.2968750000,148570.9531250000,,,
1.4479999975,11,128492.8750000000,142132.3125000000,161917.5781250000,148505.3750000000,159055.2656250000,138166.0000000000,150274.8593750000,148557.3281250000,,,
1.4519999977,11,128465.6015625000,142098.2031250000,161883.0625000000,148485.5312500000,159025.8281250000,138136.0937500000,150248.1406250000,148532.8750000000,,,
1.4559999977,11,128563.8750000000,142193.9531250000,161968.5625000000,148587.5312500000,159029.4218750000,138222.6406250000,150332.5468750000,148546.0937500000,,,
1.4599999976,11,128654.0781250000,142293.5625000000,162037.6562500000,148670.5156250000,159089.2343750000,138312.1718750000,150408.4843750000,148581.5000000000,,,
1.4639999976,11,128621.0312500000,142242.2812500000,162004.6718750000,148626.1250000000,159100.6093750000,138284.3593750000,150386.0937500000,148608.5937500000,,,
1.4679999975,11,128494.8906250000,142103.9843750000,161896.7031250000,148495.0468750000,159049.8906250000,138168.1093750000,150276.0312500000,148539.8750000000,,,
1.4719999975,11,128451.0312500000,142100.0937500000,161850.5468750000,148454.5000000000,159003.9218750000,138126.8125000000,150231.3281250000,148502.9062500000,,,
1.4759999977,11,128539.0390625000,142183.7343750000,161925.7656250000,148558.4531250000,159014.2812500000,138202.6406250000,150308.1406250000,148483.4062500000,,,
1.4799999977,11,128643.8281250000,142268.5156250000,162023.9531250000,148658.9843750000,159080.9218750000,138297.4531250000,150406.0468750000,148528.0937500000,,,
1.4839999976,11,128620.2265625000,142224.8437500000,162016.8125000000,148633.1562500000,159101.2343750000,138279.3125000000,150391.6875000000,148558.5312500000,,,
1.4879999976,11,128524.3359375000,142132.0468750000,161947.1875000000,148525.5781250000,159064.7812500000,138198.9062500000,150315.4687500000,148543.2187500000,,,
1.4919999975,11,128498.2109375000,142098.7812500000,161919.5625000000,148501.1718750000,159024.6250000000,138177.4218750000,150295.4375000000,148542.3437500000,,,
1.4959999977,11,128586.5390625000,142202.6718750000,161975.1875000000,148600.6562500000,159047.2187500000,138256.6250000000,150371.3125000000,148545.2656250000,,,
1.4999999977,11,128681.3828125000,142290.7031250000,162051.2812500000,148701.0937500000,159106.0312500000,138343.4843750000,150451.0000000000,148560.7343750000,,,
1.5039999976,11,128651.8281250000,142249.2343750000,162024.2968750000,148655.2656250000,159112.6250000000,138323.1718750000,150426.5625000000,148579.0781250000,,,
1.5079999976,11,128547.4062500000,142146.7500000000,161937.2656250000,148525.7656250000,159070.1250000000,138226.7968750000,150341.5625000000,148554.6718750000,,,
1.5119999975,11,128523.5859375000,142113.5156250000,161918.2187500000,148487.4843750000,159020.6250000000,138196.6562500000,150320.3750000000,148510.2031250000,,,
1.5159999975,11,128638.7343750000,142239.0156250000,162002.2812500000,148596.1093750000,159023.4687500000,138307.7031250000,150417.1250000000,148542.3125000000,,,
1.5199999977,11,128755.2500000000,142340.6718750000,162079.2812500000,148693.9687500000,159068.3750000000,138422.6250000000,150515.5625000000,148620.6875000000,,,
1.5239999976,11,128715.8203125000,142274.7343750000,162036.1875000000,148647.5937500000,159108.6093750000,138385.8906250000,150474.3281250000,148562.7187500000,,,
1.5279999976,11,128586.1640625000,142141.7500000000,161921.3125000000,148513.8281250000,159055.6406250000,138267.0625000000,150359.6718750000,148520.6093750000,,,
1.5319999976,11,128549.1484375000,142106.5156250000,161898.3750000000,148468.8125000000,159005.9062500000,138229.1093750000,150330.3593750000,148509.1250000000,,,
1.5359999975,12,128650.1875000000,142198.3281250000,161981.6093750000,148577.3437500000,159026.3750000000,138320.2812500000,150415.8281250000,148518.5000000000,,,
1.5399999975,12,128755.2812500000,142312.4218750000,162043.5625000000,148702.6875000000,159074.9687500000,138419.3906250000,150505.7187500000,148573.0000000000,,,
1.5439999974,12,128722.6875000000,142273.3437500000,162031.6250000000,148679.2656250000,159073.7656250000,138394.5937500000,150479.3437500000,148575.8125000000,,,
1.5479999974,12,128618.3203125000,142178.6406250000,161964.1875000000,148551.2187500000,159017.4062500000,138301.9062500000,150391.2968750000,148569.5625000000,,,
1.5519999973,12,128593.1093750000,142165.8125000000,161930.1562500000,148519.0312500000,159013.8437500000,138277.0937500000,150370.5625000000,148577.9531250000,,,
1.5559999973,12,128683.2578125000,142242.2812500000,162000.8593750000,148640.1250000000,159056.5781250000,138352.2968750000,150447.4843750000,148588.2031250000,,,
1.5599999975,12,128785.2656250000,142338.8906250000,162081.2500000000,148736.2656250000,159104.8750000000,138446.8281250000,150537.4218750000,148621.5156250000,,,
1.5639999975,12,128742.2656250000,142281.6250000000,162051.3906250000,148646.2812500000,159098.3125000000,138412.7031250000,150501.3125000000,148576.1093750000,,,
1.5679999974,12,128618.8906250000,142166.8281250000,161950.5937500000,148497.7343750000,159040.1875000000,138303.5156250000,150391.3750000000,148549.8437500000,,,
1.5719999974,12,128592.1171875000,142147.8125000000,161939.1406250000,148483.0156250000,159009.5312500000,138275.3281250000,150373.7500000000,148529.8125000000,,,
1.5759999973,12,128679.3203125000,142241.1093750000,161995.8750000000,148598.7187500000,159037.8437500000,138347.6406250000,150449.0937500000,148531.7656250000,,,
1.5799999975,12,128773.7578125000,142340.7968750000,162075.0468750000,148707.5625000000,159087.4218750000,138434.7031250000,150529.8593750000,148588.6406250000,,,
1.5839999975,12,128740.0390625000,142297.1875000000,162055.5468750000,148675.3750000000,159109.0312500000,138404.5312500000,150502.9218750000,148590.9062500000,,,
1.5879999974,12,128610.5468750000,142163.3750000000,161956.5781250000,148531.6093750000,159057.4375000000,138285.5937500000,150392.3437500000,148529.0625000000,,,
1.5919999974,12,128561.9453125000,142112.1093750000,161924.8125000000,148470.7500000000,159008.1562500000,138237.2968750000,150350.7343750000,148497.7656250000,,,
1.5959999973,12,128643.2421875000,142193.6875000000,161982.7812500000,148573.4531250000,159022.5156250000,138303.5937500000,150414.3593750000,148508.2812500000,,,
1.5999999973,12,128742.6718750000,142311.4375000000,162055.2343750000,148692.5625000000,159081.1718750000,138392.7812500000,150495.3593750000,148567.7656250000,,,
1.6039999975,12,128719.0390625000,142278.9843750000,162039.4531250000,148655.2656250000,159088.0312500000,138375.9375000000,150475.2500000000,148589.5937500000,,,
1.6079999974,12,128600.4296875000,142136.0156250000,161954.7812500000,148513.1875000000,159026.3906250000,138268.0781250000,150373.5937500000,148543.5468750000,,,
1.6119999974,12,128542.1484375000,142104.2812500000,161896.1250000000,148463.2656250000,159000.3281250000,138212.3750000000,150318.2031250000,148501.3750000000,,,
1.6159999974,12,128617.1718750000,142202.0000000000,161952.5781250000,148548.4062500000,159014.5468750000,138278.4375000000,150383.0625000000,148498.2187500000,,,
1.6199999973,12,128710.3515625000,142299.9218750000,162039.3437500000,148656.7031250000,159059.1718750000,138363.8125000000,150464.5468750000,148556.1250000000,,,
1.6239999975,12,128685.3828125000,142271.1250000000,162050.7031250000,148628.2968750000,159045.0312500000,138344.5781250000,150450.3750000000,148588.9843750000,,,
1.6279999975,12,128557.0390625000,142132.0468750000,161954.7812500000,148492.2343750000,158989.3593750000,138226.9375000000,150341.5625000000,148559.0781250000,,,
1.6319999974,12,128496.5546875000,142084.4062500000,161905.4218750000,148451.7343750000,158973.3750000000,138168.1718750000,150285.2343750000,148514.6093750000,,,
1.6359999974,12,128565.6484375000,142155.5468750000,161942.9531250000,148541.2656250000,159004.2187500000,138223.4687500000,150340.2187500000,148491.2500000000,,,
1.6399999973,12,128653.3281250000,142237.7187500000,161992.5156250000,148663.0156250000,159056.6718750000,138298.2343750000,150412.9375000000,148501.5468750000,,,
1.6439999973,12,128625.3750000000,142207.3593750000,161977.7187500000,148634.5312500000,159082.7968750000,138274.4687500000,150391.1562500000,148529.5937500000,,,
1.6479999975,12,128514.0390625000,142115.7656250000,161918.5156250000,148506.5312500000,159041.4375000000,138176.8593750000,150296.5781250000,148524.0781250000,,,
1.6519999974,12,128468.0390625000,142076.6093750000,161873.7812500000,148473.5156250000,159001.8750000000,138132.0937500000,150252.1718750000,148493.3125000000,,,
1.6559999974,12,128540.8046875000,142149.4218750000,161909.8281250000,148551.3437500000,159007.8125000000,138194.8906250000,150306.7031250000,148488.3437500000,,,
1.6599999974,12,128627.3359375000,142238.0781250000,161972.7187500000,148660.5937500000,159055.8750000000,138275.2968750000,150375.9218750000,148525.7031250000,,,
1.6639999973,13,128607.1406250000,142225.3125000000,161974.0937500000,148645.5781250000,159063.5000000000,138264.4375000000,150361.2187500000,148568.9687500000,,,
1.6679999973,13,128500.7343750000,142106.0312500000,161922.2500000000,148475.9531250000,158972.6250000000,138168.1093750000,150280.2500000000,148537.1875000000,,,
1.6719999972,13,128444.3828125000,142033.2343750000,161871.0937500000,148384.0937500000,158916.6875000000,138109.4843750000,150229.9843750000,148484.6718750000,,,
1.6759999972,13,128526.4296875000,142154.4375000000,161912.9062500000,148476.7656250000,158947.1406250000,138180.0000000000,150292.3125000000,148480.5468750000,,,
1.6799999971,13,128624.8437500000,142232.1406250000,161974.9843750000,148599.0625000000,159021.0937500000,138269.8593750000,150376.3593750000,148497.7031250000,,,
1.6839999971,13,128606.8984375000,142209.1093750000,161967.7343750000,148589.6718750000,159052.5468750000,138254.9375000000,150367.4531250000,148517.8437500000,,,
1.6879999973,13,128488.9609375000,142094.0312500000,161891.5312500000,148466.2968750000,158987.1250000000,138145.7656250000,150270.4531250000,148504.0312500000,,,
1.6919999972,13,128434.3281250000,142015.1562500000,161865.0937500000,148404.9218750000,158929.5937500000,138087.5468750000,150224.5937500000,148452.8593750000,,,
1.6959999972,13,128511.3046875000,142117.2343750000,161884.4062500000,148504.5000000000,158990.9375000000,138156.3906250000,150279.9531250000,148458.2187500000,,,
1.6999999972,13,128615.3984375000,142229.7343750000,161959.5468750000,148613.1562500000,159032.2968750000,138256.0156250000,150369.3750000000,148502.1093750000,,,
1.7039999971,13,128602.1796875000,142208.1406250000,161981.3906250000,148584.0000000000,159029.7968750000,138250.8281250000,150362.5937500000,148540.3281250000,,,
1.7079999973,13,128490.9453125000,142064.8281250000,161890.0781250000,148474.3125000000,159015.4062500000,138151.5625000000,150269.7031250000,148508.5468750000,,,
1.7119999973,13,128435.7421875000,142033.7500000000,161846.9843750000,148428.2968750000,158963.0937500000,138097.7656250000,150228.0781250000,148472.3125000000,,,
1.7159999972,13,128516.0234375000,142147.0937500000,161917.1562500000,148527.1562500000,158971.7343750000,138169.3437500000,150291.6718750000,148499.7187500000,,,
1.7199999972,13,128607.3281250000,142230.5625000000,161973.7500000000,148656.3906250000,159065.0468750000,138251.9375000000,150363.9375000000,148524.2343750000,,,
1.7239999971,13,128599.6250000000,142236.5937500000,161986.4062500000,148672.8750000000,159106.9375000000,138248.3906250000,150363.0000000000,148591.3125000000,,,
1.7279999971,13,128468.2031250000,142104.1562500000,161908.6718750000,148494.6562500000,159029.5625000000,138129.0937500000,150254.8750000000,148515.7031250000,,,
1.7319999973,13,128399.0546875000,142021.7187500000,161847.2812500000,148414.0156250000,158981.2500000000,138064.9062500000,150194.5000000000,148441.1875000000,,,
1.7359999972,13,128476.5937500000,142096.4843750000,161870.5000000000,148502.8593750000,159001.7968750000,138133.3281250000,150256.5312500000,148440.0625000000,,,
1.7399999972,13,128578.2500000000,142205.9375000000,161942.3281250000,148624.9531250000,159053.1406250000,138228.6562500000,150342.2031250000,148485.9062500000,,,
1.7439999972,13,128565.1875000000,142190.3281250000,161953.1093750000,148612.5000000000,159062.5468750000,138220.9062500000,150335.8281250000,148521.7656250000,,,
1.7479999971,13,128474.2343750000,142081.2656250000,161925.2968750000,148506.0781250000,158982.4375000000,138141.2656250000,150268.6562500000,148543.0937500000,,,
1.7519999973,13,128420.6484375000,142043.3125000000,161865.9687500000,148456.4062500000,158977.5781250000,138090.9531250000,150217.8593750000,148483.3281250000,,,
1.7559999973,13,128482.8750000000,142122.1406250000,161862.5937500000,148537.2968750000,159034.7968750000,138145.8281250000,150253.6875000000,148441.7500000000,,,
1.7599999972,13,128584.8515625000,142222.4062500000,161931.3906250000,148644.1875000000,159072.1250000000,138242.9531250000,150334.8593750000,148488.1250000000,,,
1.7639999972,13,128575.2187500000,142214.2500000000,161947.4062500000,148616.3750000000,159084.8125000000,138241.4218750000,150327.1093750000,148520.1250000000,,,
1.7679999971,13,128475.0937500000,142110.1875000000,161879.3281250000,148500.9531250000,159045.1718750000,138152.0000000000,150245.3281250000,148525.2187500000,,,
1.7719999971,13,128427.0000000000,142066.5937500000,161832.8750000000,148457.5312500000,158996.3906250000,138105.6406250000,150204.7187500000,148516.0468750000,,,
1.7759999973,13,128502.3984375000,142124.5156250000,161934.0000000000,148503.2812500000,158961.5468750000,138166.3125000000,150272.5312500000,148479.8437500000,,,
1.7799999972,13,128611.0312500000,142226.2968750000,162042.3281250000,148627.0625000000,159033.0000000000,138264.2656250000,150367.6875000000,148510.2812500000,,,
1.7839999972,13,128595.0156250000,142226.8125000000,161979.5937500000,148611.8125000000,159066.8437500000,138255.6562500000,150350.7656250000,148544.3750000000,,,
1.7879999971,13,128481.3203125000,142103.5312500000,161874.3125000000,148500.7343750000,159037.1562500000,138147.6250000000,150256.8125000000,148507.1250000000,,,
1.7919999971,14,128432.0468750000,142053.5625000000,161832.7968750000,148447.6875000000,159005.9531250000,138098.2656250000,150213.5156250000,148462.2812500000,,,
1.7959999971,14,128510.2578125000,142129.7187500000,161904.6718750000,148541.7187500000,159014.2812500000,138165.4062500000,150276.2812500000,148478.4531250000,,,
1.7999999970,14,128615.0546875000,142233.5156250000,161998.9843750000,148660.8906250000,159050.3750000000,138261.6406250000,150363.2656250000,148542.0468750000,,,
1.8039999970,14,128600.4062500000,142226.4062500000,161979.7187500000,148645.3125000000,159083.2812500000,138252.8750000000,150351.2968750000,148545.7968750000,,,
1.8079999969,14,128498.0781250000,142134.2500000000,161891.6875000000,148527.5000000000,159059.4375000000,138161.7812500000,150268.1718750000,148540.8593750000,,,
1.8119999969,14,128440.7578125000,142087.2031250000,161839.6406250000,148464.2656250000,158987.9375000000,138107.9218750000,150220.0000000000,148510.6875000000,,,
1.8159999971,14,128517.8984375000,142142.2343750000,161921.8906250000,148560.0156250000,158995.2343750000,138173.6406250000,150284.5625000000,148501.0937500000,,,
1.8199999970,14,128615.1015625000,142249.3125000000,161984.8281250000,148664.3593750000,159056.1093750000,138260.6718750000,150363.7187500000,148530.4062500000,,,
1.8239999970,14,128619.1250000000,142256.1562500000,162023.2500000000,148668.4062500000,159092.3593750000,138269.8750000000,150375.0156250000,148566.4531250000,,,
1.8279999970,14,128509.1875000000,142114.5312500000,161923.3750000000,148555.1562500000,159084.3593750000,138171.9843750000,150282.4531250000,148532.7968750000,,,
1.8319999969,14,128435.3437500000,142049.6718750000,161839.9531250000,148486.1250000000,159035.2968750000,138101.7656250000,150215.2812500000,148491.0312500000,,,
1.8359999971,14,128505.1328125000,142140.4218750000,161888.7500000000,148562.9062500000,159032.2656250000,138162.7812500000,150269.8125000000,148483.5781250000,,,
1.8399999971,14,128618.2734375000,142260.3125000000,161995.8437500000,148677.9218750000,159066.7968750000,138268.6718750000,150368.1250000000,148535.5000000000,,,
1.8439999970,14,128619.1562500000,142259.6718750000,162021.5625000000,148640.4843750000,159063.0937500000,138275.8593750000,150371.1718750000,148584.8437500000,,,
1.8479999970,14,128505.3515625000,142118.8437500000,161938.1250000000,148507.4375000000,159009.0937500000,138171.0156250000,150276.3593750000,148538.9062500000,,,
1.8519999969,14,128435.4765625000,142051.8437500000,161843.1406250000,148430.7656250000,158998.1250000000,138103.0937500000,150206.4843750000,148485.0937500000,,,
1.8559999969,14,128499.1796875000,142140.0156250000,161871.3125000000,148515.8125000000,159007.8437500000,138153.6250000000,150251.1406250000,148460.5312500000,,,
1.8599999971,14,128612.1562500000,142244.8281250000,161966.5625000000,148647.2656250000,159072.6875000000,138253.0312500000,150347.9218750000,148515.5937500000,,,
1.8639999970,14,128605.6875000000,142215.9375000000,161977.7187500000,148661.1406250000,159096.8125000000,138247.8906250000,150347.9218750000,148544.6718750000,,,
1.8679999970,14,128495.8281250000,142107.6093750000,161902.8750000000,148518.5781250000,159046.5156250000,138150.5156250000,150258.4218750000,148520.2656250000,,,
1.8719999969,14,128440.7578125000,142061.1875000000,161858.3750000000,148415.7343750000,158977.3125000000,138099.2031250000,150212.3125000000,148499.6093750000,,,
1.8759999969,14,128523.3437500000,142146.7656250000,161907.9687500000,148517.3906250000,159003.6718750000,138174.0937500000,150278.9375000000,148509.2656250000,,,
1.8799999971,14,128622.6953125000,142214.5781250000,161986.3437500000,148638.0937500000,159059.2031250000,138261.4062500000,150364.0156250000,148510.9531250000,,,
1.8839999971,14,128616.6640625000,142217.2812500000,161999.5156250000,148635.5781250000,159076.6093750000,138261.0312500000,150363.9531250000,148540.0000000000,,,
1.8879999970,14,128518.8125000000,142140.0625000000,161933.7187500000,148535.9843750000,159035.0625000000,138175.5156250000,150286.2031250000,148546.4687500000,,,
1.8919999970,14,128460.1562500000,142084.0625000000,161893.9687500000,148484.0000000000,158987.1875000000,138117.0468750000,150237.0937500000,148518.5468750000,,,
1.8959999969,14,128525.7343750000,142138.2656250000,161943.2968750000,148549.3906250000,158985.7812500000,138171.5468750000,150291.7812500000,148488.8281250000,,,
1.8999999969,14,128639.5390625000,142279.1718750000,162015.0000000000,148675.8593750000,159059.2031250000,138277.2812500000,150392.4531250000,148571.7656250000,,,
1.9039999971,14,128637.5312500000,142253.9531250000,162003.6562500000,148686.6875000000,159106.4843750000,138282.0000000000,150386.5468750000,148606.3125000000,,,
1.9079999970,14,128507.0937500000,142111.5468750000,161885.2343750000,148559.4218750000,159082.4531250000,138160.6250000000,150272.5468750000,148532.3593750000,,,
1.9119999970,14,128446.1562500000,142063.5468750000,161853.1562500000,148486.3906250000,159034.4687500000,138101.4843750000,150217.4375000000,148479.8437500000,,,
1.9159999969,14,128532.4375000000,142140.2187500000,161921.5937500000,148558.1406250000,159043.7812500000,138176.2968750000,150286.1250000000,148491.4531250000,,,
1.9199999969,15,128647.5312500000,142252.2656250000,162004.9062500000,148662.6875000000,159084.2187500000,138282.2187500000,150383.1406250000,148534.0312500000,,,
1.9239999969,15,128650.1875000000,142257.1093750000,162017.8593750000,148651.0156250000,159100.9062500000,138288.0937500000,150389.0937500000,148578.5468750000,,,
1.9279999968,15,128532.1718750000,142140.5156250000,161938.3437500000,148518.7343750000,159049.2500000000,138180.2968750000,150291.4531250000,148561.0625000000,,,
1.9319999968,15,128464.4453125000,142077.8593750000,161889.2500000000,148446.2812500000,158984.0468750000,138114.6093750000,150233.8125000000,148527.2343750000,,,
1.9359999967,15,128536.1171875000,142146.7500000000,161961.9687500000,148524.4218750000,158948.1093750000,138174.8437500000,150294.8125000000,148502.9843750000,,,
1.9399999967,15,128643.5625000000,142242.9531250000,162050.0781250000,148655.2343750000,159040.8281250000,138275.1562500000,150389.5468750000,148533.8125000000,,,
1.9439999969,15,128637.7968750000,142249.0781250000,162021.0781250000,148658.6875000000,159075.5625000000,138277.7343750000,150390.2187500000,148556.3906250000,,,
1.9479999968,15,128515.7578125000,142114.1093750000,161903.5781250000,148531.4531250000,159061.0312500000,138171.4218750000,150285.0781250000,148511.4687500000,,,
1.9519999968,15,128446.8750000000,142053.9375000000,161838.7812500000,148469.8906250000,159036.0000000000,138110.2656250000,150219.6250000000,148482.6250000000,,,
1.9559999967,15,128528.2812500000,142172.7343750000,161894.7187500000,148559.5312500000,159045.3593750000,138181.7656250000,150287.1093750000,148494.0312500000,,,
1.9599999967,15,128643.4843750000,142288.9531250000,161983.8281250000,148691.4687500000,159100.7187500000,138286.9843750000,150381.7968750000,148526.9218750000,,,
1.9639999969,15,128638.8437500000,142258.7812500000,162012.3125000000,148687.5781250000,159112.9218750000,138283.8750000000,150381.3437500000,148562.7500000000,,,
1.9679999969,15,128530.5625000000,142150.4218750000,161943.3750000000,148565.8125000000,159059.2500000000,138186.0625000000,150291.5156250000,148555.2343750000,,,
1.9719999968,15,128466.1875000000,142080.5156250000,161909.7968750000,148498.5937500000,159007.5156250000,138122.0937500000,150238.0312500000,148526.7031250000,,,
1.9759999968,15,128528.1171875000,142127.6718750000,161964.6250000000,148575.6562500000,159025.2500000000,138171.3593750000,150288.7812500000,148495.5000000000,,,
1.9799999967,15,128632.9687500000,142248.7812500000,162013.3125000000,148696.6718750000,159082.2187500000,138267.4843750000,150371.0468750000,148541.6406250000,,,
1.9839999967,15,128627.2031250000,142240.8593750000,161998.9843750000,148682.2968750000,159091.6875000000,138267.9687500000,150366.2968750000,148573.5937500000,,,
1.9879999969,15,128516.9375000000,142142.5625000000,161905.7031250000,148550.0156250000,159068.9843750000,138173.0312500000,150271.0156250000,148557.7343750000,,,
1.9919999968,15,128446.1250000000,142074.8281250000,161835.0468750000,148468.1718750000,159023.7343750000,138108.7343750000,150208.7656250000,148507.6875000000,,,
1.9959999968,15,128522.5390625000,142137.0937500000,161890.4843750000,148568.5937500000,159040.0781250000,138171.6250000000,150273.0000000000,148483.0312500000,,,
1.9999999967,15,128634.0390625000,142252.7187500000,161991.7187500000,148690.7500000000,159088.7812500000,138271.7500000000,150369.0625000000,148517.3125000000,,,
2.0039999967,15,128638.4687500000,142257.5468750000,162011.9062500000,148676.0937500000,159099.1875000000,138282.2656250000,150375.6875000000,148558.3437500000,,,
2.0079999969,15,128540.2187500000,142166.2500000000,161945.0781250000,148558.9375000000,159071.8906250000,138194.9062500000,150294.2812500000,148561.8906250000,,,
2.0119999968,15,128475.3359375000,142094.4375000000,161890.6250000000,148466.9687500000,159014.3281250000,138132.3281250000,150238.4062500000,148522.2187500000,,,
2.0159999968,15,128548.9921875000,142178.5625000000,161930.5000000000,148536.9687500000,159009.5000000000,138193.0937500000,150298.5468750000,148502.4843750000,,,
2.0199999968,15,128656.7031250000,142266.2656250000,162003.1718750000,148666.4375000000,159069.3125000000,138287.3437500000,150389.2812500000,148522.4375000000,,,
2.0239999967,15,128646.7812500000,142248.1093750000,162000.7031250000,148664.8125000000,159092.5625000000,138280.4531250000,150381.1562500000,148539.9843750000,,,
2.0279999967,15,128536.7343750000,142134.7031250000,161953.5000000000,148530.8906250000,159042.7812500000,138181.4531250000,150291.5468750000,148522.9531250000,,,
2.0319999969,15,128472.2265625000,142076.4375000000,161887.5312500000,148472.5937500000,159008.8281250000,138123.1406250000,150231.1093750000,148506.4218750000,,,
2.0359999968,15,128550.0859375000,142158.2500000000,161927.1562500000,148547.6250000000,159022.1093750000,138193.0625000000,150291.0781250000,148523.5937500000,,,
2.0399999968,15,128662.6328125000,142259.9375000000,162021.0312500000,148671.9687500000,159083.7656250000,138292.9218750000,150387.5312500000,148540.2500000000,,,
2.0439999967,15,128653.1953125000,142256.5468750000,162017.8593750000,148668.2968750000,159105.8125000000,138286.7812500000,150375.3281250000,148569.4843750000,,,
2.0479999967,16,128540.1406250000,142161.3281250000,161936.4843750000,148538.1562500000,159061.8906250000,138185.7656250000,150281.3750000000,148543.4687500000,,,
2.0519999966,16,128479.4921875000,142103.1250000000,161877.7500000000,148477.5156250000,159011.5156250000,138125.5468750000,150232.0156250000,148501.5468750000,,,
2.0559999966,16,128537.4531250000,142143.2343750000,161909.6093750000,148558.2968750000,159013.6093750000,138168.4687500000,150279.3437500000,148487.0000000000,,,
2.0599999966,16,128646.3828125000,142253.7656250000,161995.3281250000,148685.8437500000,159083.0781250000,138269.0468750000,150374.5625000000,148520.5781250000,,,
2.0639999965,16,128653.1640625000,142261.8437500000,162013.6562500000,148694.2812500000,159099.2968750000,138278.1406250000,150384.0468750000,148578.0937500000,,,
2.0679999965,16,128539.3593750000,142151.1406250000,161924.8125000000,148558.0781250000,159067.0312500000,138180.1562500000,150281.7187500000,148567.3437500000,,,
2.0719999967,16,128454.7890625000,142057.3437500000,161850.6875000000,148455.0312500000,158999.8750000000,138104.6250000000,150209.5468750000,148488.6406250000,,,
2.0759999966,16,128515.6718750000,142128.2343750000,161894.7812500000,148531.3906250000,159008.1250000000,138158.7031250000,150258.3281250000,148455.2187500000,,,
2.0799999966,16,128637.1250000000,142264.0937500000,161996.3593750000,148683.0156250000,159072.6875000000,138271.6250000000,150362.5937500000,148522.4062500000,,,
2.0839999965,16,128641.1250000000,142255.7968750000,162016.5000000000,148689.1562500000,159092.7812500000,138279.1250000000,150372.7656250000,148564.4375000000,,,
2.0879999965,16,128534.1796875000,142151.0937500000,161965.9062500000,148544.4375000000,159018.0781250000,138185.2343750000,150285.6406250000,148544.8906250000,,,
2.0919999967,16,128458.0078125000,142079.5781250000,161891.8750000000,148445.9062500000,158974.6875000000,138110.6093750000,150217.7812500000,148498.9687500000,,,
2.0959999966,16,128518.9765625000,142114.1250000000,161900.2031250000,148534.8750000000,158998.4218750000,138159.6875000000,150264.5625000000,148470.2968750000,,,
2.0999999966,16,128626.7187500000,142238.1562500000,161975.1406250000,148656.7812500000,159047.6093750000,138259.0625000000,150356.3906250000,148506.5312500000,,,
2.1039999966,16,128633.5625000000,142256.0156250000,161989.6718750000,148667.7343750000,159085.8281250000,138271.3281250000,150365.7656250000,148551.2656250000,,,
2.1079999965,16,128529.5390625000,142156.5937500000,161913.8281250000,148548.5625000000,159058.3125000000,138180.4843750000,150282.1562500000,148546.0156250000,,,
2.1119999965,16,128460.3437500000,142087.9843750000,161849.0937500000,148467.6406250000,159006.5781250000,138116.5156250000,150222.7656250000,148491.4843750000,,,
2.1159999967,16,128522.3281250000,142157.3437500000,161905.7812500000,148536.2968750000,159010.6875000000,138171.4375000000,150271.4218750000,148490.2500000000,,,
2.1199999966,16,128632.0000000000,142245.9062500000,162001.9375000000,148675.1875000000,159056.2812500000,138272.2343750000,150361.1718750000,148548.4843750000,,,
2.1239999966,16,128626.2343750000,142216.3437500000,162006.2031250000,148671.3750000000,159073.4218750000,138267.1093750000,150359.7812500000,148528.6093750000,,,
2.1279999965,16,128514.1171875000,142133.4375000000,161923.1562500000,148523.6718750000,159035.9218750000,138167.6406250000,150265.5312500000,148498.2656250000,,,
2.1319999965,16,128451.8125000000,142079.3437500000,161859.9062500000,148449.3125000000,158993.4375000000,138108.7656250000,150212.8750000000,148482.3125000000,,,
2.1359999967,16,128522.7578125000,142145.4062500000,161899.3437500000,148534.4062500000,159009.8281250000,138170.0781250000,150269.2500000000,148484.1562500000,,,
2.1399999966,16,128630.4218750000,142252.0000000000,161999.4062500000,148655.4531250000,159062.0937500000,138268.1406250000,150364.0937500000,148514.9843750000,,,
2.1439999966,16,128641.5234375000,142263.7343750000,162025.2656250000,148645.6093750000,159078.7031250000,138283.3125000000,150378.1250000000,148553.5000000000,,,
2.1479999966,16,128534.9375000000,142146.5781250000,161953.7812500000,148532.8750000000,159034.3906250000,138188.2656250000,150285.6093750000,148536.7031250000,,,
2.1519999965,16,128460.9062500000,142065.9843750000,161879.5937500000,148461.3593750000,158983.5156250000,138115.8906250000,150226.5000000000,148491.2500000000,,,
2.1559999965,16,128516.9375000000,142123.8593750000,161877.1875000000,148531.8281250000,159006.3593750000,138159.7968750000,150265.4687500000,148470.2343750000,,,
2.1599999967,16,128629.4296875000,142247.7500000000,161968.2500000000,148654.3437500000,159066.1406250000,138260.2187500000,150359.4062500000,148505.7031250000,,,
2.1639999966,16,128638.4375000000,142284.3125000000,161996.2812500000,148638.2031250000,159089.0468750000,138270.7968750000,150368.4687500000,148537.0781250000,,,
2.1679999966,16,128528.2031250000,142154.4375000000,161918.1875000000,148523.6406250000,159052.0937500000,138170.4218750000,150275.3750000000,148514.3125000000,,,
2.1719999965,16,128453.3125000000,142065.6562500000,161842.4218750000,148446.6406250000,159000.5625000000,138101.5937500000,150208.6562500000,148471.2656250000,,,
2.1759999965,17,128516.6953125000,142130.8437500000,161895.9531250000,148529.4687500000,159011.6406250000,138157.8125000000,150261.2031250000,148467.9531250000,,,
2.1799999964,17,128635.7343750000,142258.5937500000,161991.6562500000,148645.2500000000,159058.2656250000,138273.6406250000,150360.5781250000,148519.1718750000,,,
2.1839999964,17,128649.7031250000,142278.8906250000,162020.4687500000,148646.0000000000,159065.9062500000,138291.7968750000,150382.7343750000,148571.9843750000,,,
2.1879999964,17,128535.4140625000,142129.8125000000,161942.8906250000,148522.4062500000,159011.3750000000,138182.9218750000,150295.5312500000,148525.8437500000,,,
2.1919999963,17,128442.7968750000,142027.9218750000,161857.0625000000,148445.3437500000,158988.8750000000,138092.5625000000,150208.7656250000,148463.0781250000,,,
2.1959999963,17,128497.4921875000,142097.1718750000,161892.9843750000,148514.7656250000,158995.9843750000,138138.0468750000,150249.4062500000,148453.2812500000,,,
2.1999999965,17,128615.9375000000,142209.5156250000,162005.0781250000,148626.3125000000,159030.1718750000,138243.4531250000,150350.7656250000,148497.0312500000,,,
2.2039999964,17,128628.2500000000,142245.8593750000,162031.1718750000,148625.0625000000,159051.1562500000,138258.9375000000,150358.8125000000,148547.2187500000,,,
2.2079999964,17,128527.9062500000,142159.3437500000,161929.2968750000,148509.2187500000,159002.8281250000,138169.2500000000,150272.8125000000,148539.3906250000,,,
2.2119999963,17,128454.2500000000,142076.8437500000,161828.0937500000,148446.4218750000,158952.3125000000,138099.1250000000,150209.4687500000,148450.7968750000,,,
2.2159999963,17,128516.3984375000,142134.0625000000,161856.5781250000,148520.7968750000,158992.5000000000,138154.7031250000,150250.5625000000,148462.2812500000,,,
2.2199999965,17,128627.6015625000,142241.7968750000,161963.4218750000,148652.1718750000,159067.1875000000,138256.4218750000,150344.5625000000,148511.0156250000,,,
2.2239999964,17,128637.2578125000,142223.4531250000,161980.5625000000,148672.2187500000,159101.9531250000,138268.2656250000,150355.5937500000,148543.6718750000,,,
2.2279999964,17,128528.9531250000,142132.5312500000,161912.2968750000,148560.5000000000,159066.7187500000,138172.1406250000,150268.8281250000,148529.8593750000,,,
2.2319999964,17,128452.7812500000,142085.2343750000,161865.0625000000,148472.9687500000,159015.2968750000,138104.5781250000,150209.0156250000,148487.6718750000,,,
2.2359999963,17,128516.3437500000,142134.6250000000,161922.6718750000,148538.6093750000,159016.0156250000,138158.8125000000,150260.5312500000,148475.4218750000,,,
2.2399999963,17,128636.7812500000,142238.6875000000,162009.3125000000,148675.3750000000,159057.2187500000,138265.9687500000,150360.9062500000,148521.0468750000,,,
2.2439999965,17,128660.0625000000,142284.9062500000,162023.5000000000,148722.5781250000,159115.5781250000,138291.2500000000,150384.1250000000,148573.1093750000,,,
2.2479999964,17,128554.1640625000,142191.0468750000,161933.1875000000,148569.8906250000,159084.0625000000,138195.4687500000,150295.3437500000,148564.3906250000,,,
2.2519999964,17,128474.1796875000,142075.7968750000,161872.2500000000,148465.2031250000,159006.9843750000,138116.8281250000,150226.2031250000,148496.0625000000,,,
2.2559999963,17,128535.0390625000,142113.6718750000,161905.5156250000,148541.0000000000,159018.2500000000,138168.2031250000,150273.7656250000,148484.8906250000,,,
2.2599999963,17,128637.5859375000,142238.8750000000,161965.8281250000,148659.3593750000,159079.5781250000,138260.7656250000,150356.5781250000,148503.2656250000,,,
2.2639999965,17,128644.7734375000,142258.5625000000,161990.9843750000,148659.9531250000,159098.6250000000,138272.6718750000,150367.6406250000,148528.6875000000,,,
2.2679999964,17,128545.8515625000,142164.9218750000,161930.9843750000,148550.7031250000,159057.5937500000,138188.7343750000,150291.3281250000,148538.0937500000,,,
2.2719999964,17,128463.3750000000,142068.9531250000,161853.6875000000,148461.5156250000,159006.0625000000,138111.2500000000,150218.6406250000,148478.0156250000,,,
2.2759999963,17,128511.6484375000,142118.0468750000,161886.5781250000,148519.2656250000,159002.0937500000,138150.7656250000,150255.1406250000,148462.2500000000,,,
2.2799999963,17,128628.2187500000,142236.4375000000,162000.7500000000,148644.7656250000,159052.2343750000,138258.2187500000,150355.2968750000,148502.1250000000,,,
2.2839999963,17,128644.9609375000,142256.2656250000,162038.3906250000,148656.2031250000,159067.3750000000,138277.7968750000,150375.2500000000,148540.8593750000,,,
2.2879999964,17,128547.5156250000,142161.6250000000,161934.7500000000,148544.8593750000,159049.2812500000,138193.0312500000,150292.6875000000,148546.1406250000,,,
2.2919999964,17,128473.6953125000,142080.0625000000,161861.5468750000,148460.1250000000,158990.4531250000,138126.0625000000,150225.1250000000,148530.5156250000,,,
2.2959999964,17,128535.4687500000,142135.6718750000,161914.8750000000,148536.7343750000,158984.3437500000,138173.5625000000,150276.1718750000,148500.9531250000,,,
2.2999999963,17,128655.5781250000,142280.2968750000,162015.5000000000,148674.2500000000,159042.8593750000,138277.8437500000,150377.6093750000,148513.3125000000,,,
2.3039999963,18,128680.5000000000,142289.5937500000,162050.8593750000,148691.3125000000,159044.9843750000,138301.2812500000,150405.1093750000,148562.2187500000,,,
2.3079999962,18,128560.1484375000,142160.1093750000,161922.5625000000,148565.5156250000,159069.3906250000,138197.1093750000,150293.9531250000,148536.6250000000,,,
2.3119999962,18,128485.0156250000,142075.9062500000,161884.5000000000,148481.3750000000,159011.3281250000,138123.0312500000,150230.8437500000,148497.9531250000,,,
2.3159999961,18,128533.1640625000,142136.9531250000,161903.7343750000,148536.5468750000,159014.6562500000,138162.1562500000,150262.6250000000,148477.8593750000,,,
2.3199999961,18,128636.5859375000,142246.0937500000,161978.5781250000,148657.5937500000,159068.0000000000,138256.9531250000,150348.4375000000,148509.8593750000,,,
2.3239999961,18,128653.6250000000,142257.2031250000,161997.5625000000,148671.8906250000,159090.0000000000,138275.6250000000,150369.8906250000,148545.2812500000,,,
2.3279999963,18,128560.1171875000,142153.0156250000,161942.1250000000,148574.3593750000,159061.2187500000,138193.2812500000,150296.6406250000,148565.5625000000,,,
2.3319999962,18,128478.8750000000,142065.3906250000,161877.1093750000,148509.9062500000,159014.0937500000,138117.3125000000,150227.0000000000,148515.3593750000,,,
2.3359999962,18,128525.8125000000,142120.7031250000,161892.9531250000,148562.3750000000,159007.8906250000,138155.1875000000,150263.6406250000,148473.0781250000,,,
2.3399999961,18,128631.8437500000,142233.3750000000,161969.0781250000,148640.4531250000,159042.6718750000,138252.8437500000,150350.7968750000,148494.2187500000,,,
2.3439999961,18,128652.5468750000,142255.7968750000,162002.3906250000,148674.0156250000,159089.2968750000,138274.2968750000,150367.4218750000,148540.2187500000,,,
2.3479999963,18,128551.9921875000,142150.1562500000,161927.5625000000,148584.0000000000,159073.4218750000,138182.3593750000,150279.5312500000,148529.5156250000,,,
2.3519999962,18,128477.8046875000,142080.2812500000,161879.0000000000,148485.6093750000,159013.5781250000,138111.7968750000,150217.6250000000,148513.5625000000,,,
2.3559999962,18,128526.3750000000,142129.0468750000,161906.7343750000,148502.1562500000,158990.4062500000,138152.5625000000,150256.3437500000,148498.6406250000,,,
2.3599999961,18,128628.9453125000,142217.3906250000,161990.2656250000,148625.0625000000,159025.7031250000,138243.8281250000,150346.7968750000,148500.4218750000,,,
2.3639999961,18,128653.7578125000,142264.0937500000,162025.1093750000,148656.3125000000,159070.6562500000,138272.5625000000,150375.2187500000,148571.8906250000,,,
2.3679999961,18,128550.4609375000,142134.1875000000,161942.1250000000,148535.2812500000,159024.1406250000,138181.8437500000,150292.2187500000,148559.4218750000,,,
2.3719999962,18,128458.0078125000,142057.4843750000,161851.7031250000,148455.3281250000,158979.4843750000,138095.4531250000,150212.5468750000,148473.4843750000,,,
2.3759999962,18,128516.3203125000,142149.9843750000,161890.6250000000,148528.2343750000,158963.3125000000,138146.4218750000,150261.6875000000,148475.7343750000,,,
2.3799999962,18,128630.8203125000,142247.1406250000,161975.4531250000,148653.7500000000,159019.2656250000,138247.1093750000,150355.5937500000,148483.5781250000,,,
2.3839999961,18,128647.6406250000,142245.4218750000,161991.9062500000,148675.5156250000,159089.5625000000,138267.4687500000,150367.1562500000,148527.9843750000,,,
2.3879999961,18,128547.2968750000,142145.3437500000,161927.1562500000,148562.9843750000,159066.9843750000,138183.6250000000,150284.4375000000,148522.2812500000,,,
2.3919999963,18,128469.5937500000,142077.3281250000,161864.7968750000,148475.5000000000,159016.0156250000,138112.0312500000,150214.4062500000,148493.0625000000,,,
2.3959999962,18,128532.6250000000,142140.6875000000,161908.1562500000,148531.7968750000,159013.0625000000,138167.6875000000,150266.3750000000,148520.8281250000,,,
2.3999999962,18,128655.7421875000,142237.7812500000,162017.1718750000,148668.6718750000,159039.6250000000,138276.9062500000,150373.7031250000,148556.0937500000,,,
2.4039999961,18,128663.0625000000,142262.0312500000,162029.1562500000,148685.5625000000,159064.1093750000,138281.2500000000,150383.4531250000,148529.9531250000,,,
2.4079999961,18,128549.6093750000,142156.1093750000,161923.2343750000,148569.8593750000,159057.7500000000,138180.5937500000,150287.3906250000,148505.4062500000,,,
2.4119999961,18,128467.6640625000,142074.9375000000,161858.4843750000,148485.1875000000,159002.1562500000,138108.2812500000,150218.3750000000,148509.1250000000,,,
2.4159999962,18,128509.0000000000,142122.3125000000,161868.9218750000,148548.1093750000,159018.7031250000,138144.0781250000,150246.6875000000,148478.1875000000,,,
2.4199999962,18,128617.9453125000,142229.0000000000,161965.4531250000,148667.5781250000,159050.1093750000,138240.6718750000,150339.4687500000,148499.5625000000,,,
2.4239999962,18,128644.0468750000,142254.0625000000,162001.9375000000,148678.1718750000,159073.2031250000,138270.0937500000,150367.6406250000,148547.6250000000,,,
2.4279999961,18,128547.5390625000,142152.2656250000,161930.3750000000,148573.5312500000,159055.9531250000,138188.8750000000,150285.5625000000,148537.4062500000,,,
2.4319999961,19,128454.2265625000,142055.2031250000,161869.7031250000,148478.2343750000,158994.6718750000,138104.2187500000,150204.7500000000,148482.0937500000,,,
2.4359999960,19,128491.1093750000,142096.5000000000,161887.4531250000,148525.4687500000,158977.4687500000,138134.7968750000,150228.4843750000,148469.9687500000,,,
2.4399999960,19,128597.4843750000,142222.1875000000,161948.0156250000,148650.4843750000,159029.6406250000,138233.1250000000,150316.7500000000,148504.1406250000,,,
2.4439999959,19,128630.7656250000,142265.0312500000,161978.3593750000,148664.0312500000,159060.5937500000,138266.6562500000,150348.7187500000,148533.6250000000,,,
2.4479999959,19,128531.9843750000,142174.1250000000,161892.5468750000,148549.8281250000,159024.8437500000,138178.6250000000,150261.0156250000,148536.9687500000,,,
2.4519999959,19,128445.7265625000,142070.9687500000,161815.3593750000,148484.0781250000,158980.9375000000,138094.5625000000,150185.3281250000,148481.5000000000,,,
2.4559999960,19,128494.0312500000,142109.0937500000,161861.7656250000,148533.9375000000,158973.4531250000,138131.7187500000,150222.8750000000,148466.4843750000,,,
2.4599999960,19,128621.7031250000,142244.7812500000,161984.8281250000,148647.7187500000,159013.1406250000,138248.6406250000,150336.2031250000,148517.5312500000,,,
2.4639999960,19,128653.8593750000,142258.4375000000,162042.0312500000,148663.1718750000,159030.9062500000,138284.1406250000,150374.3906250000,148553.2500000000,,,
2.4679999959,19,128556.5234375000,142155.7343750000,161965.8593750000,148579.4843750000,159039.0312500000,138198.0156250000,150295.6250000000,148521.6093750000,,,
2.4719999959,19,128474.1015625000,142080.4687500000,161856.3437500000,148490.8437500000,159014.5937500000,138123.1406250000,150223.8437500000,148483.4375000000,,,
2.4759999961,19,128525.7890625000,142120.2500000000,161888.3437500000,148535.5312500000,159012.3906250000,138166.7187500000,150263.2187500000,148483.1093750000,,,
2.4799999960,19,128638.1171875000,142260.3593750000,161989.4687500000,148661.4062500000,159027.0625000000,138264.4531250000,150359.1875000000,148528.1250000000,,,
2.4839999960,19,128673.5468750000,142301.9062500000,162047.5781250000,148683.9531250000,159025.5468750000,138299.2187500000,150393.2968750000,148579.7500000000,,,
2.4879999959,19,128571.8125000000,142187.5156250000,161961.5156250000,148575.9687500000,159053.1093750000,138207.5156250000,150302.2656250000,148515.2968750000,,,
2.4919999959,19,128474.9609375000,142087.6250000000,161840.4843750000,148489.5781250000,159041.3437500000,138119.1875000000,150206.7343750000,148477.4843750000,,,
2.4959999959,19,128521.2812500000,142122.3437500000,161868.0937500000,148541.9062500000,159020.7656250000,138157.9218750000,150244.8125000000,148480.1718750000,,,
2.4999999960,19,128643.3515625000,142248.0000000000,161985.2812500000,148670.5000000000,159055.7343750000,138273.1718750000,150355.1875000000,148522.9218750000,,,
2.5039999960,19,128677.0937500000,142263.9375000000,162023.7187500000,148705.4375000000,159102.4375000000,138312.8437500000,150391.0312500000,148549.8750000000,,,
2.5079999960,19,128572.7265625000,142153.6875000000,161949.3906250000,148604.9687500000,159080.1250000000,138221.1093750000,150307.3906250000,148548.0312500000,,,
2.5119999959,19,128473.6953125000,142078.9375000000,161858.0937500000,148504.1406250000,159024.5156250000,138129.4687500000,150222.3437500000,148493.5468750000,,,
2.5159999959,19,128515.6484375000,142145.3281250000,161884.7812500000,148547.1406250000,159005.7500000000,138163.9843750000,150256.0781250000,148480.7500000000,,,
2.5199999961,19,128633.3671875000,142267.1718750000,161990.2343750000,148668.7500000000,159052.0625000000,138268.2968750000,150354.7343750000,148518.3906250000,,,
2.5239999960,19,128666.6328125000,142286.6250000000,162015.9843750000,148704.9375000000,159084.8750000000,138298.0156250000,150382.7968750000,148577.2812500000,,,
2.5279999960,19,128566.9609375000,142184.3437500000,161938.6406250000,148583.7500000000,159039.8281250000,138209.8750000000,150298.3593750000,148570.0937500000,,,
2.5319999959,19,128482.6015625000,142095.9218750000,161876.5468750000,148492.2343750000,158996.0312500000,138128.5000000000,150227.7812500000,148511.2812500000,,,
2.5359999959,19,128526.8593750000,142127.9687500000,161924.0625000000,148533.9687500000,158952.6562500000,138157.5937500000,150270.1406250000,148480.0781250000,,,
2.5399999958,19,128632.9453125000,142237.7187500000,161976.0781250000,148653.7343750000,159043.9687500000,138255.9062500000,150355.7031250000,148510.8281250000,,,
2.5439999960,19,128659.3593750000,142255.2656250000,161988.0468750000,148692.0625000000,159100.9062500000,138289.1875000000,150379.6250000000,148541.0468750000,,,
2.5479999960,19,128556.6093750000,142141.2500000000,161918.0937500000,148575.8906250000,159057.6250000000,138198.7968750000,150296.0781250000,148533.3593750000,,,
2.5519999960,19,128463.3203125000,142072.6875000000,161844.0781250000,148468.4375000000,158995.5000000000,138111.7343750000,150214.4843750000,148481.8593750000,,,
2.5559999959,19,128509.6953125000,142123.0625000000,161886.0312500000,148525.6250000000,158982.4687500000,138150.6562500000,150255.0625000000,148467.5781250000,,,
2.5599999959,20,128629.7265625000,142242.0468750000,161978.8906250000,148656.1250000000,159038.8125000000,138260.8906250000,150354.6875000000,148498.8593750000,,,
2.5639999958,20,128663.3828125000,142269.1093750000,162003.7812500000,148689.2187500000,159083.0156250000,138292.6250000000,150386.2187500000,148536.4062500000,,,
2.5679999958,20,128559.7968750000,142161.3281250000,161924.0156250000,148577.8437500000,159053.5156250000,138199.1250000000,150300.9531250000,148524.0781250000,,,
2.5719999957,20,128473.2187500000,142076.2500000000,161853.1718750000,148477.3437500000,159004.4375000000,138119.0000000000,150229.3125000000,148483.4687500000,,,
2.5759999957,20,128513.7187500000,142120.7031250000,161900.8750000000,148516.7187500000,158995.5000000000,138151.7812500000,150263.7031250000,148473.6406250000,,,
2.5799999957,20,128629.1562500000,142238.9062500000,161999.7656250000,148642.7656250000,159036.7187500000,138256.4687500000,150357.7187500000,148505.6406250000,,,
2.5839999958,20,128655.9531250000,142258.4375000000,162003.5625000000,148675.5625000000,159068.9843750000,138287.1718750000,150379.0937500000,148541.0468750000,,,
2.5879999958,20,128566.0781250000,142159.6406250000,161938.5312500000,148573.4218750000,159040.9843750000,138210.1406250000,150306.5156250000,148527.4218750000,,,
2.5919999958,20,128487.1875000000,142101.7031250000,161876.2500000000,148487.2187500000,159001.1875000000,138139.9531250000,150239.4218750000,148493.6562500000,,,
2.5959999957,20,128534.1796875000,142152.0312500000,161904.4843750000,148562.9687500000,159014.8906250000,138180.9062500000,150275.5625000000,148498.0781250000,,,
2.5999999957,20,128645.4921875000,142258.2656250000,161980.9843750000,148697.2656250000,159067.0625000000,138282.5312500000,150370.8593750000,148525.5781250000,,,
2.6039999959,20,128675.9375000000,142281.6875000000,162025.6406250000,148696.9375000000,159081.1875000000,138313.0156250000,150401.2500000000,148555.1250000000,,,
2.6079999958,20,128577.4218750000,142189.5468750000,161957.7343750000,148579.0000000000,159041.1562500000,138224.8750000000,150319.3750000000,148527.8281250000,,,
2.6119999958,20,128498.6406250000,142117.4843750000,161911.5156250000,148479.2812500000,158980.2656250000,138156.1562500000,150256.9687500000,148494.7500000000,,,
2.6159999957,20,128542.3671875000,142132.3906250000,161937.7500000000,148527.1093750000,158979.5156250000,138188.6562500000,150294.3281250000,148481.3750000000,,,
2.6199999957,20,128653.3281250000,142225.7812500000,161995.9531250000,148644.1875000000,159039.8125000000,138286.9843750000,150386.7656250000,148497.0625000000,,,
2.6239999956,20,128697.1250000000,142292.2031250000,162016.3437500000,148685.2187500000,159081.9218750000,138330.3593750000,150426.1093750000,148544.7187500000,,,
2.6279999958,20,128605.3984375000,142197.4062500000,161943.1093750000,148581.3125000000,159059.5156250000,138247.5312500000,150346.5312500000,148530.2968750000,,,
2.6319999958,20,128527.5312500000,142112.5000000000,161885.0468750000,148490.0312500000,159009.7187500000,138176.6250000000,150284.7343750000,148489.2031250000,,,
2.6359999957,20,128581.5234375000,142156.5937500000,161920.8437500000,148544.1093750000,159011.5156250000,138221.7031250000,150331.0156250000,148483.4062500000,,,
2.6399999957,20,128708.0703125000,142272.0625000000,162016.2812500000,148682.9375000000,159067.5625000000,138333.8281250000,150436.2500000000,148524.7656250000,,,
2.6439999957,20,128752.5703125000,142307.7812500000,162055.0937500000,148716.8125000000,159101.7968750000,138385.7500000000,150479.2187500000,148570.1562500000,,,
2.6479999959,20,128664.0546875000,142209.4531250000,162000.2500000000,148611.9218750000,159066.9218750000,138312.3125000000,150409.2031250000,148558.5156250000,,,
2.6519999958,20,128575.5703125000,142129.8437500000,161926.7500000000,148510.0468750000,159011.0625000000,138226.7812500000,150325.8750000000,148511.2812500000,,,
2.6559999958,20,128614.7578125000,142166.6406250000,161933.5937500000,148545.6875000000,158995.7968750000,138256.3906250000,150352.5312500000,148496.2656250000,,,
2.6599999957,20,128736.6640625000,142271.6875000000,162006.3281250000,148673.2812500000,159044.2031250000,138368.8281250000,150453.5937500000,148524.7656250000,,,
2.6639999957,20,128786.5781250000,142311.6718750000,162060.0000000000,148705.9218750000,159084.6875000000,138413.0000000000,150502.9062500000,148566.7968750000,,,
2.6679999956,20,128696.6171875000,142227.7500000000,161966.0156250000,148566.7968750000,159048.2500000000,138336.3750000000,150426.7187500000,148564.2812500000,,,
2.6719999958,20,128603.5156250000,142123.1406250000,161876.3593750000,148489.2031250000,158997.3750000000,138254.5625000000,150340.5781250000,148503.7656250000,,,
2.6759999958,20,128641.5234375000,142162.4843750000,161925.3281250000,148530.1406250000,158999.4687500000,138282.1406250000,150368.8437500000,148480.5468750000,,,
2.6799999957,20,128759.9453125000,142290.9687500000,162032.2500000000,148662.0156250000,159044.0468750000,138389.4218750000,150474.2500000000,148520.8750000000,,,
2.6839999957,20,128802.5937500000,142343.5312500000,162079.0156250000,148706.9531250000,159064.7187500000,138431.7500000000,150514.3593750000,148590.8125000000,,,
2.6879999957,21,128712.1484375000,142246.2031250000,162015.7500000000,148606.6562500000,159058.7656250000,138351.3437500000,150437.0468750000,148574.9062500000,,,
2.6919999956,21,128614.8671875000,142153.8281250000,161922.5156250000,148507.2343750000,159030.5000000000,138264.5156250000,150353.9843750000,148507.5156250000,,,
2.6959999956,21,128654.9375000000,142199.7187500000,161933.4531250000,148549.3125000000,159020.0937500000,138295.6562500000,150384.6093750000,148521.4218750000,,,
2.6999999955,21,128767.3984375000,142293.9375000000,162019.9843750000,148679.7187500000,159055.0937500000,138390.6093750000,150478.2968750000,148548.9062500000,,,
2.7039999955,21,128792.3750000000,142300.0937500000,162056.3281250000,148713.2500000000,159087.9062500000,138413.8125000000,150501.6875000000,148559.4531250000,,,
2.7079999954,21,128695.6796875000,142200.1406250000,161984.9062500000,148609.2343750000,159052.6250000000,138327.7343750000,150419.0781250000,148537.8906250000,,,
2.7119999956,21,128586.9687500000,142116.9687500000,161893.3593750000,148513.9375000000,159004.6250000000,138225.8437500000,150319.7343750000,148499.2656250000,,,
2.7159999956,21,128606.0625000000,142141.9218750000,161905.1562500000,148546.1250000000,159002.7656250000,138237.8593750000,150335.7656250000,148481.9375000000,,,
2.7199999955,21,128713.1953125000,142260.4375000000,161970.4687500000,148666.5781250000,159055.4531250000,138333.9062500000,150428.2031250000,148515.0312500000,,,
2.7239999955,21,128750.7187500000,142303.4375000000,162032.0781250000,148707.1093750000,159097.0156250000,138369.1718750000,150465.1875000000,148570.9062500000,,,
2.7279999955,21,128662.0156250000,142199.8750000000,161994.4843750000,148611.4062500000,159067.8437500000,138287.8281250000,150395.7500000000,148560.0156250000,,,
2.7319999957,21,128575.4062500000,142132.2812500000,161921.1250000000,148516.8281250000,159011.2187500000,138207.0312500000,150324.9375000000,148531.7187500000,,,
2.7359999956,21,128615.7734375000,142183.2187500000,161945.9218750000,148570.1875000000,159005.1875000000,138239.0937500000,150356.0781250000,148523.4843750000,,,
2.7399999956,21,128720.3281250000,142281.5000000000,162035.0312500000,148683.9531250000,159032.9218750000,138332.4218750000,150442.7343750000,148539.6250000000,,,
2.7439999955,21,128754.1250000000,142297.8125000000,162054.9062500000,148704.6406250000,159073.5000000000,138364.7187500000,150473.0937500000,148569.4843750000,,,
2.7479999955,21,128653.0078125000,142175.3593750000,161962.6093750000,148602.0156250000,159060.5937500000,138273.9062500000,150382.2500000000,148546.0937500000,,,
2.7519999954,21,128550.5703125000,142098.5781250000,161877.2343750000,148519.1875000000,159015.7031250000,138176.7812500000,150288.7812500000,148495.6718750000,,,
2.7559999956,21,128585.9531250000,142148.7343750000,161905.2656250000,148560.4218750000,159012.2656250000,138205.6406250000,150314.9531250000,148487.9375000000,,,
2.7599999956,21,128695.0859375000,142267.2812500000,161991.6875000000,148660.7031250000,159043.9375000000,138304.4062500000,150407.8906250000,148516.1562500000,,,
2.7639999955,21,128730.9531250000,142312.8750000000,162051.5468750000,148708.2812500000,159058.5312500000,138340.9531250000,150444.2187500000,148555.9843750000,,,
2.7679999955,21,128639.9453125000,142202.8281250000,162000.7812500000,148627.0937500000,159030.5781250000,138262.3750000000,150371.1250000000,148563.6562500000,,,
2.7719999955,21,128541.4765625000,142094.3125000000,161911.1718750000,148513.0781250000,158986.8593750000,138175.1406250000,150289.1875000000,148507.6093750000,,,
2.7759999956,21,128565.2187500000,142142.8593750000,161911.2968750000,148532.6250000000,158992.8437500000,138197.1875000000,150305.1406250000,148478.8281250000,,,
2.7799999956,21,128683.3437500000,142267.5468750000,161981.6875000000,148675.6406250000,159050.1093750000,138301.8281250000,150402.1875000000,148531.0000000000,,,
2.7839999956,21,128727.9687500000,142300.5937500000,162022.9062500000,148718.6875000000,159087.0156250000,138342.1406250000,150440.3750000000,148553.7343750000,,,
2.7879999955,21,128631.2812500000,142192.0781250000,161949.4687500000,148595.4687500000,159055.2343750000,138254.5937500000,150353.5468750000,148528.7968750000,,,
2.7919999955,21,128540.7031250000,142096.1093750000,161869.8125000000,148503.6406250000,159000.9218750000,138171.0468750000,150276.5781250000,148495.2343750000,,,
2.7959999954,21,128584.7656250000,142123.6250000000,161893.9687500000,148552.3906250000,158999.1250000000,138210.8906250000,150314.5312500000,148494.2187500000,,,
2.7999999956,21,128687.5234375000,142236.2968750000,161978.8437500000,148656.8125000000,159032.3750000000,138301.0937500000,150404.9218750000,148515.2187500000,,,
2.8039999956,21,128724.2421875000,142297.0625000000,162014.6718750000,148692.4843750000,159059.7968750000,138339.4531250000,150435.2812500000,148549.4531250000,,,
2.8079999955,21,128644.0156250000,142221.0468750000,161961.6406250000,148588.6093750000,159027.4687500000,138275.3750000000,150365.5937500000,148545.8281250000,,,
2.8119999955,21,128565.9687500000,142148.2187500000,161896.2343750000,148487.5937500000,158975.4687500000,138209.6875000000,150303.5000000000,148512.4062500000,,,
2.8159999955,22,128594.2890625000,142159.6250000000,161909.6875000000,148524.6093750000,158964.4375000000,138232.8906250000,150327.4843750000,148501.2968750000,,,
2.8199999954,22,128702.3828125000,142245.8281250000,161995.2812500000,148647.4531250000,159015.1562500000,138329.7500000000,150421.2031250000,148516.9687500000,,,
2.8239999954,22,128759.4375000000,142316.9531250000,162028.9375000000,148693.8593750000,159057.1875000000,138390.4218750000,150472.0000000000,148557.5156250000,,,
2.8279999953,22,128690.3984375000,142249.9218750000,161981.3906250000,148606.9531250000,159027.9843750000,138332.8281250000,150412.9062500000,148569.0781250000,,,
2.8319999953,22,128605.3437500000,142128.5000000000,161914.4687500000,148508.9375000000,158981.4687500000,138247.9375000000,150341.3437500000,148496.4687500000,,,
2.8359999952,22,128643.2109375000,142153.4218750000,161945.3437500000,148539.9843750000,158956.6875000000,138274.9531250000,150374.7968750000,148482.7656250000,,,
2.8399999954,22,128757.1250000000,142274.7187500000,162034.8437500000,148666.6875000000,158991.3906250000,138377.0937500000,150475.7343750000,148529.8593750000,,,
2.8439999954,22,128789.2578125000,142328.1718750000,162051.9375000000,148713.0625000000,159080.2812500000,138414.0156250000,150499.4375000000,148561.3593750000,,,
2.8479999953,22,128693.0234375000,142229.7343750000,161971.5468750000,148610.4687500000,159055.4687500000,138329.6406250000,150420.0000000000,148542.0468750000,,,
2.8519999953,22,128591.0468750000,142121.8593750000,161860.7187500000,148501.5625000000,159000.6718750000,138239.1406250000,150334.0312500000,148507.2031250000,,,
2.8559999953,22,128603.7343750000,142120.4375000000,161846.9843750000,148516.6093750000,158971.5781250000,138248.1718750000,150342.8750000000,148466.0000000000,,,
2.8599999954,22,128717.0312500000,142265.5468750000,161980.2031250000,148629.0468750000,159008.3750000000,138353.1562500000,150438.9218750000,148497.3906250000,,,
2.8639999954,22,128781.7812500000,142354.8281250000,162042.7812500000,148697.4843750000,159058.8750000000,138419.0156250000,150497.2187500000,148579.8125000000,,,
2.8679999954,22,128689.8046875000,142222.8437500000,161959.2812500000,148612.7500000000,159032.9687500000,138334.1718750000,150417.2031250000,148537.7812500000,,,
2.8719999953,22,128573.0468750000,142091.6718750000,161873.1875000000,148484.1562500000,158956.5468750000,138221.9687500000,150313.7031250000,148474.7968750000,,,
2.8759999953,22,128590.0000000000,142123.8593750000,161897.4375000000,148504.2500000000,158930.9687500000,138229.4843750000,150324.2968750000,148479.4062500000,,,
2.8799999952,22,128699.0859375000,142227.9062500000,161998.2656250000,148638.0156250000,158973.7656250000,138324.3750000000,150415.7500000000,148502.2343750000,,,
2.8839999954,22,128743.3984375000,142286.7500000000,162032.5625000000,148703.0312500000,159043.4218750000,138367.0625000000,150450.0312500000,148527.4531250000,,,
2.8879999954,22,128657.2187500000,142202.5937500000,161945.6093750000,148626.7812500000,159046.3281250000,138288.2500000000,150377.1093750000,148529.4062500000,,,
2.8919999953,22,128564.4687500000,142106.9375000000,161866.8906250000,148527.3750000000,159002.4687500000,138204.2187500000,150302.2500000000,148498.6718750000,,,
2.8959999953,22,128590.8593750000,142127.0625000000,161887.3281250000,148565.5468750000,158986.8281250000,138228.0625000000,150322.6562500000,148494.4375000000,,,
2.8999999953,22,128707.8281250000,142271.7343750000,161983.6718750000,148689.0625000000,159006.9531250000,138339.0781250000,150417.9843750000,148540.4531250000,,,
2.9039999954,22,128751.3906250000,142319.9687500000,162025.0312500000,148706.3281250000,159035.2968750000,138373.5156250000,150458.5312500000,148552.9375000000,,,
2.9079999954,22,128656.4921875000,142209.5156250000,161945.5781250000,148614.4843750000,159040.7187500000,138282.8125000000,150378.8437500000,148538.2343750000,,,
2.9119999954,22,128557.6484375000,142106.1562500000,161884.5937500000,148504.1718750000,158987.6406250000,138191.1250000000,150295.0781250000,148505.3750000000,,,
2.9159999953,22,128579.4843750000,142131.3750000000,161915.4843750000,148533.1093750000,158987.3125000000,138204.3281250000,150312.9687500000,148479.6562500000,,,
2.9199999953,22,128688.7343750000,142245.9843750000,162008.3750000000,148666.4375000000,159034.6250000000,138300.2343750000,150408.4531250000,148499.0937500000,,,
2.9239999952,22,128738.6171875000,142293.9687500000,162048.7343750000,148713.6718750000,159074.5468750000,138347.2343750000,150456.9531250000,148545.9531250000,,,
2.9279999954,22,128657.1640625000,142192.0468750000,161991.1718750000,148622.1093750000,159053.5937500000,138273.6875000000,150389.3593750000,148561.4375000000,,,
2.9319999954,22,128549.7421875000,142099.0468750000,161896.0156250000,148507.4687500000,158990.0781250000,138170.2812500000,150291.2500000000,148503.0937500000,,,
2.9359999953,22,128562.0781250000,142130.5781250000,161872.5156250000,148523.1406250000,158974.9218750000,138178.4218750000,150290.6875000000,148465.7031250000,,,
2.9399999953,22,128674.5937500000,142246.4375000000,161962.5000000000,148650.8125000000,159019.2968750000,138282.1406250000,150384.7968750000,148497.5468750000,,,
2.9439999952,23,128733.2265625000,142315.0468750000,162034.6875000000,148715.3125000000,159066.1406250000,138342.6250000000,150437.0468750000,148566.7187500000,,,
