Time:250Hz,Epoch,Channel 1,Channel 2,Channel 3,Channel 4,Channel 5,Channel 6,Channel 7,Channel 8,Event Id,Event Date,Event Duration
0.0000000000,0,162596.6875000000,154540.7968750000,168248.4531250000,144934.7656250000,146244.1406250000,151522.0781250000,155132.3593750000,166000.8437500000,,,
0.0040000000,0,161520.9375000000,153457.3750000000,167127.2031250000,143853.0625000000,145129.2343750000,150477.3437500000,154039.6875000000,164959.4687500000,,,
0.0079999999,0,160553.0000000000,152480.2968750000,166158.7187500000,142892.3125000000,144167.3906250000,149516.7812500000,153076.5625000000,163987.6562500000,,,
0.0119999999,0,161024.6406250000,152948.8593750000,166674.7500000000,143367.6093750000,144680.7656250000,149959.6250000000,153567.2500000000,164416.5937500000,,,
0.0159999998,0,162273.5937500000,154203.1718750000,167951.9375000000,144610.5625000000,145949.4218750000,151185.1250000000,154823.2343750000,165640.5312500000,,,
0.0199999998,0,162598.6250000000,154533.9843750000,168251.0781250000,144924.8906250000,146244.6718750000,151522.5468750000,155134.5312500000,165992.9218750000,,,
0.0240000000,0,161533.1562500000,153462.4531250000,167140.8906250000,143854.2343750000,145139.0781250000,150485.7812500000,154052.0000000000,164966.5781250000,,,
0.0279999999,0,160562.0937500000,152485.7500000000,166170.1718750000,142890.3593750000,144174.4687500000,149522.0156250000,153085.5156250000,163996.8750000000,,,
0.0319999999,0,161024.1093750000,152949.6718750000,166677.7812500000,143361.6562500000,144680.8750000000,149958.1406250000,153567.4062500000,164418.7187500000,,,
0.0359999998,0,162279.6718750000,154215.7968750000,167963.8906250000,144619.2343750000,145957.9531250000,151193.5468750000,154832.0312500000,165651.6093750000,,,
0.0399999998,0,162595.9687500000,154544.1093750000,168255.9375000000,144936.0312500000,146244.6250000000,151527.2031250000,155134.7812500000,166004.0312500000,,,
0.0440000000,0,161505.7031250000,153452.5000000000,167121.3125000000,143840.7968750000,145112.8125000000,150470.8437500000,154029.0937500000,164957.5625000000,,,
0.0480000000,0,160510.2812500000,152447.3906250000,166123.8750000000,142847.1718750000,144122.7343750000,149482.3437500000,153039.2031250000,163955.6562500000,,,
0.0519999999,0,160972.0781250000,152906.8906250000,166632.6406250000,143313.6718750000,144631.7031250000,149914.0781250000,153522.7500000000,164373.3593750000,,,
0.0559999999,0,162251.7812500000,154193.0625000000,167942.7343750000,144589.9375000000,145933.9218750000,151168.7500000000,154810.9375000000,165629.2656250000,,,
0.0599999998,0,162585.3125000000,154530.5000000000,168249.1406250000,144914.4062500000,146235.1562500000,151513.6562500000,155128.9843750000,165985.6093750000,,,
0.0639999998,0,161518.5781250000,153457.6250000000,167137.6093750000,143846.3281250000,145125.6562500000,150476.7968750000,154045.8906250000,164957.5156250000,,,
0.0680000000,0,160538.7031250000,152467.4531250000,166155.9843750000,142872.6562500000,144151.7187500000,149501.9062500000,153071.0937500000,163972.7343750000,,,
0.0719999999,0,160964.0312500000,152887.9218750000,166622.7343750000,143304.0625000000,144617.7812500000,149899.1406250000,153516.5000000000,164353.9062500000,,,
0.0759999999,0,162232.3281250000,154162.5625000000,167918.9687500000,144569.0468750000,145906.8593750000,151145.2031250000,154794.5937500000,165595.8281250000,,,
0.0799999998,0,162576.1875000000,154511.3750000000,168238.5468750000,144900.1406250000,146220.0781250000,151500.0937500000,155124.7187500000,165961.0156250000,,,
0.0839999998,0,161514.7656250000,153441.9062500000,167126.5312500000,143833.2343750000,145114.6093750000,150467.4687500000,154043.5781250000,164935.5937500000,,,
0.0880000000,0,160540.6718750000,152457.0156250000,166147.1562500000,142859.5625000000,144145.9531250000,149498.1093750000,153071.2968750000,163956.9375000000,,,
0.0919999999,0,160994.0937500000,152907.4687500000,166644.2812500000,143314.9062500000,144641.3281250000,149923.5156250000,153542.8281250000,164365.2343750000,,,
0.0959999999,0,162283.6250000000,154206.5937500000,167966.8125000000,144610.0000000000,145959.2656250000,151191.1250000000,154843.5468750000,165634.5781250000,,,
0.0999999999,0,162615.5937500000,154547.0312500000,168274.0625000000,144938.0156250000,146264.2500000000,151537.4218750000,155160.6875000000,165997.8593750000,,,
0.1039999998,0,161541.8593750000,153468.5156250000,167154.7187500000,143859.6093750000,145149.7187500000,150494.5625000000,154070.2343750000,164964.6406250000,,,
0.1079999998,0,160553.5156250000,152469.4218750000,166162.7968750000,142874.7031250000,144164.7812500000,149513.4531250000,153087.0156250000,163975.2812500000,,,
0.1120000000,0,161016.6250000000,152927.5937500000,166666.6406250000,143342.0156250000,144667.4062500000,149946.1875000000,153569.2343750000,164395.2968750000,,,
0.1159999999,0,162291.1562500000,154209.0468750000,167970.0312500000,144619.1250000000,145963.6406250000,151196.7812500000,154852.6718750000,165646.2187500000,,,
0.1199999999,0,162631.2343750000,154556.5000000000,168282.8437500000,144951.3125000000,146272.7656250000,151550.9687500000,155178.4531250000,166013.9218750000,,,
0.1239999998,0,161554.2187500000,153472.5625000000,167159.0937500000,143869.6406250000,145150.8437500000,150505.2343750000,154082.4218750000,164974.0625000000,,,
0.1279999998,1,160553.5156250000,152457.8281250000,166156.5468750000,142863.2656250000,144149.9531250000,149508.6250000000,153086.5625000000,163965.8750000000,,,
0.1319999998,1,160992.7812500000,152896.6875000000,166641.3437500000,143307.0937500000,144632.3281250000,149920.2968750000,153549.0000000000,164363.4062500000,,,
0.1359999997,1,162264.9531250000,154181.2031250000,167945.1718750000,144582.0625000000,145927.7968750000,151172.8906250000,154830.9687500000,165615.4843750000,,,
0.1399999997,1,162611.4687500000,154534.0781250000,168266.7656250000,144924.7812500000,146246.2343750000,151531.8281250000,155162.1718750000,165988.9531250000,,,
0.1439999996,1,161549.9531250000,153468.2656250000,167156.7968750000,143861.8593750000,145140.5937500000,150501.3125000000,154080.5625000000,164967.8437500000,,,
0.1479999996,1,160552.0937500000,152463.3593750000,166156.5625000000,142870.1875000000,144147.3750000000,149512.7031250000,153085.2812500000,163971.2187500000,,,
0.1519999998,1,161003.7500000000,152914.3437500000,166653.8750000000,143325.0156250000,144645.6250000000,149937.7031250000,153557.1250000000,164379.7968750000,,,
0.1559999997,1,162274.9062500000,154193.2500000000,167953.7500000000,144592.6250000000,145942.5468750000,151185.0937500000,154835.6093750000,165623.1250000000,,,
0.1599999997,1,162629.3593750000,154553.0625000000,168280.3437500000,144938.5468750000,146262.5156250000,151553.3906250000,155173.0000000000,166001.7031250000,,,
0.1639999996,1,161569.9375000000,153487.7968750000,167170.7343750000,143877.9531250000,145157.7656250000,150527.3281250000,154093.1406250000,164982.3281250000,,,
0.1679999996,1,160571.2968750000,152481.4062500000,166170.4687500000,142891.5625000000,144169.0468750000,149537.0156250000,153099.5937500000,163987.2187500000,,,
0.1719999998,1,161015.3906250000,152924.2343750000,166663.4218750000,143345.7187500000,144663.8593750000,149952.2968750000,153566.4062500000,164391.7343750000,,,
0.1759999997,1,162302.9062500000,154218.3750000000,167983.2343750000,144630.3125000000,145976.8125000000,151216.0156250000,154863.2031250000,165652.6875000000,,,
0.1799999997,1,162644.2343750000,154566.0937500000,168297.3125000000,144960.7031250000,146286.2500000000,151569.9375000000,155187.7031250000,166019.5312500000,,,
0.1839999997,1,161570.8750000000,153489.0312500000,167177.6250000000,143881.3750000000,145171.5781250000,150527.8125000000,154095.3750000000,164987.3437500000,,,
0.1879999996,1,160562.6562500000,152472.9531250000,166167.7500000000,142876.3593750000,144168.4531250000,149529.9062500000,153090.9687500000,163975.1875000000,,,
0.1919999996,1,160999.8281250000,152907.7343750000,166648.2968750000,143315.8906250000,144644.6093750000,149941.2656250000,153547.6093750000,164369.3281250000,,,
0.1959999998,1,162288.5000000000,154202.4687500000,167964.8593750000,144605.2500000000,145952.1250000000,151204.5625000000,154841.6406250000,165632.4687500000,,,
0.1999999997,1,162659.0781250000,154578.2187500000,168308.2968750000,144964.8281250000,146290.1093750000,151587.3750000000,155195.0781250000,166024.2812500000,,,
0.2039999997,1,161595.3593750000,153511.7812500000,167196.1406250000,143894.8750000000,145182.0468750000,150556.0625000000,154114.6250000000,165001.3906250000,,,
0.2079999996,1,160583.9843750000,152494.4375000000,166183.3906250000,142893.9062500000,144171.5468750000,149554.0625000000,153109.6562500000,163996.9843750000,,,
0.2119999996,1,160992.8906250000,152903.0468750000,166640.2812500000,143310.5625000000,144628.5625000000,149936.9062500000,153542.3281250000,164365.5781250000,,,
0.2159999998,1,162253.5312500000,154171.3281250000,167932.0000000000,144570.5000000000,145913.7968750000,151172.7500000000,154813.0468750000,165603.7968750000,,,
0.2199999997,1,162600.6562500000,154526.5156250000,168254.5156250000,144909.2812500000,146230.4375000000,151532.2187500000,155147.7343750000,165978.5781250000,,,
0.2239999997,1,161549.2812500000,153471.4375000000,167156.7343750000,143850.1406250000,145136.7968750000,150511.4843750000,154077.7187500000,164963.2812500000,,,
0.2279999997,1,160555.1250000000,152471.0000000000,166161.2031250000,142867.0468750000,144149.4375000000,149524.6093750000,153088.2500000000,163973.4843750000,,,
0.2319999996,1,160994.2500000000,152908.1718750000,166646.9375000000,143317.5312500000,144635.4062500000,149935.9375000000,153548.6093750000,164372.6250000000,,,
0.2359999996,1,162270.2031250000,154192.8750000000,167954.6093750000,144595.6562500000,145937.4375000000,151188.6406250000,154833.5468750000,165623.3437500000,,,
0.2399999998,1,162641.5312500000,154572.5156250000,168299.7031250000,144959.2031250000,146278.8750000000,151574.0625000000,155189.1250000000,166020.1718750000,,,
0.2439999997,1,161585.2031250000,153511.2343750000,167195.5000000000,143898.2812500000,145179.1406250000,150549.2187500000,154114.7343750000,165003.2500000000,,,
0.2479999997,1,160583.4218750000,152497.0156250000,166188.3281250000,142895.4218750000,144178.8437500000,149552.7812500000,153115.7187500000,163997.0937500000,,,
0.2519999996,1,161014.9531250000,152925.4375000000,166661.3906250000,143326.1718750000,144650.7812500000,149958.1093750000,153564.5937500000,164383.5781250000,,,
0.2559999996,2,162303.6875000000,154224.0312500000,167981.2500000000,144616.1250000000,145964.4062500000,151225.8593750000,154863.1250000000,165649.7343750000,,,
0.2599999995,2,162692.1718750000,154619.4531250000,168344.2656250000,144996.4375000000,146324.3437500000,151626.6093750000,155236.8125000000,166061.7187500000,,,
0.2639999995,2,161621.2968750000,153542.4531250000,167223.6093750000,143921.2343750000,145208.0000000000,150587.1250000000,154147.0781250000,165028.3750000000,,,
0.2679999995,2,160598.0625000000,152508.6875000000,166196.6718750000,142903.5000000000,144185.2031250000,149569.7812500000,153129.1093750000,164004.2500000000,,,
0.2719999994,2,160995.6718750000,152904.9843750000,166636.5468750000,143310.2812500000,144626.8281250000,149939.7968750000,153545.2500000000,164362.7812500000,,,
0.2759999994,2,162301.4062500000,154222.7500000000,167975.9375000000,144616.9843750000,145959.1093750000,151223.3125000000,154861.9531250000,165650.2968750000,,,
0.2799999996,2,162694.5937500000,154623.9843750000,168348.2812500000,145002.6875000000,146325.8750000000,151629.5000000000,155243.8906250000,166065.6093750000,,,
0.2839999995,2,161629.4531250000,153554.2812500000,167237.7187500000,143934.7656250000,145218.2031250000,150596.8281250000,154161.9218750000,165040.6406250000,,,
0.2879999995,2,160600.5000000000,152517.0468750000,166204.5000000000,142905.7343750000,144192.3281250000,149576.3281250000,153136.2187500000,164009.9218750000,,,
0.2919999994,2,161016.0000000000,152931.8281250000,166663.0468750000,143329.3906250000,144652.3906250000,149962.6718750000,153569.6562500000,164384.5468750000,,,
0.2959999994,2,162293.4687500000,154217.5937500000,167972.0468750000,144606.5937500000,145955.2187500000,151217.7812500000,154855.3750000000,165638.6093750000,,,
0.2999999996,2,162689.5781250000,154619.6406250000,168341.6250000000,144992.4687500000,146319.2968750000,151629.6093750000,155235.3125000000,166056.3906250000,,,
0.3039999995,2,161631.2812500000,153554.8281250000,167234.0625000000,143933.3437500000,145218.7812500000,150603.4531250000,154157.5156250000,165040.1250000000,,,
0.3079999995,2,160602.3593750000,152517.7187500000,166201.8750000000,142910.6875000000,144193.2656250000,149582.6406250000,153133.0000000000,164013.9687500000,,,
0.3119999995,2,161001.1250000000,152917.4843750000,166646.7656250000,143318.4687500000,144637.2031250000,149956.7187500000,153553.1093750000,164374.4218750000,,,
0.3159999994,2,162293.1406250000,154219.4687500000,167972.2656250000,144613.3593750000,145955.8906250000,151226.3750000000,154853.4375000000,165644.2187500000,,,
0.3199999994,2,162719.1250000000,154652.4687500000,168373.7031250000,145026.1562500000,146348.3906250000,151661.0468750000,155263.3125000000,166093.5625000000,,,
0.3239999996,2,161654.2968750000,153579.7968750000,167255.5468750000,143950.7968750000,145236.7031250000,150625.2656250000,154178.2812500000,165065.7656250000,,,
0.3279999995,2,160613.2187500000,152527.5312500000,166207.0000000000,142917.7968750000,144196.1875000000,149590.7343750000,153140.1562500000,164024.4531250000,,,
0.3319999995,2,161010.9687500000,152922.4375000000,166648.1875000000,143325.4375000000,144637.1562500000,149960.9843750000,153556.8906250000,164383.3281250000,,,
0.3359999994,2,162284.3750000000,154203.3281250000,167955.6562500000,144598.2812500000,145936.7031250000,151208.5312500000,154840.7031250000,165635.1250000000,,,
0.3399999994,2,162660.5000000000,154585.8906250000,168307.8125000000,144963.2031250000,146283.1718750000,151593.4062500000,155202.1093750000,166032.9531250000,,,
0.3439999996,2,161610.9531250000,153533.5000000000,167213.5937500000,143914.1562500000,145191.9375000000,150575.2968750000,154135.3906250000,165024.9687500000,,,
0.3479999995,2,160576.6562500000,152491.4843750000,166175.1875000000,142888.2187500000,144160.7031250000,149549.7031250000,153103.3593750000,163993.8750000000,,,
0.3519999995,2,160967.5937500000,152879.5781250000,166607.5312500000,143288.2968750000,144595.8750000000,149914.3125000000,153511.7187500000,164343.5000000000,,,
0.3559999994,2,162266.3125000000,154185.8906250000,167935.6250000000,144584.5000000000,145916.4531250000,151188.4218750000,154819.4375000000,165617.4218750000,,,
0.3599999994,2,162667.7343750000,154593.2343750000,168313.4062500000,144974.0312500000,146291.6718750000,151601.7968750000,155206.3906250000,166041.3437500000,,,
0.3639999994,2,161620.4375000000,153540.0156250000,167220.4375000000,143918.3437500000,145204.0625000000,150585.1562500000,154141.9062500000,165032.4218750000,,,
0.3679999996,2,160579.7968750000,152487.8750000000,166174.2968750000,142886.2500000000,144161.5468750000,149549.3750000000,153104.9687500000,163994.7031250000,,,
0.3719999995,2,160967.1875000000,152871.8593750000,166605.9218750000,143282.3906250000,144594.5000000000,149907.8437500000,153511.3437500000,164339.9687500000,,,
0.3759999995,2,162251.1875000000,154166.1562500000,167925.5156250000,144560.9531250000,145906.9375000000,151167.8125000000,154806.1562500000,165595.4843750000,,,
0.3799999994,2,162658.6718750000,154583.5781250000,168313.3125000000,144965.7500000000,146290.8906250000,151588.9843750000,155201.5468750000,166031.6562500000,,,
0.3839999994,3,161614.9375000000,153538.0000000000,167225.3750000000,143923.7031250000,145208.6718750000,150578.0312500000,154140.5625000000,165034.2812500000,,,
0.3879999993,3,160575.9687500000,152492.4218750000,166180.8125000000,142897.1250000000,144178.4375000000,149548.0312500000,153105.6875000000,164000.7187500000,,,
0.3919999993,3,160967.5156250000,152882.0156250000,166613.9687500000,143296.5781250000,144613.6250000000,149912.6718750000,153515.0781250000,164350.6406250000,,,
0.3959999993,3,162242.2031250000,154163.4375000000,167918.2500000000,144567.0937500000,145909.7968750000,151161.1875000000,154798.0625000000,165598.2187500000,,,
0.3999999992,3,162661.4843750000,154587.6875000000,168311.2187500000,144973.9062500000,146297.5156250000,151589.1406250000,155202.3750000000,166039.7656250000,,,
0.4039999992,3,161638.1250000000,153557.9062500000,167232.1562500000,143946.0312500000,145222.7500000000,150595.3750000000,154156.1250000000,165057.0468750000,,,
0.4079999994,3,160608.4375000000,152515.2812500000,166191.4062500000,142919.3593750000,144189.8906250000,149571.4687500000,153124.4843750000,164023.8125000000,,,
0.4119999993,3,160986.7187500000,152888.0000000000,166610.3437500000,143294.9687500000,144604.2343750000,149921.9375000000,153520.7031250000,164353.5625000000,,,
0.4159999993,3,162256.5312500000,154167.3593750000,167910.9687500000,144561.5625000000,145894.0312500000,151168.7343750000,154800.8125000000,165595.9531250000,,,
0.4199999992,3,162649.2500000000,154568.7812500000,168281.3593750000,144949.8437500000,146256.7500000000,151575.8906250000,155180.8593750000,166015.9375000000,,,
0.4239999992,3,161616.8750000000,153534.0156250000,167202.0468750000,143913.3281250000,145180.0781250000,150578.0781250000,154130.2187500000,165025.2968750000,,,
0.4279999994,3,160587.3125000000,152497.2031250000,166166.1093750000,142884.8906250000,144151.3437500000,149558.0937500000,153101.4843750000,163997.0625000000,,,
0.4319999993,3,160980.9218750000,152890.0156250000,166603.2031250000,143285.9843750000,144588.0937500000,149925.9843750000,153512.8281250000,164351.5468750000,,,
0.4359999993,3,162245.2656250000,154162.2343750000,167902.4687500000,144552.6875000000,145880.9687500000,151164.5000000000,154788.5625000000,165590.4375000000,,,
0.4399999992,3,162655.0000000000,154577.3125000000,168292.5937500000,144955.7343750000,146268.5468750000,151583.2656250000,155186.2187500000,166024.0156250000,,,
0.4439999992,3,161640.7500000000,153554.8281250000,167228.1875000000,143933.2031250000,145212.0312500000,150595.2187500000,154150.2187500000,165045.9531250000,,,
0.4479999992,3,160595.4843750000,152497.5312500000,166175.3750000000,142892.0781250000,144169.0156250000,149555.1093750000,153106.4062500000,164001.8906250000,,,
0.4519999993,3,160972.4531250000,152871.3125000000,166595.3750000000,143284.0000000000,144590.1562500000,149904.7343750000,153498.1250000000,164340.8750000000,,,
0.4559999993,3,162246.7187500000,154154.1718750000,167902.8437500000,144567.5937500000,145893.2500000000,151153.3125000000,154779.5781250000,165594.8906250000,,,
0.4599999993,3,162654.7812500000,154570.7343750000,168289.7500000000,144965.5781250000,146273.4843750000,151576.9843750000,155178.6406250000,166027.0468750000,,,
0.4639999992,3,161630.3906250000,153539.9687500000,167217.0937500000,143933.5000000000,145204.9687500000,150586.4218750000,154137.4218750000,165035.0781250000,,,
0.4679999992,3,160579.6718750000,152481.8593750000,166161.2656250000,142888.8281250000,144161.0000000000,149546.1562500000,153088.2500000000,163988.7187500000,,,
0.4719999994,3,160949.0312500000,152850.1875000000,166575.3750000000,143256.5156250000,144573.9218750000,149891.8437500000,153476.1562500000,164315.7343750000,,,
0.4759999993,3,162237.2656250000,154146.3906250000,167900.2968750000,144547.1093750000,145893.3906250000,151155.5937500000,154775.3593750000,165580.0781250000,,,
0.4799999993,3,162660.6875000000,154575.9218750000,168298.7656250000,144963.0156250000,146286.1250000000,151589.3281250000,155184.6406250000,166025.7031250000,,,
0.4839999992,3,161634.4375000000,153543.4218750000,167218.7812500000,143928.2187500000,145206.1250000000,150591.4375000000,154135.9843750000,165037.9062500000,,,
0.4879999992,3,160583.6875000000,152482.9375000000,166156.5156250000,142882.1718750000,144152.7656250000,149546.8281250000,153081.0937500000,163989.4531250000,,,
0.4919999992,3,160960.6718750000,152858.6562500000,166573.3593750000,143272.7968750000,144573.3437500000,149897.7187500000,153471.2968750000,164330.2187500000,,,
0.4959999993,3,162237.1406250000,154144.0000000000,167880.6875000000,144551.6093750000,145873.3593750000,151150.9687500000,154755.9375000000,165583.1406250000,,,
0.4999999993,3,162654.0781250000,154566.9531250000,168272.8125000000,144959.4375000000,146259.4218750000,151579.5937500000,155159.0000000000,166022.9687500000,,,
0.5039999993,3,161617.5000000000,153525.9375000000,167188.4375000000,143923.3125000000,145179.9531250000,150573.9843750000,154103.8750000000,165029.8593750000,,,
0.5079999992,3,160561.0000000000,152463.5625000000,166130.1718750000,142877.1093750000,144129.6406250000,149528.5000000000,153053.8750000000,163978.6718750000,,,
0.5119999992,4,160921.8125000000,152823.4062500000,166539.2656250000,143247.6875000000,144539.5937500000,149863.8593750000,153434.9062500000,164301.6562500000,,,
0.5159999991,4,162214.6250000000,154123.0468750000,167863.1562500000,144536.6250000000,145852.4843750000,151131.1562500000,154734.0312500000,165565.2187500000,,,
0.5199999991,4,162653.1406250000,154565.0312500000,168273.9375000000,144961.1875000000,146259.2187500000,151578.6250000000,155156.3125000000,166024.8437500000,,,
0.5239999990,4,161626.8593750000,153529.6406250000,167195.3125000000,143927.3281250000,145184.2187500000,150579.8593750000,154109.5625000000,165037.3125000000,,,
0.5279999990,4,160572.2343750000,152465.0937500000,166134.3906250000,142875.7343750000,144130.9062500000,149532.3125000000,153057.5468750000,163985.9843750000,,,
0.5319999990,4,160945.2812500000,152838.8125000000,166551.7187500000,143259.1093750000,144552.3125000000,149880.6875000000,153450.1093750000,164319.0937500000,,,
0.5359999991,4,162222.2500000000,154123.3750000000,167863.0468750000,144534.3593750000,145860.1093750000,151130.1093750000,154735.9375000000,165567.8281250000,,,
0.5399999991,4,162650.0625000000,154553.2500000000,168269.5937500000,144951.9843750000,146260.1875000000,151564.9531250000,155148.9687500000,166014.9687500000,,,
0.5439999991,4,161636.5937500000,153533.5000000000,167211.1093750000,143938.5625000000,145206.2656250000,150583.3437500000,154115.6250000000,165040.6093750000,,,
0.5479999990,4,160592.7031250000,152480.0937500000,166163.8906250000,142904.7343750000,144166.6406250000,149547.9531250000,153074.2031250000,164001.1718750000,,,
0.5519999990,4,160940.6875000000,152824.1406250000,166557.1562500000,143264.2656250000,144563.1406250000,149868.3750000000,153442.2500000000,164304.9531250000,,,
0.5559999992,4,162205.6250000000,154099.4218750000,167855.7187500000,144532.5468750000,145858.5468750000,151110.0781250000,154715.5000000000,165548.1406250000,,,
0.5599999991,4,162632.6250000000,154534.4687500000,168259.3437500000,144951.8593750000,146258.2968750000,151548.7656250000,155128.9375000000,165999.3437500000,,,
0.5639999991,4,161619.7500000000,153517.1406250000,167198.9843750000,143934.0000000000,145202.9843750000,150566.1718750000,154100.5156250000,165023.8437500000,,,
0.5679999990,4,160570.8125000000,152459.0156250000,166145.0156250000,142890.8437500000,144153.6562500000,149525.9531250000,153056.4218750000,163978.7187500000,,,
0.5719999990,4,160931.3906250000,152817.2500000000,166546.9375000000,143259.6250000000,144557.2656250000,149860.7812500000,153433.3281250000,164300.1093750000,,,
0.5759999990,4,162206.6093750000,154101.8593750000,167853.7968750000,144530.7187500000,145857.4218750000,151113.7656250000,154715.5781250000,165548.8593750000,,,
0.5799999991,4,162638.1562500000,154544.0468750000,168262.9062500000,144956.5781250000,146259.0781250000,151558.0468750000,155133.0156250000,166007.0156250000,,,
0.5839999991,4,161639.3593750000,153541.1718750000,167214.4375000000,143952.3281250000,145211.1718750000,150590.5781250000,154114.7656250000,165051.2343750000,,,
0.5879999991,4,160584.9687500000,152477.0781250000,166148.7343750000,142899.1250000000,144153.6250000000,149545.9062500000,153060.0937500000,163998.0937500000,,,
0.5919999990,4,160943.5312500000,152833.3906250000,166546.9843750000,143263.0468750000,144550.1093750000,149877.3281250000,153434.9843750000,164316.2812500000,,,
0.5959999990,4,162200.1562500000,154098.1875000000,167836.8125000000,144516.1250000000,145827.4531250000,151110.5000000000,154698.6718750000,165544.8437500000,,,
0.5999999992,4,162618.8906250000,154523.0000000000,168233.4375000000,144922.1875000000,146217.4062500000,151537.4843750000,155100.3593750000,165986.1406250000,,,
0.6039999991,4,161622.0312500000,153521.1093750000,167187.2343750000,143918.5781250000,145174.4218750000,150567.6406250000,154082.6875000000,165030.0625000000,,,
0.6079999991,4,160572.3750000000,152462.3906250000,166132.4531250000,142876.6875000000,144125.4687500000,149526.4375000000,153035.5468750000,163986.3125000000,,,
0.6119999990,4,160916.5781250000,152805.3125000000,166520.6250000000,143225.7656250000,144516.5625000000,149845.2812500000,153396.9218750000,164291.2031250000,,,
0.6159999990,4,162187.6718750000,154084.4218750000,167824.5781250000,144496.0312500000,145816.4062500000,151091.9062500000,154676.6562500000,165534.2656250000,,,
0.6199999989,4,162624.3437500000,154529.4531250000,168240.8281250000,144926.9687500000,146226.7812500000,151541.5000000000,155101.4375000000,165994.7500000000,,,
0.6239999991,4,161623.5781250000,153528.7031250000,167197.6406250000,143929.8437500000,145188.7656250000,150576.1250000000,154084.5312500000,165036.8593750000,,,
0.6279999991,4,160571.2187500000,152471.5625000000,166142.1093750000,142887.7656250000,144144.5937500000,149536.4218750000,153035.8125000000,163990.2343750000,,,
0.6319999991,4,160905.1718750000,152802.8593750000,166518.8281250000,143233.3281250000,144526.1250000000,149844.7656250000,153388.4687500000,164287.1562500000,,,
0.6359999990,4,162171.6406250000,154075.8750000000,167818.4687500000,144504.3750000000,145819.8750000000,151085.4531250000,154663.2968750000,165528.4687500000,,,
0.6399999990,5,162633.6718750000,154542.3906250000,168257.8906250000,144964.2656250000,146256.2968750000,151554.2187500000,155110.6718750000,166013.7968750000,,,
0.6439999989,5,161651.3750000000,153551.4218750000,167226.2343750000,143974.7500000000,145230.2187500000,150599.9218750000,154106.5781250000,165068.2343750000,,,
0.6479999989,5,160605.7031250000,152492.1093750000,166173.7656250000,142935.9375000000,144186.5312500000,149559.1406250000,153059.8750000000,164023.1718750000,,,
0.6519999988,5,160931.0625000000,152809.5937500000,166542.7031250000,143266.5625000000,144555.2656250000,149855.1718750000,153402.8281250000,164301.9843750000,,,
0.6559999988,5,162194.8125000000,154078.0156250000,167838.3906250000,144522.2187500000,145842.1093750000,151093.9531250000,154672.3125000000,165532.6093750000,,,
0.6599999988,5,162654.0312500000,154545.0937500000,168275.7812500000,144972.3125000000,146271.9062500000,151563.8281250000,155116.2656250000,166015.8593750000,,,
0.6639999989,5,161665.5000000000,153554.0156250000,167238.2031250000,143980.0312500000,145238.2343750000,150607.5000000000,154106.8750000000,165066.9531250000,,,
0.6679999989,5,160604.6562500000,152486.6406250000,166169.8750000000,142926.6562500000,144177.3437500000,149557.9062500000,153048.0468750000,164013.1875000000,,,
0.6719999989,5,160933.3906250000,152815.0781250000,166541.1718750000,143266.9375000000,144549.3906250000,149861.7968750000,153394.9375000000,164308.2031250000,,,
0.6759999988,5,162165.2812500000,154057.5000000000,167806.3437500000,144498.2968750000,145807.1250000000,151072.4687500000,154636.1093750000,165516.2656250000,,,
0.6799999988,5,162615.9687500000,154519.5625000000,168239.2812500000,144944.5625000000,146232.8750000000,151536.3281250000,155076.9218750000,165995.8281250000,,,
0.6839999990,5,161645.1406250000,153546.3281250000,167222.8593750000,143973.8593750000,145219.5937500000,150596.7500000000,154088.2343750000,165068.7500000000,,,
0.6879999989,5,160592.2968750000,152485.7500000000,166163.8593750000,142917.8750000000,144169.1250000000,149554.4218750000,153037.8593750000,164016.8593750000,,,
0.6919999989,5,160913.6250000000,152803.0000000000,166527.9531250000,143239.7968750000,144532.0312500000,149847.8437500000,153377.0468750000,164296.4062500000,,,
0.6959999988,5,162162.9687500000,154059.3437500000,167809.4843750000,144489.5937500000,145808.5468750000,151072.4687500000,154632.1562500000,165521.1875000000,,,
0.6999999988,5,162627.0468750000,154534.9375000000,168253.8906250000,144949.7812500000,146253.0468750000,151548.6406250000,155081.5312500000,166013.2343750000,,,
0.7039999987,5,161653.8593750000,153559.2812500000,167232.5937500000,143974.4062500000,145236.2968750000,150606.5625000000,154086.3906250000,165078.5937500000,,,
0.7079999989,5,160598.7343750000,152495.4843750000,166168.6718750000,142925.0468750000,144175.9375000000,149561.2343750000,153030.2656250000,164023.8906250000,33029,0.7108927963,0.0000000000
0.7119999989,5,160918.4843750000,152812.6875000000,166529.8281250000,143247.3125000000,144536.3281250000,149856.8281250000,153364.0625000000,164302.8125000000,,,
0.7159999989,5,162171.6875000000,154073.1406250000,167815.7500000000,144491.3125000000,145814.4218750000,151085.5625000000,154624.4062500000,165526.8906250000,,,
0.7199999988,5,162630.0781250000,154536.5156250000,168251.3125000000,144941.0468750000,146246.3593750000,151550.5468750000,155070.2187500000,166005.6718750000,,,
0.7239999988,5,161665.5781250000,153567.5156250000,167240.4687500000,143977.4531250000,145240.0781250000,150612.5781250000,154087.1093750000,165081.7500000000,,,
0.7279999990,5,160613.0781250000,152508.3593750000,166183.4218750000,142936.5156250000,144192.2500000000,149575.0468750000,153036.1718750000,164036.2812500000,,,
0.7319999989,5,160929.9687500000,152821.3750000000,166541.8125000000,143259.5937500000,144552.3906250000,149868.3906250000,153370.4531250000,164310.6406250000,,,
0.7359999989,5,162179.9531250000,154074.7500000000,167824.4687500000,144506.2343750000,145828.1250000000,151090.2968750000,154627.6562500000,165529.5468750000,,,
0.7399999988,5,162642.4375000000,154539.8125000000,168263.6875000000,144956.4375000000,146259.8906250000,151559.4218750000,155074.1406250000,166008.2343750000,,,
0.7439999988,5,161689.0312500000,153579.9843750000,167260.3437500000,143995.6718750000,145256.3593750000,150633.0625000000,154098.5625000000,165092.4843750000,,,
0.7479999987,5,160639.1562500000,152520.6718750000,166202.2500000000,142951.3281250000,144204.7031250000,149590.3906250000,153046.5468750000,164046.6406250000,,,
0.7519999989,5,160919.2812500000,152798.4218750000,166524.8125000000,143245.9375000000,144532.1718750000,149845.2812500000,153341.1562500000,164295.5937500000,,,
0.7559999989,5,162147.6093750000,154033.5156250000,167787.3281250000,144475.5468750000,145785.9062500000,151049.1875000000,154576.8593750000,165499.7812500000,,,
0.7599999988,5,162590.5937500000,154481.5312500000,168210.2343750000,144905.9531250000,146203.9062500000,151502.5312500000,155006.2500000000,165956.0156250000,,,
0.7639999988,5,161632.5937500000,153519.9843750000,167205.2656250000,143942.1406250000,145203.9062500000,150575.3125000000,154031.0468750000,165036.7187500000,,,
0.7679999988,6,160608.6093750000,152489.7656250000,166173.0937500000,142921.4218750000,144178.8437500000,149563.1406250000,153007.6875000000,164018.7968750000,,,
0.7719999987,6,160923.3125000000,152804.3437500000,166530.2812500000,143243.0781250000,144534.5468750000,149854.6406250000,153339.2500000000,164296.0000000000,,,
0.7759999987,6,162148.4687500000,154038.1875000000,167790.0000000000,144469.6406250000,145789.5625000000,151053.7656250000,154572.4218750000,165497.6250000000,,,
0.7799999986,6,162608.8437500000,154506.6406250000,168228.7343750000,144924.6250000000,146224.7812500000,151521.7343750000,155016.9843750000,165982.5156250000,,,
0.7839999986,6,161661.0312500000,153556.4531250000,167233.1250000000,143974.3281250000,145231.9218750000,150602.5156250000,154046.6406250000,165076.7656250000,,,
0.7879999985,6,160622.4687500000,152507.6875000000,166185.7500000000,142936.0937500000,144191.9843750000,149573.3750000000,153005.5312500000,164035.3750000000,,,
0.7919999987,6,160902.7343750000,152787.4375000000,166507.8906250000,143221.8281250000,144518.0000000000,149830.5781250000,153301.8593750000,164278.6406250000,,,
0.7959999987,6,162103.2968750000,153994.5937500000,167743.3906250000,144426.1093750000,145750.7812500000,151005.5156250000,154511.5156250000,165454.3437500000,,,
0.7999999986,6,162559.0000000000,154456.0156250000,168179.1093750000,144874.9531250000,146176.4375000000,151468.2187500000,154954.0312500000,165932.0468750000,,,
0.8039999986,6,161632.1875000000,153525.7812500000,167205.6875000000,143943.0468750000,145203.3906250000,150569.6875000000,154008.1406250000,165046.2656250000,,,
0.8079999986,6,160597.3906250000,152483.6093750000,166162.4375000000,142916.1562500000,144167.2500000000,149545.0625000000,152973.2968750000,164019.7656250000,,,
0.8119999988,6,160884.3125000000,152768.1250000000,166490.3906250000,143212.9531250000,144497.1406250000,149808.6093750000,153273.3750000000,164271.8125000000,,,
0.8159999987,6,162117.8281250000,154005.4062500000,167758.2031250000,144447.2187500000,145760.0781250000,151015.5156250000,154515.1406250000,165478.9375000000,,,
0.8199999987,6,162595.2187500000,154486.5468750000,168215.1718750000,144917.6250000000,146212.2812500000,151501.2500000000,154976.3906250000,165974.6562500000,,,
0.8239999986,6,161656.7343750000,153543.3750000000,167228.5156250000,143967.4843750000,145228.3281250000,150594.1250000000,154013.8593750000,165068.4687500000,,,
0.8279999986,6,160619.5156250000,152498.0937500000,166184.4375000000,142932.4218750000,144193.0312500000,149567.4531250000,152975.7343750000,164031.6718750000,,,
0.8319999985,6,160894.4531250000,152768.6718750000,166500.3281250000,143217.7500000000,144509.7187500000,149816.9843750000,153264.3750000000,164267.7031250000,,,
0.8359999987,6,162101.5468750000,153979.4375000000,167742.2968750000,144427.4218750000,145741.2343750000,150997.2812500000,154479.3750000000,165446.4843750000,,,
0.8399999987,6,162580.3593750000,154464.7343750000,168201.5625000000,144901.1562500000,146194.5781250000,151484.4218750000,154943.9062500000,165947.9687500000,,,
0.8439999986,6,161650.5625000000,153530.7343750000,167223.4218750000,143965.8750000000,145221.3281250000,150581.2500000000,153990.8750000000,165058.3125000000,,,
0.8479999986,6,160611.6562500000,152482.3750000000,166176.0937500000,142931.1562500000,144182.8125000000,149552.8125000000,152949.7187500000,164019.7656250000,,,
0.8519999986,6,160884.4375000000,152753.7500000000,166490.2343750000,143216.7656250000,144501.4062500000,149803.4843750000,153238.0000000000,164257.2500000000,,,
0.8559999987,6,162086.2656250000,153965.1562500000,167723.8593750000,144418.8437500000,145731.9218750000,150983.1562500000,154443.1250000000,165435.7031250000,,,
0.8599999987,6,162581.2968750000,154472.4687500000,168200.5937500000,144910.0625000000,146202.7031250000,151490.6250000000,154921.4843750000,165956.0468750000,,,
0.8639999987,6,161659.6562500000,153548.5000000000,167232.5937500000,143987.4062500000,145237.9843750000,150599.2968750000,153977.5625000000,165074.1093750000,,,
0.8679999986,6,160616.2031250000,152496.8593750000,166180.5000000000,142945.1093750000,144196.0312500000,149565.5781250000,152929.1718750000,164035.6406250000,,,
0.8719999986,6,160868.3750000000,152746.0000000000,166473.9062500000,143200.9843750000,144490.3437500000,149792.0625000000,153195.7812500000,164250.2656250000,,,
0.8759999985,6,162038.6718750000,153922.0937500000,167679.3125000000,144373.4843750000,145689.4531250000,150935.2656250000,154371.3125000000,165394.8281250000,,,
0.8799999987,6,162512.8750000000,154404.0156250000,168135.2031250000,144843.8593750000,146143.5000000000,151416.0312500000,154828.7187500000,165890.5937500000,,,
0.8839999987,6,161607.4843750000,153499.5937500000,167184.7343750000,143939.1875000000,145198.0000000000,150542.1718750000,153899.7500000000,165030.2500000000,,,
0.8879999986,6,160581.6250000000,152467.6250000000,166152.0625000000,142922.4375000000,144174.0312500000,149527.8281250000,152870.5937500000,164011.0156250000,,,
0.8919999986,6,160855.1562500000,152741.7187500000,166466.3125000000,143205.1250000000,144490.6406250000,149777.8125000000,153156.1718750000,164251.6406250000,,,
0.8959999986,7,162059.5781250000,153954.9062500000,167704.9843750000,144408.8437500000,145724.5468750000,150955.2500000000,154365.9843750000,165430.9218750000,,,
0.8999999985,7,162544.4687500000,154446.1250000000,168170.6718750000,144887.6875000000,146182.5000000000,151447.9687500000,154835.5312500000,165937.2500000000,,,
0.9039999985,7,161645.2031250000,153543.7812500000,167223.6250000000,143978.1250000000,145235.9218750000,150582.5937500000,153912.5000000000,165074.3281250000,,,
0.9079999984,7,160623.2500000000,152510.8593750000,166191.9218750000,142957.5468750000,144208.6718750000,149569.9218750000,152886.6250000000,164053.1250000000,,,
0.9119999984,7,160891.1718750000,152772.7656250000,166498.0937500000,143233.8125000000,144513.6406250000,149812.2031250000,153166.1718750000,164280.7968750000,,,
0.9159999983,7,162086.2031250000,153972.6562500000,167723.9687500000,144430.9062500000,145733.8437500000,150982.2343750000,154365.2500000000,165449.1562500000,,,
0.9199999985,7,162564.9531250000,154457.4687500000,168180.2343750000,144901.8906250000,146184.9687500000,151469.2656250000,154826.2968750000,165944.9218750000,,,
0.9239999985,7,161666.0937500000,153554.6093750000,167233.4687500000,143994.9687500000,145238.5312500000,150596.7968750000,153905.0625000000,165081.0781250000,,,
0.9279999984,7,160639.6406250000,152519.5781250000,166200.0000000000,142973.0468750000,144207.9375000000,149579.2812500000,152876.6250000000,164059.1875000000,,,
0.9319999984,7,160897.7812500000,152772.0156250000,166496.7812500000,143235.1562500000,144508.0312500000,149812.4687500000,153147.4843750000,164277.7031250000,,,
0.9359999984,7,162081.5468750000,153955.4687500000,167710.6875000000,144413.6093750000,145716.2812500000,150968.0000000000,154333.7656250000,165431.0781250000,,,
0.9399999985,7,162561.0937500000,154438.8750000000,168165.8906250000,144879.7343750000,146165.4687500000,151454.8906250000,154795.0312500000,165925.5000000000,,,
0.9439999985,7,161680.4218750000,153555.1250000000,167236.5937500000,143993.1562500000,145237.7812500000,150601.1250000000,153890.9375000000,165081.9218750000,,,
0.9479999985,7,160652.4375000000,152517.8281250000,166198.0312500000,142968.8437500000,144207.5625000000,149581.6718750000,152857.5312500000,164059.3281250000,,,
0.9519999984,7,160898.5781250000,152758.7656250000,166482.4062500000,143224.1562500000,144495.8281250000,149801.6875000000,153113.1406250000,164268.9687500000,,,
0.9559999984,7,162073.1250000000,153939.4062500000,167693.3125000000,144404.7031250000,145703.4843750000,150949.3281250000,154292.9218750000,165420.1406250000,,,
0.9599999983,7,162577.9062500000,154451.8281250000,168181.4531250000,144905.1250000000,146187.5781250000,151459.0781250000,154784.7031250000,165943.6250000000,,,
0.9639999985,7,161686.8750000000,153561.3437500000,167243.5000000000,144012.7343750000,145254.0000000000,150597.4531250000,153868.2656250000,165094.0937500000,,,
0.9679999985,7,160648.8906250000,152522.0625000000,166194.6250000000,142982.2500000000,144215.3906250000,149578.6875000000,152824.1093750000,164067.1875000000,,,
0.9719999984,7,160894.0468750000,152765.1875000000,166478.4062500000,143229.2500000000,144500.9218750000,149801.9062500000,153082.2656250000,164274.2968750000,,,
0.9759999984,7,162103.3281250000,153977.5468750000,167721.5312500000,144430.2500000000,145735.2968750000,150979.5000000000,154299.0000000000,165453.8281250000,,,
0.9799999984,7,162585.4531250000,154466.5312500000,168184.8750000000,144907.9218750000,146194.3906250000,151465.8593750000,154765.5468750000,165958.1406250000,,,
0.9839999985,7,161692.6406250000,153570.3593750000,167246.0625000000,144012.6718750000,145259.9062500000,150600.3125000000,153851.9062500000,165103.8281250000,,,
0.9879999985,7,160674.1093750000,152540.8437500000,166218.1250000000,142993.1718750000,144238.5156250000,149588.4843750000,152830.4375000000,164085.7187500000,,,
0.9919999985,7,160899.9218750000,152759.4687500000,166482.4843750000,143222.0937500000,144502.4531250000,149789.2968750000,153069.0781250000,164274.6562500000,,,
0.9959999984,7,162070.2812500000,153934.2187500000,167687.0625000000,144397.0937500000,145704.6718750000,150933.7656250000,154246.7812500000,165418.7968750000,,,
0.9999999984,7,162562.1718750000,154435.2031250000,168158.5156250000,144889.9531250000,146172.2500000000,151431.4218750000,154724.0781250000,165934.4218750000,,,
1.0039999983,7,161687.5468750000,153559.9218750000,167239.1406250000,144017.0468750000,145257.9687500000,150582.0312500000,153829.5312500000,165101.1406250000,,,
1.0079999985,7,160662.4062500000,152524.3750000000,166204.3437500000,142996.5000000000,144229.7968750000,149563.9375000000,152801.7656250000,164076.4062500000,,,
1.0119999985,7,160882.1718750000,152736.6406250000,166462.2343750000,143220.1718750000,144490.2968750000,149756.1250000000,153033.1875000000,164253.3750000000,,,
1.0159999984,7,162034.4687500000,153894.4687500000,167647.5000000000,144372.7656250000,145670.8125000000,150882.6718750000,154191.4218750000,165379.2031250000,,,
1.0199999984,7,162531.8593750000,154397.6875000000,168121.9375000000,144859.7656250000,146138.2500000000,151384.5625000000,154672.5781250000,165895.4062500000,,,
1.0239999983,8,161680.9062500000,153547.6875000000,167223.7968750000,144008.2500000000,145243.4843750000,150560.8281250000,153798.2812500000,165086.3906250000,,,
1.0279999983,8,160669.3906250000,152530.1406250000,166207.0156250000,143004.3281250000,144233.4218750000,149561.4375000000,152783.0937500000,164083.4687500000,,,
1.0319999983,8,160886.3281250000,152739.5937500000,166464.2187500000,143222.2031250000,144494.3437500000,149753.0937500000,153013.1562500000,164254.3750000000,,,
1.0359999982,8,162045.8750000000,153900.8593750000,167654.7968750000,144379.2812500000,145678.5937500000,150884.7187500000,154178.9687500000,165380.8125000000,,,
1.0399999982,8,162545.8593750000,154405.2500000000,168131.5312500000,144869.1562500000,146152.1406250000,151387.8906250000,154660.3750000000,165899.0156250000,,,
1.0439999981,8,161691.5156250000,153548.8125000000,167228.0000000000,144008.1718750000,145252.1718750000,150559.5000000000,153777.7656250000,165081.2187500000,,,
1.0479999983,8,160673.8906250000,152522.2031250000,166201.2500000000,142991.2187500000,144230.4218750000,149547.3593750000,152753.3281250000,164067.4218750000,,,
1.0519999983,8,160888.1718750000,152728.4687500000,166455.5312500000,143208.5781250000,144483.5312500000,149734.5000000000,152982.1250000000,164241.3437500000,,,
1.0559999982,8,162039.4375000000,153882.0781250000,167637.9062500000,144357.9531250000,145661.1406250000,150857.6406250000,154138.2343750000,165363.2031250000,,,
1.0599999982,8,162542.8750000000,154393.3593750000,168121.0937500000,144856.3906250000,146138.8593750000,151366.0312500000,154623.6250000000,165888.0000000000,,,
1.0639999982,8,161692.3281250000,153541.3593750000,167225.1406250000,144003.0781250000,145246.9687500000,150540.1562500000,153750.2031250000,165074.8906250000,,,
1.0679999983,8,160676.3125000000,152517.2343750000,166198.7031250000,142987.5937500000,144227.2031250000,149530.2031250000,152729.1875000000,164061.0312500000,,,
1.0719999983,8,160897.2968750000,152734.3437500000,166456.8750000000,143214.1562500000,144486.7031250000,149729.0625000000,152964.0156250000,164247.3437500000,,,
1.0759999983,8,162072.9531250000,153913.1875000000,167663.2500000000,144386.5781250000,145688.0625000000,150878.0625000000,154146.6562500000,165394.1250000000,,,
1.0799999982,8,162577.6406250000,154426.3593750000,168147.3281250000,144889.1718750000,146168.2812500000,151386.2656250000,154636.5937500000,165919.9687500000,,,
1.0839999982,8,161722.8437500000,153575.0781250000,167248.4375000000,144034.3281250000,145270.0468750000,150562.0156250000,153761.9687500000,165107.5000000000,,,
1.0879999981,8,160697.2187500000,152544.7031250000,166215.1250000000,143014.2812500000,144243.1093750000,149548.8593750000,152733.5312500000,164090.1406250000,,,
1.0919999983,8,160888.6093750000,152731.9218750000,166442.8750000000,143217.1875000000,144478.8437500000,149717.9218750000,152936.2500000000,164246.1093750000,,,
1.0959999983,8,162018.4531250000,153867.9218750000,167602.9218750000,144348.5937500000,145638.2031250000,150822.7500000000,154071.8437500000,165347.4531250000,,,
1.0999999982,8,162551.9218750000,154410.8750000000,168116.0625000000,144877.3750000000,146145.4062500000,151361.9843750000,154590.8593750000,165899.0156250000,,,
1.1039999982,8,161703.7187500000,153562.7968750000,167221.0312500000,144030.4062500000,145256.1718750000,150540.5781250000,153718.2187500000,165089.0781250000,,,
1.1079999981,8,160678.7500000000,152531.3750000000,166184.5781250000,143015.4531250000,144229.8281250000,149524.1406250000,152686.0781250000,164074.2812500000,,,
1.1119999983,8,160882.5156250000,152732.8906250000,166425.1406250000,143225.5781250000,144476.3437500000,149704.0000000000,152899.3750000000,164243.9062500000,,,
1.1159999983,8,162032.5312500000,153887.9062500000,167606.5156250000,144371.3906250000,145651.3750000000,150826.6093750000,154053.8281250000,165366.5468750000,,,
1.1199999982,8,162543.7343750000,154405.0781250000,168097.8750000000,144873.3125000000,146138.2812500000,151342.0312500000,154548.6406250000,165888.5156250000,,,
1.1239999982,8,161699.6250000000,153558.5000000000,167204.8906250000,144022.1250000000,145247.9687500000,150525.2187500000,153678.3593750000,165077.7500000000,,,
1.1279999982,8,160677.6718750000,152529.6875000000,166174.4843750000,143002.1250000000,144224.6562500000,149511.2656250000,152651.0000000000,164065.1406250000,,,
1.1319999981,8,160890.8750000000,152737.0468750000,166429.1406250000,143221.2031250000,144481.1562500000,149698.1562500000,152878.9687500000,164242.8437500000,,,
1.1359999983,8,162035.9687500000,153885.8281250000,167609.2500000000,144360.0156250000,145655.9843750000,150816.0781250000,154032.9218750000,165356.4062500000,,,
1.1399999983,8,162542.4531250000,154399.0000000000,168096.5312500000,144857.8906250000,146139.7031250000,151327.3906250000,154525.2500000000,165877.4843750000,,,
1.1439999982,8,161711.2031250000,153567.5625000000,167216.7187500000,144026.8906250000,145265.1406250000,150524.7343750000,153668.9843750000,165085.2656250000,,,
1.1479999982,8,160694.8593750000,152542.6718750000,166186.8437500000,143017.3593750000,144245.0156250000,149519.2812500000,152647.2656250000,164076.2187500000,,,
1.1519999981,9,160889.9218750000,152731.4687500000,166417.7031250000,143216.9218750000,144477.8593750000,149689.7031250000,152852.3281250000,164235.3281250000,,,
1.1559999981,9,162012.5312500000,153858.0781250000,167574.3906250000,144340.4218750000,145630.3906250000,150788.6562500000,153981.1093750000,165335.6250000000,,,
1.1599999981,9,162523.9375000000,154374.0781250000,168065.5781250000,144847.5156250000,146116.0625000000,151303.1875000000,154476.6250000000,165866.5937500000,,,
1.1639999980,9,161695.8437500000,153539.6093750000,167182.4062500000,144015.0312500000,145236.6718750000,150498.1250000000,153619.8906250000,165072.2656250000,,,
1.1679999980,9,160683.3906250000,152517.1250000000,166154.9062500000,143007.4843750000,144218.2343750000,149491.2500000000,152599.8437500000,164064.8281250000,,,
1.1719999979,9,160879.6718750000,152708.4843750000,166388.4218750000,143208.1406250000,144453.8437500000,149660.9062500000,152807.8281250000,164225.8906250000,,,
1.1759999981,9,162014.8593750000,153850.0312500000,167555.0937500000,144347.7343750000,145616.9843750000,150769.7031250000,153948.2500000000,165334.5781250000,,,
1.1799999981,9,162527.7031250000,154372.7656250000,168049.1093750000,144861.0000000000,146107.3437500000,151292.5937500000,154446.3125000000,165868.6875000000,,,
1.1839999980,9,161700.8750000000,153545.7031250000,167174.5937500000,144025.6875000000,145236.3281250000,150495.3125000000,153595.7500000000,165077.8906250000,,,
1.1879999980,9,160681.2187500000,152516.3593750000,166144.7343750000,143010.9531250000,144214.0625000000,149483.4218750000,152571.7343750000,164062.8906250000,,,
1.1919999979,9,160874.7343750000,152703.3593750000,166377.8750000000,143209.3750000000,144448.7968750000,149652.7656250000,152779.2968750000,164219.8593750000,,,
1.1959999981,9,162005.2656250000,153836.2656250000,167539.6718750000,144335.4218750000,145606.3125000000,150756.0781250000,153916.8750000000,165321.0000000000,,,
1.1999999981,9,162525.3593750000,154358.7031250000,168039.7968750000,144846.3593750000,146099.5625000000,151279.3750000000,154423.0000000000,165846.4531250000,,,
1.2039999980,9,161710.2968750000,153538.4062500000,167174.6250000000,144023.6718750000,145233.8593750000,150490.9375000000,153583.3906250000,165061.9375000000,,,
1.2079999980,9,160699.4218750000,152516.1406250000,166151.2343750000,143015.9687500000,144218.8281250000,149488.6718750000,152565.8437500000,164057.2500000000,,,
1.2119999980,9,160867.2500000000,152676.7187500000,166355.0468750000,143191.0625000000,144427.9687500000,149629.4687500000,152745.2812500000,164189.4687500000,,,
1.2159999979,9,161996.0937500000,153811.9218750000,167518.1406250000,144320.6718750000,145589.6250000000,150733.4375000000,153883.3437500000,165292.1718750000,,,
1.2199999981,9,162522.5468750000,154348.5156250000,168026.8437500000,144840.0781250000,146093.1562500000,151267.2500000000,154395.4062500000,165838.7812500000,,,
1.2239999981,9,161712.1250000000,153537.7968750000,167168.8593750000,144028.5625000000,145238.3906250000,150483.1093750000,153562.1406250000,165067.0781250000,,,
1.2279999980,9,160694.6562500000,152511.3906250000,166139.2968750000,143015.8906250000,144217.8437500000,149475.8593750000,152540.5468750000,164054.7031250000,,,
1.2319999980,9,160869.6718750000,152679.7343750000,166351.5937500000,143195.7500000000,144434.5625000000,149628.8281250000,152728.5937500000,164194.3437500000,,,
1.2359999979,9,162004.7500000000,153817.2812500000,167519.9843750000,144326.6562500000,145596.5156250000,150737.1562500000,153870.5937500000,165300.8125000000,,,
1.2399999981,9,162560.8593750000,154380.6562500000,168056.3437500000,144872.9375000000,146127.6250000000,151297.9843750000,154412.7031250000,165873.5625000000,,,
1.2439999981,9,161752.2968750000,153570.4687500000,167201.1250000000,144059.2656250000,145273.9062500000,150515.5625000000,153581.7343750000,165098.1406250000,,,
1.2479999980,9,160734.7031250000,152545.3750000000,166172.5000000000,143046.3593750000,144247.3125000000,149508.7343750000,152559.1875000000,164086.0156250000,,,
1.2519999980,9,160894.1875000000,152698.7500000000,166366.7500000000,143214.3125000000,144445.1562500000,149645.6406250000,152729.4062500000,164211.6406250000,,,
1.2559999980,9,162027.9531250000,153836.6718750000,167533.3125000000,144347.6093750000,145605.8593750000,150753.5000000000,153869.4531250000,165318.9687500000,,,
1.2599999979,9,162539.8281250000,154354.4687500000,168026.9062500000,144853.3281250000,146091.6875000000,151271.2968750000,154367.5312500000,165850.6406250000,,,
1.2639999981,9,161725.1875000000,153536.9687500000,167164.7500000000,144035.3437500000,145229.9687500000,150482.2187500000,153531.4375000000,165073.5937500000,,,
1.2679999981,9,160702.1875000000,152507.0000000000,166131.2968750000,143022.3437500000,144202.8437500000,149468.1562500000,152504.0468750000,164055.9218750000,,,
1.2719999980,9,160888.4687500000,152687.5625000000,166358.8906250000,143219.7343750000,144433.9375000000,149629.1093750000,152704.2968750000,164209.3437500000,,,
1.2759999980,9,162008.3750000000,153811.0312500000,167514.5468750000,144337.5781250000,145587.7187500000,150721.9218750000,153832.8281250000,165298.1562500000,,,
1.2799999979,10,162501.8750000000,154311.2656250000,167992.0312500000,144817.3593750000,146058.6093750000,151222.9843750000,154313.7812500000,165802.3750000000,,,
1.2839999979,10,161722.9843750000,153533.5468750000,167168.0625000000,144038.0781250000,145237.9687500000,150470.5468750000,153513.7343750000,165063.2656250000,,,
1.2879999978,10,160710.0156250000,152513.5625000000,166142.5156250000,143033.8906250000,144222.6406250000,149467.8906250000,152494.8125000000,164060.5312500000,,,
1.2919999978,10,160872.4218750000,152666.2343750000,166337.1562500000,143199.7500000000,144420.5937500000,149607.3125000000,152667.2812500000,164181.1250000000,,,
1.2959999978,10,162003.5937500000,153799.9843750000,167500.7031250000,144323.3281250000,145577.0781250000,150710.8750000000,153805.4843750000,165278.7812500000,,,
1.2999999977,10,162532.7187500000,154337.3125000000,168011.6875000000,144846.7031250000,146083.1250000000,151243.3750000000,154322.7656250000,165827.3593750000,,,
1.3039999979,10,161738.0625000000,153542.6718750000,167169.9843750000,144051.8906250000,145245.4531250000,150477.3437500000,153507.0781250000,165071.5000000000,,,
1.3079999979,10,160733.7343750000,152529.1406250000,166154.9843750000,143052.6875000000,144239.4531250000,149481.8125000000,152498.5937500000,164074.0781250000,,,
1.3119999978,10,160919.0781250000,152706.6562500000,166380.3437500000,143247.5156250000,144469.3750000000,149641.0781250000,152698.6562500000,164226.5312500000,,,
1.3159999978,10,162028.9687500000,153823.9375000000,167527.8281250000,144359.7500000000,145615.5156250000,150726.8906250000,153819.5781250000,165313.0468750000,,,
1.3199999977,10,162514.1562500000,154318.9843750000,167995.9687500000,144839.5468750000,146076.0000000000,151219.6875000000,154293.0468750000,165817.4843750000,,,
1.3239999979,10,161715.2031250000,153522.2656250000,167148.1562500000,144039.6875000000,145229.7031250000,150447.4062500000,153470.0156250000,165057.1093750000,,,
1.3279999979,10,160715.0312500000,152516.2968750000,166134.0625000000,143046.8906250000,144224.6562500000,149457.5625000000,152464.9375000000,164065.8125000000,,,
1.3319999978,10,160866.0156250000,152658.2500000000,166320.4218750000,143198.2031250000,144414.0937500000,149584.0312500000,152630.2187500000,164179.4062500000,,,
1.3359999978,10,161975.0625000000,153768.0000000000,167463.0468750000,144301.8125000000,145552.0312500000,150665.4687500000,153749.2031250000,165257.1093750000,,,
1.3399999978,10,162517.2656250000,154316.9218750000,167989.6093750000,144838.4218750000,146069.9375000000,151213.9062500000,154281.3281250000,165814.5937500000,,,
1.3439999977,10,161733.9062500000,153531.2500000000,167157.7031250000,144052.5625000000,145236.6718750000,150456.0937500000,153477.3593750000,165068.6093750000,,,
1.3479999979,10,160728.6562500000,152515.8750000000,166143.0000000000,143052.6406250000,144227.8750000000,149459.1718750000,152471.3750000000,164067.0937500000,,,
1.3519999979,10,160895.1250000000,152676.2343750000,166352.1250000000,143224.1875000000,144438.2656250000,149603.2656250000,152657.8906250000,164195.1562500000,,,
1.3559999978,10,161997.5625000000,153783.7500000000,167492.2343750000,144330.9687500000,145571.9218750000,150680.7812500000,153768.7343750000,165275.0312500000,,,
1.3599999978,10,162509.7500000000,154306.1093750000,167988.8125000000,144844.4843750000,146063.9531250000,151200.4687500000,154269.0156250000,165809.5781250000,,,
1.3639999977,10,161732.3906250000,153528.8281250000,167165.7500000000,144066.7031250000,145242.7968750000,150449.6562500000,153469.4531250000,165071.7812500000,,,
1.3679999979,10,160734.0312500000,152521.8281250000,166157.6093750000,143064.5937500000,144239.6250000000,149463.2500000000,152468.3437500000,164075.2343750000,,,
1.3719999979,10,160904.0468750000,152688.7343750000,166365.8593750000,143241.3593750000,144452.9062500000,149615.3906250000,152652.6875000000,164213.5781250000,,,
1.3759999978,10,161986.8906250000,153776.7968750000,167481.1562500000,144328.9843750000,145564.3281250000,150675.0468750000,153741.6406250000,165270.8281250000,,,
1.3799999978,10,162516.8125000000,154313.4531250000,167994.9062500000,144854.4375000000,146073.4687500000,151208.5156250000,154258.0937500000,165813.7343750000,,,
1.3839999977,10,161732.3750000000,153527.8906250000,167163.6250000000,144068.0156250000,145246.3593750000,150447.6406250000,153448.6562500000,165068.1562500000,,,
1.3879999977,10,160719.6562500000,152509.0312500000,166139.2968750000,143057.7500000000,144231.0937500000,149445.6718750000,152430.8750000000,164063.4843750000,,,
1.3919999979,10,160852.2812500000,152639.0156250000,166312.4375000000,143199.8906250000,144409.5312500000,149557.3437500000,152580.6718750000,164166.5781250000,,,
1.3959999979,10,161940.4375000000,153736.8125000000,167440.2812500000,144296.5625000000,145534.4218750000,150622.2343750000,153681.1562500000,165237.4531250000,,,
1.3999999978,10,162469.8125000000,154276.8750000000,167953.7343750000,144823.4218750000,146042.2187500000,151158.2656250000,154196.1718750000,165786.5000000000,,,
1.4039999978,10,161710.4843750000,153518.3750000000,167146.5156250000,144057.4218750000,145235.6250000000,150425.9687500000,153413.0625000000,165062.2031250000,,,
1.4079999977,11,160710.9531250000,152510.3125000000,166133.3437500000,143059.8281250000,144231.0156250000,149436.7500000000,152410.2187500000,164066.4531250000,,,
1.4119999977,11,160861.9062500000,152653.2812500000,166318.3593750000,143215.5781250000,144422.5937500000,149564.6406250000,152575.7656250000,164182.5625000000,,,
1.4159999976,11,161931.3125000000,153723.6718750000,167418.6562500000,144280.7656250000,145517.0937500000,150606.9218750000,153653.6406250000,165220.5781250000,,,
1.4199999976,11,162486.6562500000,154286.0468750000,167957.6250000000,144829.7031250000,146048.4687500000,151166.3437500000,154200.0000000000,165788.7343750000,,,
1.4239999976,11,161743.4687500000,153539.9375000000,167165.4218750000,144080.4531250000,145257.1406250000,150448.9531250000,153434.8750000000,165079.0781250000,,,
1.4279999975,11,160726.2812500000,152512.3906250000,166134.3281250000,143067.6250000000,144235.4062500000,149441.1250000000,152413.4062500000,164068.5781250000,,,
1.4319999977,11,160852.4531250000,152632.0625000000,166299.0156250000,143204.8437500000,144406.3125000000,149542.9062500000,152554.4375000000,164162.1093750000,,,
1.4359999977,11,161930.2343750000,153712.8125000000,167412.7343750000,144279.7500000000,145512.9687500000,150594.4375000000,153641.4531250000,165212.8125000000,,,
1.4399999976,11,162453.3437500000,154243.7812500000,167917.7343750000,144793.4687500000,146013.9843750000,151120.4531250000,154151.3281250000,165750.9062500000,,,
1.4439999976,11,161696.2187500000,153485.6562500000,167110.5000000000,144035.8437500000,145211.5781250000,150389.0156250000,153370.0937500000,165028.2968750000,,,
1.4479999975,11,160691.1875000000,152468.1250000000,166089.4531250000,143036.8125000000,144198.0468750000,149393.2187500000,152361.4843750000,164025.6875000000,,,
1.4519999977,11,160830.6093750000,152599.7500000000,166264.5468750000,143177.1718750000,144373.6562500000,149510.4843750000,152516.9375000000,164129.7031250000,,,
1.4559999977,11,161915.0781250000,153689.7187500000,167384.4375000000,144261.1562500000,145486.9062500000,150571.2968750000,153613.5156250000,165188.9843750000,,,
1.4599999976,11,162463.6562500000,154247.1875000000,167915.0468750000,144806.0000000000,146012.3437500000,151124.2031250000,154151.5156250000,165757.2968750000,,,
1.4639999976,11,161710.9375000000,153495.1718750000,167115.0000000000,144050.0156250000,145213.9062500000,150396.2031250000,153378.2343750000,165040.9531250000,,,
1.4679999975,11,160700.9531250000,152476.9843750000,166094.0937500000,143046.0156250000,144199.4062500000,149391.7968750000,152366.6875000000,164037.0312500000,,,
1.4719999975,11,160816.5312500000,152584.5156250000,166245.3281250000,143164.6093750000,144353.1250000000,149483.3906250000,152496.3125000000,164113.6093750000,,,
1.4759999977,11,161897.1093750000,153668.7343750000,167360.2343750000,144244.7656250000,145464.3750000000,150540.9843750000,153583.9531250000,165166.7812500000,,,
1.4799999977,11,162457.6093750000,154240.1250000000,167904.9375000000,144798.8906250000,146002.7187500000,151108.4843750000,154132.8906250000,165745.6875000000,,,
1.4839999976,11,161718.0000000000,153501.8281250000,167118.4375000000,144050.4687500000,145214.1406250000,150394.7187500000,153373.2343750000,165040.2031250000,,,
1.4879999976,11,160724.5312500000,152499.8593750000,166112.9218750000,143056.1250000000,144212.6875000000,149413.0937500000,152379.1562500000,164050.8750000000,,,
1.4919999975,11,160835.5000000000,152603.0937500000,166260.3437500000,143170.8593750000,144363.7187500000,149506.2187500000,152505.1718750000,164124.7656250000,,,
1.4959999977,11,161911.3281250000,153680.6718750000,167371.7187500000,144248.3906250000,145472.6562500000,150556.1875000000,153591.8437500000,165173.1562500000,,,
1.4999999977,11,162467.8906250000,154243.9843750000,167914.1718750000,144803.2656250000,146009.9843750000,151116.0312500000,154139.4062500000,165746.6718750000,,,
1.5039999976,11,161724.5156250000,153502.9531250000,167124.6250000000,144059.9687500000,145221.9531250000,150398.7968750000,153374.5781250000,165042.5625000000,,,
1.5079999976,11,160716.6250000000,152486.6562500000,166101.8281250000,143056.5156250000,144207.7812500000,149400.3750000000,152361.4062500000,164042.2968750000,,,
1.5119999975,11,160852.6093750000,152612.7031250000,166272.5468750000,143200.3437500000,144382.8750000000,149511.4687500000,152511.6562500000,164142.5468750000,,,
1.5159999975,11,161945.3125000000,153705.2968750000,167398.6250000000,144293.5000000000,145506.2187500000,150574.0000000000,153615.5000000000,165203.0937500000,,,
1.5199999977,11,162511.3593750000,154278.0625000000,167951.2031250000,144853.5468750000,146053.3593750000,151143.2187500000,154172.2187500000,165784.9687500000,,,
1.5239999976,11,161760.5000000000,153526.5468750000,167157.2500000000,144100.4062500000,145263.5468750000,150419.3750000000,153404.7500000000,165071.3437500000,,,
1.5279999976,11,160739.5000000000,152495.0312500000,166120.6562500000,143082.9687500000,144229.8750000000,149410.4687500000,152380.3906250000,164058.7031250000,,,
1.5319999976,11,160828.4687500000,152577.1562500000,166248.7031250000,143177.7656250000,144357.2812500000,149478.9687500000,152486.7656250000,164112.3750000000,,,
1.5359999975,12,161896.0468750000,153651.1406250000,167355.8906250000,144245.8906250000,145458.7343750000,150525.4375000000,153569.5156250000,165150.3437500000,,,
1.5399999975,12,162454.0781250000,154221.3750000000,167898.1562500000,144800.4375000000,145995.0468750000,151089.9218750000,154117.1718750000,165728.2656250000,,,
1.5439999974,12,161720.7031250000,153492.4843750000,167116.0781250000,144059.9375000000,145215.1406250000,150384.0000000000,153361.5156250000,165032.0000000000,,,
1.5479999974,12,160710.2343750000,152476.2031250000,166091.2031250000,143051.2656250000,144198.5468750000,149387.3750000000,152347.1562500000,164029.0156250000,,,
1.5519999973,12,160827.1718750000,152588.5781250000,166247.8437500000,143176.1718750000,144354.4687500000,149484.3281250000,152480.3593750000,164116.4843750000,,,
1.5559999973,12,161922.5156250000,153688.6406250000,167381.8281250000,144270.9687500000,145481.8906250000,150554.6718750000,153588.0312500000,165186.1250000000,,,
1.5599999975,12,162473.3281250000,154247.3125000000,167918.3437500000,144814.9843750000,146009.3437500000,151111.0156250000,154128.9531250000,165750.0312500000,,,
1.5639999975,12,161747.3437500000,153521.2500000000,167146.3593750000,144082.7656250000,145236.2968750000,150410.3593750000,153382.8125000000,165053.8125000000,,,
1.5679999974,12,160740.3906250000,152506.5625000000,166125.8593750000,143077.3906250000,144221.0000000000,149411.1875000000,152373.2031250000,164055.4843750000,,,
1.5719999974,12,160824.7187500000,152586.1406250000,166245.7187500000,143171.6093750000,144345.1875000000,149472.6406250000,152473.0937500000,164107.7968750000,,,
1.5759999973,12,161890.4531250000,153657.2031250000,167345.2656250000,144237.9843750000,145442.2187500000,150517.9687500000,153549.0625000000,165149.0781250000,,,
1.5799999975,12,162433.6406250000,154208.0781250000,167871.3906250000,144769.6562500000,145962.1562500000,151071.1562500000,154082.6093750000,165703.1093750000,,,
1.5839999975,12,161705.4218750000,153481.0312500000,167096.0312500000,144029.5000000000,145188.0156250000,150370.5312500000,153335.2656250000,165003.8281250000,,,
1.5879999974,12,160705.5468750000,152474.2187500000,166084.6875000000,143033.8906250000,144183.8593750000,149381.1406250000,152334.9218750000,164011.6875000000,,,
1.5919999974,12,160823.1093750000,152586.5468750000,166243.7656250000,143165.9531250000,144347.9218750000,149478.2656250000,152470.0000000000,164101.3593750000,,,
1.5959999973,12,161928.7968750000,153698.2968750000,167387.1875000000,144275.2968750000,145489.3125000000,150562.8437500000,153586.3906250000,165181.1875000000,,,
1.5999999973,12,162483.5781250000,154260.6718750000,167921.8437500000,144819.2187500000,146018.1093750000,151127.1562500000,154127.2031250000,165744.7968750000,,,
1.6039999975,12,161756.2968750000,153531.4375000000,167145.7187500000,144087.1875000000,145239.8437500000,150425.3281250000,153377.5312500000,165051.7968750000,,,
1.6079999974,12,160733.7031250000,152495.4062500000,166108.3125000000,143068.6250000000,144208.3125000000,149407.7500000000,152353.1093750000,164035.2343750000,,,
1.6119999974,12,160817.5000000000,152566.4843750000,166228.9375000000,143160.0000000000,144331.0000000000,149462.8437500000,152454.3125000000,164082.3593750000,,,
1.6159999974,12,161864.7656250000,153613.9062500000,167313.9218750000,144211.4843750000,145411.4218750000,150482.8437500000,153515.9531250000,165102.8281250000,,,
1.6199999973,12,162439.2968750000,154196.7031250000,167873.2968750000,144778.7187500000,145967.4687500000,151063.3750000000,154081.6093750000,165691.0156250000,,,
1.6239999975,12,161729.9843750000,153489.4062500000,167114.2812500000,144062.7812500000,145207.0156250000,150381.5625000000,153349.4531250000,165016.7343750000,,,
1.6279999975,12,160720.8281250000,152472.3125000000,166092.3906250000,143060.3125000000,144191.1562500000,149384.6875000000,152335.1718750000,164016.8593750000,,,
1.6319999974,12,160796.1718750000,152541.1093750000,166206.2656250000,143146.6718750000,144307.1875000000,149440.3906250000,152426.9062500000,164059.1562500000,,,
1.6359999974,12,161866.2187500000,153614.5781250000,167317.7968750000,144216.4375000000,145412.3281250000,150483.8593750000,153513.4687500000,165103.2968750000,,,
1.6399999973,12,162449.7500000000,154208.9062500000,167890.4531250000,144788.9687500000,145976.2343750000,151072.6562500000,154090.4843750000,165701.8281250000,,,
1.6439999973,12,161739.0156250000,153502.0312500000,167132.2968750000,144076.7343750000,145219.4218750000,150388.6093750000,153357.5000000000,165025.6875000000,,,
1.6479999975,12,160719.9375000000,152477.2812500000,166100.2343750000,143063.5156250000,144193.8593750000,149380.5000000000,152334.1718750000,164016.1093750000,,,
1.6519999974,12,160801.7812500000,152552.7500000000,166216.9375000000,143152.7812500000,144314.0468750000,149440.9375000000,152432.3437500000,164067.0781250000,,,
1.6559999974,12,161871.7343750000,153627.1562500000,167321.1562500000,144224.9218750000,145414.9375000000,150484.3437500000,153513.3906250000,165113.2187500000,,,
1.6599999974,12,162459.2968750000,154225.0000000000,167895.4218750000,144804.7812500000,145983.9687500000,151074.7500000000,154091.2968750000,165718.3281250000,,,
1.6639999973,13,161762.4375000000,153527.7031250000,167148.6875000000,144100.0625000000,145238.6875000000,150402.9843750000,153373.6093750000,165051.6093750000,,,
1.6679999973,13,160750.3906250000,152505.0000000000,166119.9062500000,143085.9687500000,144217.5156250000,149403.5625000000,152356.8906250000,164040.6250000000,,,
1.6719999972,13,160802.7500000000,152549.2656250000,166208.6250000000,143142.3281250000,144311.6875000000,149437.6406250000,152424.2968750000,164058.8437500000,,,
1.6759999972,13,161860.2343750000,153609.5468750000,167303.5937500000,144196.6250000000,145401.2031250000,150471.5781250000,153493.7968750000,165084.8437500000,,,
1.6799999971,13,162427.6250000000,154182.4062500000,167855.2968750000,144756.0312500000,145949.0468750000,151042.1562500000,154051.7031250000,165661.8593750000,,,
1.6839999971,13,161708.8750000000,153458.6093750000,167088.3906250000,144034.5156250000,145183.3750000000,150346.4531250000,153312.8281250000,164973.3125000000,,,
1.6879999973,13,160721.5000000000,152458.8750000000,166083.6875000000,143049.6562500000,144183.9687500000,149365.1562500000,152321.8125000000,163990.8750000000,,,
1.6919999972,13,160805.3437500000,152534.6406250000,166200.5781250000,143139.9375000000,144305.1250000000,149424.2187500000,152418.0312500000,164041.0781250000,,,
1.6959999972,13,161860.2031250000,153595.4531250000,167293.4687500000,144198.2031250000,145393.2031250000,150456.3437500000,153486.1562500000,165071.6406250000,,,
1.6999999972,13,162451.3593750000,154200.2187500000,167875.8437500000,144789.0937500000,145971.8437500000,151057.4687500000,154071.3593750000,165683.6406250000,,,
1.7039999971,13,161753.6406250000,153506.6250000000,167133.9375000000,144092.0937500000,145231.5312500000,150388.6093750000,153352.3437500000,165023.8125000000,,,
1.7079999973,13,160738.3906250000,152482.7656250000,166103.4062500000,143082.7500000000,144206.5000000000,149385.7031250000,152332.2187500000,164019.4843750000,,,
1.7119999973,13,160802.7656250000,152539.2812500000,166206.2187500000,143154.7187500000,144311.5781250000,149430.7968750000,152412.6875000000,164053.5312500000,,,
1.7159999972,13,161858.0937500000,153595.4062500000,167300.9062500000,144212.8281250000,145401.2812500000,150459.8281250000,153481.8125000000,165081.4062500000,,,
1.7199999972,13,162460.1875000000,154201.4531250000,167887.7968750000,144808.3281250000,145980.8750000000,151061.7031250000,154075.1718750000,165696.4843750000,,,
1.7239999971,13,161768.6406250000,153509.2500000000,167147.9687500000,144107.3593750000,145239.6250000000,150392.6093750000,153362.4843750000,165040.0156250000,,,
1.7279999971,13,160752.2343750000,152485.5937500000,166115.2343750000,143092.1406250000,144212.0156250000,149385.9687500000,152341.3906250000,164028.1562500000,,,
1.7319999973,13,160839.1093750000,152564.6875000000,166237.2500000000,143178.1093750000,144337.7656250000,149451.0781250000,152442.6406250000,164075.6875000000,,,
1.7359999972,13,161945.6875000000,153673.3750000000,167378.9531250000,144282.0468750000,145474.2187500000,150529.3437500000,153559.9218750000,165152.9375000000,,,
1.7399999972,13,162516.5156250000,154254.9687500000,167935.3281250000,144848.6093750000,146024.8750000000,151105.1562500000,154122.4062500000,165740.9843750000,,,
1.7439999972,13,161801.5937500000,153542.8906250000,167176.1562500000,144123.0781250000,145264.2031250000,150418.5937500000,153389.7343750000,165056.7500000000,,,
1.7479999971,13,160766.7500000000,152501.3281250000,166128.2500000000,143094.2812500000,144224.3906250000,149398.3906250000,152354.5625000000,164032.6406250000,,,
1.7519999973,13,160802.5625000000,152530.0000000000,166201.7343750000,143137.8750000000,144302.2812500000,149414.4375000000,152407.0000000000,164038.7968750000,,,
1.7559999973,13,161823.2656250000,153553.2968750000,167262.5312500000,144158.8906250000,145356.1093750000,150409.7968750000,153440.9843750000,165032.2968750000,,,
1.7599999972,13,162399.5781250000,154138.0781250000,167827.2031250000,144729.6875000000,145916.2343750000,150990.4687500000,154009.7500000000,165623.5625000000,,,
1.7639999972,13,161729.7187500000,153469.5312500000,167108.6718750000,144056.7968750000,145201.6250000000,150347.3593750000,153320.5625000000,164987.7187500000,,,
1.7679999971,13,160730.0000000000,152459.7343750000,166093.2968750000,143063.2031250000,144194.4843750000,149354.6250000000,152319.5937500000,163991.5468750000,,,
1.7719999971,13,160800.2187500000,152521.5000000000,166198.1718750000,143140.6875000000,144302.5625000000,149401.9531250000,152405.3125000000,164028.9375000000,,,
1.7759999973,13,161877.3906250000,153600.4218750000,167310.0312500000,144213.8125000000,145408.4375000000,150453.9218750000,153494.3437500000,165075.1250000000,,,
1.7799999972,13,162468.0468750000,154201.3750000000,167890.2343750000,144800.9218750000,145982.3906250000,151049.1875000000,154077.2343750000,165682.8437500000,,,
1.7839999972,13,161773.3750000000,153512.4687500000,167153.1093750000,144107.2812500000,145247.0781250000,150383.2656250000,153363.4687500000,165029.1875000000,,,
1.7879999971,13,160752.3437500000,152484.8437500000,166121.0312500000,143093.0000000000,144220.0625000000,149376.1093750000,152339.0000000000,164017.8750000000,,,
1.7919999971,14,160803.8437500000,152529.0156250000,166207.7500000000,143152.6875000000,144309.6562500000,149407.3437500000,152406.0000000000,164039.6093750000,,,
1.7959999971,14,161839.8437500000,153571.0468750000,167279.4218750000,144192.3906250000,145379.5312500000,150419.7187500000,153454.1562500000,165052.2812500000,,,
1.7999999970,14,162449.5937500000,154193.9687500000,167880.1562500000,144802.1250000000,145975.2500000000,151036.5312500000,154059.1875000000,165682.8593750000,,,
1.8039999970,14,161771.1093750000,153518.2968750000,167159.4687500000,144120.8750000000,145249.7656250000,150385.1562500000,153364.9843750000,165041.8906250000,,,
1.8079999969,14,160746.0937500000,152485.5312500000,166120.0312500000,143098.8437500000,144215.3125000000,149370.8125000000,152336.0625000000,164026.0156250000,,,
1.8119999969,14,160776.4062500000,152505.9687500000,166183.6875000000,143130.6562500000,144280.3281250000,149377.3125000000,152380.0937500000,164023.4843750000,,,
1.8159999971,14,161804.4375000000,153532.3750000000,167247.3125000000,144158.2968750000,145339.4375000000,150378.5468750000,153420.8281250000,165019.9531250000,,,
1.8199999970,14,162428.1406250000,154167.3281250000,167861.5156250000,144780.3281250000,145949.5781250000,151010.7812500000,154038.1875000000,165658.1562500000,,,
1.8239999970,14,161751.2343750000,153494.7187500000,167142.0312500000,144098.5000000000,145230.2656250000,150365.2968750000,153342.4687500000,165018.0312500000,,,
1.8279999970,14,160723.5156250000,152457.7500000000,166098.8750000000,143071.2500000000,144192.7031250000,149351.2968750000,152309.6406250000,163995.3437500000,,,
1.8319999969,14,160771.1250000000,152497.2343750000,166179.0937500000,143121.5937500000,144277.9531250000,149378.1718750000,152369.6875000000,164008.4687500000,,,
1.8359999971,14,161853.4531250000,153583.5468750000,167297.9218750000,144204.2656250000,145393.5781250000,150436.0000000000,153463.0156250000,165062.2031250000,,,
1.8399999971,14,162458.0468750000,154197.4218750000,167890.9687500000,144801.9687500000,145982.8906250000,151044.8437500000,154060.3750000000,165681.1718750000,,,
1.8439999970,14,161782.2343750000,153522.0156250000,167168.7812500000,144117.6875000000,145259.0468750000,150393.2812500000,153364.6093750000,165037.7968750000,,,
1.8479999970,14,160753.7187500000,152484.8125000000,166125.7031250000,143094.8750000000,144219.8281250000,149375.4375000000,152333.8750000000,164016.7812500000,,,
1.8519999969,14,160799.9843750000,152525.0156250000,166209.4062500000,143145.3281250000,144303.7812500000,149403.2812500000,152397.7968750000,164029.7656250000,,,
1.8559999969,14,161820.4062500000,153551.3437500000,167270.0625000000,144165.7500000000,145358.9843750000,150400.6250000000,153432.2500000000,165018.2656250000,,,
1.8599999971,14,162413.9687500000,154156.2031250000,167854.3281250000,144754.4687500000,145937.3437500000,151000.6875000000,154020.4218750000,165625.3281250000,,,
1.8639999970,14,161722.3125000000,153466.9062500000,167115.3281250000,144063.5781250000,145196.5781250000,150338.4218750000,153309.1562500000,164975.0312500000,,,
1.8679999970,14,160699.5937500000,152436.2031250000,166074.7343750000,143045.0625000000,144160.5468750000,149328.0625000000,152279.0625000000,163964.4531250000,,,
1.8719999969,14,160744.6250000000,152474.8125000000,166158.2343750000,143094.5312500000,144243.7031250000,149352.7187500000,152340.5312500000,163975.9062500000,,,
1.8759999969,14,161812.2968750000,153547.8750000000,167266.1406250000,144160.9218750000,145344.5312500000,150396.1250000000,153422.4062500000,165014.3750000000,,,
1.8799999971,14,162425.7187500000,154172.3281250000,167867.6562500000,144770.2656250000,145940.0312500000,151013.7500000000,154026.1718750000,165643.6250000000,,,
1.8839999971,14,161742.4843750000,153489.4062500000,167136.7343750000,144087.8593750000,145210.2812500000,150356.5781250000,153322.6718750000,165000.7812500000,,,
1.8879999970,14,160716.9062500000,152457.1250000000,166098.5312500000,143069.5000000000,144178.1718750000,149344.9687500000,152297.4531250000,163988.8593750000,,,
1.8919999970,14,160790.0781250000,152526.8750000000,166215.3281250000,143150.0468750000,144300.3906250000,149400.9687500000,152394.5312500000,164033.0937500000,,,
1.8959999969,14,161812.5468750000,153555.3906250000,167281.2500000000,144180.0000000000,145360.8593750000,150401.4843750000,153433.8281250000,165031.1875000000,,,
1.8999999969,14,162408.4687500000,154160.9531250000,167867.1718750000,144772.0937500000,145942.0781250000,151002.1875000000,154021.3750000000,165642.2343750000,,,
1.9039999971,14,161734.1718750000,153488.7812500000,167145.8437500000,144096.5781250000,145222.1406250000,150354.5000000000,153325.2031250000,165004.2656250000,,,
1.9079999970,14,160692.8281250000,152438.8906250000,166087.3437500000,143058.9375000000,144170.7968750000,149325.6562500000,152279.5468750000,163975.0937500000,,,
1.9119999970,14,160732.6875000000,152472.4687500000,166162.4687500000,143100.4375000000,144248.0937500000,149345.2500000000,152334.9843750000,163980.8437500000,,,
1.9159999969,14,161827.5625000000,153567.9062500000,167293.8281250000,144191.5781250000,145372.6406250000,150412.0000000000,153443.7500000000,165042.8593750000,,,
1.9199999969,15,162474.0312500000,154218.0312500000,167925.5156250000,144828.6562500000,145998.1875000000,151056.7812500000,154082.2031250000,165698.9843750000,,,
1.9239999969,15,161794.8437500000,153534.1250000000,167196.8125000000,144143.1093750000,145268.1718750000,150403.3125000000,153382.0312500000,165051.8750000000,,,
1.9279999968,15,160743.3906250000,152472.2343750000,166127.4375000000,143096.5937500000,144205.2656250000,149366.6093750000,152325.3593750000,164008.2500000000,,,
1.9319999968,15,160767.5000000000,152489.7500000000,166188.3750000000,143121.9687500000,144267.0000000000,149372.7812500000,152365.5625000000,163996.6093750000,,,
1.9359999967,15,161821.3593750000,153547.8437500000,167284.2812500000,144169.9062500000,145355.9843750000,150402.2343750000,153435.4687500000,165017.5156250000,,,
1.9399999967,15,162463.1406250000,154200.8906250000,167917.3593750000,144808.8125000000,145983.4062500000,151046.4531250000,154069.4062500000,165673.9843750000,,,
1.9439999969,15,161798.0781250000,153542.2500000000,167206.8906250000,144143.1093750000,145272.4531250000,150412.4531250000,153383.5937500000,165046.7031250000,,,
1.9479999968,15,160753.9062500000,152490.6250000000,166144.0937500000,143102.2031250000,144214.9687500000,149380.6406250000,152335.0312500000,164014.0000000000,,,
1.9519999968,15,160769.7500000000,152498.7343750000,166188.0625000000,143119.4218750000,144259.0937500000,149375.5468750000,152364.6250000000,163996.3437500000,,,
1.9559999967,15,161818.0468750000,153549.6250000000,167269.5000000000,144164.6718750000,145336.0312500000,150399.4218750000,153424.2812500000,165009.2812500000,,,
1.9599999967,15,162466.2031250000,154206.6875000000,167905.4687500000,144810.3906250000,145965.2500000000,151051.2031250000,154065.2500000000,165670.1250000000,,,
1.9639999969,15,161796.8750000000,153539.2187500000,167188.7343750000,144143.0625000000,145247.9218750000,150407.4062500000,153376.5937500000,165043.1093750000,,,
1.9679999969,15,160751.8906250000,152488.0312500000,166126.8437500000,143098.6875000000,144193.8125000000,149379.1875000000,152327.3593750000,164006.3281250000,,,
1.9719999968,15,160774.0156250000,152504.2343750000,166187.0937500000,143121.4062500000,144255.5781250000,149386.1562500000,152367.0312500000,163996.3750000000,,,
1.9759999968,15,161847.4062500000,153580.5781250000,167302.0937500000,144194.3125000000,145364.3437500000,150431.3593750000,153457.1406250000,165038.8437500000,,,
1.9799999967,15,162514.9531250000,154256.5781250000,167960.1093750000,144858.6406250000,146016.6093750000,151101.2187500000,154120.3906250000,165717.8125000000,,,
1.9839999967,15,161851.4843750000,153595.6250000000,167253.5156250000,144198.0781250000,145310.5156250000,150466.2656250000,153436.5156250000,165094.5000000000,,,
1.9879999969,15,160774.0156250000,152510.0781250000,166163.4375000000,143130.2500000000,144229.0468750000,149401.7187500000,152357.2968750000,164032.1250000000,,,
1.9919999968,15,160784.9687500000,152511.3437500000,166208.0937500000,143143.0781250000,144278.5312500000,149390.9687500000,152385.2187500000,164008.8125000000,,,
1.9959999968,15,161837.5156250000,153564.8750000000,167296.6093750000,144184.1562500000,145360.6250000000,150416.7968750000,153448.3750000000,165023.1718750000,,,
1.9999999967,15,162504.9531250000,154241.5468750000,167950.4062500000,144846.5000000000,146008.9843750000,151088.5937500000,154105.6093750000,165700.5468750000,,,
2.0039999967,15,161838.7187500000,153576.5781250000,167238.0625000000,144176.1093750000,145295.0937500000,150449.2031250000,153419.1093750000,165072.1250000000,,,
2.0079999969,15,160771.5781250000,152502.6250000000,166153.0781250000,143112.6562500000,144220.4375000000,149396.5156250000,152346.6718750000,164016.9375000000,,,
2.0119999968,15,160782.3281250000,152505.6718750000,166197.9843750000,143129.0781250000,144268.2968750000,149388.0937500000,152373.4687500000,163994.7343750000,,,
2.0159999968,15,161918.8906250000,153642.2968750000,167375.0625000000,144259.5468750000,145436.5468750000,150497.4843750000,153525.7500000000,165090.7968750000,,,
2.0199999968,15,162580.1875000000,154310.0000000000,168025.9062500000,144915.4843750000,146078.2968750000,151161.1093750000,154181.3281250000,165764.3750000000,,,
2.0239999967,15,161923.9062500000,153653.5000000000,167322.4375000000,144256.4062500000,145374.4843750000,150529.5000000000,153504.9375000000,165145.2968750000,,,
2.0279999967,15,160822.3281250000,152543.0468750000,166203.2968750000,143158.9218750000,144259.5156250000,149442.2500000000,152397.7968750000,164057.5468750000,,,
2.0319999969,15,160810.6250000000,152523.4375000000,166227.0781250000,143157.2656250000,144285.1093750000,149411.7968750000,152402.8906250000,164011.6875000000,,,
2.0359999968,15,161850.0468750000,153567.8906250000,167307.1250000000,144198.3593750000,145359.7343750000,150423.5000000000,153455.9843750000,165021.1562500000,,,
2.0399999968,15,162488.1875000000,154216.6562500000,167933.8750000000,144828.5781250000,145979.6718750000,151065.9687500000,154085.9843750000,165672.7031250000,,,
2.0439999967,15,161837.0781250000,153567.2500000000,167234.2187500000,144166.7656250000,145278.8125000000,150445.6562500000,153413.5468750000,165057.2968750000,,,
2.0479999967,16,160762.0781250000,152484.4375000000,166141.4375000000,143090.1250000000,144193.1875000000,149387.9531250000,152334.6406250000,163989.9531250000,,,
2.0519999966,16,160724.3906250000,152441.0312500000,166137.8437500000,143062.4218750000,144195.0468750000,149332.0937500000,152313.2031250000,163922.1875000000,,,
2.0559999966,16,161800.9531250000,153521.8281250000,167253.9375000000,144136.1875000000,145306.2500000000,150381.7656250000,153405.8593750000,164964.2968750000,,,
2.0599999966,16,162469.5781250000,154202.5468750000,167914.2812500000,144799.7187500000,145959.2343750000,151056.0000000000,154070.7812500000,165647.4375000000,,,
2.0639999965,16,161807.0468750000,153546.8593750000,167208.9375000000,144142.8906250000,145254.9375000000,150424.3125000000,153391.7968750000,165030.4687500000,,,
2.0679999965,16,160738.1562500000,152473.8437500000,166126.5468750000,143081.6250000000,144177.9843750000,149374.0625000000,152320.4375000000,163976.3281250000,,,
2.0719999967,16,160738.2031250000,152467.7500000000,166164.9843750000,143089.1406250000,144219.2656250000,149358.0000000000,152339.4375000000,163946.9375000000,,,
2.0759999966,16,161814.0468750000,153550.7187500000,167285.3750000000,144170.7187500000,145338.9687500000,150409.7500000000,153432.5468750000,164997.6093750000,,,
2.0799999966,16,162476.9218750000,154226.6718750000,167943.7812500000,144835.4218750000,145993.0000000000,151077.8593750000,154091.6093750000,165679.5937500000,,,
2.0839999965,16,161816.9218750000,153570.8906250000,167239.8593750000,144174.5000000000,145289.5468750000,150445.6093750000,153415.2187500000,165059.5937500000,,,
2.0879999965,16,160733.5625000000,152479.2031250000,166137.6250000000,143087.2812500000,144190.0312500000,149376.6093750000,152327.9218750000,163984.8906250000,,,
2.0919999967,16,160691.4843750000,152427.4375000000,166128.2187500000,143045.7187500000,144179.2343750000,149314.0312500000,152300.5625000000,163906.0937500000,,,
2.0959999966,16,161753.6093750000,153487.3593750000,167226.4687500000,144103.3593750000,145271.4375000000,150346.2343750000,153376.1406250000,164929.4531250000,,,
2.0999999966,16,162449.7343750000,154189.3281250000,167910.8125000000,144793.6875000000,145951.2968750000,151042.3437500000,154066.0781250000,165632.5937500000,,,
2.1039999966,16,161798.0781250000,153538.0000000000,167209.8437500000,144138.6406250000,145250.1406250000,150416.1875000000,153394.7187500000,165016.7343750000,,,
2.1079999965,16,160722.0156250000,152453.1875000000,166113.1406250000,143059.8281250000,144155.9531250000,149353.8125000000,152314.5156250000,163948.5937500000,,,
2.1119999965,16,160697.9531250000,152420.9218750000,166125.2187500000,143038.5468750000,144170.7656250000,149311.3281250000,152307.6250000000,163890.4218750000,,,
2.1159999967,16,161794.4375000000,153522.0937500000,167264.9375000000,144137.7500000000,145306.9218750000,150383.4375000000,153420.8281250000,164957.6718750000,,,
2.1199999966,16,162458.0468750000,154196.8125000000,167922.8281250000,144804.8125000000,145959.0781250000,151053.5000000000,154079.2968750000,165635.8906250000,,,
2.1239999966,16,161802.7812500000,153544.8750000000,167221.8281250000,144146.7031250000,145257.5468750000,150427.3750000000,153405.8281250000,165022.6406250000,,,
2.1279999965,16,160726.8125000000,152463.6406250000,166128.3437500000,143076.4218750000,144169.1562500000,149368.1093750000,152326.3125000000,163960.4531250000,,,
2.1319999965,16,160719.3593750000,152452.5781250000,166157.1093750000,143081.0937500000,144200.1562500000,149344.1250000000,152336.3750000000,163925.0000000000,,,
2.1359999967,16,161794.4687500000,153534.7031250000,167274.8125000000,144166.2656250000,145313.9531250000,150395.1250000000,153428.0312500000,164974.0156250000,,,
2.1399999966,16,162502.4375000000,154253.3750000000,167972.8281250000,144867.8437500000,146007.8906250000,151105.2187500000,154128.2343750000,165694.7968750000,,,
2.1439999966,16,161833.6718750000,153583.7968750000,167256.4843750000,144179.5156250000,145290.7031250000,150462.5000000000,153440.1093750000,165055.2031250000,,,
2.1479999966,16,160746.2500000000,152487.7031250000,166151.4218750000,143095.2500000000,144191.7968750000,149390.1875000000,152350.5468750000,163982.4843750000,,,
2.1519999965,16,160736.7343750000,152468.9375000000,166175.9062500000,143092.6718750000,144223.5468750000,149358.9843750000,152358.1562500000,163940.2812500000,,,
2.1559999965,16,161840.8906250000,153576.1406250000,167319.5468750000,144200.4375000000,145366.8437500000,150435.8125000000,153476.0468750000,165015.6562500000,,,
2.1599999967,16,162523.3593750000,154266.8437500000,167991.9218750000,144878.5468750000,146030.9843750000,151121.1718750000,154152.5781250000,165713.0156250000,,,
2.1639999966,16,161840.9687500000,153586.9375000000,167263.9531250000,144188.9531250000,145302.6562500000,150467.2500000000,153452.7968750000,165067.9375000000,,,
2.1679999966,16,160745.2343750000,152484.4062500000,166148.8750000000,143094.0781250000,144192.8750000000,149387.1875000000,152351.4843750000,163983.1250000000,,,
2.1719999965,16,160712.2656250000,152442.5937500000,166149.3281250000,143066.0937500000,144194.7500000000,149336.7343750000,152334.6406250000,163916.6875000000,,,
2.1759999965,17,161783.6250000000,153512.6093750000,167260.5937500000,144132.8437500000,145299.4375000000,150381.0937500000,153421.2500000000,164949.5468750000,,,
2.1799999964,17,162492.1875000000,154226.8593750000,167956.8906250000,144835.5781250000,145986.8593750000,151088.4531250000,154121.2812500000,165667.3906250000,,,
2.1839999964,17,161849.0937500000,153581.8593750000,167263.0937500000,144183.6718750000,145286.5312500000,150469.9687500000,153459.4218750000,165058.1250000000,,,
2.1879999964,17,160754.3593750000,152476.2500000000,166144.7343750000,143079.5625000000,144173.6562500000,149388.0156250000,152359.5312500000,163970.1093750000,,,
2.1919999963,17,160717.0937500000,152432.5937500000,166142.0625000000,143048.9062500000,144172.3281250000,149331.7343750000,152339.4687500000,163898.7187500000,,,
2.1959999963,17,161797.0156250000,153518.7187500000,167265.1562500000,144131.3125000000,145288.0937500000,150385.7187500000,153435.6562500000,164948.5781250000,,,
2.1999999965,17,162494.0937500000,154223.2343750000,167953.1875000000,144822.2968750000,145967.2031250000,151085.0000000000,154126.0000000000,165656.4687500000,,,
2.2039999964,17,161841.2343750000,153572.0937500000,167255.9843750000,144163.9218750000,145266.5625000000,150462.0468750000,153455.4531250000,165041.3906250000,,,
2.2079999964,17,160745.3750000000,152472.3437500000,166141.8437500000,143074.8906250000,144161.8125000000,149384.3437500000,152356.2187500000,163963.1718750000,,,
2.2119999963,17,160726.4687500000,152450.8750000000,166159.2187500000,143071.0625000000,144184.8437500000,149348.9062500000,152353.6718750000,163919.3125000000,,,
2.2159999963,17,161818.2031250000,153546.9375000000,167293.1250000000,144167.1718750000,145312.8750000000,150414.0312500000,153461.4062500000,164979.2187500000,,,
2.2199999965,17,162544.5781250000,154280.4375000000,168011.1250000000,144884.5312500000,146023.6875000000,151141.2656250000,154181.6875000000,165714.2656250000,,,
2.2239999964,17,161898.5937500000,153631.9375000000,167316.1093750000,144231.5468750000,145327.1718750000,150521.1093750000,153515.3437500000,165104.6875000000,,,
2.2279999964,17,160780.3750000000,152505.3281250000,166176.9062500000,143114.0781250000,144193.6406250000,149416.6093750000,152392.7500000000,163999.0781250000,,,
2.2319999964,17,160743.7031250000,152460.7500000000,166174.7812500000,143080.2812500000,144194.4531250000,149358.4218750000,152373.2031250000,163927.8593750000,,,
2.2359999963,17,161830.6718750000,153550.3750000000,167302.7500000000,144166.1562500000,145318.2968750000,150418.0937500000,153476.1875000000,164980.2812500000,,,
2.2399999963,17,162547.3125000000,154279.2968750000,168014.0312500000,144884.6093750000,146023.5781250000,151138.5625000000,154188.4375000000,165715.1250000000,,,
2.2439999965,17,161891.9687500000,153625.0468750000,167313.2500000000,144227.1406250000,145324.1093750000,150510.0312500000,153514.5937500000,165099.8906250000,,,
2.2479999964,17,160761.3281250000,152486.2031250000,166164.2968750000,143097.9843750000,144180.2031250000,149395.7343750000,152382.7812500000,163982.0468750000,,,
2.2519999964,17,160690.8750000000,152410.0625000000,166129.9062500000,143028.6875000000,144149.2343750000,149307.2968750000,152331.6093750000,163877.9531250000,,,
2.2559999963,17,161761.4687500000,153484.7187500000,167244.0468750000,144101.9062500000,145260.7968750000,150347.9218750000,153416.6562500000,164915.9062500000,,,
2.2599999963,17,162469.6250000000,154204.5312500000,167943.9687500000,144806.3906250000,145953.4375000000,151060.0781250000,154115.5937500000,165639.1093750000,,,
2.2639999965,17,161839.1562500000,153577.3750000000,167263.2187500000,144166.7500000000,145270.4375000000,150463.2500000000,153466.6875000000,165045.0312500000,,,
2.2679999964,17,160726.5468750000,152454.1562500000,166129.9843750000,143055.6875000000,144143.1718750000,149365.7031250000,152351.0781250000,163941.5468750000,,,
2.2719999964,17,160662.4375000000,152379.4218750000,166103.2968750000,143002.5000000000,144119.3437500000,149277.3125000000,152303.2187500000,163848.6093750000,,,
2.2759999963,17,161740.0625000000,153460.5937500000,167223.6093750000,144082.2812500000,145234.1562500000,150327.7031250000,153397.1875000000,164895.5468750000,,,
2.2799999963,17,162504.5000000000,154235.2968750000,167981.9687500000,144839.8750000000,145985.6875000000,151095.2343750000,154159.2812500000,165670.4218750000,,,
2.2839999963,17,161861.2187500000,153594.0937500000,167291.8593750000,144191.3125000000,145296.9218750000,150478.7343750000,153498.5000000000,165067.9687500000,,,
2.2879999964,17,160744.1093750000,152471.6406250000,166154.9375000000,143081.1718750000,144166.2343750000,149377.9062500000,152377.5468750000,163966.9687500000,,,
2.2919999964,17,160706.0000000000,152427.7812500000,166152.4687500000,143055.3437500000,144167.1250000000,149321.0937500000,152357.9687500000,163900.6406250000,,,
2.2959999964,17,161825.2343750000,153554.5312500000,167312.8125000000,144178.3906250000,145324.4375000000,150413.4687500000,153491.6875000000,164994.5781250000,,,
2.2999999963,17,162554.9218750000,154295.6562500000,168034.4843750000,144900.4687500000,146040.7968750000,151144.6718750000,154214.2968750000,165736.9843750000,,,
2.3039999963,18,161888.1875000000,153630.5156250000,167320.6718750000,144230.7968750000,145328.1093750000,150504.1093750000,153527.9531250000,165110.4843750000,,,
2.3079999962,18,160753.0468750000,152487.5156250000,166166.4375000000,143104.0781250000,144180.8750000000,149384.0156250000,152391.8125000000,163991.1093750000,,,
2.3119999962,18,160734.1093750000,152461.5781250000,166180.1406250000,143092.4687500000,144194.5312500000,149346.4375000000,152389.9687500000,163937.1718750000,,,
2.3159999961,18,161803.7656250000,153537.1718750000,167289.4531250000,144152.3906250000,145297.4218750000,150390.8906250000,153472.7187500000,164971.1093750000,,,
2.3199999961,18,162521.7968750000,154266.3125000000,168000.5937500000,144862.2656250000,145999.5156250000,151112.8593750000,154184.9062500000,165702.0625000000,,,
2.3239999961,18,161879.6718750000,153623.6250000000,167312.0312500000,144211.9062500000,145310.2031250000,150499.6875000000,153522.3125000000,165094.5468750000,,,
2.3279999963,18,160748.3437500000,152485.3437500000,166161.3750000000,143081.8906250000,144166.1562500000,149386.0781250000,152386.5000000000,163974.6406250000,,,
2.3319999962,18,160690.8750000000,152422.5312500000,166142.1093750000,143036.0312500000,144149.1718750000,149310.6250000000,152346.4375000000,163888.9687500000,,,
2.3359999962,18,161782.5000000000,153519.7656250000,167279.2031250000,144135.8125000000,145281.3125000000,150375.6093750000,153456.2031250000,164953.0625000000,,,
2.3399999961,18,162515.5000000000,154264.8906250000,168009.6562500000,144865.2968750000,146005.1562500000,151112.1406250000,154187.0781250000,165702.8437500000,,,
2.3439999961,18,161863.3906250000,153614.0468750000,167312.3906250000,144204.5625000000,145307.4843750000,150487.7968750000,153517.5625000000,165086.2031250000,,,
2.3479999963,18,160730.1562500000,152474.1562500000,166158.5312500000,143074.0156250000,144160.0625000000,149370.7656250000,152381.0625000000,163967.7031250000,,,
2.3519999962,18,160659.2500000000,152395.2187500000,166116.5781250000,143009.7968750000,144123.6718750000,149281.1250000000,152324.3125000000,163866.4687500000,,,
2.3559999962,18,161736.6562500000,153475.1875000000,167231.7812500000,144088.0937500000,145237.0312500000,150329.8750000000,153414.5781250000,164908.4218750000,,,
2.3599999961,18,162490.6250000000,154237.6406250000,167977.3125000000,144839.0156250000,145975.5156250000,151085.9062500000,154162.2031250000,165675.3593750000,,,
2.3639999961,18,161863.5312500000,153612.6875000000,167304.2656250000,144213.5937500000,145300.9687500000,150487.2343750000,153515.1250000000,165090.0156250000,,,
2.3679999961,18,160726.0312500000,152467.4531250000,166149.4375000000,143086.8125000000,144154.6406250000,149363.6093750000,152374.7812500000,163970.1406250000,,,
2.3719999962,18,160684.6250000000,152418.7812500000,166144.8750000000,143055.4843750000,144153.1718750000,149301.4531250000,152355.1562500000,163897.1875000000,,,
2.3759999962,18,161818.0937500000,153554.5625000000,167325.2812500000,144190.9687500000,145326.7500000000,150406.7187500000,153508.2031250000,164991.6875000000,,,
2.3799999962,18,162593.6562500000,154341.1093750000,168097.3906250000,144961.3281250000,146091.5781250000,151184.2343750000,154281.5468750000,165780.2343750000,,,
2.3839999961,18,161940.7500000000,153691.6718750000,167399.3437500000,144310.0468750000,145393.1250000000,150560.3750000000,153610.7187500000,165176.4843750000,,,
2.3879999961,18,160776.5625000000,152521.6406250000,166215.2031250000,143150.4218750000,144215.6093750000,149415.0468750000,152443.1562500000,164026.9687500000,,,
2.3919999963,18,160698.6250000000,152440.6406250000,166171.3437500000,143077.1250000000,144174.3906250000,149321.7812500000,152382.7500000000,163914.7500000000,,,
2.3959999962,18,161798.1875000000,153545.9218750000,167312.5781250000,144172.2656250000,145309.9843750000,150395.1875000000,153496.2656250000,164977.9531250000,,,
2.3999999962,18,162543.0625000000,154299.0781250000,168047.4687500000,144905.2343750000,146037.6875000000,151142.6562500000,154234.4375000000,165729.6718750000,,,
2.4039999961,18,161883.6718750000,153639.0000000000,167339.0156250000,144239.3750000000,145327.6562500000,150509.5781250000,153554.8281250000,165108.4687500000,,,
2.4079999961,18,160741.2656250000,152488.6250000000,166177.4375000000,143098.3593750000,144170.1250000000,149383.3750000000,152409.1250000000,163980.2031250000,,,
2.4119999961,18,160672.0625000000,152411.9687500000,166143.5000000000,143030.1875000000,144137.9687500000,149296.8125000000,152358.9687500000,163875.7812500000,,,
2.4159999962,18,161787.8593750000,153532.7812500000,167303.8281250000,144144.7812500000,145290.0781250000,150385.3593750000,153494.5312500000,164957.5937500000,,,
2.4199999962,18,162580.5937500000,154336.1562500000,168091.8125000000,144933.2187500000,146067.7812500000,151178.3281250000,154283.3906250000,165764.3750000000,,,
2.4239999962,18,161935.1406250000,153691.7500000000,167399.9531250000,144283.0937500000,145377.3593750000,150561.7500000000,153617.1250000000,165157.8437500000,,,
2.4279999961,18,160759.5937500000,152507.1562500000,166201.0937500000,143109.7343750000,144185.6250000000,149404.6718750000,152435.0781250000,163997.8125000000,,,
2.4319999961,19,160666.1718750000,152404.6093750000,166140.0468750000,143025.1093750000,144129.4375000000,149293.4843750000,152357.7031250000,163871.1093750000,,,
2.4359999960,19,161784.0625000000,153529.0156250000,167302.2968750000,144142.2031250000,145287.9375000000,150385.6562500000,153493.0781250000,164955.3906250000,,,
2.4399999960,19,162553.4531250000,154309.1718750000,168069.0625000000,144903.7812500000,146047.3281250000,151157.6875000000,154258.9375000000,165736.4218750000,,,
2.4439999959,19,161901.5625000000,153655.3750000000,167371.2656250000,144248.2500000000,145349.4687500000,150533.9062500000,153588.6250000000,165121.7187500000,,,
2.4479999959,19,160734.5312500000,152480.1093750000,166182.9843750000,143084.3437500000,144169.1093750000,149384.1562500000,152416.7343750000,163967.4843750000,,,
2.4519999959,19,160657.2031250000,152398.2500000000,166138.4843750000,143015.9218750000,144127.9375000000,149288.0937500000,152356.5781250000,163861.2968750000,,,
2.4559999960,19,161760.3125000000,153505.4218750000,167283.6093750000,144121.2500000000,145265.4531250000,150361.7343750000,153476.0781250000,164932.0937500000,,,
2.4599999960,19,162529.9843750000,154281.8437500000,168046.6875000000,144884.8750000000,146020.1718750000,151129.4375000000,154241.3593750000,165711.3437500000,,,
2.4639999960,19,161896.3593750000,153646.2812500000,167367.1562500000,144246.3750000000,145339.9218750000,150520.4687500000,153589.9687500000,165113.5625000000,,,
2.4679999959,19,160723.8593750000,152463.4843750000,166175.6093750000,143080.7500000000,144156.1718750000,149363.6875000000,152413.6718750000,163956.7031250000,,,
2.4719999959,19,160626.1250000000,152360.7343750000,166111.6875000000,142995.0000000000,144095.6406250000,149248.4375000000,152334.9843750000,163833.7500000000,,,
2.4759999961,19,161754.1718750000,153492.0937500000,167280.7968750000,144124.2500000000,145257.3593750000,150349.4531250000,153478.8593750000,164927.3593750000,,,
2.4799999960,19,162547.8437500000,154294.2031250000,168067.9062500000,144908.1562500000,146036.2656250000,151145.5781250000,154265.9062500000,165728.5625000000,,,
2.4839999960,19,161905.9687500000,153652.8906250000,167377.2187500000,144253.5468750000,145343.2656250000,150531.6718750000,153603.0468750000,165123.7500000000,,,
2.4879999959,19,160723.7500000000,152463.4531250000,166170.2812500000,143070.7656250000,144141.9843750000,149369.9531250000,152415.2343750000,163952.8437500000,,,
2.4919999959,19,160630.3281250000,152365.0156250000,166110.2656250000,142979.6718750000,144084.0781250000,149261.1718750000,152339.3750000000,163825.9218750000,,,
2.4959999959,19,161758.2500000000,153500.0468750000,167281.9218750000,144109.5781250000,145250.1875000000,150360.9843750000,153483.0000000000,164922.5156250000,,,
2.4999999960,19,162544.0312500000,154296.5312500000,168059.8906250000,144890.9687500000,146023.2031250000,151147.4843750000,154263.3281250000,165719.9375000000,,,
2.5039999960,19,161909.9062500000,153661.3906250000,167377.1093750000,144249.1875000000,145342.7343750000,150538.5468750000,153611.4531250000,165119.9687500000,,,
2.5079999960,19,160738.2031250000,152478.2968750000,166181.2968750000,143078.4062500000,144154.1562500000,149378.8906250000,152434.7031250000,163961.3750000000,,,
2.5119999959,19,160637.7031250000,152371.2187500000,166113.7343750000,142978.6093750000,144087.2500000000,149260.0937500000,152352.4375000000,163828.2812500000,,,
2.5159999959,19,161766.0000000000,153505.0625000000,167286.7968750000,144104.4843750000,145253.9218750000,150363.3437500000,153499.2968750000,164918.0000000000,,,
2.5199999961,19,162565.4687500000,154316.6562500000,168080.1875000000,144899.2031250000,146040.0781250000,151165.2187500000,154292.1562500000,165729.4062500000,,,
2.5239999960,19,161916.6875000000,153670.6406250000,167385.2343750000,144248.9843750000,145349.6250000000,150546.3281250000,153624.2968750000,165124.0312500000,,,
2.5279999960,19,160730.5468750000,152478.4062500000,166177.3281250000,143070.4218750000,144151.7187500000,149383.0781250000,152432.8906250000,163956.3750000000,,,
2.5319999959,19,160607.6718750000,152353.4687500000,166088.3125000000,142960.2343750000,144064.5468750000,149247.7812500000,152327.3125000000,163809.1562500000,,,
2.5359999959,19,161720.1875000000,153474.7343750000,167246.8281250000,144080.7031250000,145218.2500000000,150333.5937500000,153456.5468750000,164892.9218750000,,,
2.5399999958,19,162516.3593750000,154281.1093750000,168038.0781250000,144873.3125000000,146003.2812500000,151129.9531250000,154246.9375000000,165702.3125000000,,,
2.5439999960,19,161912.6718750000,153677.1562500000,167386.0937500000,144264.9687500000,145353.1406250000,150550.8906250000,153623.7031250000,165136.7187500000,,,
2.5479999960,19,160739.3906250000,152493.2031250000,166191.6562500000,143094.0937500000,144165.8281250000,149394.0468750000,152448.3593750000,163976.1406250000,,,
2.5519999960,19,160661.6093750000,152413.7031250000,166151.9062500000,143030.0000000000,144128.3593750000,149301.4375000000,152392.6250000000,163875.1093750000,,,
2.5559999959,19,161763.8593750000,153522.6406250000,167297.9531250000,144142.6875000000,145269.3437500000,150378.5781250000,153512.5781250000,164947.7500000000,,,
2.5599999959,20,162555.0312500000,154321.7968750000,168084.0781250000,144929.2656250000,146049.6875000000,151170.9062500000,154300.2031250000,165750.4843750000,,,
2.5639999958,20,161915.0312500000,153680.2968750000,167399.6718750000,144277.4062500000,145363.4375000000,150557.9062500000,153643.3593750000,165147.2031250000,,,
2.5679999958,20,160731.9062500000,152488.4062500000,166196.7500000000,143093.9687500000,144164.0312500000,149391.7187500000,152457.2031250000,163979.6562500000,,,
2.5719999957,20,160620.5937500000,152371.9375000000,166120.1718750000,142991.8281250000,144088.9062500000,149265.8593750000,152364.2500000000,163836.9687500000,,,
2.5759999957,20,161758.3593750000,153516.7656250000,167302.1406250000,144132.0937500000,145266.4531250000,150378.4218750000,153520.1406250000,164941.2812500000,,,
2.5799999957,20,162574.6406250000,154341.9218750000,168108.5937500000,144944.0000000000,146064.5156250000,151194.5000000000,154326.0937500000,165768.5625000000,,,
2.5839999958,20,161938.8281250000,153703.9062500000,167421.4375000000,144302.9687500000,145377.2187500000,150585.6250000000,153668.9218750000,165170.5937500000,,,
2.5879999958,20,160738.0000000000,152492.4843750000,166195.3593750000,143098.9062500000,144158.6406250000,149400.5156250000,152461.0156250000,163981.5156250000,,,
2.5919999958,20,160635.6093750000,152383.2031250000,166122.1250000000,142994.8125000000,144088.4687500000,149279.8593750000,152373.6562500000,163843.7812500000,,,
2.5959999957,20,161746.6875000000,153498.3593750000,167276.0937500000,144104.3750000000,145238.1250000000,150363.2968750000,153502.3906250000,164919.0312500000,,,
2.5999999957,20,162547.8906250000,154307.6093750000,168074.9843750000,144898.9531250000,146030.5781250000,151164.7031250000,154301.2343750000,165729.4843750000,,,
2.6039999959,20,161914.8750000000,153673.2500000000,167396.7968750000,144260.4531250000,145353.8125000000,150556.5156250000,153650.1718750000,165132.6093750000,,,
2.6079999958,20,160732.5312500000,152479.4687500000,166193.1562500000,143082.2656250000,144159.2031250000,149388.2500000000,152464.3125000000,163966.2187500000,,,
2.6119999958,20,160613.7343750000,152354.4062500000,166105.9843750000,142969.0312500000,144077.1250000000,149254.3593750000,152362.4531250000,163815.7500000000,,,
2.6159999957,20,161705.4687500000,153452.1718750000,167240.4687500000,144064.2500000000,145206.9843750000,150319.4843750000,153470.7031250000,164873.4218750000,,,
2.6199999957,20,162496.6718750000,154254.5000000000,168029.4531250000,144858.0625000000,145989.8750000000,151110.2343750000,154257.6093750000,165679.4062500000,,,
2.6239999956,20,161895.9062500000,153653.8281250000,167383.3593750000,144250.0000000000,145341.8125000000,150536.4218750000,153639.6093750000,165117.3750000000,,,
2.6279999958,20,160708.7343750000,152457.4218750000,166174.7500000000,143063.3906250000,144139.0156250000,149367.4375000000,152451.1250000000,163946.2656250000,,,
2.6319999958,20,160587.8437500000,152330.2031250000,166085.7812500000,142954.4843750000,144052.7031250000,149228.8437500000,152347.5937500000,163800.0000000000,,,
2.6359999957,20,161668.2343750000,153412.1250000000,167209.7656250000,144037.7031250000,145168.4375000000,150281.1406250000,153444.0468750000,164841.2343750000,,,
2.6399999957,20,162484.6250000000,154237.9843750000,168024.6250000000,144847.3750000000,145974.5312500000,151098.6718750000,154256.5468750000,165660.6562500000,,,
2.6439999957,20,161886.1718750000,153641.6250000000,167381.6875000000,144243.0781250000,145328.7500000000,150527.4687500000,153639.9843750000,165108.1250000000,,,
2.6479999959,20,160711.6875000000,152460.8593750000,166185.4843750000,143071.2812500000,144138.5312500000,149371.0625000000,152461.7187500000,163952.4375000000,,,
2.6519999958,20,160591.4375000000,152337.6406250000,166097.2187500000,142963.1875000000,144055.1406250000,149235.7500000000,152359.6562500000,163806.3437500000,,,
2.6559999958,20,161702.2812500000,153454.3750000000,167251.3437500000,144078.3437500000,145204.4843750000,150319.8437500000,153486.5625000000,164881.9218750000,,,
2.6599999957,20,162530.6250000000,154293.5781250000,168080.0625000000,144903.1718750000,146027.1562500000,151150.7031250000,154311.2343750000,165720.8750000000,,,
2.6639999957,20,161925.1406250000,153690.0156250000,167432.5781250000,144294.5156250000,145381.1406250000,150573.4375000000,153689.5781250000,165159.4062500000,,,
2.6679999956,20,160723.2656250000,152480.8125000000,166210.5000000000,143102.0625000000,144168.0000000000,149388.1250000000,152484.1093750000,163980.0156250000,,,
2.6719999958,20,160576.7187500000,152331.1250000000,166097.0156250000,142959.1562500000,144060.0937500000,149226.0937500000,152355.0781250000,163802.0937500000,,,
2.6759999958,20,161685.4062500000,153445.7343750000,167250.1875000000,144064.2343750000,145206.7656250000,150310.6406250000,153481.2500000000,164872.1406250000,,,
2.6799999957,20,162517.1562500000,154286.6093750000,168079.8750000000,144892.7656250000,146031.6093750000,151142.8750000000,154308.6250000000,165715.2343750000,,,
2.6839999957,20,161917.8125000000,153688.6406250000,167435.3906250000,144289.5312500000,145387.3593750000,150571.9687500000,153691.3281250000,165158.5781250000,,,
2.6879999957,21,160710.9843750000,152476.7031250000,166205.4687500000,143085.7812500000,144162.5312500000,149386.3750000000,152480.3593750000,163971.1093750000,,,
2.6919999956,21,160576.8437500000,152337.3125000000,166104.3437500000,142958.0781250000,144063.8593750000,149235.7968750000,152366.0937500000,163804.7500000000,,,
2.6959999956,21,161704.6562500000,153470.4218750000,167276.5000000000,144087.9375000000,145230.8750000000,150336.4687500000,153511.4218750000,164896.7812500000,,,
2.6999999955,21,162567.4843750000,154342.0781250000,168134.7500000000,144948.7187500000,146082.8906250000,151200.0625000000,154367.9375000000,165772.1875000000,,,
2.7039999955,21,161964.5156250000,153736.7343750000,167483.5937500000,144335.0000000000,145428.7500000000,150623.8906250000,153748.5000000000,165206.2656250000,,,
2.7079999954,21,160759.9843750000,152520.2187500000,166252.5312500000,143118.7500000000,144200.1562500000,149432.8906250000,152538.0312500000,164011.3125000000,,,
2.7119999956,21,160617.7812500000,152367.6250000000,166136.2968750000,142980.2656250000,144086.2812500000,149271.3593750000,152407.7968750000,163833.0781250000,,,
2.7159999956,21,161750.0156250000,153502.2812500000,167308.3906250000,144116.3906250000,145254.6718750000,150377.8750000000,153554.9531250000,164922.5312500000,,,
2.7199999955,21,162593.2031250000,154352.9687500000,168144.0625000000,144952.2812500000,146084.3281250000,151220.0937500000,154391.5468750000,165775.2343750000,,,
2.7239999955,21,161988.3125000000,153748.9062500000,167492.3906250000,144341.8437500000,145431.6406250000,150645.4375000000,153767.0625000000,165211.9687500000,,,
2.7279999955,21,160781.6406250000,152533.8750000000,166262.8437500000,143138.4062500000,144206.7812500000,149457.7187500000,152555.5937500000,164020.0468750000,,,
2.7319999957,21,160634.0312500000,152378.9375000000,166144.6250000000,143000.7031250000,144089.8437500000,149292.8750000000,152425.0781250000,163844.1250000000,,,
2.7359999956,21,161752.2968750000,153502.7968750000,167305.9531250000,144125.0937500000,145247.0625000000,150383.1406250000,153561.5781250000,164931.0625000000,,,
2.7399999956,21,162611.8906250000,154374.0468750000,168163.5000000000,144975.5937500000,146096.8281250000,151242.6250000000,154419.3750000000,165799.2656250000,,,
2.7439999955,21,162024.5937500000,153787.8593750000,167529.4843750000,144375.5468750000,145460.5625000000,150684.4843750000,153815.2968750000,165248.8281250000,,,
2.7479999955,21,160793.1406250000,152544.2187500000,166270.3281250000,143146.1406250000,144208.4531250000,149470.2500000000,152577.9062500000,164031.9062500000,,,
2.7519999954,21,160621.4531250000,152362.0468750000,166129.2031250000,142978.6562500000,144070.3906250000,149279.9218750000,152422.3750000000,163824.0937500000,,,
2.7559999956,21,161735.9062500000,153481.7656250000,167290.5781250000,144093.8750000000,145226.4531250000,150367.5625000000,153556.2968750000,164901.5937500000,,,
2.7599999956,21,162584.7500000000,154342.7500000000,168137.6406250000,144939.1875000000,146069.3906250000,151217.9531250000,154401.1406250000,165762.7656250000,,,
2.7639999955,21,161976.9687500000,153739.7656250000,167485.9843750000,144328.9687500000,145419.7656250000,150641.1718750000,153774.3906250000,165200.2812500000,,,
2.7679999955,21,160750.1406250000,152509.7031250000,166237.5781250000,143111.0000000000,144182.5937500000,149439.4531250000,152542.7187500000,163996.4843750000,,,
2.7719999955,21,160616.2812500000,152375.3437500000,166138.0937500000,142990.0781250000,144086.3906250000,149292.5781250000,152429.8750000000,163840.3750000000,,,
2.7759999956,21,161751.5468750000,153519.1718750000,167321.3125000000,144125.7343750000,145261.8125000000,150402.0000000000,153583.6562500000,164941.0781250000,,,
2.7799999956,21,162597.5781250000,154374.7500000000,168164.8437500000,144967.9531250000,146099.7500000000,151246.8125000000,154424.5625000000,165795.8906250000,,,
2.7839999956,21,162031.7656250000,153807.8593750000,167552.2812500000,144391.2187500000,145489.3125000000,150707.6875000000,153838.2812500000,165269.5312500000,,,
2.7879999955,21,160802.8593750000,152567.7968750000,166298.1406250000,143161.5312500000,144241.5000000000,149498.6875000000,152603.9062500000,164057.3906250000,,,
2.7919999955,21,160631.7031250000,152389.8906250000,166158.7656250000,143000.3281250000,144103.6875000000,149312.3125000000,152452.8437500000,163855.3906250000,,,
2.7959999954,21,161749.8593750000,153515.6875000000,167323.9531250000,144126.3281250000,145265.0781250000,150402.1562500000,153592.8281250000,164939.1406250000,,,
2.7999999956,21,162603.2812500000,154379.9062500000,168175.6875000000,144979.0781250000,146110.9218750000,151256.3906250000,154441.9843750000,165801.9531250000,,,
2.8039999956,21,162008.5312500000,153783.7031250000,167534.1718750000,144375.9062500000,145466.8437500000,150689.3125000000,153826.9843750000,165245.2343750000,,,
2.8079999955,21,160776.5156250000,152540.4375000000,166275.3437500000,143139.9375000000,144211.0312500000,149475.9375000000,152588.1875000000,164028.4843750000,,,
2.8119999955,21,160594.1562500000,152352.3125000000,166123.7968750000,142959.9843750000,144062.4843750000,149279.2500000000,152423.0937500000,163810.7343750000,,,
2.8159999955,22,161714.7968750000,153478.2187500000,167287.4218750000,144081.4531250000,145222.6406250000,150371.9843750000,153560.0625000000,164893.8906250000,,,
2.8199999954,22,162583.5156250000,154355.1406250000,168149.4218750000,144945.6875000000,146076.0000000000,151237.7187500000,154421.3906250000,165771.0000000000,,,
2.8239999954,22,161991.2343750000,153762.9687500000,167508.7500000000,144350.7187500000,145434.2500000000,150672.8906250000,153809.2656250000,165221.9218750000,,,
2.8279999953,22,160760.9218750000,152524.9687500000,166254.6250000000,143123.6562500000,144187.5000000000,149463.6562500000,152573.6250000000,164009.8906250000,,,
2.8319999953,22,160589.6093750000,152353.1718750000,166114.2656250000,142962.6718750000,144054.5937500000,149278.3906250000,152419.7187500000,163810.5937500000,,,
2.8359999952,22,161715.3437500000,153486.0781250000,167281.4375000000,144092.5781250000,145220.5000000000,150375.7656250000,153559.9531250000,164901.2656250000,,,
2.8399999954,22,162582.6093750000,154361.8437500000,168143.0468750000,144955.9218750000,146076.2031250000,151241.8750000000,154420.7968750000,165778.8125000000,,,
2.8439999954,22,161991.6093750000,153771.5468750000,167506.0156250000,144358.6875000000,145441.8906250000,150678.3437500000,153809.3593750000,165230.9843750000,,,
2.8479999953,22,160750.7031250000,152524.2187500000,166243.2500000000,143121.0625000000,144187.4218750000,149458.2812500000,152565.1718750000,164011.5000000000,,,
2.8519999953,22,160542.1718750000,152312.2968750000,166070.1718750000,142925.7187500000,144018.0156250000,149236.2500000000,152375.8281250000,163777.0000000000,,,
2.8559999953,22,161642.0000000000,153417.0468750000,167218.2968750000,144033.6718750000,145164.5781250000,150309.1562500000,153494.6406250000,164840.9375000000,,,
2.8599999954,22,162537.4375000000,154323.4375000000,168116.5937500000,144926.7968750000,146058.6093750000,151205.5781250000,154390.0156250000,165748.8750000000,,,
2.8639999954,22,161952.9843750000,153742.5781250000,167493.6250000000,144342.3750000000,145437.0625000000,150649.6406250000,153790.0000000000,165212.7500000000,,,
2.8679999954,22,160714.0937500000,152496.0000000000,166233.5000000000,143109.7187500000,144184.4687500000,149429.0468750000,152550.6250000000,163996.9062500000,,,
2.8719999953,22,160538.2187500000,152315.3750000000,166089.2187500000,142945.9375000000,144042.0156250000,149238.4218750000,152393.9843750000,163793.4843750000,,,
2.8759999953,22,161672.2031250000,153452.9062500000,167266.2187500000,144083.3750000000,145213.6093750000,150344.6718750000,153544.7656250000,164886.8437500000,,,
2.8799999952,22,162545.8593750000,154334.1718750000,168135.0781250000,144946.7812500000,146073.2031250000,151215.2187500000,154414.0625000000,165762.5781250000,,,
2.8839999954,22,161976.2031250000,153765.1093750000,167516.5625000000,144361.2031250000,145452.2187500000,150673.5937500000,153825.3750000000,165230.7500000000,,,
2.8879999954,22,160735.5312500000,152514.6875000000,166248.2500000000,143119.6093750000,144186.7812500000,149452.4687500000,152577.9062500000,164007.2656250000,,,
2.8919999953,22,160526.3750000000,152298.4843750000,166069.0000000000,142916.1406250000,144005.3750000000,149228.2812500000,152387.5312500000,163764.8750000000,,,
2.8959999953,22,161660.4843750000,153438.3125000000,167247.3437500000,144051.0625000000,145176.7031250000,150334.7500000000,153541.1406250000,164858.5625000000,,,
2.8999999953,22,162571.2031250000,154358.6250000000,168156.5781250000,144954.7500000000,146077.7968750000,151243.9062500000,154447.4687500000,165776.7343750000,,,
2.9039999954,22,161997.2187500000,153781.5312500000,167532.4843750000,144368.5312500000,145449.4843750000,150696.2031250000,153853.2500000000,165235.7187500000,,,
2.9079999954,22,160747.9687500000,152520.1093750000,166250.6562500000,143111.7187500000,144169.5312500000,149466.5781250000,152595.3906250000,163998.6718750000,,,
2.9119999954,22,160526.0468750000,152289.2187500000,166053.5937500000,142895.8125000000,143973.5937500000,149227.9687500000,152385.4843750000,163747.2500000000,,,
2.9159999953,22,161661.1562500000,153426.2187500000,167229.8750000000,144022.9218750000,145142.4218750000,150331.2968750000,153534.9218750000,164837.4843750000,,,
2.9199999953,22,162581.7500000000,154353.8281250000,168145.7812500000,144928.7812500000,146049.6250000000,151247.2656250000,154450.9218750000,165757.5625000000,,,
2.9239999952,22,162033.9843750000,153803.0156250000,167550.4843750000,144375.7968750000,145456.9375000000,150723.5625000000,153882.4843750000,165251.4531250000,,,
2.9279999954,22,160790.2500000000,152546.8750000000,166281.9375000000,143137.9531250000,144196.9375000000,149497.1250000000,152632.7031250000,164026.0312500000,,,
2.9319999954,22,160593.0156250000,152342.8125000000,166115.2656250000,142950.0625000000,144035.5000000000,149283.9218750000,152452.5781250000,163799.6250000000,,,
2.9359999953,22,161715.9062500000,153470.6875000000,167285.5937500000,144076.4531250000,145204.1406250000,150378.0937500000,153594.0937500000,164884.6406250000,,,
2.9399999953,22,162625.7343750000,154392.8281250000,168195.7500000000,144976.7187500000,146108.5312500000,151286.0468750000,154500.2968750000,165803.8593750000,,,
2.9439999952,23,162048.7656250000,153819.7656250000,167570.2031250000,144390.8125000000,145482.7968750000,150739.7968750000,153901.3906250000,165268.1093750000,,,
