Time:250Hz,Epoch,Channel 1,Channel 2,Channel 3,Channel 4,Channel 5,Channel 6,Channel 7,Channel 8,Event Id,Event Date,Event Duration
0.0000000000,0,130211.4218750000,140279.9218750000,160634.7812500000,151024.1093750000,155505.6250000000,137562.1562500000,149033.4218750000,148503.7968750000,,,
0.0040000000,0,130317.5859375000,140417.2500000000,160732.3125000000,151162.1875000000,155534.0468750000,137653.3750000000,149132.6093750000,148509.7187500000,,,
0.0079999999,0,130376.1093750000,140458.2343750000,160815.7031250000,151220.2031250000,155570.0781250000,137706.3125000000,149205.0625000000,148535.5468750000,,,
0.0119999999,0,130289.2343750000,140345.8593750000,160763.1875000000,151127.0000000000,155547.1718750000,137627.1406250000,149116.0625000000,148513.3906250000,,,
0.0159999998,0,130185.3750000000,140248.7343750000,160660.0781250000,151011.6562500000,155509.7031250000,137527.9843750000,149009.1718750000,148485.3125000000,,,
0.0199999998,0,130204.5859375000,140264.3750000000,160652.2187500000,151031.1562500000,155497.5781250000,137545.3906250000,149025.4843750000,148473.7031250000,,,
0.0240000000,0,130322.3281250000,140385.7187500000,160742.7968750000,151170.0937500000,155536.4062500000,137654.7187500000,149138.8906250000,148496.4687500000,,,
0.0279999999,0,130388.2343750000,140458.0781250000,160820.2812500000,151242.6718750000,155563.0781250000,137719.7343750000,149209.3437500000,148559.4218750000,,,
0.0319999999,0,130302.3750000000,140371.4218750000,160728.3437500000,151140.0625000000,155587.3281250000,137649.5156250000,149119.2343750000,148591.6718750000,,,
0.0359999998,0,130194.0156250000,140238.9218750000,160649.5937500000,151031.2656250000,155540.3906250000,137543.9687500000,149013.9218750000,148528.6250000000,,,
0.0399999998,0,130193.3437500000,140253.9062500000,160662.0625000000,151046.7968750000,155498.3593750000,137539.0781250000,149011.9062500000,148482.5468750000,,,
0.0440000000,0,130291.9453125000,140348.0312500000,160738.6093750000,151217.4062500000,155563.5625000000,137628.0468750000,149108.7968750000,148482.5000000000,,,
0.0480000000,0,130357.9765625000,140420.9843750000,160818.5156250000,151251.5625000000,155625.4843750000,137695.6718750000,149188.0000000000,148540.7031250000,,,
0.0519999999,0,130285.7187500000,140361.0937500000,160780.5156250000,151114.1718750000,155588.6875000000,137646.0781250000,149123.6875000000,148562.7031250000,,,
0.0559999999,0,130166.7109375000,140245.6406250000,160674.5625000000,151001.3906250000,155537.9218750000,137514.2187500000,149012.7500000000,148472.8437500000,,,
0.0599999998,0,130171.6718750000,140247.1250000000,160648.8593750000,151016.0937500000,155511.7656250000,137515.3437500000,149005.8281250000,148444.8906250000,,,
0.0639999998,0,130299.2343750000,140379.3281250000,160740.7656250000,151164.1718750000,155546.7656250000,137643.2343750000,149114.2343750000,148486.6875000000,,,
0.0680000000,0,130368.5468750000,140454.5937500000,160808.2187500000,151243.0312500000,155590.0000000000,137709.6406250000,149178.0468750000,148544.5156250000,,,
0.0719999999,0,130281.7734375000,140365.2812500000,160754.5468750000,151140.5937500000,155575.4375000000,137636.8437500000,149100.9843750000,148549.1718750000,,,
0.0759999999,0,130173.6328125000,140246.3750000000,160666.8125000000,151019.5937500000,155522.4375000000,137532.5625000000,149007.3593750000,148513.0156250000,,,
0.0799999998,0,130180.9218750000,140275.3125000000,160662.8593750000,151013.2656250000,155477.4531250000,137541.7968750000,149009.0937500000,148507.9843750000,,,
0.0839999998,0,130291.8046875000,140391.0312500000,160734.8281250000,151153.3906250000,155511.6562500000,137651.8125000000,149114.5625000000,148513.7500000000,,,
0.0880000000,0,130339.1718750000,140443.9375000000,160789.3125000000,151230.7187500000,155557.8750000000,137690.5781250000,149162.8125000000,148518.7812500000,,,
0.0919999999,0,130273.1093750000,140374.6093750000,160754.1406250000,151160.7187500000,155552.6875000000,137634.8125000000,149103.1406250000,148559.3906250000,,,
0.0959999999,0,130172.9296875000,140255.8437500000,160666.6250000000,151046.0937500000,155527.1562500000,137539.2500000000,149009.0156250000,148551.8281250000,,,
0.0999999999,0,130186.8281250000,140266.3750000000,160688.9687500000,151068.6562500000,155508.0312500000,137541.3906250000,149028.1875000000,148488.7812500000,,,
0.1039999998,0,130293.2265625000,140382.8906250000,160769.2500000000,151196.1093750000,155518.3593750000,137645.0000000000,149127.3750000000,148507.4218750000,,,
0.1079999998,0,130354.1953125000,140462.7500000000,160806.1250000000,151263.0937500000,155582.6875000000,137702.0781250000,149176.6562500000,148558.5625000000,,,
0.1120000000,0,130274.5859375000,140372.3593750000,160731.7500000000,151182.4843750000,155602.7656250000,137620.0625000000,149098.5000000000,148554.2812500000,,,
0.1159999999,0,130171.9921875000,140250.5312500000,160647.6875000000,151041.4531250000,155541.2968750000,137525.4062500000,149003.0625000000,148512.6406250000,,,
0.1199999999,0,130184.7109375000,140252.0781250000,160632.8593750000,151068.2812500000,155542.2656250000,137523.0781250000,149006.7343750000,148471.5312500000,,,
0.1239999998,0,130299.7500000000,140370.8281250000,160733.7656250000,151252.8125000000,155614.0312500000,137630.8437500000,149105.3125000000,148491.6406250000,,,
0.1279999998,1,130389.8671875000,140454.9687500000,160847.0312500000,151397.0937500000,155704.2187500000,137721.9531250000,149204.3593750000,148556.0781250000,,,
0.1319999998,1,130333.8906250000,140419.3437500000,160800.2968750000,151220.5312500000,155652.9218750000,137681.5312500000,149143.2656250000,148618.3593750000,,,
0.1359999997,1,130209.9218750000,140289.6406250000,160698.6406250000,151038.2343750000,155556.5312500000,137552.0625000000,149024.5937500000,148554.6718750000,,,
0.1399999997,1,130199.7031250000,140265.4218750000,160664.7656250000,151050.1562500000,155553.9218750000,137532.9218750000,149013.7343750000,148474.0468750000,,,
0.1439999996,1,130300.7968750000,140354.2812500000,160744.2968750000,151167.8437500000,155586.9531250000,137626.1562500000,149111.2656250000,148487.3593750000,,,
0.1479999996,1,130365.5156250000,140431.0625000000,160811.4375000000,151240.6875000000,155635.5468750000,137704.4687500000,149173.1718750000,148555.1562500000,,,
0.1519999998,1,130274.5078125000,140346.8437500000,160740.2968750000,151138.0937500000,155611.3281250000,137613.7343750000,149104.0937500000,148592.4687500000,,,
0.1559999997,1,130163.4921875000,140244.6250000000,160631.9687500000,151019.0625000000,155582.5781250000,137509.0625000000,148973.7500000000,148530.2343750000,,,
0.1599999997,1,130192.1406250000,140279.0468750000,160655.2968750000,151047.6875000000,155591.1562500000,137537.3125000000,149003.1406250000,148487.2500000000,,,
0.1639999996,1,130329.3046875000,140410.1250000000,160773.0312500000,151212.7500000000,155651.0000000000,137665.7656250000,149139.8593750000,148516.6718750000,,,
0.1679999996,1,130409.3984375000,140487.2656250000,160852.5312500000,151308.9062500000,155705.0468750000,137738.9843750000,149214.0781250000,148571.5000000000,,,
0.1719999998,1,130347.9453125000,140413.3125000000,160824.4218750000,151237.2031250000,155703.3281250000,137688.9687500000,149155.2812500000,148603.8906250000,,,
0.1759999997,1,130226.1171875000,140289.7656250000,160729.9687500000,151094.8593750000,155640.5156250000,137568.4843750000,149045.0625000000,148555.9375000000,,,
0.1799999997,1,130221.1875000000,140293.9843750000,160703.7500000000,151094.4531250000,155620.6093750000,137550.3750000000,149038.2031250000,148513.9375000000,,,
0.1839999997,1,130328.4218750000,140427.9375000000,160773.0000000000,151209.2031250000,155641.6562500000,137650.0000000000,149136.6875000000,148546.4687500000,,,
0.1879999996,1,130383.5156250000,140474.2187500000,160829.4531250000,151266.2812500000,155670.9843750000,137703.8281250000,149190.6093750000,148593.6562500000,,,
0.1919999996,1,130300.8203125000,140365.8593750000,160772.2812500000,151176.7031250000,155649.3593750000,137625.9843750000,149123.2187500000,148543.3281250000,,,
0.1959999998,1,130203.7500000000,140265.8125000000,160685.2343750000,151057.0156250000,155615.1406250000,137532.8593750000,149025.4531250000,148517.5000000000,,,
0.1999999997,1,130204.2343750000,140280.3281250000,160668.6406250000,151065.8125000000,155617.1250000000,137532.9218750000,149015.5312500000,148478.3125000000,,,
0.2039999997,1,130298.3281250000,140379.6718750000,160736.5937500000,151180.2343750000,155625.2187500000,137611.6718750000,149104.5312500000,148492.9531250000,,,
0.2079999996,1,130367.5546875000,140443.0000000000,160793.4375000000,151264.1406250000,155673.0156250000,137682.0781250000,149178.2656250000,148542.3437500000,,,
0.2119999996,1,130294.4609375000,140368.3593750000,160752.1875000000,151180.7968750000,155677.9531250000,137624.4531250000,149102.8125000000,148542.7343750000,,,
0.2159999998,1,130183.7656250000,140260.1093750000,160661.0156250000,151042.0000000000,155614.8125000000,137526.7500000000,148991.9843750000,148500.0937500000,,,
0.2199999997,1,130188.6250000000,140265.5781250000,160649.5625000000,151025.4687500000,155571.8125000000,137523.2656250000,148999.6250000000,148488.9375000000,,,
0.2239999997,1,130278.6953125000,140358.6562500000,160712.4843750000,151138.7968750000,155580.6093750000,137601.2031250000,149082.4062500000,148500.5000000000,,,
0.2279999997,1,130334.9921875000,140421.0312500000,160771.3125000000,151219.7187500000,155613.6406250000,137655.1718750000,149134.7656250000,148516.0312500000,,,
0.2319999996,1,130277.9687500000,140353.5312500000,160755.0781250000,151154.8593750000,155602.4843750000,137605.1406250000,149092.0312500000,148557.0156250000,,,
0.2359999996,1,130179.5546875000,140230.3281250000,160693.4218750000,151063.3750000000,155550.2031250000,137508.0000000000,148995.9531250000,148545.2031250000,,,
0.2399999998,1,130172.7968750000,140233.8125000000,160659.9687500000,151074.2656250000,155545.5312500000,137493.3281250000,148977.7656250000,148523.2656250000,,,
0.2439999997,1,130257.5546875000,140332.5468750000,160708.7031250000,151143.2187500000,155562.2968750000,137575.5625000000,149055.2812500000,148485.0000000000,,,
0.2479999997,1,130307.0390625000,140383.5937500000,160749.1562500000,151186.3750000000,155601.2968750000,137629.0937500000,149110.4843750000,148476.1875000000,,,
0.2519999996,1,130251.2812500000,140334.7187500000,160701.2500000000,151123.4218750000,155624.3125000000,137586.5312500000,149057.1562500000,148490.5468750000,,,
0.2559999996,2,130162.8203125000,140242.5625000000,160625.0781250000,151034.2500000000,155595.6093750000,137499.9218750000,148970.3437500000,148504.9531250000,,,
0.2599999995,2,130170.1171875000,140229.0468750000,160622.6093750000,151049.9843750000,155567.5312500000,137492.6250000000,148973.6093750000,148482.3125000000,,,
0.2639999995,2,130279.0390625000,140329.9531250000,160712.1718750000,151160.9843750000,155584.6093750000,137592.7500000000,149076.1250000000,148486.8906250000,,,
0.2679999995,2,130361.7031250000,140419.2343750000,160788.5000000000,151251.5000000000,155628.3125000000,137673.2187500000,149169.6250000000,148522.5781250000,,,
0.2719999994,2,130302.2421875000,140377.2968750000,160739.8125000000,151175.2812500000,155638.6093750000,137633.3593750000,149106.6406250000,148533.7343750000,,,
0.2759999994,2,130196.0781250000,140276.6562500000,160660.9687500000,151053.6093750000,155588.2031250000,137537.0156250000,148999.5156250000,148518.7031250000,,,
0.2799999996,2,130196.4843750000,140278.1562500000,160667.6875000000,151047.5000000000,155531.0156250000,137517.8125000000,148991.5312500000,148482.8437500000,,,
0.2839999995,2,130290.6250000000,140403.5781250000,160738.7187500000,151168.9687500000,155557.4218750000,137608.0937500000,149065.0781250000,148532.3281250000,,,
0.2879999995,2,130334.1093750000,140442.5468750000,160781.0156250000,151235.0625000000,155616.0468750000,137653.2187500000,149119.1250000000,148529.3906250000,,,
0.2919999994,2,130261.6093750000,140330.4062500000,160737.2968750000,151118.0312500000,155603.6562500000,137592.4375000000,149079.1562500000,148511.5000000000,,,
0.2959999994,2,130161.8828125000,140191.2812500000,160652.0625000000,150990.0468750000,155566.1562500000,137499.2031250000,148983.4843750000,148468.6250000000,,,
0.2999999996,2,130163.0078125000,140212.1250000000,160629.7656250000,151019.3125000000,155555.9062500000,137489.3281250000,148972.5312500000,148445.8125000000,,,
0.3039999995,2,130258.2500000000,140342.5625000000,160694.0000000000,151112.0000000000,155554.5781250000,137575.7500000000,149063.9531250000,148449.5937500000,,,
0.3079999995,2,130326.7812500000,140409.5312500000,160763.6875000000,151172.6250000000,155590.1718750000,137650.0781250000,149120.5937500000,148488.8593750000,,,
0.3119999995,2,130264.6640625000,140325.5781250000,160732.9062500000,151098.0000000000,155588.5000000000,137587.8750000000,149071.0000000000,148499.2812500000,,,
0.3159999994,2,130156.0625000000,140224.1406250000,160643.7187500000,150987.6250000000,155532.2500000000,137478.0156250000,148962.5000000000,148474.4843750000,,,
0.3199999994,2,130160.2187500000,140242.4218750000,160638.2187500000,150993.8437500000,155474.1406250000,137480.9531250000,148959.7187500000,148452.3281250000,,,
0.3239999996,2,130272.6328125000,140375.0625000000,160723.4531250000,151112.3437500000,155491.6718750000,137588.9687500000,149062.6562500000,148505.1875000000,,,
0.3279999995,2,130334.6718750000,140407.8437500000,160758.4375000000,151203.5000000000,155589.7031250000,137648.5468750000,149123.7656250000,148495.3125000000,,,
0.3319999995,2,130265.0390625000,140321.3437500000,160711.0937500000,151126.5156250000,155613.9062500000,137585.2187500000,149055.5312500000,148477.1562500000,,,
0.3359999994,2,130154.5312500000,140209.6562500000,160622.3125000000,150997.7187500000,155565.0937500000,137482.0312500000,148955.2656250000,148438.3750000000,,,
0.3399999994,2,130153.1406250000,140225.3437500000,160606.2968750000,150995.3593750000,155526.5156250000,137477.5781250000,148960.6250000000,148424.2968750000,,,
0.3439999996,2,130256.6953125000,140348.1562500000,160686.5312500000,151126.8593750000,155547.4843750000,137581.4843750000,149040.5312500000,148457.9531250000,,,
0.3479999995,2,130323.2421875000,140426.0781250000,160753.6406250000,151201.2656250000,155582.1250000000,137641.8593750000,149104.3437500000,148496.0937500000,,,
0.3519999995,2,130260.9921875000,140346.6875000000,160719.0312500000,151114.1406250000,155584.5937500000,137586.2656250000,149056.2187500000,148491.0000000000,,,
0.3559999994,2,130155.7656250000,140223.5156250000,160637.5000000000,150988.2187500000,155547.9218750000,137489.3593750000,148964.9687500000,148455.9218750000,,,
0.3599999994,2,130142.3828125000,140201.2031250000,160597.4531250000,150963.1406250000,155502.2656250000,137471.4375000000,148937.0781250000,148431.2968750000,,,
0.3639999994,2,130225.3671875000,140295.8125000000,160661.3437500000,151066.4062500000,155504.0625000000,137546.8593750000,149012.5625000000,148427.8125000000,,,
0.3679999996,2,130304.8203125000,140390.5625000000,160736.1718750000,151146.2031250000,155556.0781250000,137628.1406250000,149086.8281250000,148461.1718750000,,,
0.3719999995,2,130261.5781250000,140345.8750000000,160708.5468750000,151100.2812500000,155572.0000000000,137597.9062500000,149052.7343750000,148493.8750000000,,,
0.3759999995,2,130155.0390625000,140231.6250000000,160624.3437500000,150989.2343750000,155527.3437500000,137484.1562500000,148947.8906250000,148456.2656250000,,,
0.3799999994,2,130146.4609375000,140220.4687500000,160617.6250000000,150985.4531250000,155498.4843750000,137471.0937500000,148940.3750000000,148437.3906250000,,,
0.3839999994,3,130253.9921875000,140336.3281250000,160706.5312500000,151100.2812500000,155506.2187500000,137575.5156250000,149052.7968750000,148464.9375000000,,,
0.3879999993,3,130318.5781250000,140397.5156250000,160726.6250000000,151199.7031250000,155615.9218750000,137642.3437500000,149108.2500000000,148475.6562500000,,,
0.3919999993,3,130244.4140625000,140326.9218750000,160682.0468750000,151122.4375000000,155614.9218750000,137579.2031250000,149039.9375000000,148471.6562500000,,,
0.3959999993,3,130132.3203125000,140221.7031250000,160597.0468750000,150983.1562500000,155552.4062500000,137462.1093750000,148928.6250000000,148437.0312500000,,,
0.3999999992,3,130129.9062500000,140208.5000000000,160585.4375000000,150982.9375000000,155523.0000000000,137458.9062500000,148924.4218750000,148412.1718750000,,,
0.4039999992,3,130240.6875000000,140323.1406250000,160674.8593750000,151120.5312500000,155556.5625000000,137554.3125000000,149023.5312500000,148447.0937500000,,,
0.4079999994,3,130323.2734375000,140399.4218750000,160756.1250000000,151210.0625000000,155603.0468750000,137644.6875000000,149105.3125000000,148478.6562500000,,,
0.4119999993,3,130261.9843750000,140324.0468750000,160714.6562500000,151149.4531250000,155590.5625000000,137587.7656250000,149050.4062500000,148484.9687500000,,,
0.4159999993,3,130141.5781250000,140190.6093750000,160596.6718750000,150973.5937500000,155531.4531250000,137455.2343750000,148936.3593750000,148429.1250000000,,,
0.4199999992,3,130124.5156250000,140195.4843750000,160584.1406250000,150920.4062500000,155456.9687500000,137441.0468750000,148913.1875000000,148409.3593750000,,,
0.4239999992,3,130209.7578125000,140289.0937500000,160658.2500000000,151053.7187500000,155477.0000000000,137516.5000000000,148992.0625000000,148380.5156250000,,,
0.4279999994,3,130276.1718750000,140362.1406250000,160702.2343750000,151105.5625000000,155534.8281250000,137587.7656250000,149060.8437500000,148412.7656250000,,,
0.4319999993,3,130212.3593750000,140292.7812500000,160644.3281250000,151013.2968750000,155520.9062500000,137536.0000000000,148989.3281250000,148446.1562500000,,,
0.4359999993,3,130089.1953125000,140150.8125000000,160537.9843750000,150869.7968750000,155455.4687500000,137417.7343750000,148870.1562500000,148386.8281250000,,,
0.4399999992,3,130093.7265625000,140144.1250000000,160536.8281250000,150882.8906250000,155446.8281250000,137416.9687500000,148885.2656250000,148360.4531250000,,,
0.4439999992,3,130222.7656250000,140291.8281250000,160647.7343750000,151041.0781250000,155498.2656250000,137539.5468750000,149019.5312500000,148412.0312500000,,,
0.4479999992,3,130285.1796875000,140367.8437500000,160713.9375000000,151125.0156250000,155542.2656250000,137586.8593750000,149052.3593750000,148435.7968750000,,,
0.4519999993,3,130208.1796875000,140291.7500000000,160650.8437500000,151037.4843750000,155523.5937500000,137525.1875000000,148976.6718750000,148451.2187500000,,,
0.4559999993,3,130095.4140625000,140181.6250000000,160546.7812500000,150913.7031250000,155460.2343750000,137421.0468750000,148874.9843750000,148423.1093750000,,,
0.4599999993,3,130104.2968750000,140179.1250000000,160556.0937500000,150919.2812500000,155445.3750000000,137422.2968750000,148883.0937500000,148381.3281250000,,,
0.4639999992,3,130207.1015625000,140273.6250000000,160638.9375000000,151057.9218750000,155492.4062500000,137513.9843750000,148978.1718750000,148399.2500000000,,,
0.4679999992,3,130271.5312500000,140352.0781250000,160701.5937500000,151158.4375000000,155557.3593750000,137576.8281250000,149049.4062500000,148428.8750000000,,,
0.4719999994,3,130224.5078125000,140324.5000000000,160669.8750000000,151133.8906250000,155597.0312500000,137537.0937500000,148993.7500000000,148486.7968750000,,,
0.4759999993,3,130123.6640625000,140207.3437500000,160582.2343750000,150992.7812500000,155530.2968750000,137442.2500000000,148900.0156250000,148475.7187500000,,,
0.4799999993,3,130093.0546875000,140144.5312500000,160546.5625000000,150945.7343750000,155492.6718750000,137409.0000000000,148899.1250000000,148393.4531250000,,,
0.4839999992,3,130198.1718750000,140259.4062500000,160630.8437500000,151114.1406250000,155520.3437500000,137519.4218750000,148996.8437500000,148408.6250000000,,,
0.4879999992,3,130277.4843750000,140350.2500000000,160704.5468750000,151186.5156250000,155598.4843750000,137565.9843750000,149063.4687500000,148420.8125000000,,,
0.4919999992,3,130209.1953125000,140265.5468750000,160657.3125000000,151019.0625000000,155554.2812500000,137512.1562500000,148981.6250000000,148427.6718750000,,,
0.4959999993,3,130094.3437500000,140150.0312500000,160537.4218750000,150867.0156250000,155470.2500000000,137401.4843750000,148862.7031250000,148374.2656250000,,,
0.4999999993,3,130085.8437500000,140154.9843750000,160523.9843750000,150843.1093750000,155436.5781250000,137390.7500000000,148864.8750000000,148330.4218750000,,,
0.5039999993,3,130209.9765625000,140277.3750000000,160653.5937500000,150997.9843750000,155475.8437500000,137506.2812500000,148989.5156250000,148383.7343750000,,,
0.5079999992,3,130314.0937500000,140394.5937500000,160768.6250000000,151114.2343750000,155490.8906250000,137602.8906250000,149093.1562500000,148504.6562500000,,,
0.5119999992,4,130247.2031250000,140301.9218750000,160683.4062500000,151060.9062500000,155549.2656250000,137554.1875000000,149024.5937500000,148471.7968750000,,,
0.5159999991,4,130112.5312500000,140152.0625000000,160560.1093750000,150934.4062500000,155524.8593750000,137420.0000000000,148893.2812500000,148391.8906250000,,,
0.5199999991,4,130109.6328125000,140188.2500000000,160559.5156250000,150921.7812500000,155485.6406250000,137414.7968750000,148890.7343750000,148402.4062500000,,,
0.5239999990,4,130233.9765625000,140330.6250000000,160661.6093750000,151068.4687500000,155531.2343750000,137540.3437500000,149010.2812500000,148436.5312500000,,,
0.5279999990,4,130294.0312500000,140380.6093750000,160725.6250000000,151162.2343750000,155598.2656250000,137593.8281250000,149067.6250000000,148442.6406250000,,,
0.5319999990,4,130237.1718750000,140310.1562500000,160671.3437500000,151090.4843750000,155595.0156250000,137560.7031250000,149035.0625000000,148436.9062500000,,,
0.5359999991,4,130119.3125000000,140189.8593750000,160570.9687500000,150953.7031250000,155528.1250000000,137418.0312500000,148899.3437500000,148413.2968750000,,,
0.5399999991,4,130104.4531250000,140165.7656250000,160557.0000000000,150935.9375000000,155474.4218750000,137409.7968750000,148875.2343750000,148388.6406250000,,,
0.5439999991,4,130210.5625000000,140283.3125000000,160606.8125000000,151058.5781250000,155526.1406250000,137518.8906250000,148983.5625000000,148420.5468750000,,,
0.5479999990,4,130281.0234375000,140381.5625000000,160702.1562500000,151141.7968750000,155575.5000000000,137579.0781250000,149073.4218750000,148445.8281250000,,,
0.5519999990,4,130229.0468750000,140327.9843750000,160665.4218750000,151078.4531250000,155572.0937500000,137523.3437500000,149021.0312500000,148453.2031250000,,,
0.5559999992,4,130126.6406250000,140204.7968750000,160595.2187500000,150948.0156250000,155508.6562500000,137429.2812500000,148911.3281250000,148432.4531250000,,,
0.5599999991,4,130129.9375000000,140191.8750000000,160602.8906250000,150947.0000000000,155490.0937500000,137432.6250000000,148928.1718750000,148415.9843750000,,,
0.5639999991,4,130239.5859375000,140305.2187500000,160662.4843750000,151106.0156250000,155563.0000000000,137536.0312500000,149017.2812500000,148435.1093750000,,,
0.5679999990,4,130327.0234375000,140407.5937500000,160755.0781250000,151181.9531250000,155595.9843750000,137608.6406250000,149089.1562500000,148465.0156250000,,,
0.5719999990,4,130263.3515625000,140348.9375000000,160711.6250000000,151084.7187500000,155591.9687500000,137556.6562500000,149038.8750000000,148477.4062500000,,,
0.5759999990,4,130144.7656250000,140213.5937500000,160597.7968750000,150950.2343750000,155539.4687500000,137444.4062500000,148944.1093750000,148435.1875000000,,,
0.5799999991,4,130125.8593750000,140175.5937500000,160571.3437500000,150956.8593750000,155512.6562500000,137428.0156250000,148910.4687500000,148411.5312500000,,,
0.5839999991,4,130225.1796875000,140300.6406250000,160656.1406250000,151089.0937500000,155549.3906250000,137504.7500000000,148991.4531250000,148429.1562500000,,,
0.5879999991,4,130312.4609375000,140374.4531250000,160753.0937500000,151135.0468750000,155558.1718750000,137594.3437500000,149095.5468750000,148446.6093750000,,,
0.5919999990,4,130262.1171875000,140291.5937500000,160698.8593750000,151076.3593750000,155566.5312500000,137556.3593750000,149044.8281250000,148456.9062500000,,,
0.5959999990,4,130153.8906250000,140191.6562500000,160588.6562500000,150945.0312500000,155527.0781250000,137456.5781250000,148939.7656250000,148433.1718750000,,,
0.5999999992,4,130128.1640625000,140171.2187500000,160563.2500000000,150924.5468750000,155491.5625000000,137417.0625000000,148914.2812500000,148391.4687500000,,,
0.6039999991,4,130227.3515625000,140295.6250000000,160647.0937500000,151048.6718750000,155502.5312500000,137513.9531250000,149003.7656250000,148413.5937500000,,,
0.6079999991,4,130313.9062500000,140396.5000000000,160747.2187500000,151143.6250000000,155547.1093750000,137601.6562500000,149096.4062500000,148466.5468750000,,,
0.6119999990,4,130256.9687500000,140333.8437500000,160702.2656250000,151081.6406250000,155563.0781250000,137547.7812500000,149038.1406250000,148491.9062500000,,,
0.6159999990,4,130134.7890625000,140192.1875000000,160579.9062500000,150947.8750000000,155520.7812500000,137428.2812500000,148922.8125000000,148437.5781250000,,,
0.6199999989,4,130103.5937500000,140160.0625000000,160539.0000000000,150905.0468750000,155476.7656250000,137391.5156250000,148891.9375000000,148378.9687500000,,,
0.6239999991,4,130190.2890625000,140247.1718750000,160590.9062500000,150998.0937500000,155480.7656250000,137477.4218750000,148972.0781250000,148407.5781250000,,,
0.6279999991,4,130276.8437500000,140333.4062500000,160690.9218750000,151109.7968750000,155534.6718750000,137566.2343750000,149045.1250000000,148428.7187500000,,,
0.6319999991,4,130227.1093750000,140286.1718750000,160675.0156250000,151060.9375000000,155548.7187500000,137521.5156250000,149000.3281250000,148427.6718750000,,,
0.6359999990,4,130114.3828125000,140173.2812500000,160588.6718750000,150927.8906250000,155482.2656250000,137416.1875000000,148886.5937500000,148417.1406250000,,,
0.6399999990,5,130080.1015625000,140140.8593750000,160548.0937500000,150890.7500000000,155443.8750000000,137371.9531250000,148870.3437500000,148369.3281250000,,,
0.6439999989,5,130162.2265625000,140225.4218750000,160625.0000000000,151004.0937500000,155460.7968750000,137452.6406250000,148954.5937500000,148363.2812500000,,,
0.6479999989,5,130241.1406250000,140308.0625000000,160689.7187500000,151082.8125000000,155519.7031250000,137525.7343750000,149014.9375000000,148405.4687500000,,,
0.6519999988,5,130191.3046875000,140248.1406250000,160618.9062500000,150998.5937500000,155531.6875000000,137476.5312500000,148971.0625000000,148412.1718750000,,,
0.6559999988,5,130070.8203125000,140139.2968750000,160506.9218750000,150889.3593750000,155507.1562500000,137378.1562500000,148845.7500000000,148382.5937500000,,,
0.6599999988,5,130053.3828125000,140137.0468750000,160459.9843750000,150873.9062500000,155486.1718750000,137354.2500000000,148812.7343750000,148354.5781250000,,,
0.6639999989,5,130168.0000000000,140253.0312500000,160581.2187500000,150980.8750000000,155472.9843750000,137455.4843750000,148934.2656250000,148367.7031250000,,,
0.6679999989,5,130249.5078125000,140341.8125000000,160678.6406250000,151105.2968750000,155532.2031250000,137533.0468750000,149022.7500000000,148439.2656250000,,,
0.6719999989,5,130217.4062500000,140300.8750000000,160663.5312500000,151070.9687500000,155562.9375000000,137514.7343750000,148998.0781250000,148447.7031250000,,,
0.6759999988,5,130116.5000000000,140178.0625000000,160556.5781250000,150969.5781250000,155550.6875000000,137423.3125000000,148902.6093750000,148409.8906250000,,,
0.6799999988,5,130092.4140625000,140154.1875000000,160542.9218750000,150948.6875000000,155518.7187500000,137402.9843750000,148859.2187500000,148380.9531250000,,,
0.6839999990,5,130194.3906250000,140276.8906250000,160647.0625000000,150979.0468750000,155514.7187500000,137505.5781250000,148984.8437500000,148410.6093750000,,,
0.6879999989,5,130284.4296875000,140365.4687500000,160740.7343750000,151075.2500000000,155536.4687500000,137576.3125000000,149089.9843750000,148458.5156250000,,,
0.6919999989,5,130247.5000000000,140314.5000000000,160715.0156250000,151050.9218750000,155573.3281250000,137544.0156250000,149058.6406250000,148444.3281250000,,,
0.6959999988,5,130134.6562500000,140205.8750000000,160614.3437500000,150933.3906250000,155528.7187500000,137445.2656250000,148939.7812500000,148414.7656250000,,,
0.6999999988,5,130090.3203125000,140157.8906250000,160539.0781250000,150899.9687500000,155507.5781250000,137389.1250000000,148882.8125000000,148366.8906250000,,,
0.7039999987,5,130197.6640625000,140251.6250000000,160640.0156250000,151025.3906250000,155524.9375000000,137488.8125000000,148968.0781250000,148377.2968750000,,,
0.7079999989,5,130294.1406250000,140373.8593750000,160745.3750000000,151130.4531250000,155562.7812500000,137590.0468750000,149072.3437500000,148435.2656250000,,,
0.7119999989,5,130253.1875000000,140340.7656250000,160713.1093750000,151088.8593750000,155581.7500000000,137554.6406250000,149035.5625000000,148460.5000000000,,,
0.7159999989,5,130127.7656250000,140208.7343750000,160598.9218750000,150947.3125000000,155558.4375000000,137429.2968750000,148921.9843750000,148421.5781250000,,,
0.7199999988,5,130094.3203125000,140169.5468750000,160551.8750000000,150901.0000000000,155506.2656250000,137399.4531250000,148884.5156250000,148373.0156250000,,,
0.7239999988,5,130203.1875000000,140283.3906250000,160635.2187500000,151014.0468750000,155521.4218750000,137505.0937500000,148982.8437500000,148404.7343750000,,,
0.7279999990,5,130315.3593750000,140410.3125000000,160737.7500000000,151141.6406250000,155588.6562500000,137615.6562500000,149091.9218750000,148478.6406250000,,,
0.7319999989,5,130280.8359375000,140374.3437500000,160727.6093750000,151101.9687500000,155591.4218750000,137577.5781250000,149079.1875000000,148483.8593750000,,,
0.7359999989,5,130151.6093750000,140220.0312500000,160621.4062500000,150962.4375000000,155540.9687500000,137452.1875000000,148954.8593750000,148425.1250000000,,,
0.7399999988,5,130109.0937500000,140172.1562500000,160569.1562500000,150924.8125000000,155503.7968750000,137414.5468750000,148903.9843750000,148378.7187500000,,,
0.7439999988,5,130208.8203125000,140281.2656250000,160641.9531250000,151052.2187500000,155531.0000000000,137511.2656250000,148986.4375000000,148389.1875000000,,,
0.7479999987,5,130312.9453125000,140389.3593750000,160742.7500000000,151160.2343750000,155575.7656250000,137615.6093750000,149094.9062500000,148452.0000000000,,,
0.7519999989,5,130283.0937500000,140346.6875000000,160714.9843750000,151101.4843750000,155592.5000000000,137594.3437500000,149070.2031250000,148485.1250000000,,,
0.7559999989,5,130159.2500000000,140210.6250000000,160611.8437500000,150958.8437500000,155521.6406250000,137466.4843750000,148958.6406250000,148437.9218750000,,,
0.7599999988,5,130120.3593750000,140167.9687500000,160590.9062500000,150936.1875000000,155470.5312500000,137415.5156250000,148917.2500000000,148406.8125000000,,,
0.7639999988,5,130215.8515625000,140295.4531250000,160697.0937500000,151048.2968750000,155522.3125000000,137508.0000000000,148997.2343750000,148426.3125000000,,,
0.7679999988,6,130317.7734375000,140405.1562500000,160765.9375000000,151159.0468750000,155563.3906250000,137607.2968750000,149094.3437500000,148453.7500000000,,,
0.7719999987,6,130292.2343750000,140374.5312500000,160717.6875000000,151147.0000000000,155599.9531250000,137589.6406250000,149070.6875000000,148492.5781250000,,,
0.7759999987,6,130175.1015625000,140252.9218750000,160609.7812500000,151002.5156250000,155574.7500000000,137482.8437500000,148947.5625000000,148479.8906250000,,,
0.7799999986,6,130109.2578125000,140193.1562500000,160569.1718750000,150930.0156250000,155500.3437500000,137422.0000000000,148887.8593750000,148400.2656250000,,,
0.7839999986,6,130207.9609375000,140289.5312500000,160637.8125000000,151080.9687500000,155534.9687500000,137508.1250000000,148976.3750000000,148407.7968750000,,,
0.7879999985,6,130333.8906250000,140411.8593750000,160753.5312500000,151223.0156250000,155611.5468750000,137630.1250000000,149102.7343750000,148485.2812500000,,,
0.7919999987,6,130288.5078125000,140370.2968750000,160720.0312500000,151061.4687500000,155560.7343750000,137595.8437500000,149067.6718750000,148493.2500000000,,,
0.7959999987,6,130161.3984375000,140234.0312500000,160616.4375000000,150914.5156250000,155501.8125000000,137480.7656250000,148956.4687500000,148442.2656250000,,,
0.7999999986,6,130123.2578125000,140200.6406250000,160582.4062500000,150892.1718750000,155456.6406250000,137445.0937500000,148910.7343750000,148408.7343750000,,,
0.8039999986,6,130223.4140625000,140315.6562500000,160667.5937500000,151010.3750000000,155470.7343750000,137532.8593750000,148994.9062500000,148430.4687500000,,,
0.8079999986,6,130325.5781250000,140400.4375000000,160762.5937500000,151137.4218750000,155554.0156250000,137627.7812500000,149110.6718750000,148477.4843750000,,,
0.8119999988,6,130296.0703125000,140359.1093750000,160745.4531250000,151097.9531250000,155574.5000000000,137595.6562500000,149090.3125000000,148496.4531250000,,,
0.8159999987,6,130172.9843750000,140236.4218750000,160630.8750000000,150967.9687500000,155522.5468750000,137490.5625000000,148973.0781250000,148447.3125000000,,,
0.8199999987,6,130135.4609375000,140198.5156250000,160599.4843750000,150923.9062500000,155478.1875000000,137450.8437500000,148929.5625000000,148405.4687500000,,,
0.8239999986,6,130222.0156250000,140302.4062500000,160680.3281250000,151033.0312500000,155498.6250000000,137526.7656250000,148987.4843750000,148412.4062500000,,,
0.8279999986,6,130324.8515625000,140409.3437500000,160748.7500000000,151152.2343750000,155565.6718750000,137632.5000000000,149079.1093750000,148465.3593750000,,,
0.8319999985,6,130302.6718750000,140377.1250000000,160729.6875000000,151116.3750000000,155585.7968750000,137609.4843750000,149067.3750000000,148498.6250000000,,,
0.8359999987,6,130181.0625000000,140241.4843750000,160617.7500000000,150988.5625000000,155535.3906250000,137485.7812500000,148947.4843750000,148471.6406250000,,,
0.8399999987,6,130142.6250000000,140202.2500000000,160571.3281250000,150970.7500000000,155489.1250000000,137451.0000000000,148905.6093750000,148452.2656250000,,,
0.8439999986,6,130238.7812500000,140307.8750000000,160675.5312500000,151093.6250000000,155531.3750000000,137538.7812500000,149003.6562500000,148451.1406250000,,,
0.8479999986,6,130344.1953125000,140406.6562500000,160763.7968750000,151205.0468750000,155597.6718750000,137635.4843750000,149099.4062500000,148494.1718750000,,,
0.8519999986,6,130310.2578125000,140373.0000000000,160740.1718750000,151121.2500000000,155590.8593750000,137603.7187500000,149062.0468750000,148513.0000000000,,,
0.8559999987,6,130174.8671875000,140240.2500000000,160650.3750000000,150952.8906250000,155514.9843750000,137472.4843750000,148960.8750000000,148450.3125000000,,,
0.8599999987,6,130125.3203125000,140179.2656250000,160616.2187500000,150882.0625000000,155444.3906250000,137421.6250000000,148912.8125000000,148393.7500000000,,,
0.8639999987,6,130220.4375000000,140275.6406250000,160670.1406250000,150995.2500000000,155494.2187500000,137507.9687500000,148972.8593750000,148400.9062500000,,,
0.8679999986,6,130324.0781250000,140381.6406250000,160731.5312500000,151180.2343750000,155622.8125000000,137603.3281250000,149061.9062500000,148447.4375000000,,,
0.8719999986,6,130299.0234375000,140348.8281250000,160703.2031250000,151136.1406250000,155645.9531250000,137584.3906250000,149051.3437500000,148461.9062500000,,,
0.8759999985,6,130175.3750000000,140222.9062500000,160610.5625000000,150941.8906250000,155563.7500000000,137478.7656250000,148936.7343750000,148441.0625000000,,,
0.8799999987,6,130129.1015625000,140151.9843750000,160582.9062500000,150894.6406250000,155513.2343750000,137434.3750000000,148897.9218750000,148394.9218750000,,,
0.8839999987,6,130223.8906250000,140267.7031250000,160641.8906250000,151017.5312500000,155535.9375000000,137517.7656250000,148986.0781250000,148396.0468750000,,,
0.8879999986,6,130340.0078125000,140407.8125000000,160749.9531250000,151154.3281250000,155603.6093750000,137622.1562500000,149095.6562500000,148455.1875000000,,,
0.8919999986,6,130313.5078125000,140387.2968750000,160750.4218750000,151102.5312500000,155637.7812500000,137602.8906250000,149077.8125000000,148489.5468750000,,,
0.8959999986,7,130177.0859375000,140234.5625000000,160626.9062500000,150944.5781250000,155587.8125000000,137483.6406250000,148950.6562500000,148429.6875000000,,,
0.8999999985,7,130119.6640625000,140174.6562500000,160580.2343750000,150897.0156250000,155547.6562500000,137421.2031250000,148911.4687500000,148374.8593750000,,,
0.9039999985,7,130209.2734375000,140265.5781250000,160636.1562500000,150986.7187500000,155554.4062500000,137500.9218750000,148986.2968750000,148376.6875000000,,,
0.9079999984,7,130327.4531250000,140386.5781250000,160752.7500000000,151120.1562500000,155601.0312500000,137620.2968750000,149079.0156250000,148448.1718750000,,,
0.9119999984,7,130305.9687500000,140366.8281250000,160757.7656250000,151086.2812500000,155583.4843750000,137603.6250000000,149070.8750000000,148473.9687500000,,,
0.9159999983,7,130173.8203125000,140239.9687500000,160619.3906250000,150961.2656250000,155554.4375000000,137481.0156250000,148957.5156250000,148430.0937500000,,,
0.9199999985,7,130123.1484375000,140193.8281250000,160576.6093750000,150946.7812500000,155524.3125000000,137440.6406250000,148898.1406250000,148393.3125000000,,,
0.9239999985,7,130220.3828125000,140287.1406250000,160648.2031250000,151021.3750000000,155534.1406250000,137527.0468750000,148970.4687500000,148394.1406250000,,,
0.9279999984,7,130320.1875000000,140371.8437500000,160716.5312500000,151101.3750000000,155571.8437500000,137608.0937500000,149062.3906250000,148436.4218750000,,,
0.9319999984,7,130284.7812500000,140343.4687500000,160709.4062500000,151083.2031250000,155587.3437500000,137582.4843750000,149035.0625000000,148474.7500000000,,,
0.9359999984,7,130166.8437500000,140211.4218750000,160610.1406250000,150985.7968750000,155556.7187500000,137479.3437500000,148925.8125000000,148443.1562500000,,,
0.9399999985,7,130115.3750000000,140145.5468750000,160564.5937500000,150949.0781250000,155505.7343750000,137427.2968750000,148870.0781250000,148417.9687500000,,,
0.9439999985,7,130196.6953125000,140252.1875000000,160639.5625000000,150956.4062500000,155493.1250000000,137498.4687500000,148962.3437500000,148366.4687500000,,,
0.9479999985,7,130308.1953125000,140383.9375000000,160714.7343750000,151074.2656250000,155557.1718750000,137601.9218750000,149048.8437500000,148418.7343750000,,,
0.9519999984,7,130286.8750000000,140359.8281250000,160709.1093750000,151067.4218750000,155578.5312500000,137586.6406250000,149020.2031250000,148463.9687500000,,,
0.9559999984,7,130173.2812500000,140249.1406250000,160656.9375000000,150966.8437500000,155547.2187500000,137489.0000000000,148948.2031250000,148468.1250000000,,,
0.9599999983,7,130113.1484375000,140185.9687500000,160584.3906250000,150886.8593750000,155482.5312500000,137431.9843750000,148894.0625000000,148397.9531250000,,,
0.9639999985,7,130198.0937500000,140273.3593750000,160633.0937500000,150981.7812500000,155501.2031250000,137509.9218750000,148962.2187500000,148393.1562500000,,,
0.9679999985,7,130313.1562500000,140386.0625000000,160718.3125000000,151115.1093750000,155575.5781250000,137611.3437500000,149070.7812500000,148446.0937500000,,,
0.9719999984,7,130294.4609375000,140368.4062500000,160697.7031250000,151096.0625000000,155597.7343750000,137598.2812500000,149044.5312500000,148490.3281250000,,,
0.9759999984,7,130172.6640625000,140244.1250000000,160605.9531250000,150966.1093750000,155543.8125000000,137486.4843750000,148933.5156250000,148458.1093750000,,,
0.9799999984,7,130111.8046875000,140171.5156250000,160564.6406250000,150895.7031250000,155491.4531250000,137427.1093750000,148871.2343750000,148401.7656250000,,,
0.9839999985,7,130203.9375000000,140259.5468750000,160632.7187500000,150996.1093750000,155520.2343750000,137503.1406250000,148936.7812500000,148400.8593750000,,,
0.9879999985,7,130315.0859375000,140380.9687500000,160746.1250000000,151120.4531250000,155571.7187500000,137605.7656250000,149052.9531250000,148438.1562500000,,,
0.9919999985,7,130294.3281250000,140362.8593750000,160755.0000000000,151102.1093750000,155593.7656250000,137595.0156250000,149044.0156250000,148464.3593750000,,,
0.9959999984,7,130152.3359375000,140219.4375000000,160615.0625000000,150971.3281250000,155557.5781250000,137458.5937500000,148909.9375000000,148446.9843750000,,,
0.9999999984,7,130120.1171875000,140163.7343750000,160565.2812500000,150961.8750000000,155524.2343750000,137422.2812500000,148887.8125000000,148428.0000000000,,,
1.0039999983,7,130208.6328125000,140266.4843750000,160643.9375000000,151038.5625000000,155513.6093750000,137501.1875000000,148954.2656250000,148415.3281250000,,,
1.0079999985,7,130318.3906250000,140382.6250000000,160741.2187500000,151112.5937500000,155578.9531250000,137601.7187500000,149050.0781250000,148432.0156250000,,,
1.0119999985,7,130300.5000000000,140355.4375000000,160741.3750000000,151093.3125000000,155633.9687500000,137586.5781250000,149049.6718750000,148451.5156250000,,,
1.0159999984,7,130184.7343750000,140240.2031250000,160626.7656250000,150979.3906250000,155585.7968750000,137482.3593750000,148952.9531250000,148437.0625000000,,,
1.0199999984,7,130145.1718750000,140200.7812500000,160586.6093750000,150961.9531250000,155557.2500000000,137444.4062500000,148923.7187500000,148405.4062500000,,,
1.0239999983,8,130237.1718750000,140298.4843750000,160665.6250000000,151074.2031250000,155565.0000000000,137523.3437500000,148980.2031250000,148416.5937500000,,,
1.0279999983,8,130341.1640625000,140402.5000000000,160751.6718750000,151160.1250000000,155605.7968750000,137618.5000000000,149057.7031250000,148485.3125000000,,,
1.0319999983,8,130316.9140625000,140363.3437500000,160739.2343750000,151084.4531250000,155581.4531250000,137597.8750000000,149042.2500000000,148470.5312500000,,,
1.0359999982,8,130196.6718750000,140262.3281250000,160645.9375000000,150931.3750000000,155546.3125000000,137489.9218750000,148956.9843750000,148429.9218750000,,,
1.0399999982,8,130142.9687500000,140209.2187500000,160599.8593750000,150879.1406250000,155504.0156250000,137442.4375000000,148919.3281250000,148392.7031250000,,,
1.0439999981,8,130236.3671875000,140290.6250000000,160678.7187500000,150992.1562500000,155508.2031250000,137525.5625000000,148996.7031250000,148403.9062500000,,,
1.0479999983,8,130346.8750000000,140403.0937500000,160778.5468750000,151128.0468750000,155574.3906250000,137627.8593750000,149075.8281250000,148457.9843750000,,,
1.0519999983,8,130331.4531250000,140388.4531250000,160744.9375000000,151113.4218750000,155605.8906250000,137630.1718750000,149071.5312500000,148492.3750000000,,,
1.0559999982,8,130204.7421875000,140260.9687500000,160629.2812500000,150968.5312500000,155559.5312500000,137520.2031250000,148958.8125000000,148462.2500000000,,,
1.0599999982,8,130149.6796875000,140199.1875000000,160601.6875000000,150905.1718750000,155511.1406250000,137459.2812500000,148923.9375000000,148417.8593750000,,,
1.0639999982,8,130239.1562500000,140271.1562500000,160654.5312500000,151021.9062500000,155523.2500000000,137538.1406250000,148989.8593750000,148428.5781250000,,,
1.0679999983,8,130350.1171875000,140379.8906250000,160747.2500000000,151128.6875000000,155562.3750000000,137637.1406250000,149074.0000000000,148456.3750000000,,,
1.0719999983,8,130340.1953125000,140379.4375000000,160760.1718750000,151108.8593750000,155580.4531250000,137627.2187500000,149076.1562500000,148478.1562500000,,,
1.0759999983,8,130223.4687500000,140265.1718750000,160677.6406250000,150973.3281250000,155541.7031250000,137527.2343750000,148989.9218750000,148457.8437500000,,,
1.0799999982,8,130152.3593750000,140195.8437500000,160586.6718750000,150894.2812500000,155497.8906250000,137461.5625000000,148913.7968750000,148400.3750000000,,,
1.0839999982,8,130240.6875000000,140289.3906250000,160651.1406250000,151025.4687500000,155523.4531250000,137542.6718750000,148982.0625000000,148427.6718750000,33029,1.0843099582,0.0000000000
1.0879999981,8,130360.2343750000,140409.1250000000,160754.5468750000,151179.7343750000,155585.8750000000,137649.0000000000,149087.9218750000,148480.9218750000,,,
1.0919999983,8,130337.7031250000,140374.2812500000,160746.5468750000,151100.8125000000,155590.4843750000,137630.5000000000,149072.9843750000,148487.8281250000,,,
1.0959999983,8,130219.6562500000,140251.5000000000,160649.8125000000,150965.2656250000,155549.0156250000,137528.8906250000,148973.4218750000,148451.0937500000,,,
1.0999999982,8,130164.6953125000,140208.6093750000,160596.6406250000,150951.2343750000,155512.0625000000,137477.0937500000,148925.3593750000,148397.3593750000,,,
1.1039999982,8,130243.5000000000,140293.9843750000,160678.8593750000,151003.9062500000,155495.0312500000,137546.3593750000,148991.7968750000,148383.1562500000,,,
1.1079999981,8,130362.6171875000,140420.4218750000,160785.5312500000,151103.4687500000,155542.5312500000,137661.0781250000,149110.7500000000,148455.5625000000,,,
1.1119999983,8,130346.8437500000,140410.0625000000,160764.4218750000,151091.2968750000,155593.2500000000,137650.5625000000,149095.2187500000,148489.6093750000,,,
1.1159999983,8,130216.5156250000,140272.6562500000,160654.3125000000,150973.8750000000,155558.6718750000,137531.5000000000,148970.7968750000,148453.8281250000,,,
1.1199999982,8,130151.8515625000,140201.2812500000,160592.9375000000,150914.6250000000,155507.9218750000,137469.5937500000,148920.0468750000,148393.5781250000,,,
1.1239999982,8,130232.2343750000,140281.9843750000,160657.9843750000,150991.5781250000,155492.5937500000,137539.8281250000,148992.2812500000,148398.5468750000,,,
1.1279999982,8,130348.8828125000,140378.6875000000,160761.9687500000,151124.8750000000,155546.3125000000,137653.7500000000,149088.8906250000,148459.4531250000,,,
1.1319999981,8,130333.5468750000,140369.9687500000,160752.8281250000,151106.7968750000,155571.2031250000,137633.7656250000,149075.2343750000,148473.5937500000,,,
1.1359999983,8,130201.6328125000,140258.3125000000,160644.1250000000,150967.0312500000,155530.6250000000,137498.9375000000,148960.0937500000,148449.0000000000,,,
1.1399999983,8,130122.9375000000,140175.7031250000,160556.5937500000,150912.7968750000,155489.7656250000,137433.1093750000,148873.3750000000,148378.1562500000,,,
1.1439999982,8,130211.8515625000,140254.0156250000,160620.3593750000,150991.0625000000,155488.9687500000,137514.5625000000,148950.0000000000,148373.3281250000,,,
1.1479999982,8,130352.8515625000,140395.9375000000,160758.9218750000,151114.0156250000,155542.8750000000,137647.2343750000,149108.1718750000,148450.5781250000,,,
1.1519999981,9,130361.5703125000,140412.0468750000,160775.3281250000,151157.8125000000,155614.8750000000,137656.5937500000,149106.6250000000,148508.9375000000,,,
1.1559999981,9,130226.2812500000,140267.2656250000,160658.9531250000,150996.2187500000,155571.4375000000,137533.1562500000,148955.0468750000,148451.3281250000,,,
1.1599999981,9,130151.7421875000,140182.6718750000,160593.7656250000,150880.2656250000,155495.3281250000,137462.3750000000,148904.8906250000,148387.1406250000,,,
1.1639999980,9,130225.5859375000,140258.5156250000,160658.6875000000,150965.0468750000,155484.7812500000,137526.5000000000,148962.1093750000,148387.8437500000,,,
1.1679999980,9,130347.8359375000,140368.1406250000,160759.4843750000,151112.4062500000,155558.1875000000,137634.0625000000,149070.7343750000,148437.0625000000,,,
1.1719999979,9,130343.3359375000,140369.0000000000,160753.9062500000,151120.0468750000,155623.0468750000,137636.0156250000,149069.6562500000,148469.3750000000,,,
1.1759999981,9,130230.8125000000,140266.9687500000,160663.2500000000,150980.5156250000,155588.4218750000,137531.3906250000,148969.7187500000,148445.5625000000,,,
1.1799999981,9,130150.4531250000,140190.7500000000,160597.3906250000,150887.7968750000,155522.3125000000,137450.2968750000,148907.0312500000,148396.4062500000,,,
1.1839999980,9,130236.3359375000,140271.9531250000,160662.4375000000,151008.3906250000,155547.3281250000,137523.9531250000,148978.5781250000,148415.6562500000,,,
1.1879999980,9,130360.0156250000,140402.1562500000,160756.9531250000,151136.4375000000,155587.8281250000,137640.6875000000,149085.0000000000,148471.6406250000,,,
1.1919999979,9,130358.1093750000,140391.7812500000,160776.4375000000,151141.1562500000,155603.8125000000,137646.2656250000,149081.2812500000,148527.5312500000,,,
1.1959999981,9,130234.6484375000,140261.7343750000,160690.4062500000,151006.9062500000,155589.7968750000,137537.2812500000,148982.1718750000,148485.7968750000,,,
1.1999999981,9,130149.8906250000,140192.2187500000,160617.4843750000,150897.0156250000,155531.7812500000,137460.0625000000,148898.8281250000,148408.2031250000,,,
1.2039999980,9,130219.6015625000,140266.4375000000,160671.4218750000,150960.4843750000,155528.2656250000,137522.4218750000,148962.4218750000,148373.7343750000,,,
1.2079999980,9,130353.6328125000,140397.1093750000,160764.7656250000,151138.9375000000,155626.5937500000,137646.5000000000,149075.2656250000,148447.1718750000,,,
1.2119999980,9,130372.5156250000,140425.9531250000,160782.3125000000,151182.0937500000,155691.3125000000,137672.0468750000,149093.3125000000,148505.5156250000,,,
1.2159999979,9,130260.1875000000,140304.6562500000,160707.6562500000,151035.9687500000,155646.5468750000,137566.0625000000,149005.0937500000,148473.2656250000,,,
1.2199999981,9,130175.9921875000,140206.7812500000,160630.9218750000,150900.0468750000,155555.8125000000,137484.1250000000,148932.1093750000,148421.1562500000,,,
1.2239999981,9,130245.1406250000,140279.6875000000,160675.0156250000,150984.6250000000,155552.2187500000,137538.5781250000,148980.7968750000,148410.7812500000,,,
1.2279999980,9,130371.0156250000,140401.4375000000,160771.3281250000,151126.2968750000,155620.2031250000,137650.3750000000,149090.5781250000,148450.8750000000,,,
1.2319999980,9,130370.0468750000,140404.0625000000,160780.0468750000,151125.0312500000,155626.4218750000,137655.9218750000,149096.7187500000,148492.0468750000,,,
1.2359999979,9,130254.9296875000,140278.1875000000,160699.3125000000,150986.8437500000,155579.9531250000,137556.7343750000,148996.8906250000,148472.0937500000,,,
1.2399999981,9,130178.2968750000,140192.0312500000,160606.4843750000,150920.7812500000,155539.9843750000,137476.7500000000,148918.5781250000,148430.0625000000,,,
1.2439999981,9,130247.3359375000,140271.5312500000,160649.0781250000,151003.4531250000,155545.2656250000,137534.0937500000,148974.0937500000,148395.2968750000,,,
1.2479999980,9,130385.2812500000,140408.6406250000,160776.8906250000,151140.7500000000,155589.6875000000,137662.6875000000,149095.5937500000,148452.2187500000,,,
1.2519999980,9,130381.0703125000,140400.8750000000,160778.0937500000,151128.2500000000,155610.6250000000,137663.1875000000,149096.0781250000,148500.1406250000,,,
1.2559999980,9,130245.1406250000,140270.2500000000,160675.8281250000,150984.6250000000,155575.6250000000,137536.1562500000,148972.7812500000,148448.0312500000,,,
1.2599999979,9,130164.0312500000,140176.0937500000,160595.7031250000,150912.0468750000,155524.0468750000,137456.0468750000,148901.5937500000,148367.9687500000,,,
1.2639999981,9,130234.1171875000,140254.4531250000,160652.0312500000,150993.3437500000,155508.0312500000,137515.4218750000,148970.4218750000,148368.4531250000,,,
1.2679999981,9,130353.7656250000,140376.4531250000,160761.2968750000,151131.0937500000,155564.7343750000,137624.5468750000,149084.3906250000,148431.6093750000,,,
1.2719999980,9,130348.9375000000,140363.4531250000,160778.9531250000,151104.0312500000,155547.8437500000,137618.3437500000,149076.1562500000,148460.1093750000,,,
1.2759999980,9,130226.6015625000,140236.0781250000,160685.3906250000,150961.1250000000,155528.8750000000,137511.2968750000,148951.8593750000,148435.9843750000,,,
1.2799999979,10,130178.3750000000,140184.2187500000,160627.0625000000,150916.7343750000,155532.5000000000,137466.7187500000,148916.2187500000,148429.3125000000,,,
1.2839999979,10,130268.7656250000,140288.9062500000,160685.1093750000,151050.2031250000,155558.0625000000,137525.8593750000,148995.4218750000,148432.5781250000,,,
1.2879999978,10,130374.1796875000,140408.9062500000,160751.7500000000,151195.4687500000,155626.4531250000,137632.7187500000,149081.7812500000,148450.7968750000,,,
1.2919999978,10,130360.0937500000,140408.5312500000,160745.0468750000,151124.0156250000,155630.7812500000,137638.5468750000,149070.9687500000,148473.5937500000,,,
1.2959999978,10,130226.6875000000,140272.8125000000,160647.2500000000,150969.3593750000,155557.0156250000,137518.7031250000,148957.0312500000,148451.7343750000,,,
1.2999999977,10,130159.2812500000,140197.0000000000,160593.6875000000,150939.0781250000,155526.8125000000,137451.1562500000,148899.9843750000,148396.8750000000,,,
1.3039999979,10,130222.5781250000,140260.3750000000,160624.6718750000,150978.1562500000,155535.9843750000,137505.0156250000,148943.2500000000,148375.9843750000,,,
1.3079999979,10,130342.5312500000,140380.2968750000,160735.9375000000,151092.7656250000,155589.6875000000,137614.9062500000,149051.1562500000,148421.5781250000,,,
1.3119999978,10,130350.1718750000,140389.8750000000,160737.4531250000,151085.8437500000,155602.1875000000,137623.7812500000,149063.4687500000,148473.7812500000,,,
1.3159999978,10,130235.5625000000,140281.1093750000,160666.8125000000,150966.5156250000,155558.4062500000,137520.4218750000,148970.1562500000,148475.6093750000,,,
1.3199999977,10,130162.3671875000,140188.7031250000,160634.7031250000,150903.5937500000,155496.2812500000,137448.8593750000,148907.8437500000,148439.8437500000,,,
1.3239999979,10,130221.2109375000,140229.7968750000,160664.8593750000,150970.6562500000,155503.2031250000,137498.2656250000,148940.4531250000,148379.6562500000,,,
1.3279999979,10,130332.8750000000,140351.6562500000,160735.9062500000,151105.8906250000,155575.5468750000,137603.8125000000,149042.2812500000,148399.4843750000,,,
1.3319999978,10,130334.9375000000,140348.6250000000,160727.0781250000,151116.0468750000,155620.3906250000,137610.2656250000,149038.1250000000,148431.0781250000,,,
1.3359999978,10,130209.9453125000,140244.2500000000,160640.2812500000,150946.5937500000,155552.7968750000,137491.7656250000,148939.3593750000,148409.1406250000,,,
1.3399999978,10,130129.1328125000,140167.5937500000,160570.5937500000,150849.5468750000,155490.7031250000,137418.2187500000,148872.7031250000,148354.8750000000,,,
1.3439999977,10,130210.3515625000,140245.6718750000,160628.5156250000,150955.0156250000,155515.5000000000,137495.9062500000,148936.8125000000,148367.4531250000,,,
1.3479999979,10,130337.5625000000,140376.8593750000,160750.5156250000,151105.9687500000,155571.7968750000,137613.7343750000,149054.1250000000,148429.2500000000,,,
1.3519999979,10,130345.0234375000,140394.9687500000,160757.8125000000,151106.7968750000,155602.8281250000,137629.2031250000,149053.3593750000,148479.8750000000,,,
1.3559999978,10,130236.3671875000,140286.7187500000,160665.3125000000,150978.7187500000,155566.2343750000,137524.8125000000,148965.9062500000,148484.5312500000,,,
1.3599999978,10,130169.9531250000,140216.0937500000,160611.9843750000,150914.5937500000,155515.8437500000,137457.2500000000,148906.0468750000,148438.8593750000,,,
1.3639999977,10,130241.6796875000,140272.0937500000,160656.2656250000,151031.0312500000,155523.3750000000,137516.7968750000,148964.2968750000,148398.7031250000,,,
1.3679999979,10,130370.0234375000,140383.7031250000,160765.8593750000,151152.7656250000,155572.3281250000,137631.9218750000,149076.2656250000,148443.4531250000,,,
1.3719999979,10,130372.8359375000,140387.7187500000,160784.2968750000,151108.4062500000,155583.1875000000,137639.0781250000,149077.7812500000,148486.1718750000,,,
1.3759999978,10,130255.6015625000,140290.7656250000,160687.3750000000,150981.2500000000,155575.5937500000,137542.7656250000,148958.5312500000,148468.7656250000,,,
1.3799999978,10,130158.4218750000,140187.3125000000,160571.7500000000,150873.8437500000,155525.5468750000,137453.8906250000,148865.0625000000,148385.6718750000,,,
1.3839999977,10,130230.5468750000,140257.4531250000,160618.9062500000,150953.1562500000,155531.7500000000,137503.1718750000,148942.1562500000,148372.2656250000,,,
1.3879999977,10,130356.2890625000,140390.9218750000,160742.2343750000,151104.1406250000,155593.9531250000,137632.0156250000,149049.7343750000,148428.7968750000,,,
1.3919999979,10,130376.0546875000,140406.8437500000,160773.6718750000,151120.5312500000,155630.3125000000,137654.4531250000,149072.9062500000,148476.7656250000,,,
1.3959999979,10,130271.8515625000,140295.0468750000,160694.0625000000,150995.4843750000,155598.8593750000,137559.5781250000,148987.4843750000,148464.2656250000,,,
1.3999999978,10,130203.1640625000,140209.3281250000,160642.8281250000,150924.2968750000,155544.2187500000,137495.9531250000,148933.0000000000,148427.5156250000,,,
1.4039999978,10,130281.8281250000,140304.5468750000,160698.0781250000,151002.8437500000,155536.4687500000,137564.1562500000,149001.4062500000,148437.3906250000,,,
1.4079999977,11,130414.1718750000,140443.7812500000,160807.1093750000,151134.7500000000,155575.6875000000,137683.5468750000,149131.1875000000,148489.3593750000,,,
1.4119999977,11,130419.8046875000,140441.2656250000,160808.6718750000,151151.2968750000,155656.6093750000,137702.5312500000,149116.8906250000,148505.0312500000,,,
1.4159999976,11,130288.6718750000,140309.5156250000,160693.3906250000,151031.4062500000,155631.0937500000,137578.5156250000,148993.2656250000,148459.5156250000,,,
1.4199999976,11,130197.3437500000,140207.8750000000,160603.4062500000,150929.4531250000,155552.5937500000,137489.0937500000,148922.5156250000,148402.2187500000,,,
1.4239999976,11,130281.0000000000,140276.1718750000,160654.9843750000,151018.2343750000,155567.2343750000,137570.0937500000,148999.2500000000,148398.3906250000,,,
1.4279999975,11,130416.6953125000,140395.7656250000,160783.1718750000,151136.4843750000,155629.7031250000,137694.7812500000,149124.0781250000,148446.4218750000,,,
1.4319999977,11,130432.9218750000,140419.1406250000,160801.6406250000,151114.9843750000,155637.4062500000,137712.5625000000,149133.3125000000,148489.4218750000,,,
1.4359999977,11,130320.3437500000,140312.6250000000,160699.3125000000,150993.5312500000,155595.4687500000,137614.0312500000,149041.6093750000,148465.3125000000,,,
1.4399999976,11,130251.2500000000,140234.4687500000,160628.8906250000,150913.3906250000,155541.4062500000,137550.6250000000,148988.6875000000,148417.7187500000,,,
1.4439999976,11,130325.5234375000,140303.7968750000,160672.9062500000,150992.6093750000,155549.1875000000,137616.6875000000,149034.4218750000,148412.4062500000,,,
1.4479999975,11,130453.8906250000,140432.4062500000,160766.2187500000,151099.8281250000,155586.0312500000,137735.9843750000,149142.4062500000,148447.2031250000,,,
1.4519999977,11,130486.5078125000,140461.0000000000,160803.6875000000,151084.4062500000,155605.3437500000,137759.8593750000,149182.4531250000,148503.7343750000,,,
1.4559999977,11,130405.6171875000,140341.6250000000,160753.3906250000,150986.0781250000,155574.2656250000,137684.5625000000,149133.5781250000,148522.8125000000,,,
1.4599999976,11,130320.2421875000,140238.2656250000,160669.9531250000,150909.6562500000,155537.7343750000,137601.0156250000,149048.5000000000,148427.1875000000,,,
1.4639999976,11,130379.4609375000,140301.6250000000,160693.2031250000,150983.0625000000,155543.3906250000,137654.7187500000,149085.5937500000,148406.3437500000,,,
1.4679999975,11,130506.8906250000,140437.6406250000,160801.8593750000,151128.9218750000,155602.9843750000,137773.2343750000,149194.9218750000,148457.0468750000,,,
1.4719999975,11,130526.2343750000,140476.9687500000,160829.4062500000,151149.6406250000,155644.9843750000,137797.8906250000,149205.5156250000,148502.2187500000,,,
1.4759999977,11,130411.6796875000,140363.6875000000,160742.6406250000,151019.0156250000,155604.5937500000,137692.7500000000,149117.7187500000,148495.9687500000,,,
1.4799999977,11,130332.3125000000,140276.4687500000,160676.6875000000,150933.9062500000,155558.5625000000,137622.4531250000,149054.4531250000,148444.6250000000,,,
1.4839999976,11,130388.3437500000,140342.3437500000,160705.1875000000,150991.8125000000,155563.0468750000,137671.9375000000,149078.6406250000,148450.3125000000,,,
1.4879999976,11,130515.9843750000,140470.6562500000,160812.9687500000,151138.2812500000,155626.1562500000,137784.5937500000,149185.5781250000,148486.6875000000,,,
1.4919999975,11,130539.5078125000,140484.3437500000,160839.7812500000,151161.7500000000,155678.9531250000,137813.8750000000,149231.3125000000,148508.2500000000,,,
1.4959999977,11,130405.7500000000,140343.4218750000,160734.4843750000,151023.1406250000,155625.0000000000,137684.3593750000,149122.3437500000,148481.2968750000,,,
1.4999999977,11,130320.9609375000,140265.5156250000,160675.8750000000,150943.6875000000,155559.7968750000,137604.7968750000,149028.3593750000,148450.2656250000,,,
1.5039999976,11,130380.8046875000,140299.6406250000,160706.2968750000,151017.4843750000,155553.9531250000,137649.7500000000,149084.6562500000,148439.0468750000,,,
1.5079999976,11,130491.0390625000,140412.2656250000,160789.1718750000,151150.8125000000,155619.2343750000,137750.5468750000,149180.2812500000,148463.3437500000,,,
1.5119999975,11,130495.5234375000,140448.8593750000,160822.4843750000,151173.2968750000,155662.8593750000,137756.5625000000,149183.2031250000,148510.0781250000,,,
1.5159999975,11,130370.6093750000,140333.7031250000,160735.0156250000,151034.2656250000,155614.7656250000,137641.4375000000,149082.3281250000,148479.8125000000,,,
1.5199999977,11,130265.4921875000,140235.8906250000,160635.7187500000,150916.3906250000,155539.7187500000,137543.0312500000,148991.6875000000,148422.8437500000,,,
1.5239999976,11,130316.7812500000,140291.1875000000,160665.5000000000,150996.2968750000,155549.9843750000,137584.9531250000,149027.9843750000,148415.8750000000,,,
1.5279999976,11,130444.4765625000,140419.7812500000,160772.9375000000,151123.2968750000,155621.9531250000,137702.4062500000,149126.9218750000,148449.4843750000,,,
1.5319999976,11,130469.1796875000,140449.2500000000,160808.9062500000,151145.1875000000,155649.7968750000,137733.9687500000,149152.2968750000,148502.2656250000,,,
1.5359999975,12,130350.9765625000,140335.5000000000,160719.7500000000,150995.3750000000,155582.5781250000,137623.2812500000,149056.4062500000,148485.9531250000,,,
1.5399999975,12,130251.8437500000,140238.8281250000,160625.2656250000,150886.2187500000,155533.2812500000,137531.8750000000,148965.5625000000,148423.7812500000,,,
1.5439999974,12,130299.1328125000,140291.7031250000,160658.4687500000,150953.0781250000,155535.6562500000,137570.9531250000,148998.9062500000,148405.5781250000,,,
1.5479999974,12,130425.4375000000,140425.1718750000,160770.5625000000,151103.9531250000,155607.5156250000,137687.0312500000,149104.6406250000,148464.3593750000,,,
1.5519999973,12,130453.7343750000,140456.2031250000,160822.5312500000,151153.4375000000,155639.2812500000,137717.1562500000,149139.1093750000,148516.0312500000,,,
1.5559999973,12,130355.6171875000,140350.0468750000,160762.2500000000,151060.5000000000,155604.8125000000,137628.9062500000,149064.4843750000,148523.6406250000,,,
1.5599999975,12,130261.4218750000,140261.5468750000,160679.2812500000,150946.6250000000,155545.6406250000,137538.7031250000,148974.3125000000,148477.0000000000,,,
1.5639999975,12,130300.0937500000,140307.3437500000,160690.1718750000,150979.7968750000,155559.1250000000,137572.3125000000,148996.7031250000,148456.2656250000,,,
1.5679999974,12,130404.0312500000,140415.1406250000,160769.6406250000,151124.7187500000,155617.4687500000,137662.0156250000,149084.4062500000,148446.9375000000,,,
1.5719999974,12,130420.2343750000,140437.9687500000,160788.0781250000,151149.4531250000,155658.2968750000,137678.7500000000,149100.9062500000,148483.9687500000,,,
1.5759999973,12,130301.4609375000,140308.0937500000,160701.7031250000,151012.2031250000,155618.3750000000,137570.5781250000,149008.6406250000,148473.2656250000,,,
1.5799999975,12,130198.8437500000,140216.0312500000,160618.9843750000,150911.2656250000,155548.2656250000,137477.0156250000,148922.8593750000,148416.8593750000,,,
1.5839999975,12,130255.0625000000,140280.8593750000,160671.7656250000,150973.6562500000,155521.6875000000,137529.9843750000,148960.5468750000,148411.7343750000,,,
1.5879999974,12,130388.4765625000,140411.3593750000,160776.0000000000,151118.5937500000,155586.8906250000,137649.8906250000,149071.8281250000,148468.0156250000,,,
1.5919999974,12,130411.2968750000,140427.9531250000,160799.0625000000,151138.5781250000,155642.6562500000,137671.0781250000,149088.9531250000,148497.5781250000,,,
1.5959999973,12,130305.4843750000,140319.6718750000,160711.0156250000,151013.0625000000,155611.7812500000,137576.8281250000,149002.0468750000,148477.1406250000,,,
1.5999999973,12,130230.4687500000,140244.4062500000,160636.9531250000,150930.3125000000,155560.6875000000,137509.3125000000,148944.4531250000,148438.7812500000,,,
1.6039999975,12,130285.5312500000,140299.0000000000,160663.0312500000,150990.8437500000,155552.0000000000,137557.4843750000,148982.5156250000,148430.7812500000,,,
1.6079999974,12,130411.2968750000,140422.0000000000,160768.5000000000,151121.1562500000,155606.7968750000,137671.4531250000,149085.4843750000,148461.7343750000,,,
1.6119999974,12,130438.0937500000,140451.0312500000,160801.9062500000,151144.0000000000,155642.7968750000,137698.4843750000,149113.0781250000,148508.7343750000,,,
1.6159999974,12,130340.7031250000,140353.7968750000,160741.8593750000,151018.3593750000,155597.9375000000,137613.4062500000,149039.7500000000,148506.7968750000,,,
1.6199999973,12,130254.4687500000,140264.6406250000,160657.9531250000,150918.4531250000,155550.7656250000,137534.8437500000,148965.8281250000,148445.4843750000,,,
1.6239999975,12,130308.8671875000,140314.5781250000,160679.8437500000,150989.9687500000,155556.7968750000,137581.5937500000,149012.1562500000,148430.0000000000,,,
1.6279999975,12,130436.0859375000,140442.5156250000,160774.6875000000,151125.3593750000,155618.7500000000,137703.9062500000,149110.1406250000,148488.9687500000,,,
1.6319999974,12,130466.9296875000,140471.3593750000,160814.2031250000,151162.5156250000,155661.3437500000,137735.0937500000,149150.9843750000,148533.5156250000,,,
1.6359999974,12,130359.8593750000,140357.0156250000,160739.0156250000,151047.6250000000,155620.9531250000,137642.4843750000,149072.4218750000,148509.5937500000,,,
1.6399999973,12,130280.0859375000,140275.3906250000,160677.8906250000,150953.0781250000,155545.0312500000,137573.0156250000,149002.6562500000,148468.2343750000,,,
1.6439999973,12,130353.2031250000,140335.7968750000,160738.5625000000,151012.8750000000,155523.4375000000,137642.8281250000,149066.7656250000,148478.5625000000,,,
1.6479999975,12,130473.9843750000,140446.8125000000,160801.4531250000,151177.4218750000,155645.9218750000,137749.9843750000,149162.9687500000,148488.1562500000,,,
1.6519999974,12,130500.9921875000,140484.4375000000,160813.3437500000,151190.6718750000,155698.5781250000,137776.0312500000,149180.1718750000,148522.8906250000,,,
1.6559999974,12,130391.3984375000,140381.1875000000,160735.4218750000,151032.6406250000,155638.0156250000,137677.2968750000,149088.1406250000,148505.7031250000,,,
1.6599999974,12,130308.3593750000,140292.1875000000,160664.7656250000,150919.5000000000,155560.5781250000,137597.7656250000,149015.5312500000,148459.6718750000,,,
1.6639999973,13,130363.8515625000,140328.6875000000,160697.3125000000,150982.0781250000,155557.6093750000,137637.2812500000,149061.4531250000,148433.6093750000,,,
1.6679999973,13,130495.7890625000,140444.1875000000,160801.1562500000,151126.3750000000,155620.1250000000,137752.9843750000,149182.3125000000,148465.3906250000,,,
1.6719999972,13,130539.1093750000,140470.4375000000,160844.7968750000,151164.2031250000,155664.1406250000,137799.8437500000,149222.7656250000,148526.2500000000,,,
1.6759999972,13,130438.7656250000,140387.1562500000,160775.5468750000,151080.4531250000,155642.4218750000,137718.2812500000,149133.9218750000,148531.9062500000,,,
1.6799999971,13,130341.2656250000,140287.6562500000,160710.4687500000,150989.2031250000,155561.2500000000,137627.4843750000,149057.7812500000,148467.6406250000,,,
1.6839999971,13,130386.0859375000,140331.0156250000,160729.2031250000,151028.2031250000,155564.3281250000,137663.1406250000,149093.0781250000,148460.2656250000,,,
1.6879999973,13,130494.8750000000,140456.4218750000,160794.9062500000,151102.4531250000,155624.0156250000,137762.2656250000,149172.9843750000,148498.4843750000,,,
1.6919999972,13,130511.1328125000,140461.0312500000,160819.1875000000,151136.0156250000,155665.1875000000,137777.3437500000,149188.4843750000,148511.0625000000,,,
1.6959999972,13,130406.8750000000,140369.4062500000,160748.2656250000,151059.0625000000,155653.3281250000,137683.9218750000,149107.3437500000,148484.1406250000,,,
1.6999999972,13,130302.4531250000,140278.0000000000,160662.4062500000,150933.0468750000,155574.6875000000,137586.9062500000,149005.8281250000,148437.5468750000,,,
1.7039999971,13,130337.1640625000,140311.0625000000,160688.4218750000,150965.9218750000,155553.5468750000,137616.7031250000,149028.0000000000,148415.5468750000,,,
1.7079999973,13,130459.7109375000,140426.2343750000,160785.2500000000,151117.9843750000,155613.2656250000,137723.1093750000,149130.1250000000,148455.1093750000,,,
1.7119999973,13,130488.3593750000,140464.3281250000,160821.8125000000,151160.4218750000,155639.4687500000,137748.8281250000,149161.3125000000,148504.3281250000,,,
1.7159999972,13,130373.3203125000,140356.0156250000,160742.2656250000,151049.2343750000,155601.0781250000,137643.6406250000,149067.4375000000,148494.1406250000,,,
1.7199999972,13,130271.6406250000,140257.0781250000,160652.8906250000,150970.6718750000,155567.2031250000,137537.2812500000,148972.8906250000,148449.9687500000,,,
1.7239999971,13,130319.6250000000,140307.3906250000,160676.9218750000,150984.5781250000,155544.2968750000,137581.0937500000,149010.3593750000,148443.6875000000,,,
1.7279999971,13,130432.0312500000,140408.2500000000,160772.5468750000,151111.0156250000,155601.1406250000,137684.4531250000,149106.6406250000,148485.0937500000,,,
1.7319999973,13,130465.5078125000,140424.3437500000,160818.5937500000,151148.5000000000,155648.3906250000,137718.7187500000,149149.7031250000,148530.1562500000,,,
1.7359999972,13,130347.0078125000,140335.0000000000,160727.5156250000,151015.3593750000,155606.3125000000,137614.4843750000,149049.2500000000,148479.5468750000,,,
1.7399999972,13,130249.5078125000,140252.9375000000,160647.1562500000,150936.4843750000,155560.6406250000,137526.8593750000,148964.0156250000,148410.2343750000,,,
1.7439999972,13,130303.7734375000,140309.4375000000,160683.1406250000,151017.1875000000,155576.5468750000,137573.8750000000,149002.1250000000,148418.9062500000,,,
1.7479999971,13,130429.4062500000,140434.3125000000,160788.3750000000,151121.3437500000,155608.3750000000,137683.3906250000,149113.7343750000,148474.4218750000,,,
1.7519999973,13,130450.2187500000,140454.5937500000,160815.3750000000,151142.4687500000,155619.0468750000,137705.4687500000,149132.6406250000,148504.0312500000,,,
1.7559999973,13,130339.5000000000,140347.5156250000,160732.9531250000,151015.9843750000,155599.5468750000,137610.4531250000,149041.8437500000,148479.2812500000,,,
1.7599999972,13,130239.0234375000,140251.0156250000,160642.5937500000,150920.5781250000,155559.7968750000,137512.5625000000,148952.5781250000,148434.0781250000,,,
1.7639999972,13,130290.0937500000,140302.7187500000,160673.3750000000,150986.9531250000,155560.7187500000,137558.3437500000,148989.7031250000,148422.6875000000,,,
1.7679999971,13,130420.3671875000,140433.8281250000,160782.0937500000,151127.9062500000,155618.9218750000,137678.1250000000,149096.8593750000,148477.2656250000,,,
1.7719999971,13,130456.9765625000,140469.0156250000,160824.4687500000,151158.6406250000,155669.8281250000,137712.2187500000,149132.6718750000,148518.1250000000,,,
1.7759999973,13,130338.8281250000,140346.3125000000,160737.1406250000,151009.1406250000,155621.6875000000,137603.0781250000,149036.5156250000,148478.0781250000,,,
1.7799999972,13,130218.7187500000,140230.5000000000,160634.4687500000,150886.7031250000,155543.5781250000,137490.2343750000,148930.5937500000,148415.6093750000,,,
1.7839999972,13,130244.1484375000,140260.4062500000,160640.1562500000,150921.1875000000,155510.1562500000,137510.7656250000,148949.5468750000,148395.6718750000,,,
1.7879999971,13,130374.1250000000,140392.3437500000,160750.3906250000,151064.7343750000,155563.5625000000,137628.1406250000,149054.1562500000,148440.8906250000,,,
1.7919999971,14,130430.0234375000,140448.2343750000,160816.9843750000,151122.0937500000,155617.5000000000,137681.7187500000,149115.1562500000,148494.3750000000,,,
1.7959999971,14,130339.2812500000,140349.5781250000,160759.6718750000,151049.7968750000,155616.3125000000,137600.2968750000,149052.2031250000,148476.2812500000,,,
1.7999999970,14,130237.0625000000,140244.5468750000,160658.4687500000,150933.0468750000,155560.3437500000,137503.8125000000,148963.0156250000,148432.8750000000,,,
1.8039999970,14,130264.0234375000,140266.6250000000,160668.4531250000,150945.2500000000,155508.0156250000,137527.3593750000,148972.4375000000,148385.3437500000,,,
1.8079999969,14,130395.3671875000,140398.7812500000,160776.2500000000,151071.3125000000,155559.9062500000,137652.0312500000,149082.9062500000,148425.0468750000,,,
1.8119999969,14,130443.2421875000,140442.7031250000,160807.6718750000,151120.4531250000,155636.3281250000,137700.9531250000,149129.9375000000,148477.2656250000,,,
1.8159999971,14,130355.1875000000,140347.4687500000,160735.5781250000,151019.7656250000,155626.8593750000,137622.1718750000,149059.3906250000,148472.0156250000,,,
1.8199999970,14,130251.9218750000,140237.0937500000,160645.7812500000,150897.6093750000,155553.1718750000,137528.1093750000,148970.0156250000,148417.5937500000,,,
1.8239999970,14,130302.3750000000,140272.5312500000,160672.4218750000,150951.6875000000,155549.7968750000,137573.8437500000,149010.4375000000,148408.3281250000,,,
1.8279999970,14,130437.9062500000,140404.8437500000,160782.5781250000,151096.0937500000,155603.6562500000,137698.7500000000,149133.8125000000,148437.5781250000,,,
1.8319999969,14,130485.5468750000,140458.8593750000,160826.1875000000,151146.2343750000,155641.2812500000,137744.7343750000,149180.7031250000,148484.3750000000,,,
1.8359999971,14,130389.8125000000,140360.6562500000,160754.6250000000,151023.9687500000,155607.9218750000,137662.6875000000,149103.9062500000,148472.0312500000,,,
1.8399999971,14,130291.3515625000,140259.4375000000,160667.5312500000,150908.7968750000,155553.5000000000,137576.3593750000,149020.5781250000,148414.2343750000,,,
1.8439999970,14,130328.2031250000,140294.8125000000,160688.9843750000,150964.0312500000,155556.3750000000,137610.6718750000,149043.5312500000,148405.7812500000,,,
1.8479999970,14,130461.9375000000,140428.7343750000,160793.4687500000,151104.8437500000,155616.5781250000,137736.6562500000,149169.2187500000,148457.0937500000,,,
1.8519999969,14,130512.0468750000,140454.8906250000,160846.1718750000,151148.2968750000,155650.8906250000,137781.2031250000,149223.8125000000,148501.1406250000,,,
1.8559999969,14,130409.4218750000,140355.7500000000,160763.3906250000,151054.6250000000,155612.1875000000,137693.2500000000,149119.3281250000,148479.2500000000,,,
1.8599999971,14,130315.4375000000,140279.5000000000,160675.0156250000,150927.7031250000,155566.3750000000,137606.8437500000,149029.0312500000,148446.0468750000,,,
1.8639999970,14,130353.7421875000,140314.0468750000,160697.4375000000,150942.6718750000,155542.6406250000,137633.9531250000,149064.4062500000,148425.8437500000,,,
1.8679999970,14,130474.2500000000,140425.1093750000,160797.4531250000,151077.3281250000,155585.6875000000,137738.5625000000,149170.2500000000,148450.7656250000,,,
1.8719999969,14,130527.5234375000,140471.7656250000,160838.8125000000,151137.2968750000,155637.1093750000,137791.9843750000,149224.1250000000,148503.8750000000,,,
1.8759999969,14,130421.0078125000,140385.3125000000,160757.6875000000,151053.3906250000,155612.1250000000,137696.1875000000,149126.3125000000,148491.4375000000,,,
1.8799999971,14,130313.9062500000,140290.3906250000,160687.9218750000,150979.1250000000,155548.1875000000,137596.4843750000,149034.3437500000,148439.0468750000,,,
1.8839999971,14,130363.8515625000,140338.1250000000,160722.2500000000,150998.9531250000,155557.5781250000,137640.3906250000,149074.7343750000,148454.4218750000,,,
1.8879999970,14,130468.1328125000,140421.5468750000,160793.1093750000,151054.3906250000,155578.3125000000,137731.2656250000,149159.4687500000,148468.9531250000,,,
1.8919999970,14,130498.1484375000,140448.5000000000,160824.7968750000,151116.9062500000,155634.8281250000,137760.0156250000,149191.0000000000,148484.0000000000,,,
1.8959999969,14,130388.3671875000,140339.3125000000,160753.6406250000,151010.5937500000,155607.5468750000,137650.1250000000,149100.4062500000,148459.8281250000,,,
1.8999999969,14,130276.4375000000,140244.0625000000,160670.9375000000,150901.5625000000,155539.5312500000,137543.7500000000,148992.4687500000,148405.2968750000,,,
1.9039999971,14,130309.9687500000,140288.3750000000,160689.3750000000,150947.4531250000,155540.8125000000,137568.0781250000,149014.4843750000,148388.8125000000,,,
1.9079999970,14,130428.7109375000,140414.0312500000,160778.5468750000,151087.6250000000,155612.4218750000,137676.2187500000,149115.9218750000,148440.7343750000,,,
1.9119999970,14,130470.7343750000,140462.5625000000,160819.7500000000,151131.3906250000,155664.1093750000,137721.4687500000,149155.3281250000,148491.0312500000,,,
1.9159999969,14,130362.9687500000,140355.7187500000,160743.3125000000,151019.8906250000,155626.9687500000,137626.8437500000,149068.8281250000,148469.6562500000,,,
1.9199999969,15,130243.7421875000,140241.8125000000,160651.0156250000,150904.8281250000,155552.4218750000,137517.2968750000,148961.3750000000,148416.8125000000,,,
1.9239999969,15,130271.9062500000,140275.8750000000,160669.7031250000,150947.3437500000,155542.7656250000,137538.9531250000,148982.0625000000,148400.1875000000,,,
1.9279999968,15,130400.7343750000,140412.3437500000,160781.9531250000,151098.8593750000,155582.0625000000,137654.9843750000,149105.8750000000,148468.5000000000,,,
1.9319999968,15,130449.4375000000,140473.5625000000,160838.9843750000,151152.4531250000,155636.1406250000,137707.7968750000,149141.8125000000,148538.1562500000,,,
1.9359999967,15,130339.7656250000,140359.0312500000,160763.5312500000,151021.5000000000,155597.1718750000,137609.7812500000,149050.0781250000,148491.1562500000,,,
1.9399999967,15,130214.3750000000,140214.9375000000,160646.2343750000,150898.3437500000,155563.4531250000,137482.2187500000,148938.1250000000,148406.7500000000,,,
1.9439999969,15,130246.7187500000,140237.8750000000,160661.4218750000,150951.4375000000,155561.0312500000,137511.4843750000,148962.8593750000,148395.8437500000,,,
1.9479999968,15,130375.6562500000,140376.6718750000,160767.6562500000,151149.2812500000,155629.7812500000,137630.8906250000,149072.3906250000,148457.8281250000,,,
1.9519999968,15,130414.9453125000,140440.1562500000,160807.0937500000,151199.5156250000,155686.3750000000,137672.0156250000,149109.8125000000,148481.5000000000,,,
1.9559999967,15,130299.6093750000,140341.2187500000,160713.9843750000,150981.0312500000,155601.9687500000,137575.1406250000,149012.0000000000,148460.3750000000,,,
1.9599999967,15,130187.0937500000,140229.7187500000,160621.6406250000,150858.0312500000,155523.7343750000,137470.6875000000,148911.5468750000,148399.0625000000,,,
1.9639999969,15,130225.1796875000,140266.6250000000,160640.5000000000,150926.9531250000,155519.2500000000,137499.2812500000,148934.1093750000,148395.7500000000,,,
1.9679999969,15,130356.2109375000,140392.6562500000,160738.9375000000,151084.5312500000,155578.4375000000,137615.9531250000,149050.3281250000,148431.0468750000,,,
1.9719999968,15,130406.8750000000,140442.2343750000,160797.8281250000,151119.3281250000,155615.9218750000,137666.2968750000,149094.6562500000,148479.5468750000,,,
1.9759999968,15,130305.2968750000,140341.8593750000,160729.7031250000,151010.3125000000,155580.3281250000,137577.2031250000,148999.3906250000,148469.8437500000,,,
1.9799999967,15,130195.7031250000,140237.4062500000,160637.3125000000,150907.9375000000,155526.1406250000,137468.1406250000,148904.2500000000,148414.7187500000,,,
1.9839999967,15,130234.4375000000,140271.3906250000,160663.1562500000,150966.9687500000,155533.6562500000,137497.0000000000,148949.6250000000,148403.0468750000,,,
1.9879999969,15,130357.0625000000,140377.8593750000,160756.9843750000,151059.5937500000,155590.3750000000,137609.9687500000,149044.3906250000,148437.7812500000,,,
1.9919999968,15,130404.1406250000,140413.7656250000,160810.0156250000,151121.6562500000,155644.6718750000,137656.3281250000,149089.6406250000,148500.3281250000,,,
1.9959999968,15,130299.3750000000,140316.2500000000,160742.3437500000,151012.9531250000,155594.4062500000,137562.6875000000,149005.5000000000,148475.1562500000,,,
1.9999999967,15,130176.8203125000,140200.4843750000,160650.9531250000,150893.7500000000,155511.1718750000,137448.4531250000,148902.4531250000,148395.4843750000,,,
2.0039999967,15,130204.2578125000,140243.0937500000,160654.8437500000,150935.1406250000,155525.8750000000,137469.9843750000,148922.5156250000,148385.1406250000,,,
2.0079999969,15,130325.9531250000,140368.3906250000,160731.1093750000,151068.7656250000,155592.6406250000,137576.9531250000,149021.6250000000,148429.6093750000,,,
2.0119999968,15,130380.9140625000,140423.2968750000,160780.0468750000,151114.0156250000,155629.9218750000,137632.6875000000,149076.0781250000,148471.3437500000,,,
2.0159999968,15,130287.8906250000,140333.6718750000,160715.7343750000,151008.3281250000,155601.0781250000,137550.6718750000,148998.3125000000,148472.3906250000,,,
2.0199999968,15,130188.3515625000,140237.7343750000,160640.9218750000,150911.6718750000,155542.0937500000,137462.6875000000,148912.0000000000,148429.7343750000,,,
2.0239999967,15,130214.5078125000,140263.3750000000,160662.4375000000,150936.5312500000,155511.9218750000,137482.2968750000,148928.8125000000,148399.5312500000,,,
2.0279999967,15,130336.3359375000,140375.7656250000,160756.6562500000,151074.4843750000,155576.4843750000,137590.0000000000,149033.2656250000,148432.3750000000,,,
2.0319999969,15,130393.1171875000,140433.1406250000,160795.0000000000,151155.6718750000,155667.5468750000,137648.3906250000,149084.2187500000,148485.3125000000,,,
2.0359999968,15,130301.2500000000,140342.8281250000,160730.9375000000,151090.2968750000,155666.1562500000,137563.2968750000,149000.7343750000,148479.4375000000,,,
2.0399999968,15,130186.9843750000,140232.5000000000,160640.7656250000,150992.4218750000,155605.7500000000,137458.0312500000,148907.7031250000,148426.7031250000,,,
2.0439999967,15,130213.4062500000,140262.3281250000,160652.9218750000,150954.4218750000,155563.0156250000,137483.3750000000,148924.9531250000,148413.1875000000,,,
2.0479999967,16,130334.0234375000,140382.8125000000,160745.9062500000,151061.8750000000,155594.2500000000,137590.8437500000,149024.7812500000,148458.5781250000,,,
2.0519999966,16,130388.7734375000,140434.3906250000,160798.0468750000,151127.6875000000,155646.4062500000,137641.0156250000,149075.6718750000,148507.3125000000,,,
2.0559999966,16,130281.2656250000,140314.1562500000,160719.0937500000,151012.4375000000,155601.3437500000,137541.2812500000,148985.7812500000,148463.2187500000,,,
2.0599999966,16,130162.0156250000,140167.5156250000,160634.3750000000,150876.0156250000,155517.5312500000,137428.8125000000,148882.5000000000,148415.0625000000,,,
2.0639999965,16,130198.8125000000,140221.7031250000,160661.3593750000,150922.1875000000,155516.6718750000,137460.6562500000,148909.7187500000,148398.9531250000,,,
2.0679999965,16,130332.7109375000,140373.6718750000,160753.3906250000,151078.6406250000,155589.4375000000,137582.2968750000,149025.9062500000,148422.8125000000,,,
2.0719999967,16,130383.5625000000,140423.0000000000,160793.8437500000,151139.5781250000,155638.6093750000,137630.8125000000,149074.2968750000,148476.0000000000,,,
2.0759999966,16,130298.9140625000,140336.2187500000,160736.1250000000,151032.7656250000,155610.9218750000,137556.4687500000,148998.9531250000,148485.3125000000,,,
2.0799999966,16,130188.2187500000,140215.0937500000,160640.6875000000,150897.0156250000,155543.9531250000,137448.0156250000,148905.2968750000,148408.2812500000,,,
2.0839999965,16,130214.5625000000,140236.1562500000,160640.9531250000,150933.9843750000,155539.3593750000,137466.2031250000,148917.2500000000,148380.3281250000,,,
2.0879999965,16,130348.5625000000,140367.0781250000,160747.7343750000,151086.4062500000,155602.7187500000,137585.8125000000,149029.6093750000,148426.3281250000,,,
2.0919999967,16,130408.0312500000,140434.1250000000,160810.1718750000,151144.8125000000,155633.4843750000,137644.9843750000,149083.1250000000,148485.0468750000,,,
2.0959999966,16,130328.7187500000,140372.4375000000,160761.6562500000,151040.6562500000,155603.1718750000,137586.9843750000,149017.6562500000,148497.4375000000,,,
2.0999999966,16,130214.5312500000,140265.3593750000,160646.1562500000,150906.0625000000,155559.8281250000,137484.2343750000,148910.9062500000,148445.0312500000,,,
2.1039999966,16,130234.3828125000,140266.9218750000,160647.3593750000,150934.3593750000,155525.8437500000,137493.8906250000,148923.1562500000,148412.7656250000,,,
2.1079999965,16,130360.6640625000,140373.3750000000,160739.0156250000,151085.0156250000,155607.3906250000,137600.6406250000,149028.5468750000,148429.5312500000,,,
2.1119999965,16,130419.2421875000,140432.7656250000,160795.7187500000,151152.0000000000,155658.1875000000,137657.2812500000,149085.5937500000,148490.3593750000,,,
2.1159999967,16,130330.0546875000,140339.4687500000,160725.8437500000,151073.6718750000,155648.0781250000,137581.4062500000,149012.2343750000,148491.9687500000,,,
2.1199999966,16,130218.9609375000,140239.2968750000,160654.1562500000,150955.2500000000,155562.0625000000,137480.2968750000,148915.0781250000,148449.5937500000,,,
2.1239999966,16,130232.9062500000,140265.4218750000,160661.8750000000,150907.4062500000,155502.5937500000,137491.9062500000,148922.2656250000,148405.5937500000,,,
2.1279999965,16,130350.2500000000,140380.1406250000,160732.9843750000,151064.5000000000,155594.8593750000,137600.5000000000,149019.0468750000,148437.9531250000,,,
2.1319999965,16,130411.7578125000,140434.4687500000,160796.2812500000,151151.6718750000,155657.2968750000,137660.0312500000,149086.2968750000,148506.4218750000,,,
2.1359999967,16,130312.0078125000,140344.4062500000,160730.8125000000,151046.7187500000,155628.8750000000,137573.0937500000,148993.1406250000,148482.2343750000,,,
2.1399999966,16,130199.7031250000,140232.7656250000,160644.1406250000,150898.5000000000,155539.8437500000,137467.9218750000,148898.4843750000,148418.2812500000,,,
2.1439999966,16,130221.9921875000,140254.2500000000,160658.1250000000,150913.2500000000,155518.2500000000,137484.1250000000,148912.0000000000,148391.7656250000,,,
2.1479999966,16,130362.2421875000,140397.8437500000,160782.7343750000,151067.5312500000,155573.1406250000,137611.9843750000,149031.5937500000,148453.1875000000,,,
2.1519999965,16,130416.9609375000,140448.0937500000,160842.8125000000,151147.4687500000,155650.1718750000,137660.2343750000,149088.5156250000,148490.3593750000,,,
2.1559999965,16,130320.4531250000,140363.7187500000,160749.6875000000,151041.1093750000,155636.9375000000,137577.4687500000,149009.9843750000,148486.6093750000,,,
2.1599999967,16,130204.7187500000,140243.1562500000,160645.4843750000,150918.9843750000,155568.7031250000,137472.8281250000,148908.1406250000,148435.5000000000,,,
2.1639999966,16,130212.5781250000,140240.8750000000,160645.9375000000,150929.1875000000,155538.6093750000,137473.9375000000,148912.5625000000,148391.9687500000,,,
2.1679999966,16,130339.3125000000,140356.9062500000,160746.3906250000,151061.3906250000,155578.2031250000,137587.7656250000,149017.5156250000,148437.7656250000,,,
2.1719999965,16,130403.3359375000,140394.3281250000,160801.3281250000,151126.4062500000,155623.5625000000,137647.3125000000,149075.7968750000,148481.5625000000,,,
2.1759999965,17,130321.7968750000,140318.5468750000,160738.9843750000,151052.0000000000,155617.7343750000,137572.6718750000,149009.9843750000,148465.3125000000,,,
2.1799999964,17,130215.9296875000,140249.4843750000,160645.8281250000,150924.2187500000,155569.9687500000,137476.1250000000,148918.4062500000,148450.0468750000,,,
2.1839999964,17,130238.7812500000,140272.9843750000,160659.0781250000,150920.8125000000,155534.2187500000,137492.7031250000,148930.9062500000,148406.9375000000,,,
2.1879999964,17,130356.2109375000,140378.0937500000,160747.4843750000,151057.4218750000,155601.1093750000,137594.3906250000,149027.1250000000,148426.7656250000,,,
2.1919999963,17,130420.3359375000,140439.6250000000,160809.2031250000,151137.1093750000,155667.4062500000,137655.0312500000,149091.5468750000,148481.4843750000,,,
2.1959999963,17,130329.1406250000,140354.7343750000,160745.2343750000,151043.2031250000,155644.7968750000,137580.2812500000,149017.7812500000,148477.9375000000,,,
2.1999999965,17,130209.0312500000,140244.3593750000,160649.1875000000,150892.1406250000,155548.2187500000,137477.2656250000,148911.4843750000,148429.5312500000,,,
2.2039999964,17,130216.5468750000,140255.2187500000,160649.8593750000,150914.7187500000,155525.4687500000,137481.8125000000,148913.4218750000,148403.1875000000,,,
2.2079999964,17,130348.0234375000,140381.3906250000,160758.9375000000,151068.5000000000,155584.2656250000,137599.1406250000,149027.4375000000,148442.0468750000,,,
2.2119999963,17,130410.5234375000,140433.5156250000,160822.6718750000,151143.9531250000,155643.5156250000,137657.2812500000,149085.1406250000,148473.5156250000,,,
2.2159999963,17,130333.3046875000,140357.8750000000,160775.5156250000,151057.0468750000,155645.3125000000,137589.0468750000,149020.6250000000,148481.0468750000,,,
2.2199999965,17,130215.0703125000,140235.8281250000,160670.8125000000,150928.0000000000,155576.8593750000,137477.9218750000,148915.7500000000,148435.6875000000,,,
2.2239999964,17,130227.0078125000,140220.9687500000,160665.1250000000,150922.7187500000,155521.9531250000,137482.2968750000,148921.4218750000,148398.9218750000,,,
2.2279999964,17,130351.1093750000,140342.1562500000,160747.7031250000,151053.4687500000,155591.0781250000,137589.7968750000,149029.4062500000,148433.6250000000,,,
2.2319999964,17,130416.2109375000,140434.5625000000,160810.4375000000,151127.1875000000,155653.2187500000,137658.7031250000,149086.3906250000,148480.3281250000,,,
2.2359999963,17,130327.0000000000,140353.5781250000,160750.0625000000,151033.6562500000,155630.0000000000,137575.8593750000,149017.0156250000,148464.7187500000,,,
2.2399999963,17,130204.7968750000,140230.4375000000,160646.7187500000,150907.1093750000,155560.1718750000,137459.4531250000,148909.7812500000,148413.9687500000,,,
2.2439999965,17,130219.4453125000,140246.2968750000,160650.2031250000,150927.3281250000,155542.5781250000,137471.2031250000,148920.2656250000,148395.8593750000,,,
2.2479999964,17,130345.1562500000,140378.2812500000,160754.9531250000,151071.7656250000,155586.4843750000,137584.5781250000,149030.5781250000,148452.1562500000,,,
2.2519999964,17,130421.1171875000,140462.9531250000,160830.2031250000,151147.7031250000,155644.4218750000,137658.9531250000,149097.0156250000,148522.9687500000,,,
2.2559999963,17,130338.2343750000,140372.2500000000,160789.2812500000,151036.2343750000,155609.9843750000,137584.3593750000,149035.7812500000,148500.0937500000,,,
2.2599999963,17,130218.0234375000,140254.7968750000,160684.7500000000,150923.2343750000,155539.0468750000,137472.1406250000,148926.1093750000,148459.8125000000,,,
2.2639999965,17,130221.4765625000,140260.7968750000,160650.9375000000,150941.1718750000,155557.3906250000,137474.8437500000,148922.2500000000,148399.9062500000,,,
2.2679999964,17,130340.3281250000,140368.7031250000,160736.9531250000,151056.4843750000,155615.0625000000,137580.7656250000,149029.4843750000,148422.1562500000,,,
2.2719999964,17,130410.6796875000,140429.7031250000,160804.3750000000,151142.4531250000,155667.7343750000,137646.1093750000,149080.8437500000,148482.6875000000,,,
2.2759999963,17,130324.1015625000,140345.4062500000,160744.9375000000,151046.6093750000,155641.2343750000,137570.0156250000,149011.7187500000,148486.6250000000,,,
2.2799999963,17,130205.2500000000,140221.2656250000,160650.2343750000,150916.5156250000,155568.4062500000,137459.0937500000,148914.1250000000,148428.3437500000,,,
2.2839999963,17,130218.6093750000,140222.7656250000,160662.5156250000,150949.7343750000,155551.8125000000,137466.2812500000,148918.3906250000,148396.9687500000,,,
2.2879999964,17,130350.8203125000,140365.3281250000,160776.0000000000,151118.6562500000,155605.3125000000,137585.6406250000,149035.2500000000,148451.7812500000,,,
2.2919999964,17,130434.7187500000,140443.4531250000,160847.7812500000,151208.9687500000,155680.9531250000,137658.3125000000,149109.9687500000,148523.8281250000,,,
2.2959999964,17,130357.2265625000,140371.3906250000,160792.3437500000,151040.7031250000,155645.2031250000,137594.1562500000,149044.6093750000,148509.9843750000,,,
2.2999999963,17,130219.7343750000,140240.3125000000,160684.7343750000,150867.1406250000,155545.9062500000,137467.0156250000,148923.1875000000,148422.3437500000,,,
2.3039999963,18,130231.9375000000,140252.5625000000,160680.0000000000,150903.5937500000,155522.7656250000,137475.8125000000,148933.1406250000,148399.0312500000,,,
2.3079999962,18,130356.1562500000,140372.5468750000,160762.5937500000,151046.1250000000,155592.7187500000,137590.3906250000,149037.3437500000,148423.1093750000,,,
2.3119999962,18,130426.6406250000,140440.5156250000,160808.3437500000,151123.8281250000,155676.2031250000,137654.5000000000,149101.3437500000,148482.1718750000,,,
2.3159999961,18,130347.7031250000,140366.2656250000,160766.7500000000,151034.9218750000,155640.7031250000,137587.7656250000,149039.2656250000,148487.5937500000,,,
2.3199999961,18,130237.8671875000,140248.8906250000,160697.0312500000,150925.0312500000,155548.0781250000,137488.4687500000,148942.1250000000,148458.0937500000,,,
2.3239999961,18,130242.4296875000,140249.8593750000,160706.3125000000,150938.4687500000,155539.6093750000,137487.5781250000,148942.7187500000,148403.9375000000,,,
2.3279999963,18,130352.8828125000,140375.1250000000,160773.4062500000,151065.1406250000,155608.6250000000,137586.4843750000,149033.0468750000,148456.1562500000,,,
2.3319999962,18,130415.4843750000,140431.7968750000,160809.9062500000,151137.8906250000,155666.9375000000,137644.8125000000,149086.0156250000,148467.0781250000,,,
2.3359999962,18,130331.9375000000,140350.2031250000,160736.2812500000,151047.3125000000,155642.3906250000,137576.1718750000,149014.5937500000,148467.3750000000,,,
2.3399999961,18,130207.6640625000,140218.4843750000,160637.3593750000,150918.1250000000,155567.2031250000,137461.2656250000,148906.9843750000,148424.5625000000,,,
2.3439999961,18,130221.9375000000,140226.6875000000,160649.2343750000,150936.3437500000,155536.0312500000,137469.7500000000,148918.5156250000,148406.7500000000,,,
2.3479999963,18,130336.7109375000,140361.0156250000,160728.7343750000,151061.5781250000,155583.6718750000,137575.7812500000,149020.2812500000,148434.7500000000,,,
2.3519999962,18,130403.4140625000,140441.6406250000,160796.5468750000,151123.2656250000,155634.6406250000,137644.7343750000,149082.8593750000,148485.8437500000,,,
2.3559999962,18,130325.4453125000,140364.7187500000,160761.6718750000,151033.7343750000,155609.8593750000,137576.5781250000,149020.8750000000,148493.0156250000,,,
2.3599999961,18,130206.8593750000,140249.3281250000,160672.2812500000,150907.2500000000,155538.9843750000,137471.0625000000,148916.5000000000,148455.4375000000,,,
2.3639999961,18,130202.9218750000,140238.2500000000,160639.1875000000,150934.4375000000,155547.4062500000,137455.8593750000,148904.6562500000,148387.6093750000,,,
2.3679999961,18,130329.9453125000,140369.0000000000,160734.8593750000,151086.3906250000,155600.6718750000,137566.1406250000,149011.1562500000,148425.2812500000,,,
2.3719999962,18,130410.5781250000,140435.3593750000,160804.8593750000,151147.1406250000,155656.1250000000,137639.9375000000,149083.7968750000,148477.6093750000,,,
2.3759999962,18,130330.7812500000,140342.9062500000,160750.8437500000,151053.7968750000,155636.8906250000,137567.2500000000,149019.7656250000,148482.9531250000,,,
2.3799999962,18,130211.0468750000,140230.5000000000,160666.7343750000,150943.9687500000,155551.7343750000,137456.3593750000,148909.9062500000,148447.4375000000,,,
2.3839999961,18,130200.7734375000,140219.0156250000,160650.6875000000,150904.8281250000,155504.2343750000,137444.4062500000,148889.5468750000,148392.2343750000,,,
2.3879999961,18,130321.0468750000,140337.9375000000,160728.2031250000,151010.7500000000,155566.4843750000,137554.4531250000,148998.7656250000,148416.7500000000,,,
2.3919999963,18,130401.3203125000,140419.1406250000,160787.1093750000,151098.0000000000,155636.8593750000,137632.5000000000,149070.2812500000,148465.0156250000,,,
2.3959999962,18,130327.6953125000,140343.4218750000,160743.9218750000,151025.8750000000,155625.1718750000,137563.9687500000,149017.2031250000,148469.5937500000,,,
2.3999999962,18,130211.0703125000,140217.0625000000,160649.5937500000,150901.0781250000,155564.5312500000,137459.0937500000,148917.1250000000,148424.2343750000,,,
2.4039999961,18,130214.8046875000,140218.8750000000,160641.7812500000,150908.6406250000,155536.3281250000,137458.1562500000,148912.9062500000,148397.5468750000,,,
2.4079999961,18,130342.4218750000,140346.6093750000,160744.0781250000,151055.0000000000,155587.7500000000,137570.9531250000,149026.0156250000,148425.9062500000,,,
2.4119999961,18,130426.3437500000,140445.5312500000,160824.9062500000,151139.9218750000,155649.3593750000,137651.8125000000,149107.6406250000,148490.2187500000,,,
2.4159999962,18,130350.9218750000,140373.2656250000,160778.5468750000,151051.2031250000,155625.1875000000,137585.9218750000,149045.6875000000,148484.4218750000,,,
2.4199999962,18,130224.0546875000,140249.2187500000,160673.7500000000,150914.6406250000,155555.5156250000,137472.5312500000,148919.3437500000,148433.8437500000,,,
2.4239999962,18,130218.2890625000,140244.0156250000,160657.0468750000,150923.5468750000,155530.7031250000,137459.3906250000,148914.2031250000,148395.9218750000,,,
2.4279999961,18,130339.5000000000,140360.3125000000,160751.4531250000,151054.5156250000,155583.9218750000,137567.6718750000,149024.0625000000,148424.4062500000,,,
2.4319999961,19,130419.0546875000,140439.0937500000,160820.6406250000,151145.9843750000,155662.3750000000,137643.8281250000,149096.9375000000,148476.0625000000,,,
2.4359999960,19,130339.6328125000,140360.2656250000,160770.5000000000,151051.2500000000,155646.2187500000,137576.2343750000,149034.7187500000,148470.9843750000,,,
2.4399999960,19,130217.3750000000,140244.3593750000,160672.2500000000,150935.0781250000,155587.6406250000,137468.0781250000,148925.0625000000,148430.0937500000,,,
2.4439999959,19,130216.5468750000,140240.8125000000,160653.4531250000,150930.1718750000,155564.1718750000,137465.5312500000,148918.7656250000,148396.0000000000,,,
2.4479999959,19,130340.5156250000,140362.1875000000,160738.4843750000,151049.4531250000,155591.9062500000,137576.5000000000,149024.1093750000,148430.2187500000,,,
2.4519999959,19,130416.1796875000,140439.5781250000,160823.5000000000,151126.8906250000,155633.4218750000,137645.0312500000,149092.8281250000,148482.6250000000,,,
2.4559999960,19,130348.6953125000,140366.3437500000,160773.2656250000,151099.1250000000,155647.3437500000,137585.5625000000,149022.4218750000,148481.7187500000,,,
2.4599999960,19,130235.9375000000,140249.1562500000,160678.2656250000,150965.8281250000,155598.2656250000,137481.5000000000,148929.2187500000,148450.0468750000,,,
2.4639999960,19,130221.3750000000,140224.4062500000,160643.9062500000,150871.8437500000,155514.3906250000,137465.8593750000,148912.4843750000,148403.9062500000,,,
2.4679999959,19,130331.9375000000,140337.2656250000,160723.9687500000,150980.8437500000,155541.8281250000,137562.3125000000,149003.2031250000,148401.2500000000,,,
2.4719999959,19,130421.1953125000,140438.3125000000,160809.2812500000,151086.5000000000,155615.7812500000,137643.7656250000,149089.0000000000,148455.4843750000,,,
2.4759999961,19,130360.8750000000,140381.4218750000,160781.6093750000,151020.6250000000,155597.9218750000,137591.8750000000,149048.2343750000,148479.2187500000,,,
2.4799999960,19,130243.4765625000,140265.2343750000,160689.9843750000,150907.6406250000,155552.0468750000,137486.8906250000,148939.8125000000,148447.0937500000,,,
2.4839999960,19,130226.3359375000,140244.4687500000,160667.3437500000,150915.3906250000,155541.7031250000,137467.2343750000,148926.8281250000,148402.3750000000,,,
2.4879999959,19,130339.5546875000,140355.7031250000,160756.0468750000,151040.8437500000,155579.4062500000,137568.3437500000,149025.9062500000,148421.6406250000,,,
2.4919999959,19,130422.1875000000,140436.7031250000,160830.1093750000,151120.2656250000,155637.9687500000,137645.5937500000,149089.0312500000,148470.3750000000,,,
2.4959999959,19,130356.5546875000,140353.5000000000,160773.0000000000,151038.3750000000,155626.7031250000,137588.4375000000,149031.8906250000,148469.9218750000,,,
2.4999999960,19,130233.9531250000,140228.1875000000,160663.9687500000,150903.7343750000,155560.0468750000,137476.0468750000,148923.8750000000,148424.6718750000,,,
2.5039999960,19,130223.6562500000,140237.2500000000,160650.0156250000,150893.5937500000,155522.3125000000,137461.6562500000,148914.0625000000,148391.7812500000,,,
2.5079999960,19,130344.1640625000,140364.5156250000,160738.3906250000,151021.5000000000,155570.7500000000,137570.0312500000,149015.5312500000,148420.1406250000,,,
2.5119999959,19,130433.1328125000,140453.4687500000,160815.0625000000,151123.5937500000,155640.2656250000,137653.9687500000,149096.8593750000,148477.2968750000,,,
2.5159999959,19,130360.5234375000,140383.2187500000,160765.8593750000,151053.0000000000,155625.4687500000,137590.9375000000,149035.0000000000,148483.3281250000,,,
2.5199999961,19,130233.4140625000,140246.9375000000,160664.5781250000,150914.1093750000,155544.9687500000,137474.6562500000,148921.1250000000,148434.2656250000,,,
2.5239999960,19,130221.6171875000,140224.3750000000,160642.1093750000,150914.5625000000,155520.8906250000,137458.3750000000,148912.6250000000,148392.6718750000,,,
2.5279999960,19,130341.3984375000,140354.5937500000,160741.2187500000,151025.9531250000,155551.4843750000,137568.5156250000,149014.6250000000,148416.4062500000,,,
2.5319999959,19,130428.1484375000,140450.2968750000,160804.1718750000,151108.3281250000,155620.1718750000,137654.8437500000,149086.8281250000,148461.3281250000,,,
2.5359999959,19,130367.4453125000,140387.8906250000,160770.5312500000,151040.0937500000,155614.3906250000,137606.4843750000,149037.7187500000,148479.2031250000,,,
2.5399999958,19,130247.8437500000,140266.0312500000,160671.1250000000,150941.1718750000,155571.6093750000,137490.9062500000,148931.2656250000,148439.5625000000,,,
2.5439999960,19,130228.5312500000,140240.0625000000,160651.5000000000,150954.4218750000,155549.2031250000,137464.5937500000,148913.0000000000,148394.7031250000,,,
2.5479999960,19,130348.4843750000,140363.0000000000,160739.0468750000,151031.2187500000,155582.5781250000,137574.2968750000,149017.5468750000,148431.1875000000,,,
2.5519999960,19,130434.7421875000,140451.5000000000,160809.5625000000,151113.1250000000,155632.1406250000,137654.5468750000,149094.3593750000,148493.6250000000,,,
2.5559999959,19,130357.9531250000,140377.6406250000,160760.9843750000,151028.8750000000,155609.3906250000,137584.6875000000,149026.4843750000,148489.3906250000,,,
2.5599999959,20,130218.2890625000,140241.7031250000,160655.4375000000,150854.4062500000,155521.9843750000,137460.9843750000,148901.5156250000,148418.9375000000,,,
2.5639999958,20,130197.1562500000,140216.2812500000,160630.4062500000,150848.7656250000,155490.5000000000,137440.5625000000,148882.2812500000,148380.4375000000,,,
2.5679999958,20,130319.1640625000,140320.4218750000,160724.1875000000,151004.5312500000,155542.5625000000,137548.6562500000,148989.5625000000,148396.0000000000,,,
2.5719999957,20,130416.5546875000,140421.2031250000,160813.5468750000,151108.6562500000,155602.3125000000,137639.1562500000,149075.3750000000,148451.3906250000,,,
2.5759999957,20,130363.9062500000,140369.1093750000,160770.1875000000,151033.7656250000,155615.2500000000,137595.0312500000,149038.3281250000,148461.1718750000,,,
2.5799999957,20,130237.3828125000,140265.7031250000,160673.5625000000,150889.9375000000,155550.7968750000,137482.8125000000,148929.3281250000,148421.0468750000,,,
2.5839999958,20,130221.2890625000,140253.9375000000,160665.9843750000,150885.1875000000,155490.9843750000,137464.3593750000,148905.1875000000,148385.1406250000,,,
2.5879999958,20,130342.6328125000,140365.3593750000,160746.2500000000,151016.7500000000,155550.7031250000,137570.4687500000,149006.0312500000,148424.3281250000,,,
2.5919999958,20,130424.6015625000,140436.8906250000,160802.6406250000,151113.1093750000,155631.1562500000,137643.0156250000,149078.3281250000,148467.2968750000,,,
2.5959999957,20,130358.9687500000,140375.1406250000,160754.8125000000,151045.3750000000,155623.3125000000,137583.4218750000,149024.1093750000,148476.4062500000,,,
2.5999999957,20,130229.6093750000,140248.9531250000,160670.7500000000,150903.2656250000,155534.6406250000,137467.7656250000,148913.6562500000,148422.7187500000,,,
2.6039999959,20,130216.1953125000,140228.7031250000,160674.2343750000,150896.6718750000,155485.6718750000,137454.2656250000,148898.0000000000,148398.9531250000,,,
2.6079999958,20,130327.2968750000,140331.2656250000,160742.9531250000,151037.6562500000,155585.9843750000,137551.9375000000,148991.4531250000,148409.9687500000,,,
2.6119999958,20,130418.6250000000,140436.2968750000,160812.9062500000,151125.7343750000,155642.6093750000,137639.9375000000,149077.2812500000,148478.0937500000,,,
2.6159999957,20,130366.3437500000,140391.1875000000,160762.6250000000,151050.7343750000,155623.5625000000,137601.6093750000,149033.1562500000,148507.3281250000,,,
2.6199999957,20,130224.9140625000,140248.4687500000,160652.3593750000,150909.5781250000,155543.9531250000,137466.7656250000,148904.1875000000,148420.7500000000,,,
2.6239999956,20,130205.0390625000,140231.7812500000,160645.0625000000,150901.8437500000,155527.3281250000,137444.1562500000,148885.6562500000,148378.9062500000,,,
2.6279999958,20,130335.1562500000,140364.8750000000,160743.4062500000,151119.0000000000,155616.3437500000,137560.8593750000,148998.3125000000,148431.7968750000,,,
2.6319999958,20,130436.6718750000,140465.6406250000,160844.7968750000,151197.5312500000,155690.3437500000,137655.6250000000,149089.4062500000,148515.5156250000,,,
2.6359999957,20,130359.4296875000,140380.1562500000,160786.7343750000,150993.8750000000,155605.0781250000,137591.1250000000,149030.3437500000,148482.0468750000,,,
2.6399999957,20,130213.3828125000,140246.5312500000,160657.0000000000,150865.1093750000,155527.7812500000,137458.8281250000,148900.6562500000,148416.7500000000,,,
2.6439999957,20,130189.5078125000,140223.9687500000,160624.8125000000,150866.0468750000,155498.5625000000,137434.6875000000,148874.1250000000,148378.7500000000,,,
2.6479999959,20,130305.1406250000,140337.2187500000,160713.9062500000,151001.0156250000,155553.6093750000,137538.3906250000,148976.6406250000,148402.1875000000,,,
2.6519999958,20,130399.0937500000,140428.5000000000,160800.8437500000,151101.2968750000,155613.7656250000,137622.9843750000,149060.2656250000,148461.5468750000,,,
2.6559999958,20,130345.6406250000,140374.2656250000,160780.4531250000,151036.5000000000,155591.2968750000,137576.0468750000,149018.6406250000,148479.0156250000,,,
2.6599999957,20,130219.7890625000,140252.4375000000,160672.6562500000,150897.6406250000,155535.7187500000,137461.1093750000,148909.5937500000,148439.5000000000,,,
2.6639999957,20,130204.9296875000,140225.5312500000,160646.1250000000,150887.3125000000,155513.3125000000,137444.7187500000,148892.6875000000,148400.7656250000,,,
2.6679999956,20,130325.0156250000,140330.0625000000,160743.6093750000,151022.8750000000,155574.1250000000,137553.8125000000,148986.7500000000,148411.1718750000,,,
2.6719999958,20,130425.6250000000,140437.0468750000,160821.6875000000,151136.6562500000,155653.5937500000,137638.2656250000,149076.6406250000,148470.1093750000,,,
2.6759999958,20,130364.4140625000,140382.5156250000,160765.5468750000,151068.0468750000,155646.4375000000,137583.1718750000,149024.2187500000,148470.6406250000,,,
2.6799999957,20,130228.0000000000,140237.5156250000,160660.2968750000,150919.0468750000,155568.7031250000,137460.6250000000,148906.4531250000,148422.2031250000,,,
2.6839999957,20,130210.7812500000,140216.2187500000,160647.2031250000,150896.2968750000,155523.9218750000,137442.4687500000,148893.1406250000,148393.9531250000,,,
2.6879999957,21,130319.7812500000,140342.4531250000,160729.7343750000,151019.6875000000,155561.0156250000,137540.1875000000,148985.8125000000,148419.3281250000,,,
2.6919999956,21,130419.3203125000,140450.0312500000,160823.3750000000,151126.4375000000,155616.5000000000,137633.5781250000,149077.3125000000,148484.1406250000,,,
2.6959999956,21,130374.9062500000,140412.0781250000,160794.9062500000,151071.9531250000,155621.1406250000,137599.6406250000,149038.1250000000,148507.7343750000,,,
2.6999999955,21,130238.9921875000,140264.6718750000,160690.7343750000,150932.9687500000,155533.9218750000,137471.3906250000,148916.3125000000,148446.1562500000,,,
2.7039999955,21,130209.7031250000,140229.8750000000,160646.6406250000,150912.5000000000,155521.2656250000,137438.3593750000,148890.0312500000,148387.5781250000,,,
2.7079999954,21,130326.9453125000,140347.7656250000,160703.9531250000,151038.4218750000,155589.2812500000,137541.9218750000,148990.2343750000,148419.1250000000,,,
2.7119999956,21,130427.0156250000,140431.0468750000,160795.6406250000,151142.8437500000,155656.6875000000,137632.7500000000,149076.0468750000,148480.7031250000,,,
2.7159999956,21,130378.4453125000,140378.7343750000,160787.2187500000,151099.1250000000,155665.9375000000,137588.2500000000,149042.3281250000,148505.5156250000,,,
2.7199999955,21,130237.6796875000,140251.0156250000,160672.9843750000,150943.8593750000,155590.8593750000,137460.6875000000,148920.2031250000,148445.2187500000,,,
2.7239999955,21,130206.5937500000,140214.2656250000,160641.0312500000,150904.4062500000,155535.2812500000,137428.0468750000,148889.0468750000,148407.4843750000,,,
2.7279999955,21,130320.4531250000,140338.1093750000,160727.8906250000,151025.2812500000,155565.2500000000,137528.2187500000,148981.7968750000,148424.7187500000,,,
2.7319999957,21,130417.0156250000,140445.2031250000,160820.4687500000,151132.6875000000,155626.2187500000,137617.6250000000,149075.6718750000,148470.7500000000,,,
2.7359999956,21,130362.2421875000,140403.9218750000,160793.7656250000,151045.2656250000,155609.7500000000,137574.5156250000,149033.7656250000,148492.0468750000,,,
2.7399999956,21,130225.8281250000,140273.3593750000,160678.5000000000,150882.7031250000,155531.4843750000,137451.8593750000,148913.0781250000,148445.0312500000,,,
2.7439999955,21,130210.1093750000,140247.2031250000,160645.8593750000,150886.7187500000,155509.3281250000,137438.5781250000,148889.6093750000,148415.6875000000,,,
2.7479999955,21,130323.8046875000,140335.8281250000,160719.0312500000,151021.3750000000,155570.9375000000,137531.4687500000,148985.2812500000,148416.9375000000,,,
2.7519999954,21,130421.0078125000,140430.9687500000,160805.5937500000,151122.5937500000,155650.3281250000,137620.4062500000,149069.7968750000,148457.2812500000,,,
2.7559999956,21,130370.4765625000,140389.3281250000,160783.5468750000,151061.6093750000,155647.5625000000,137580.5468750000,149035.6718750000,148477.6718750000,,,
2.7599999956,21,130240.8203125000,140238.6250000000,160675.7968750000,150926.4531250000,155570.1250000000,137462.8593750000,148923.9843750000,148457.0781250000,,,
2.7639999955,21,130203.8593750000,140182.1406250000,160635.8593750000,150887.6875000000,155521.9531250000,137422.0312500000,148886.0625000000,148381.5468750000,,,
2.7679999955,21,130315.4140625000,140338.4218750000,160739.3437500000,151011.8281250000,155569.9687500000,137524.8125000000,148983.6718750000,148395.4531250000,,,
2.7719999955,21,130429.6171875000,140464.9218750000,160827.7968750000,151148.6093750000,155654.8593750000,137633.1562500000,149085.0000000000,148476.0625000000,,,
2.7759999956,21,130377.1328125000,140412.2968750000,160782.6562500000,151086.1250000000,155655.7500000000,137590.8437500000,149038.1718750000,148501.2187500000,,,
2.7799999956,21,130248.1953125000,140285.7500000000,160684.6406250000,150929.6875000000,155589.0312500000,137474.5781250000,148924.0937500000,148455.6250000000,,,
2.7839999956,21,130205.2265625000,140235.4062500000,160644.2187500000,150884.9218750000,155522.0937500000,137431.0781250000,148884.6718750000,148390.7968750000,,,
2.7879999955,21,130311.3593750000,140334.5625000000,160713.5312500000,151004.9843750000,155557.8125000000,137524.8125000000,148977.9062500000,148400.5781250000,,,
2.7919999955,21,130419.5078125000,140440.5625000000,160799.9062500000,151123.7812500000,155637.2343750000,137625.5312500000,149067.7031250000,148475.4375000000,,,
2.7959999954,21,130376.0546875000,140399.4687500000,160788.9375000000,151092.5625000000,155636.4375000000,137588.7656250000,149035.1875000000,148501.6562500000,,,
2.7999999956,21,130247.2578125000,140271.9843750000,160704.0625000000,150969.2343750000,155579.2187500000,137471.2187500000,148933.1406250000,148444.2812500000,,,
2.8039999956,21,130225.5000000000,140256.2968750000,160676.2187500000,150917.7500000000,155540.2500000000,137449.9843750000,148913.1562500000,148417.7187500000,,,
2.8079999955,21,130338.9062500000,140369.1875000000,160750.9218750000,151042.2187500000,155594.5625000000,137550.9375000000,149010.4062500000,148452.3281250000,,,
2.8119999955,21,130433.3203125000,140444.4531250000,160829.1093750000,151135.5000000000,155668.5468750000,137635.7812500000,149097.1562500000,148472.0312500000,,,
2.8159999955,22,130373.6171875000,140369.7812500000,160794.2343750000,151026.6875000000,155640.4062500000,137585.8125000000,149043.0312500000,148470.7031250000,,,
2.8199999954,22,130238.1875000000,140248.8125000000,160678.5625000000,150886.5625000000,155566.2187500000,137464.4375000000,148917.3593750000,148427.5468750000,,,
2.8239999954,22,130201.4453125000,140226.0156250000,160633.6093750000,150865.6875000000,155528.2031250000,137424.4218750000,148883.3750000000,148381.4062500000,,,
2.8279999953,22,130313.9609375000,140336.8750000000,160719.5625000000,150992.5937500000,155566.7500000000,137526.0156250000,148987.6093750000,148406.2968750000,,,
2.8319999953,22,130432.1640625000,140447.4062500000,160827.6562500000,151121.1562500000,155635.8125000000,137636.3437500000,149093.3125000000,148477.3437500000,,,
2.8359999952,22,130391.2890625000,140391.8750000000,160821.7031250000,151072.1250000000,155615.2187500000,137602.3281250000,149057.8281250000,148501.2500000000,,,
2.8399999954,22,130266.4062500000,140277.4062500000,160716.8906250000,150930.2031250000,155544.1093750000,137487.8750000000,148953.1250000000,148461.0468750000,,,
2.8439999954,22,130218.6406250000,140247.4375000000,160661.0156250000,150882.2968750000,155515.0312500000,137440.0781250000,148902.6406250000,148400.5000000000,,,
2.8479999953,22,130329.8125000000,140360.7187500000,160739.8125000000,151007.2031250000,155569.1562500000,137538.4375000000,148995.2812500000,148422.7187500000,,,
2.8519999953,22,130432.7343750000,140445.0937500000,160810.5000000000,151117.9843750000,155655.6718750000,137633.6250000000,149084.1718750000,148476.7656250000,,,
2.8559999953,22,130388.3125000000,140398.9375000000,160786.1406250000,151071.1718750000,155657.9687500000,137600.7968750000,149050.0000000000,148489.8281250000,,,
2.8599999954,22,130254.1796875000,140270.3750000000,160694.3906250000,150931.2500000000,155580.8906250000,137481.5000000000,148936.4687500000,148444.8125000000,,,
2.8639999954,22,130224.8593750000,140244.1718750000,160658.1250000000,150911.0468750000,155539.3437500000,137453.3281250000,148907.7968750000,148416.2812500000,,,
2.8679999954,22,130328.5546875000,140349.7187500000,160727.5937500000,151031.6718750000,155579.2812500000,137544.2031250000,148995.2031250000,148438.4062500000,,,
2.8719999953,22,130423.1015625000,140426.4218750000,160808.8125000000,151123.5625000000,155636.8281250000,137629.6093750000,149079.5625000000,148474.7187500000,,,
2.8759999953,22,130390.0859375000,140382.8750000000,160807.6718750000,151079.8125000000,155619.2656250000,137596.9375000000,149047.8281250000,148495.1093750000,,,
2.8799999952,22,130268.0468750000,140262.0937500000,160728.2656250000,150950.0468750000,155552.7968750000,137482.4687500000,148942.7656250000,148449.5937500000,,,
2.8839999954,22,130240.0390625000,140255.7656250000,160683.5781250000,150932.4843750000,155565.5625000000,137456.2031250000,148917.3125000000,148427.4062500000,,,
2.8879999954,22,130349.2578125000,140365.7343750000,160767.9843750000,151040.3906250000,155584.3437500000,137554.4062500000,149005.8750000000,148444.3593750000,,,
2.8919999953,22,130448.3437500000,140459.2031250000,160847.4375000000,151152.0468750000,155639.2031250000,137646.3750000000,149095.1406250000,148496.7968750000,,,
2.8959999953,22,130407.2734375000,140431.1718750000,160819.7031250000,151066.0312500000,155613.5000000000,137618.9843750000,149061.4531250000,148526.6406250000,,,
2.8999999953,22,130263.3515625000,140284.2656250000,160673.1718750000,150919.6093750000,155580.1562500000,137491.3125000000,148935.6250000000,148443.9843750000,,,
2.9039999954,22,130205.0078125000,140218.5625000000,160607.2343750000,150871.9218750000,155542.9531250000,137433.6718750000,148876.6718750000,148374.2656250000,,,
2.9079999954,22,130306.8046875000,140323.5468750000,160695.2187500000,150990.0468750000,155575.5000000000,137518.2187500000,148965.4062500000,148400.9062500000,,,
2.9119999954,22,130420.7968750000,140435.9218750000,160796.7031250000,151104.1406250000,155641.4687500000,137623.3125000000,149069.3125000000,148465.3281250000,,,
2.9159999953,22,130387.1875000000,140392.3125000000,160787.6093750000,151065.7812500000,155649.7968750000,137593.6406250000,149044.0781250000,148486.5781250000,,,
2.9199999953,22,130251.8671875000,140247.8281250000,160682.2812500000,150918.4843750000,155564.7187500000,137468.9375000000,148922.0781250000,148440.8125000000,,,
2.9239999952,22,130225.2890625000,140240.0156250000,160665.1406250000,150892.6718750000,155508.4062500000,137441.7187500000,148893.4687500000,148408.6093750000,,,
2.9279999954,22,130329.9453125000,140341.0000000000,160751.3593750000,151016.8593750000,155547.2500000000,137531.3906250000,148979.7500000000,148416.8125000000,,,
2.9319999954,22,130433.7734375000,140427.9375000000,160816.6718750000,151145.1250000000,155640.2500000000,137626.3593750000,149068.3750000000,148483.6250000000,,,
2.9359999953,22,130388.6328125000,140394.6406250000,160782.5781250000,151071.6562500000,155636.8125000000,137588.8437500000,149036.1406250000,148484.4062500000,,,
2.9399999953,22,130254.2031250000,140283.5781250000,160678.2968750000,150913.5468750000,155555.9687500000,137469.5000000000,148923.9843750000,148442.5312500000,,,
2.9439999952,23,130208.8984375000,140234.1718750000,160627.8437500000,150877.9531250000,155517.1875000000,137428.8437500000,148875.5000000000,148397.0625000000,,,
