Time:250Hz,Epoch,Channel 1,Channel 2,Channel 3,Channel 4,Channel 5,Channel 6,Channel 7,Channel 8,Event Id,Event Date,Event Duration
0.0000000000,0,130712.0312500000,140011.4843750000,160532.8281250000,151560.0937500000,154744.2500000000,137352.5312500000,148759.2500000000,148314.0781250000,,,
0.0040000000,0,130607.6640625000,139908.3281250000,160455.3125000000,151443.6093750000,154716.1718750000,137257.3125000000,148660.7343750000,148293.3437500000,,,
0.0079999999,0,130602.2500000000,139909.8593750000,160438.5781250000,151433.5468750000,154696.4218750000,137252.5781250000,148656.7343750000,148274.5000000000,,,
0.0119999999,0,130711.4687500000,140019.2656250000,160512.2812500000,151548.7968750000,154739.1562500000,137345.3750000000,148759.6718750000,148277.2500000000,,,
0.0159999998,0,130789.3828125000,140098.2343750000,160566.9531250000,151631.3906250000,154800.7031250000,137418.5781250000,148823.4062500000,148319.2031250000,,,
0.0199999998,0,130746.7343750000,140049.9218750000,160542.6562500000,151568.1875000000,154808.4843750000,137391.3750000000,148772.9843750000,148331.3750000000,,,
0.0240000000,0,130660.2890625000,139953.1562500000,160487.5625000000,151454.4375000000,154769.0312500000,137321.3750000000,148682.7187500000,148319.9062500000,,,
0.0279999999,0,130656.0546875000,139942.8750000000,160490.0312500000,151443.4218750000,154732.1250000000,137313.1406250000,148667.1718750000,148305.2343750000,,,
0.0319999999,0,130756.1250000000,140034.5000000000,160542.7343750000,151560.0156250000,154780.2187500000,137397.0625000000,148748.2500000000,148312.8750000000,,,
0.0359999998,0,130843.0546875000,140137.9375000000,160611.6562500000,151635.8593750000,154782.7187500000,137485.4375000000,148815.0312500000,148342.4531250000,,,
0.0399999998,0,130789.3828125000,140079.6250000000,160565.6875000000,151576.3750000000,154789.8437500000,137444.4843750000,148765.9843750000,148352.8437500000,,,
0.0440000000,0,130670.0234375000,139945.1562500000,160461.2500000000,151443.0156250000,154756.5625000000,137340.5468750000,148668.1875000000,148317.5937500000,,,
0.0480000000,0,130662.3281250000,139934.2500000000,160447.1406250000,151435.9062500000,154730.4843750000,137330.5468750000,148675.7031250000,148291.2500000000,,,
0.0519999999,0,130780.0468750000,140054.2187500000,160528.5156250000,151575.3750000000,154757.5312500000,137431.0937500000,148789.8750000000,148324.6718750000,,,
0.0559999999,0,130865.2109375000,140150.9375000000,160601.8437500000,151644.2812500000,154785.5312500000,137510.1093750000,148871.3125000000,148353.7812500000,,,
0.0599999998,0,130796.4140625000,140060.8437500000,160564.2500000000,151551.8281250000,154741.5937500000,137455.2187500000,148815.6250000000,148333.2343750000,,,
0.0639999998,0,130687.6718750000,139951.3593750000,160480.7656250000,151434.4843750000,154694.0468750000,137357.7968750000,148711.3906250000,148320.5468750000,,,
0.0680000000,0,130701.6484375000,139961.5468750000,160480.3906250000,151442.0781250000,154685.1406250000,137360.1875000000,148717.3750000000,148310.8906250000,,,
0.0719999999,0,130831.9765625000,140087.5781250000,160579.0781250000,151591.7500000000,154698.7812500000,137480.7500000000,148837.4375000000,148376.3437500000,,,
0.0759999999,0,130919.6093750000,140162.8437500000,160654.9218750000,151659.7031250000,154695.9218750000,137565.9375000000,148930.8593750000,148400.9062500000,,,
0.0799999998,0,130819.3984375000,140062.8281250000,160552.5781250000,151573.9375000000,154742.3125000000,137473.9062500000,148840.2031250000,148279.7968750000,,,
0.0839999998,0,130707.9765625000,139983.2500000000,160492.3593750000,151443.4218750000,154675.6875000000,137373.4062500000,148746.4843750000,148283.9062500000,,,
0.0880000000,0,130698.8593750000,139964.1562500000,160476.8281250000,151440.5156250000,154648.6093750000,137360.7187500000,148742.9687500000,148286.2656250000,,,
0.0919999999,0,130797.8906250000,140060.5156250000,160530.5781250000,151539.5781250000,154660.7031250000,137454.1406250000,148829.3906250000,148295.0937500000,,,
0.0959999999,0,130867.3828125000,140141.0468750000,160586.8750000000,151616.1562500000,154683.3593750000,137517.1718750000,148894.6718750000,148329.5625000000,,,
0.0999999999,0,130807.4921875000,140090.8281250000,160558.7187500000,151558.9062500000,154659.3593750000,137462.6406250000,148848.5468750000,148356.0000000000,,,
0.1039999998,0,130708.5156250000,139992.7187500000,160512.0156250000,151432.0156250000,154563.3906250000,137374.5000000000,148762.3281250000,148408.7968750000,,,
0.1079999998,0,130666.7578125000,139913.4843750000,160462.4843750000,151420.6250000000,154561.6250000000,137328.2031250000,148711.3750000000,148279.0781250000,,,
0.1120000000,0,130739.1718750000,140012.2187500000,160495.0625000000,151520.8437500000,154602.8750000000,137390.2500000000,148768.2656250000,148220.8281250000,,,
0.1159999999,0,130804.9375000000,140100.2187500000,160539.5156250000,151590.1093750000,154624.6250000000,137451.9687500000,148824.1562500000,148261.5156250000,,,
0.1199999999,0,130753.9765625000,140051.4062500000,160510.1406250000,151534.7187500000,154609.6093750000,137406.0937500000,148784.3281250000,148297.3750000000,,,
0.1239999998,0,130648.6484375000,139951.8906250000,160438.2343750000,151422.2343750000,154557.3750000000,137312.9687500000,148690.5000000000,148301.0781250000,,,
0.1279999998,1,130641.8593750000,139952.7031250000,160442.0625000000,151420.3437500000,154561.0000000000,137303.6718750000,148683.9531250000,148287.7968750000,,,
0.1319999998,1,130748.8281250000,140052.0937500000,160524.7656250000,151546.2187500000,154609.2343750000,137394.9218750000,148784.0625000000,148292.0000000000,,,
0.1359999997,1,130826.0468750000,140146.9375000000,160582.9062500000,151640.2031250000,154657.4218750000,137478.0156250000,148848.5625000000,148342.1093750000,,,
0.1399999997,1,130785.0390625000,140113.5156250000,160569.3593750000,151611.0312500000,154672.6406250000,137450.3593750000,148817.7812500000,148381.3593750000,,,
0.1439999996,1,130695.3750000000,140012.1406250000,160536.1562500000,151510.5781250000,154624.3593750000,137359.7031250000,148742.7031250000,148374.5625000000,,,
0.1479999996,1,130678.9609375000,139983.3750000000,160505.3906250000,151487.3281250000,154602.2343750000,137342.5625000000,148721.8281250000,148371.1875000000,,,
0.1519999998,1,130766.4531250000,140065.7500000000,160548.7968750000,151591.2812500000,154632.1562500000,137423.9375000000,148799.0000000000,148378.5156250000,,,
0.1559999997,1,130825.8593750000,140136.0312500000,160606.2968750000,151647.3750000000,154636.9687500000,137466.8593750000,148858.9687500000,148343.3125000000,,,
0.1599999997,1,130762.5625000000,140085.9531250000,160575.6718750000,151597.7031250000,154637.7656250000,137405.4218750000,148799.5312500000,148357.5312500000,,,
0.1639999996,1,130661.7343750000,139985.7968750000,160517.8437500000,151500.9218750000,154637.0468750000,137318.9843750000,148710.3750000000,148370.2812500000,,,
0.1679999996,1,130631.2421875000,139947.9687500000,160484.0468750000,151463.8593750000,154602.0156250000,137289.1093750000,148683.3906250000,148320.0312500000,,,
0.1719999998,1,130727.0234375000,140055.1562500000,160529.6406250000,151566.6093750000,154604.9687500000,137376.5468750000,148768.0000000000,148349.6250000000,,,
0.1759999997,1,130799.3125000000,140125.8593750000,160575.0781250000,151648.5000000000,154637.8125000000,137436.6562500000,148835.9062500000,148351.6406250000,,,
0.1799999997,1,130753.4453125000,140061.2500000000,160551.2343750000,151588.0625000000,154637.3593750000,137396.2500000000,148793.7968750000,148376.9531250000,,,
0.1839999997,1,130648.2968750000,139959.1875000000,160470.7968750000,151435.0468750000,154577.7656250000,137303.1875000000,148697.2031250000,148379.9375000000,,,
0.1879999996,1,130620.1875000000,139920.5625000000,160450.9218750000,151407.9531250000,154536.5937500000,137268.4687500000,148671.1406250000,148314.5625000000,,,
0.1919999996,1,130702.6171875000,140005.7500000000,160507.7812500000,151516.2968750000,154567.7343750000,137338.1406250000,148742.2656250000,148291.6875000000,,,
0.1959999998,1,130760.8984375000,140077.8281250000,160529.7187500000,151576.2656250000,154621.0000000000,137391.9687500000,148791.2187500000,148275.7031250000,,,
0.1999999997,1,130718.0937500000,140044.1093750000,160523.0937500000,151531.7656250000,154617.7343750000,137356.0468750000,148754.9843750000,148316.2343750000,,,
0.2039999997,1,130619.4140625000,139946.3906250000,160472.5156250000,151425.1718750000,154571.9375000000,137265.4687500000,148663.5781250000,148340.7656250000,,,
0.2079999996,1,130586.5312500000,139906.9375000000,160442.2812500000,151402.3281250000,154538.4687500000,137228.1406250000,148635.0156250000,148274.8437500000,,,
0.2119999996,1,130678.5312500000,139998.8906250000,160504.5937500000,151516.8593750000,154540.5937500000,137308.2031250000,148718.7968750000,148276.3906250000,,,
0.2159999998,1,130756.6640625000,140069.3437500000,160576.2031250000,151577.4531250000,154574.2812500000,137378.0156250000,148789.6093750000,148308.7500000000,,,
0.2199999997,1,130702.6171875000,140002.9687500000,160504.2343750000,151536.7500000000,154647.8281250000,137336.7187500000,148733.8281250000,148304.2187500000,,,
0.2239999997,1,130604.9843750000,139909.0312500000,160426.0312500000,151448.5468750000,154629.0781250000,137248.4062500000,148643.1562500000,148308.5000000000,,,
0.2279999997,1,130585.5937500000,139898.0312500000,160418.1718750000,151382.5312500000,154575.4062500000,137224.0625000000,148625.0000000000,148305.1718750000,,,
0.2319999996,1,130661.3359375000,139958.4687500000,160459.3437500000,151471.8750000000,154591.3125000000,137287.6250000000,148691.6875000000,148267.6562500000,,,
0.2359999996,1,130740.2968750000,140064.4843750000,160516.5781250000,151580.7656250000,154639.6250000000,137365.0156250000,148769.2500000000,148282.6250000000,,,
0.2399999998,1,130701.8125000000,140029.7343750000,160508.2656250000,151530.8281250000,154640.4687500000,137337.5156250000,148743.5000000000,148307.2187500000,,,
0.2439999997,1,130599.0781250000,139925.7968750000,160437.9375000000,151404.5468750000,154607.2500000000,137246.0468750000,148652.7187500000,148312.1718750000,,,
0.2479999997,1,130580.3359375000,139890.9843750000,160427.3125000000,151380.7031250000,154572.5312500000,137224.5937500000,148637.6093750000,148303.5468750000,,,
0.2519999996,1,130665.8671875000,139984.3750000000,160491.9375000000,151482.8125000000,154595.6093750000,137298.3281250000,148715.0000000000,148269.2656250000,,,
0.2559999996,2,130740.0859375000,140067.5000000000,160545.3281250000,151586.2500000000,154660.0625000000,137362.9687500000,148783.9843750000,148279.6093750000,,,
0.2599999995,2,130700.6328125000,140027.9062500000,160505.8437500000,151549.8437500000,154685.5937500000,137335.5781250000,148742.6250000000,148297.5625000000,,,
0.2639999995,2,130603.3203125000,139928.1250000000,160435.7031250000,151424.3750000000,154643.1250000000,137253.3437500000,148647.0312500000,148296.3281250000,,,
0.2679999995,2,130589.9062500000,139915.0312500000,160422.7812500000,151398.9375000000,154613.3593750000,137238.6250000000,148632.1093750000,148284.2343750000,,,
0.2719999994,2,130696.8984375000,140024.5000000000,160499.6875000000,151518.2031250000,154640.1562500000,137330.0312500000,148731.5156250000,148296.9375000000,,,
0.2759999994,2,130777.1796875000,140110.2500000000,160575.1250000000,151606.7968750000,154673.0625000000,137405.8906250000,148805.7343750000,148325.5937500000,,,
0.2799999996,2,130735.6875000000,140072.2500000000,160562.4375000000,151571.1093750000,154661.9062500000,137369.3593750000,148772.5312500000,148381.1406250000,,,
0.2839999995,2,130624.2656250000,139931.2968750000,160475.2968750000,151452.5937500000,154588.6875000000,137266.8125000000,148670.6562500000,148358.1562500000,,,
0.2879999995,2,130578.2109375000,139895.2968750000,160414.6250000000,151411.7968750000,154568.1875000000,137219.9843750000,148626.8750000000,148273.7656250000,,,
0.2919999994,2,130666.6171875000,140011.2500000000,160449.0625000000,151518.8906250000,154623.9843750000,137306.5937500000,148699.5937500000,148249.6093750000,,,
0.2959999994,2,130757.2500000000,140096.6562500000,160522.5625000000,151608.4218750000,154657.5000000000,137395.2656250000,148787.2812500000,148279.3281250000,,,
0.2999999996,2,130732.9765625000,140057.8906250000,160528.2500000000,151559.4218750000,154660.2500000000,137372.1406250000,148773.6562500000,148323.1718750000,,,
0.3039999995,2,130636.2265625000,139936.7187500000,160478.7031250000,151441.6718750000,154612.1562500000,137275.9062500000,148685.1718750000,148324.1875000000,,,
0.3079999995,2,130603.1875000000,139922.4218750000,160445.4218750000,151401.3125000000,154555.0000000000,137237.6250000000,148653.1718750000,148273.7656250000,,,
0.3119999995,2,130702.4296875000,140034.6406250000,160507.6406250000,151509.6718750000,154556.0625000000,137328.0000000000,148750.0781250000,148273.9843750000,,,
0.3159999994,2,130797.0000000000,140113.0937500000,160575.9375000000,151615.2187500000,154590.4062500000,137415.4375000000,148842.2968750000,148316.5468750000,,,
0.3199999994,2,130752.9062500000,140072.4531250000,160566.5468750000,151566.1250000000,154614.9375000000,137377.5000000000,148804.9218750000,148333.2656250000,,,
0.3239999996,2,130648.8671875000,139981.0156250000,160501.5625000000,151449.0468750000,154582.7812500000,137286.4687500000,148714.9375000000,148332.0468750000,,,
0.3279999995,2,130612.5703125000,139938.2187500000,160449.7187500000,151415.0937500000,154554.2968750000,137253.9687500000,148678.7031250000,148277.5312500000,,,
0.3319999995,2,130690.6796875000,140012.7031250000,160484.2031250000,151514.8906250000,154570.9218750000,137320.6250000000,148751.5312500000,148259.3437500000,,,
0.3359999994,2,130778.3593750000,140108.6718750000,160552.8125000000,151612.3437500000,154605.5468750000,137405.6718750000,148834.7500000000,148295.0156250000,,,
0.3399999994,2,130745.7734375000,140075.3750000000,160551.9375000000,151567.9843750000,154591.0937500000,137375.0156250000,148812.1718750000,148320.9687500000,,,
0.3439999996,2,130638.4062500000,139962.8281250000,160477.7343750000,151448.4843750000,154552.0625000000,137275.8593750000,148713.6250000000,148309.0156250000,,,
0.3479999995,2,130611.6875000000,139933.2187500000,160453.3125000000,151415.0312500000,154509.1875000000,137245.9531250000,148683.3906250000,148285.7031250000,,,
0.3519999995,2,130712.2421875000,140043.2812500000,160529.7500000000,151515.2187500000,154491.1093750000,137336.7343750000,148774.8593750000,148303.5937500000,,,
0.3559999994,2,130795.0937500000,140119.6718750000,160593.8281250000,151616.8281250000,154527.9531250000,137418.6562500000,148847.9687500000,148329.2031250000,,,
0.3599999994,2,130755.6406250000,140073.9062500000,160541.5000000000,151588.0468750000,154581.1250000000,137383.7812500000,148807.2031250000,148332.4218750000,,,
0.3639999994,2,130651.3593750000,139974.0000000000,160483.9843750000,151464.9843750000,154520.1250000000,137279.8437500000,148717.4062500000,148320.0312500000,,,
0.3679999996,2,130628.9062500000,139952.7031250000,160457.3281250000,151427.2500000000,154501.1406250000,137256.9375000000,148696.1562500000,148303.0000000000,,,
0.3719999995,2,130722.4921875000,140043.4843750000,160512.5625000000,151533.7812500000,154538.3437500000,137348.9375000000,148780.5781250000,148331.2187500000,,,
0.3759999995,2,130800.0312500000,140116.9062500000,160571.7812500000,151627.4218750000,154580.5781250000,137420.9375000000,148854.9218750000,148327.4687500000,,,
0.3799999994,2,130767.2578125000,140098.7968750000,160572.1562500000,151579.1406250000,154586.6093750000,137390.2968750000,148833.7031250000,148341.4687500000,,,
0.3839999994,3,130666.5937500000,139994.0000000000,160518.4375000000,151467.3125000000,154540.4531250000,137291.1093750000,148748.7031250000,148337.7343750000,,,
0.3879999993,3,130637.9765625000,139956.3125000000,160486.0625000000,151426.0937500000,154531.5312500000,137261.5000000000,148718.9375000000,148295.8750000000,,,
0.3919999993,3,130722.0625000000,140037.2187500000,160541.6875000000,151517.3593750000,154552.9531250000,137336.5312500000,148793.5312500000,148293.8281250000,,,
0.3959999993,3,130812.6406250000,140127.8437500000,160597.3437500000,151635.0312500000,154634.2812500000,137422.3593750000,148874.2656250000,148329.0781250000,,,
0.3999999992,3,130779.9453125000,140095.4375000000,160575.3125000000,151592.6250000000,154646.4843750000,137394.9218750000,148845.0312500000,148358.9843750000,,,
0.4039999992,3,130669.9453125000,139979.0937500000,160503.8906250000,151465.2187500000,154588.6562500000,137288.6718750000,148748.0625000000,148339.6093750000,,,
0.4079999994,3,130631.6171875000,139947.8906250000,160475.7343750000,151435.3906250000,154548.6093750000,137258.3906250000,148711.3750000000,148322.1093750000,,,
0.4119999993,3,130710.4218750000,140030.0781250000,160527.7031250000,151542.2500000000,154550.6718750000,137335.0468750000,148779.9062500000,148307.5156250000,,,
0.4159999993,3,130784.9296875000,140085.5937500000,160565.2812500000,151599.3125000000,154614.1875000000,137400.7656250000,148846.2343750000,148329.8281250000,,,
0.4199999992,3,130748.6718750000,140054.0000000000,160540.0781250000,151566.9375000000,154628.4531250000,137370.0468750000,148813.5625000000,148316.3593750000,,,
0.4239999992,3,130649.1015625000,139980.0000000000,160485.0625000000,151500.6562500000,154600.2968750000,137282.6093750000,148723.1718750000,148323.5000000000,,,
0.4279999994,3,130617.3750000000,139946.3125000000,160473.0000000000,151412.3906250000,154557.3593750000,137255.8437500000,148697.6093750000,148314.3750000000,,,
0.4319999993,3,130693.4453125000,140012.5312500000,160511.3750000000,151467.2812500000,154564.3593750000,137324.7187500000,148766.5937500000,148281.2031250000,,,
0.4359999993,3,130774.9843750000,140116.4218750000,160571.8281250000,151553.9218750000,154579.5156250000,137402.1562500000,148845.0781250000,148305.0468750000,,,
0.4399999992,3,130734.6406250000,140072.7031250000,160535.6562500000,151518.0312500000,154595.2812500000,137367.3125000000,148804.2343750000,148312.2031250000,,,
0.4439999992,3,130632.2578125000,139963.3750000000,160466.3437500000,151404.2343750000,154567.5781250000,137266.2812500000,148714.6406250000,148302.0625000000,,,
0.4479999992,3,130615.2265625000,139935.7500000000,160463.1562500000,151381.7812500000,154524.5000000000,137244.5000000000,148701.1718750000,148319.2343750000,,,
0.4519999993,3,130694.6718750000,140006.0781250000,160499.0156250000,151479.2031250000,154563.9531250000,137316.1875000000,148768.2812500000,148264.4062500000,,,
0.4559999993,3,130769.2968750000,140109.2031250000,160531.5468750000,151575.1718750000,154642.2500000000,137391.4218750000,148828.3750000000,148299.5156250000,,,
0.4599999993,3,130739.5781250000,140057.0156250000,160538.0312500000,151541.9375000000,154650.3125000000,137363.5937500000,148811.5312500000,148314.4375000000,,,
0.4639999992,3,130648.4375000000,139974.1875000000,160502.3125000000,151422.6093750000,154604.3750000000,137283.5000000000,148732.6875000000,148326.6562500000,,,
0.4679999992,3,130603.3984375000,139926.2187500000,160473.0781250000,151377.0312500000,154567.2031250000,137235.9687500000,148691.3125000000,148281.3906250000,,,
0.4719999994,3,130687.5390625000,140003.2343750000,160503.7812500000,151484.6406250000,154603.1718750000,137309.6718750000,148764.4218750000,148270.1406250000,,,
0.4759999993,3,130778.6250000000,140100.0625000000,160572.5625000000,151592.4687500000,154655.2812500000,137393.4062500000,148848.5625000000,148288.3281250000,,,
0.4799999993,3,130766.1796875000,140094.1875000000,160596.3281250000,151565.9375000000,154638.3906250000,137387.1406250000,148844.2968750000,148363.5625000000,,,
0.4839999992,3,130656.0000000000,139947.0312500000,160511.9375000000,151443.7343750000,154595.7656250000,137282.0156250000,148740.9218750000,148294.0781250000,,,
0.4879999992,3,130616.6250000000,139903.9375000000,160433.5937500000,151397.4687500000,154625.2187500000,137238.0000000000,148694.7968750000,148270.9531250000,,,
0.4919999992,3,130704.7578125000,140006.4687500000,160488.5312500000,151495.9843750000,154632.7187500000,137312.7656250000,148773.7343750000,148266.7343750000,,,
0.4959999993,3,130808.7734375000,140107.1406250000,160574.1875000000,151598.9531250000,154642.4843750000,137414.5000000000,148869.4531250000,148303.5937500000,,,
0.4999999993,3,130785.5781250000,140088.1718750000,160577.3281250000,151555.9843750000,154631.5468750000,137398.7031250000,148849.9687500000,148339.2656250000,,,
0.5039999993,3,130663.5078125000,139958.8593750000,160508.3437500000,151422.6562500000,154569.3125000000,137282.4843750000,148741.2812500000,148314.7187500000,,,
0.5079999992,3,130622.8750000000,139913.4062500000,160425.4687500000,151382.0156250000,154573.0937500000,137241.2187500000,148690.9375000000,148288.2812500000,,,
0.5119999992,4,130718.0937500000,140009.2187500000,160483.1875000000,151490.0312500000,154591.7656250000,137329.2031250000,148779.5781250000,148290.9687500000,,,
0.5159999991,4,130800.6484375000,140093.2500000000,160554.0156250000,151581.4687500000,154596.8125000000,137399.2031250000,148859.0312500000,148300.5312500000,,,
0.5199999991,4,130786.5703125000,140073.0000000000,160597.1562500000,151543.5625000000,154528.5937500000,137387.2500000000,148852.4531250000,148325.3437500000,,,
0.5239999990,4,130673.4843750000,139963.5937500000,160484.7968750000,151439.9062500000,154586.0000000000,137289.7968750000,148737.0625000000,148345.0625000000,,,
0.5279999990,4,130625.7968750000,139886.3125000000,160433.5625000000,151406.9062500000,154582.4531250000,137245.5156250000,148694.5468750000,148309.1250000000,,,
0.5319999990,4,130728.8437500000,139995.1093750000,160517.1093750000,151482.2500000000,154559.9218750000,137342.7500000000,148792.4843750000,148304.8281250000,,,
0.5359999991,4,130847.9609375000,140164.9687500000,160620.0781250000,151599.2187500000,154612.6406250000,137460.7656250000,148895.9375000000,148420.1562500000,,,
0.5399999991,4,130811.8593750000,140081.0468750000,160584.4062500000,151583.3750000000,154685.7031250000,137422.9687500000,148870.2968750000,148267.2187500000,,,
0.5439999991,4,130693.0156250000,139956.6093750000,160453.1406250000,151429.8125000000,154665.3906250000,137315.8750000000,148755.4375000000,148251.3750000000,,,
0.5479999990,4,130653.9296875000,139917.7187500000,160418.9531250000,151360.2343750000,154626.5312500000,137276.4375000000,148714.8593750000,148235.0312500000,,,
0.5519999990,4,130758.1875000000,140024.0937500000,160510.1718750000,151451.5156250000,154609.3281250000,137371.9218750000,148819.6250000000,148266.0937500000,,,
0.5559999992,4,130876.2109375000,140154.0000000000,160617.6406250000,151571.9531250000,154636.1562500000,137492.6250000000,148927.4843750000,148343.7968750000,,,
0.5599999991,4,130846.1093750000,140118.3281250000,160572.6718750000,151573.2812500000,154692.2343750000,137468.9375000000,148886.0156250000,148333.5312500000,,,
0.5639999991,4,130733.5156250000,139998.7031250000,160490.2187500000,151446.1250000000,154663.4843750000,137358.6718750000,148788.1875000000,148315.1093750000,,,
0.5679999990,4,130697.2265625000,139951.6250000000,160458.5625000000,151367.2656250000,154602.7031250000,137323.6562500000,148759.0312500000,148282.4843750000,,,
0.5719999990,4,130783.9375000000,140020.0781250000,160504.9687500000,151470.4062500000,154611.2968750000,137405.6250000000,148833.0937500000,148280.3593750000,,,
0.5759999990,4,130890.9062500000,140126.4218750000,160582.0781250000,151578.0937500000,154649.0312500000,137507.7812500000,148931.6406250000,148321.6406250000,,,
0.5799999991,4,130879.5625000000,140103.2968750000,160582.4062500000,151561.1875000000,154643.4062500000,137499.0625000000,148919.1406250000,148372.5468750000,,,
0.5839999991,4,130775.9765625000,139994.0781250000,160523.9062500000,151453.7500000000,154573.5781250000,137402.7187500000,148826.5937500000,148382.5312500000,,,
0.5879999991,4,130725.2812500000,139948.9218750000,160502.5000000000,151407.0468750000,154517.7656250000,137343.0468750000,148788.4843750000,148344.5312500000,,,
0.5919999990,4,130786.4609375000,140020.6718750000,160499.3125000000,151517.8281250000,154562.2968750000,137395.4218750000,148840.2812500000,148309.7343750000,,,
0.5959999990,4,130866.0156250000,140102.3437500000,160529.8593750000,151556.1250000000,154627.5156250000,137479.4062500000,148916.1250000000,148259.0625000000,,,
0.5999999992,4,130862.4218750000,140091.5000000000,160556.1406250000,151516.1562500000,154630.0937500000,137482.0937500000,148921.5781250000,148304.7500000000,,,
0.6039999991,4,130762.4531250000,139981.7187500000,160503.4687500000,151400.6562500000,154573.6093750000,137376.8125000000,148839.8281250000,148309.4375000000,,,
0.6079999991,4,130707.5468750000,139923.5625000000,160474.2343750000,151369.7968750000,154516.6718750000,137316.0312500000,148789.1562500000,148282.0781250000,,,
0.6119999990,4,130789.1953125000,140015.4375000000,160529.3437500000,151507.1718750000,154552.3906250000,137393.5000000000,148856.8593750000,148289.1406250000,,,
0.6159999990,4,130869.4453125000,140115.3125000000,160578.7500000000,151581.4687500000,154590.6875000000,137481.8125000000,148923.9843750000,148305.4531250000,,,
0.6199999989,4,130835.3281250000,140097.2656250000,160560.7343750000,151521.8437500000,154586.5625000000,137456.0468750000,148889.1250000000,148343.3750000000,,,
0.6239999991,4,130720.8515625000,139976.6250000000,160494.9843750000,151415.1250000000,154552.3437500000,137343.1718750000,148786.7656250000,148330.9062500000,,,
0.6279999991,4,130674.1328125000,139925.6093750000,160467.7656250000,151372.7656250000,154530.9531250000,137292.4062500000,148747.9843750000,148304.4218750000,,,
0.6319999991,4,130753.7109375000,140017.4687500000,160518.9687500000,151467.6875000000,154550.3593750000,137368.8125000000,148820.8906250000,148312.6093750000,,,
0.6359999990,4,130840.4296875000,140112.6406250000,160571.3437500000,151584.0781250000,154615.0468750000,137452.1250000000,148899.2031250000,148329.9375000000,,,
0.6399999990,5,130808.9140625000,140085.5156250000,160556.6250000000,151560.2031250000,154651.6093750000,137424.2031250000,148871.5781250000,148331.8906250000,,,
0.6439999989,5,130695.6406250000,139972.5156250000,160490.1250000000,151429.0937500000,154603.5625000000,137322.4218750000,148765.3593750000,148319.1250000000,,,
0.6479999989,5,130644.0859375000,139918.2500000000,160461.0625000000,151374.6718750000,154548.8281250000,137273.7656250000,148715.9062500000,148299.2500000000,,,
0.6519999988,5,130728.6093750000,139996.0156250000,160513.8906250000,151469.4062500000,154606.0312500000,137347.2500000000,148792.4843750000,148308.7187500000,,,
0.6559999988,5,130828.3593750000,140119.4531250000,160578.4843750000,151587.7656250000,154660.9687500000,137441.9375000000,148884.8593750000,148336.3437500000,,,
0.6599999988,5,130798.5078125000,140101.8281250000,160575.4062500000,151559.2812500000,154634.6250000000,137408.3281250000,148863.6406250000,148349.1093750000,,,
0.6639999989,5,130668.6328125000,139970.4531250000,160468.3593750000,151425.5781250000,154614.3750000000,137282.7187500000,148740.6562500000,148332.0781250000,,,
0.6679999989,5,130607.6093750000,139900.2656250000,160423.9843750000,151369.6250000000,154580.6093750000,137220.8125000000,148681.6562500000,148289.0625000000,,,
0.6719999989,5,130682.6328125000,139975.0468750000,160451.8593750000,151432.7187500000,154582.3750000000,137291.6562500000,148749.0625000000,148270.8750000000,,,
0.6759999988,5,130779.3281250000,140079.5312500000,160510.1406250000,151529.2500000000,154620.7031250000,137387.5625000000,148830.5156250000,148289.1093750000,,,
0.6799999988,5,130764.5234375000,140067.6093750000,160520.5000000000,151513.0781250000,154637.3125000000,137377.9687500000,148819.4687500000,148302.3281250000,,,
0.6839999990,5,130672.2500000000,139969.1875000000,160474.7343750000,151425.8437500000,154611.5625000000,137285.1562500000,148742.5156250000,148312.5000000000,,,
0.6879999989,5,130624.1640625000,139920.8125000000,160451.5156250000,151391.1093750000,154564.7500000000,137234.6562500000,148696.0312500000,148298.2343750000,,,
0.6919999989,5,130700.6015625000,140007.3125000000,160507.0625000000,151447.0312500000,154536.3750000000,137307.1875000000,148760.9843750000,148299.2187500000,,,
0.6959999988,5,130789.6015625000,140102.5000000000,160566.1250000000,151550.7343750000,154604.1250000000,137399.0937500000,148841.1875000000,148297.0000000000,,,
0.6999999988,5,130761.9453125000,140078.3593750000,160536.7812500000,151525.8593750000,154637.0468750000,137378.8750000000,148810.8750000000,148304.1250000000,,,
0.7039999987,5,130626.6562500000,139944.4843750000,160424.2343750000,151380.9687500000,154576.0156250000,137245.6250000000,148685.6250000000,148273.1250000000,,,
0.7079999989,5,130555.2031250000,139870.4843750000,160367.7187500000,151326.3437500000,154527.6562500000,137177.1250000000,148626.4531250000,148239.1718750000,,,
0.7119999989,5,130631.9687500000,139955.6406250000,160421.8750000000,151428.3437500000,154542.3593750000,137249.7500000000,148696.8281250000,148228.9531250000,,,
0.7159999989,5,130743.2812500000,140076.0000000000,160525.3437500000,151540.7812500000,154541.0000000000,137351.8593750000,148804.2031250000,148274.1718750000,,,
0.7199999988,5,130733.4609375000,140047.8281250000,160517.4062500000,151507.7031250000,154583.7187500000,137345.3437500000,148796.0781250000,148311.2343750000,,,
0.7239999988,5,130621.8828125000,139917.1250000000,160440.3281250000,151373.9218750000,154589.2968750000,137238.9218750000,148699.5468750000,148299.1406250000,,,
0.7279999990,5,130575.2109375000,139888.7812500000,160402.1093750000,151314.6406250000,154555.0468750000,137193.7031250000,148660.8906250000,148273.0468750000,,,
0.7319999989,5,130658.1718750000,139989.4375000000,160446.1718750000,151407.2656250000,154565.4531250000,137272.4687500000,148732.3437500000,148253.8593750000,,,
0.7359999989,5,130754.3515625000,140083.5937500000,160512.1875000000,151525.6250000000,154616.6093750000,137362.9218750000,148819.1093750000,148262.1250000000,,,
0.7399999988,5,130741.0781250000,140070.4218750000,160513.5468750000,151524.7656250000,154644.0468750000,137356.4843750000,148806.8906250000,148288.9843750000,,,
0.7439999988,5,130633.9765625000,139960.1875000000,160444.2968750000,151409.8593750000,154609.2031250000,137257.4531250000,148707.2656250000,148281.7656250000,,,
0.7479999987,5,130595.2500000000,139914.5312500000,160425.5156250000,151360.7187500000,154563.6093750000,137215.4218750000,148677.3906250000,148277.4375000000,,,
0.7519999989,5,130679.1718750000,140001.3750000000,160497.9375000000,151450.2343750000,154540.4218750000,137286.6562500000,148758.1718750000,148299.4375000000,,,
0.7559999989,5,130762.1562500000,140087.9375000000,160538.6875000000,151531.5781250000,154603.8437500000,137367.6093750000,148827.4062500000,148290.1093750000,,,
0.7599999988,5,130732.7890625000,140066.0000000000,160508.9062500000,151513.6875000000,154621.5937500000,137349.1093750000,148795.2500000000,148311.2968750000,,,
0.7639999988,5,130613.1093750000,139942.4843750000,160411.5781250000,151369.8125000000,154580.6562500000,137242.2968750000,148687.6093750000,148288.3906250000,,,
0.7679999988,6,130566.0937500000,139894.4687500000,160372.8906250000,151300.1093750000,154540.9687500000,137194.9062500000,148649.0625000000,148267.6875000000,,,
0.7719999987,6,130648.9687500000,139994.2187500000,160431.1718750000,151406.9375000000,154567.3125000000,137272.3437500000,148726.3906250000,148282.4062500000,,,
0.7759999987,6,130742.0937500000,140099.5468750000,160489.8437500000,151529.5468750000,154611.7812500000,137368.6562500000,148814.0781250000,148293.0000000000,,,
0.7799999986,6,130730.9140625000,140071.3593750000,160498.5312500000,151511.1093750000,154620.2031250000,137352.5312500000,148809.7343750000,148308.9531250000,,,
0.7839999986,6,130630.5156250000,139952.4218750000,160463.9062500000,151394.5937500000,154587.3437500000,137256.5937500000,148719.7343750000,148289.8593750000,,,
0.7879999985,6,130592.6171875000,139901.0312500000,160432.7031250000,151354.4218750000,154559.7343750000,137223.9218750000,148683.4218750000,148289.1718750000,,,
0.7919999987,6,130679.5468750000,139998.5312500000,160491.5781250000,151438.5000000000,154543.8593750000,137307.6093750000,148759.6718750000,148299.4375000000,,,
0.7959999987,6,130784.3984375000,140119.6718750000,160558.3750000000,151563.1718750000,154611.0312500000,137410.7656250000,148855.0625000000,148333.3125000000,,,
0.7999999986,6,130768.9765625000,140098.4687500000,160550.4218750000,151562.6875000000,154649.7812500000,137401.4843750000,148844.0625000000,148333.6875000000,,,
0.8039999986,6,130651.3593750000,139972.7812500000,160475.5937500000,151447.1406250000,154648.3906250000,137282.3125000000,148740.8750000000,148292.0000000000,,,
0.8079999986,6,130597.8750000000,139926.0625000000,160447.5625000000,151372.4375000000,154599.1406250000,137227.5468750000,148693.0000000000,148283.8281250000,,,
0.8119999988,6,130671.3437500000,140003.2812500000,160473.4687500000,151446.2031250000,154601.1250000000,137295.8593750000,148751.2500000000,148277.6562500000,,,
0.8159999987,6,130763.4218750000,140091.5625000000,160526.7968750000,151560.6875000000,154647.7656250000,137377.2343750000,148833.5468750000,148283.9375000000,,,
0.8199999987,6,130744.8593750000,140071.3593750000,160521.6718750000,151506.7656250000,154630.7343750000,137363.4531250000,148818.4218750000,148304.2656250000,,,
0.8239999986,6,130647.1484375000,139968.4218750000,160461.6718750000,151366.9531250000,154581.8750000000,137278.2656250000,148732.2656250000,148288.7656250000,,,
0.8279999986,6,130596.8593750000,139912.5156250000,160417.8750000000,151315.7656250000,154532.2500000000,137223.0625000000,148682.3750000000,148272.9062500000,,,
0.8319999985,6,130673.9140625000,139991.5312500000,160467.3281250000,151415.2187500000,154537.2656250000,137289.6406250000,148747.7968750000,148282.9687500000,,,
0.8359999987,6,130777.3984375000,140105.0937500000,160545.2031250000,151540.3750000000,154593.0468750000,137388.3437500000,148841.3437500000,148315.4843750000,,,
0.8399999987,6,130770.0703125000,140091.1562500000,160548.4218750000,151546.2031250000,154613.1718750000,137383.0000000000,148838.5156250000,148325.1875000000,,,
0.8439999986,6,130686.6015625000,139990.3593750000,160498.5625000000,151431.2187500000,154608.0468750000,137307.6875000000,148765.5781250000,148341.7656250000,,,
0.8479999986,6,130631.7500000000,139938.0000000000,160451.2968750000,151360.9843750000,154587.6093750000,137255.0312500000,148714.5937500000,148309.5468750000,,,
0.8519999986,6,130693.7343750000,140016.3750000000,160478.5937500000,151442.9375000000,154596.6250000000,137310.4062500000,148766.8125000000,148297.0000000000,,,
0.8559999987,6,130785.9218750000,140117.1718750000,160542.6562500000,151554.8593750000,154627.5937500000,137400.0156250000,148847.6250000000,148318.9062500000,,,
0.8599999987,6,130777.5000000000,140109.0937500000,160545.8125000000,151546.4687500000,154640.7500000000,137395.9843750000,148839.9843750000,148340.0000000000,,,
0.8639999987,6,130681.9609375000,140008.0312500000,160485.6562500000,151430.1406250000,154608.8750000000,137304.6093750000,148759.7812500000,148337.5781250000,,,
0.8679999986,6,130631.2109375000,139944.0625000000,160443.8906250000,151377.1406250000,154571.5156250000,137255.3906250000,148711.1562500000,148309.3906250000,,,
0.8719999986,6,130703.7656250000,140010.2343750000,160496.4375000000,151473.7187500000,154584.0156250000,137322.8437500000,148773.4843750000,148308.5781250000,,,
0.8759999985,6,130797.7812500000,140121.7812500000,160567.7343750000,151561.0000000000,154616.0156250000,137411.8593750000,148862.7031250000,148347.8437500000,,,
0.8799999987,6,130780.5625000000,140115.5312500000,160556.6718750000,151540.4531250000,154650.1562500000,137394.4062500000,148848.0312500000,148359.0937500000,,,
0.8839999987,6,130678.9609375000,140007.2500000000,160500.1406250000,151442.8281250000,154623.4375000000,137300.2343750000,148756.9687500000,148339.3750000000,,,
0.8879999986,6,130624.1093750000,139928.4218750000,160453.6875000000,151391.2968750000,154619.1250000000,137245.2187500000,148705.6875000000,148309.5468750000,,,
0.8919999986,6,130686.8437500000,139997.8437500000,160480.3437500000,151456.0000000000,154637.2343750000,137296.6406250000,148756.5156250000,148301.0000000000,,,
0.8959999986,7,130781.6562500000,140111.6250000000,160544.5625000000,151549.6875000000,154673.5468750000,137388.9062500000,148842.5781250000,148323.5000000000,,,
0.8999999985,7,130782.3281250000,140109.1562500000,160575.1875000000,151544.7187500000,154664.7500000000,137391.4218750000,148852.2968750000,148365.1562500000,,,
0.9039999985,7,130683.4921875000,140002.0156250000,160513.9843750000,151427.7031250000,154621.4375000000,137298.4687500000,148762.7343750000,148339.1562500000,,,
0.9079999984,7,130634.6718750000,139943.4375000000,160457.8437500000,151372.3593750000,154621.9687500000,137244.7968750000,148711.5781250000,148320.7812500000,,,
0.9119999984,7,130700.0937500000,140000.9843750000,160492.7812500000,151447.1406250000,154655.2812500000,137303.6093750000,148768.3906250000,148309.5781250000,,,
0.9159999983,7,130783.2421875000,140084.9843750000,160544.1250000000,151548.0781250000,154668.9531250000,137383.7343750000,148841.6718750000,148316.7656250000,,,
0.9199999985,7,130787.0781250000,140095.3437500000,160538.8750000000,151550.9687500000,154683.8437500000,137388.6718750000,148842.8750000000,148362.0937500000,,,
0.9239999985,7,130690.6250000000,139985.9218750000,160486.3437500000,151444.8593750000,154675.6718750000,137292.1406250000,148757.7968750000,148331.6250000000,,,
0.9279999984,7,130638.2421875000,139926.2031250000,160453.8437500000,151374.0781250000,154644.6562500000,137241.2500000000,148710.8281250000,148303.1875000000,,,
0.9319999984,7,130697.6015625000,139977.0468750000,160493.0625000000,151428.6562500000,154642.2968750000,137298.8125000000,148766.0937500000,148300.5937500000,,,
0.9359999984,7,130774.5546875000,140071.4843750000,160529.5625000000,151535.8125000000,154694.4375000000,137374.5000000000,148831.9843750000,148306.4687500000,,,
0.9399999985,7,130768.7343750000,140091.2656250000,160538.3593750000,151546.7812500000,154705.8906250000,137373.5937500000,148830.6562500000,148338.6718750000,,,
0.9439999985,7,130675.4687500000,139992.1562500000,160485.9687500000,151408.5156250000,154653.2187500000,137290.8437500000,148750.9375000000,148327.7656250000,,,
0.9479999985,7,130619.3046875000,139918.4687500000,160443.6562500000,151320.2187500000,154609.2343750000,137232.4218750000,148702.5000000000,148283.3437500000,,,
0.9519999984,7,130673.3828125000,139979.2812500000,160462.0000000000,151399.5156250000,154622.9531250000,137281.8593750000,148747.2031250000,148279.4531250000,,,
0.9559999984,7,130755.4531250000,140070.3437500000,160512.5781250000,151501.5937500000,154673.7812500000,137363.9687500000,148822.8906250000,148288.7968750000,,,
0.9599999983,7,130761.2734375000,140080.3750000000,160543.1093750000,151509.9843750000,154685.1093750000,137374.8750000000,148837.1718750000,148328.6718750000,,,
0.9639999985,7,130666.1875000000,139977.8281250000,160479.8593750000,151415.4375000000,154670.8906250000,137289.5781250000,148748.0625000000,148348.3906250000,,,
0.9679999985,7,130620.8046875000,139912.3281250000,160451.5625000000,151368.3750000000,154647.7500000000,137242.9687500000,148708.9062500000,148319.2343750000,,,
0.9719999984,7,130688.1015625000,139989.9218750000,160510.2031250000,151453.1250000000,154671.5625000000,137295.5468750000,148771.1875000000,148309.2343750000,,,
0.9759999984,7,130777.8203125000,140087.0781250000,160568.9843750000,151534.6718750000,154681.3593750000,137378.6406250000,148852.1406250000,148292.0937500000,,,
0.9799999984,7,130765.0312500000,140072.7031250000,160544.3906250000,151525.5156250000,154694.2500000000,137378.1718750000,148836.9218750000,148295.5781250000,,,
0.9839999985,7,130666.6171875000,139973.3750000000,160481.8437500000,151411.3437500000,154647.0468750000,137287.2500000000,148748.5000000000,148294.4687500000,,,
0.9879999985,7,130617.2656250000,139916.5937500000,160447.7343750000,151355.0625000000,154614.2968750000,137231.5625000000,148703.1875000000,148279.6718750000,,,
0.9919999985,7,130678.7421875000,139980.6406250000,160476.1093750000,151422.7343750000,154625.1875000000,137286.9218750000,148753.3750000000,148276.7968750000,,,
0.9959999984,7,130777.3671875000,140088.5000000000,160545.0156250000,151531.1250000000,154654.6875000000,137381.0468750000,148844.1406250000,148303.7500000000,,,
0.9999999984,7,130778.7343750000,140082.1875000000,160544.1562500000,151535.5156250000,154680.8437500000,137383.9218750000,148842.8750000000,148326.3593750000,,,
1.0039999983,7,130694.2968750000,139991.1093750000,160503.8437500000,151439.2656250000,154639.3750000000,137300.0781250000,148768.2812500000,148333.3750000000,,,
1.0079999985,7,130648.6250000000,139928.1875000000,160472.0781250000,151387.0156250000,154596.9375000000,137255.6562500000,148728.0468750000,148326.6093750000,,,
1.0119999985,7,130704.9765625000,139994.7031250000,160502.8437500000,151431.7968750000,154573.5468750000,137310.2343750000,148780.6250000000,148306.0312500000,,,
1.0159999984,7,130777.6328125000,140090.7187500000,160520.4218750000,151517.0937500000,154646.0781250000,137378.0156250000,148841.7812500000,148311.4062500000,,,
1.0199999984,7,130776.9921875000,140080.3750000000,160528.6562500000,151515.1406250000,154668.6093750000,137378.6406250000,148842.7500000000,148342.5468750000,,,
1.0239999983,8,130704.4375000000,139998.6093750000,160507.0000000000,151411.4218750000,154633.9062500000,137319.9531250000,148781.7187500000,148334.9218750000,,,
1.0279999983,8,130658.0078125000,139957.1718750000,160474.8125000000,151362.2031250000,154619.3437500000,137280.2187500000,148740.0781250000,148296.6406250000,,,
1.0319999983,8,130718.3359375000,140020.9375000000,160531.1093750000,151438.2968750000,154584.6875000000,137328.6875000000,148799.0781250000,148298.8750000000,,,
1.0359999982,8,130801.2109375000,140112.7656250000,160566.2031250000,151553.3125000000,154671.7968750000,137405.5937500000,148867.1875000000,148314.3281250000,,,
1.0399999982,8,130802.0703125000,140109.3906250000,160569.4218750000,151546.3906250000,154718.7500000000,137405.0781250000,148863.7812500000,148320.9687500000,,,
1.0439999981,8,130715.0859375000,140020.7968750000,160506.4062500000,151429.6562500000,154674.7812500000,137324.7968750000,148783.8437500000,148320.7656250000,,,
1.0479999983,8,130664.7421875000,139963.5937500000,160458.7812500000,151380.1093750000,154636.1562500000,137273.7031250000,148737.2500000000,148304.2187500000,,,
1.0519999983,8,130723.2656250000,140008.5937500000,160503.3593750000,151436.5156250000,154615.1562500000,137322.9843750000,148788.8593750000,148289.7031250000,,,
1.0559999982,8,130813.3125000000,140099.0156250000,160554.7812500000,151534.5000000000,154656.8906250000,137408.2187500000,148868.0156250000,148311.9375000000,,,
1.0599999982,8,130806.4140625000,140100.7812500000,160552.7968750000,151536.2187500000,154674.3750000000,137408.0781250000,148860.2031250000,148330.6875000000,,,
1.0639999982,8,130718.1718750000,140005.7812500000,160510.5781250000,151427.1093750000,154628.4062500000,137317.5937500000,148786.2656250000,148330.4375000000,,,
1.0679999983,8,130666.0859375000,139938.4843750000,160483.9375000000,151365.2812500000,154569.3437500000,137261.6406250000,148738.7500000000,148289.8593750000,,,
1.0719999983,8,130707.5000000000,139985.7968750000,160479.4062500000,151431.9375000000,154622.9531250000,137303.3125000000,148768.5781250000,148287.3125000000,,,
1.0759999983,8,130795.1796875000,140080.6718750000,160529.7812500000,151529.5625000000,154667.9687500000,137390.4687500000,148847.3125000000,148289.2968750000,,,
1.0799999982,8,130797.5625000000,140085.7343750000,160542.1093750000,151528.2343750000,154675.8750000000,137400.0937500000,148849.7656250000,148307.7500000000,,,
1.0839999982,8,130722.3281250000,140005.7187500000,160506.4687500000,151429.7343750000,154655.8906250000,137333.0312500000,148788.0000000000,148318.2343750000,,,
1.0879999981,8,130677.0000000000,139956.4843750000,160482.4687500000,151370.4375000000,154626.6562500000,137286.5468750000,148752.2968750000,148312.7968750000,,,
1.0919999983,8,130736.5156250000,140019.6406250000,160519.4687500000,151436.3125000000,154629.2031250000,137344.9531250000,148801.8437500000,148309.0937500000,,,
1.0959999983,8,130833.4296875000,140124.0312500000,160582.4062500000,151537.5312500000,154666.7031250000,137445.3750000000,148886.0156250000,148343.1562500000,,,
1.0999999982,8,130849.8125000000,140107.8281250000,160611.8281250000,151578.6562500000,154697.1250000000,137465.1093750000,148906.6406250000,148353.3750000000,,,
1.1039999982,8,130775.0078125000,140027.0468750000,160563.0156250000,151517.7343750000,154703.8281250000,137401.0781250000,148845.2343750000,148355.2343750000,,,
1.1079999981,8,130719.7265625000,139983.9218750000,160498.1562500000,151400.7968750000,154687.3125000000,137352.3437500000,148791.2968750000,148338.0937500000,,,
1.1119999983,8,130766.5625000000,140040.2187500000,160520.0625000000,151459.8281250000,154693.0937500000,137392.5625000000,148833.2187500000,148331.0625000000,,,
1.1159999983,8,130855.4453125000,140131.6562500000,160582.5156250000,151559.9531250000,154728.6093750000,137480.6875000000,148912.8906250000,148356.4375000000,,,
1.1199999982,8,130859.3671875000,140134.6093750000,160596.0468750000,151550.4062500000,154736.9843750000,137489.0625000000,148916.8750000000,148367.4531250000,,,
1.1239999982,8,130778.6562500000,140045.4531250000,160535.8437500000,151436.7656250000,154716.4843750000,137421.7656250000,148853.8437500000,148346.9062500000,,,
1.1279999982,8,130746.0703125000,140002.8281250000,160500.0000000000,151377.1875000000,154700.9062500000,137396.7343750000,148834.3281250000,148337.8437500000,,,
1.1319999981,8,130819.6093750000,140069.1093750000,160550.9062500000,151471.4218750000,154704.1562500000,137462.5312500000,148896.2500000000,148347.3906250000,,,
1.1359999983,8,130916.6562500000,140167.5468750000,160596.1875000000,151577.6406250000,154752.7812500000,137554.5000000000,148974.2343750000,148372.6875000000,,,
1.1399999983,8,130933.5546875000,140187.2812500000,160609.5937500000,151588.3281250000,154790.7812500000,137574.8593750000,148994.0156250000,148402.1718750000,,,
1.1439999982,8,130860.6796875000,140113.2500000000,160580.7343750000,151495.3437500000,154767.9375000000,137505.5781250000,148931.9218750000,148429.8125000000,,,
1.1479999982,8,130807.7031250000,140049.9218750000,160548.1250000000,151431.7187500000,154717.4843750000,137454.7343750000,148878.6875000000,148398.1718750000,,,
1.1519999981,9,130871.6718750000,140099.1406250000,160596.0781250000,151491.0000000000,154685.9375000000,137510.6562500000,148934.3750000000,148389.6718750000,,,
1.1559999981,9,130975.1796875000,140166.5156250000,160680.3750000000,151608.1562500000,154728.2343750000,137596.5156250000,149025.7187500000,148386.3750000000,,,
1.1599999981,9,130979.0937500000,140187.5000000000,160662.0625000000,151647.5781250000,154843.7343750000,137596.2343750000,149021.2968750000,148399.1875000000,,,
1.1639999980,9,130886.7187500000,140113.5468750000,160604.3906250000,151545.2656250000,154812.5625000000,137514.9218750000,148943.1093750000,148388.6250000000,,,
1.1679999980,9,130824.0625000000,140064.1718750000,160546.8593750000,151460.4531250000,154752.7187500000,137458.0781250000,148889.2500000000,148376.9062500000,,,
1.1719999979,9,130881.0859375000,140126.7500000000,160586.2968750000,151514.8906250000,154735.5312500000,137504.7187500000,148939.2187500000,148400.8281250000,,,
1.1759999981,9,130961.3671875000,140204.9375000000,160641.1875000000,151605.4687500000,154758.2187500000,137580.4218750000,148999.5000000000,148426.7343750000,,,
1.1799999981,9,130950.1328125000,140175.2343750000,160647.2343750000,151607.8906250000,154753.6875000000,137565.2968750000,148987.8281250000,148371.2656250000,,,
1.1839999980,9,130859.7109375000,140082.5625000000,160586.7187500000,151502.1250000000,154729.2031250000,137480.2031250000,148908.7031250000,148368.0000000000,,,
1.1879999980,9,130809.8750000000,140036.0625000000,160561.9843750000,151479.1406250000,154710.9843750000,137433.3750000000,148870.5000000000,148377.7812500000,,,
1.1919999979,9,130862.2031250000,140088.0156250000,160598.3593750000,151539.1250000000,154696.1250000000,137479.5312500000,148912.1406250000,148368.9375000000,,,
1.1959999981,9,130941.3281250000,140170.8437500000,160639.5000000000,151609.7187500000,154736.2031250000,137547.7812500000,148974.3281250000,148375.7500000000,,,
1.1999999981,9,130930.3046875000,140173.3593750000,160621.1875000000,151592.8750000000,154753.5312500000,137539.2500000000,148959.0937500000,148395.4843750000,,,
1.2039999980,9,130817.6015625000,140066.0468750000,160549.6562500000,151482.9843750000,154705.5000000000,137436.7812500000,148861.7656250000,148380.1718750000,,,
1.2079999980,9,130728.2265625000,139980.5156250000,160482.9218750000,151386.6562500000,154644.7187500000,137354.7343750000,148780.8750000000,148344.5312500000,,,
1.2119999980,9,130758.7812500000,140011.3593750000,160498.5312500000,151426.9531250000,154622.0781250000,137387.2968750000,148803.5625000000,148326.2656250000,,,
1.2159999979,9,130841.0156250000,140099.2031250000,160557.1093750000,151518.0312500000,154644.4218750000,137461.0000000000,148873.4843750000,148309.2500000000,,,
1.2199999981,9,130835.3046875000,140103.6562500000,160562.7656250000,151520.5312500000,154667.6406250000,137451.7187500000,148865.6718750000,148300.5625000000,,,
1.2239999981,9,130743.8125000000,140019.1406250000,160511.2656250000,151439.6562500000,154656.6250000000,137370.8593750000,148784.5625000000,148314.1406250000,33029,1.2267955665,0.0000000000
1.2279999980,9,130673.2968750000,139949.2343750000,160456.1718750000,151364.5312500000,154620.0625000000,137305.8593750000,148722.1250000000,148306.0156250000,,,
1.2319999980,9,130708.4609375000,139977.0312500000,160469.1093750000,151417.2656250000,154596.1718750000,137338.7968750000,148750.6718750000,148283.6875000000,,,
1.2359999979,9,130787.7187500000,140070.7187500000,160516.2031250000,151520.6875000000,154623.2343750000,137410.6093750000,148818.3593750000,148288.3906250000,,,
1.2399999981,9,130795.6640625000,140097.7968750000,160542.8125000000,151505.7812500000,154612.3593750000,137420.0781250000,148829.4687500000,148320.7812500000,,,
1.2439999981,9,130694.5937500000,139998.1406250000,160489.3593750000,151401.8906250000,154578.9687500000,137324.9375000000,148747.3593750000,148316.2343750000,,,
1.2479999980,9,130609.5156250000,139901.8125000000,160410.6093750000,151321.2968750000,154568.7031250000,137245.6718750000,148670.8125000000,148274.8437500000,,,
1.2519999980,9,130638.8828125000,139934.1875000000,160420.0156250000,151338.8437500000,154539.0000000000,137273.2187500000,148692.5937500000,148233.4062500000,,,
1.2559999980,9,130718.8437500000,140008.7031250000,160470.1250000000,151438.4218750000,154570.1406250000,137344.8593750000,148759.3593750000,148250.7500000000,,,
1.2599999979,9,130735.0703125000,140028.2500000000,160497.8593750000,151472.4687500000,154593.1406250000,137354.0312500000,148775.5000000000,148286.5156250000,,,
1.2639999981,9,130654.3046875000,139959.8593750000,160448.2656250000,151387.1406250000,154582.9375000000,137285.2187500000,148703.5156250000,148291.8437500000,,,
1.2679999981,9,130580.1484375000,139885.7031250000,160393.9531250000,151289.4531250000,154534.7500000000,137214.7187500000,148635.8906250000,148238.4687500000,,,
1.2719999980,9,130627.6484375000,139939.8281250000,160416.9375000000,151351.0937500000,154539.0000000000,137253.7812500000,148673.0937500000,148257.7500000000,,,
1.2759999980,9,130713.3984375000,140016.9062500000,160473.7500000000,151457.6562500000,154582.9218750000,137331.9687500000,148743.7656250000,148233.7968750000,,,
1.2799999979,10,130719.7265625000,140016.7187500000,160475.9687500000,151466.7500000000,154604.0000000000,137337.2187500000,148746.7500000000,148241.0937500000,,,
1.2839999979,10,130634.2734375000,139931.6406250000,160412.5156250000,151368.4531250000,154581.0312500000,137260.6718750000,148671.6406250000,148253.1718750000,,,
1.2879999978,10,130567.0000000000,139867.7031250000,160371.6093750000,151286.0468750000,154543.1093750000,137195.8750000000,148612.9843750000,148240.1875000000,,,
1.2919999978,10,130608.0703125000,139907.7656250000,160396.4218750000,151338.6562500000,154542.2187500000,137231.2187500000,148644.2343750000,148239.9218750000,,,
1.2959999978,10,130703.6328125000,139991.7031250000,160453.7656250000,151461.2187500000,154588.2812500000,137319.0312500000,148729.2031250000,148240.5156250000,,,
1.2999999977,10,130716.1328125000,140020.2031250000,160466.3437500000,151478.3906250000,154618.5312500000,137333.1718750000,148737.6562500000,148270.9531250000,,,
1.3039999979,10,130628.9921875000,139942.2031250000,160417.2812500000,151384.4687500000,154586.9375000000,137256.4843750000,148660.5625000000,148268.5312500000,,,
1.3079999979,10,130557.5625000000,139873.0312500000,160372.0625000000,151304.0000000000,154537.0468750000,137191.6875000000,148599.1718750000,148250.4375000000,,,
1.3119999978,10,130603.3203125000,139927.1562500000,160401.7031250000,151344.2031250000,154544.5625000000,137234.9218750000,148643.0312500000,148239.0312500000,,,
1.3159999978,10,130702.3984375000,140028.0625000000,160477.1250000000,151461.6875000000,154559.7656250000,137330.0937500000,148735.0625000000,148245.4218750000,,,
1.3199999977,10,130715.9687500000,140049.0937500000,160479.2968750000,151495.2343750000,154628.8906250000,137346.1562500000,148749.2500000000,148285.4843750000,,,
1.3239999979,10,130623.1718750000,139945.9375000000,160439.5937500000,151393.6875000000,154587.8281250000,137256.5937500000,148670.4062500000,148287.1875000000,,,
1.3279999979,10,130553.6171875000,139868.5625000000,160400.4375000000,151328.1406250000,154549.5781250000,137190.2656250000,148609.8437500000,148237.9062500000,,,
1.3319999978,10,130585.4531250000,139902.0000000000,160415.2500000000,151359.1875000000,154563.6093750000,137221.7031250000,148634.7968750000,148219.7968750000,,,
1.3359999978,10,130678.4453125000,140002.1093750000,160465.1562500000,151489.1250000000,154618.9375000000,137306.8593750000,148713.2968750000,148233.6718750000,,,
1.3399999978,10,130706.5546875000,140035.2031250000,160482.7343750000,151531.2343750000,154649.5156250000,137332.2656250000,148734.4375000000,148286.0781250000,,,
1.3439999977,10,130620.2968750000,139933.2812500000,160422.3750000000,151420.0000000000,154629.7187500000,137251.2812500000,148660.8593750000,148271.6718750000,,,
1.3479999979,10,130548.2500000000,139851.2343750000,160371.0468750000,151328.5156250000,154584.7343750000,137183.6406250000,148600.5937500000,148257.4843750000,,,
1.3519999979,10,130590.2812500000,139906.4062500000,160395.8281250000,151377.7343750000,154587.2031250000,137221.7812500000,148638.6093750000,148243.9218750000,,,
1.3559999978,10,130688.5078125000,140019.3437500000,160466.8281250000,151500.2187500000,154626.7187500000,137311.7656250000,148722.9843750000,148258.2656250000,,,
1.3599999978,10,130713.6093750000,140038.3593750000,160497.0781250000,151532.3281250000,154645.6718750000,137334.8281250000,148750.0156250000,148291.5468750000,,,
1.3639999977,10,130632.3437500000,139948.8906250000,160461.8593750000,151426.7656250000,154581.2500000000,137262.9531250000,148690.2343750000,148315.0781250000,,,
1.3679999979,10,130556.6484375000,139881.3437500000,160402.4531250000,151329.5781250000,154563.3281250000,137193.4218750000,148622.2343750000,148277.4687500000,,,
1.3719999979,10,130584.1718750000,139918.2812500000,160392.6875000000,151361.2656250000,154587.5000000000,137221.9375000000,148641.2656250000,148246.2031250000,,,
1.3759999978,10,130680.3828125000,140014.3281250000,160461.3750000000,151484.1562500000,154626.9375000000,137310.9062500000,148725.7812500000,148261.7031250000,,,
1.3799999978,10,130695.6953125000,140024.4531250000,160487.1562500000,151508.9375000000,154646.7187500000,137324.0312500000,148746.4218750000,148272.7031250000,,,
1.3839999977,10,130600.6093750000,139926.4687500000,160428.2500000000,151393.2343750000,154606.6875000000,137235.8125000000,148667.7031250000,148273.6406250000,,,
1.3879999977,10,130525.4843750000,139852.0937500000,160380.4375000000,151304.5625000000,154549.8906250000,137170.7968750000,148601.0312500000,148249.9218750000,,,
1.3919999979,10,130576.4140625000,139902.7343750000,160416.2968750000,151361.1718750000,154568.0312500000,137218.3437500000,148641.4531250000,148233.2187500000,,,
1.3959999979,10,130690.3593750000,140009.4218750000,160483.7968750000,151482.6250000000,154606.6250000000,137316.7031250000,148741.5000000000,148253.0625000000,,,
1.3999999978,10,130719.5703125000,140037.7187500000,160490.3281250000,151501.1875000000,154615.5000000000,137342.6718750000,148766.2500000000,148279.7500000000,,,
1.4039999978,10,130632.7421875000,139956.7187500000,160454.0312500000,151404.6875000000,154597.1562500000,137266.4375000000,148690.9375000000,148308.7500000000,,,
1.4079999977,11,130553.9921875000,139858.2343750000,160401.2656250000,151311.0000000000,154534.2343750000,137194.2343750000,148622.5312500000,148263.2343750000,,,
1.4119999977,11,130577.0312500000,139865.3437500000,160374.2812500000,151341.0625000000,154551.3437500000,137212.8125000000,148635.1406250000,148204.9218750000,,,
1.4159999976,11,130693.3593750000,139992.4218750000,160450.2812500000,151467.3437500000,154618.4531250000,137319.0156250000,148732.7500000000,148239.1718750000,,,
1.4199999976,11,130745.1015625000,140059.9531250000,160505.7187500000,151522.5937500000,154663.0312500000,137368.0468750000,148782.4218750000,148280.0781250000,,,
1.4239999976,11,130664.9531250000,139988.5625000000,160459.2656250000,151449.0781250000,154636.1875000000,137299.9843750000,148713.5468750000,148306.3593750000,,,
1.4279999975,11,130584.2187500000,139907.6406250000,160398.9062500000,151344.6093750000,154584.4218750000,137227.4375000000,148642.1093750000,148279.2187500000,,,
1.4319999977,11,130607.9843750000,139932.3125000000,160397.6250000000,151359.2812500000,154585.1406250000,137250.7187500000,148654.8281250000,148234.6562500000,,,
1.4359999977,11,130709.0234375000,140035.9218750000,160470.0468750000,151471.7187500000,154621.4375000000,137336.9062500000,148742.4843750000,148258.6406250000,,,
1.4399999976,11,130755.2109375000,140077.0781250000,160521.4375000000,151510.7187500000,154637.7343750000,137377.1093750000,148786.6875000000,148300.5937500000,,,
1.4439999976,11,130673.8906250000,139999.8437500000,160476.3125000000,151419.2968750000,154617.7812500000,137305.2031250000,148719.7343750000,148301.1562500000,,,
1.4479999975,11,130596.5625000000,139923.5156250000,160414.3906250000,151332.2187500000,154584.2500000000,137239.4531250000,148655.2656250000,148289.2656250000,,,
1.4519999977,11,130638.0546875000,139955.8906250000,160431.4218750000,151395.0000000000,154598.8281250000,137280.3906250000,148687.0937500000,148274.9218750000,,,
1.4559999977,11,130747.8671875000,140068.2968750000,160514.3750000000,151523.2343750000,154636.9062500000,137378.9843750000,148777.2187500000,148293.5312500000,,,
1.4599999976,11,130783.0312500000,140089.0000000000,160559.6250000000,151557.6250000000,154657.7031250000,137409.0312500000,148808.3593750000,148328.3750000000,,,
1.4639999976,11,130680.6171875000,139983.1718750000,160480.8281250000,151445.5625000000,154659.5000000000,137312.8437500000,148718.6875000000,148315.9531250000,,,
1.4679999975,11,130599.2187500000,139916.6718750000,160416.0000000000,151336.5625000000,154603.8437500000,137236.3906250000,148653.2500000000,148290.5937500000,,,
1.4719999975,11,130634.5156250000,139960.0781250000,160427.5781250000,151386.7968750000,154619.2031250000,137273.8125000000,148682.2656250000,148276.2968750000,,,
1.4759999977,11,130743.7343750000,140077.6875000000,160499.0156250000,151522.4375000000,154666.5781250000,137383.2812500000,148774.6250000000,148314.5156250000,,,
1.4799999977,11,130771.6562500000,140109.4375000000,160515.3750000000,151582.0937500000,154698.8750000000,137409.7968750000,148795.5156250000,148350.6406250000,,,
1.4839999976,11,130685.0703125000,140013.8750000000,160478.3593750000,151466.4843750000,154664.6093750000,137325.7656250000,148725.4218750000,148325.7500000000,,,
1.4879999976,11,130607.1796875000,139928.5625000000,160439.6562500000,151342.8906250000,154607.4062500000,137254.6406250000,148665.0781250000,148296.3750000000,,,
1.4919999975,11,130627.2187500000,139940.0937500000,160431.3906250000,151386.2812500000,154628.8593750000,137273.6718750000,148676.1875000000,148252.6406250000,,,
1.4959999977,11,130720.5859375000,140039.4375000000,160483.7187500000,151489.7343750000,154664.7187500000,137355.7500000000,148747.7656250000,148262.3125000000,,,
1.4999999977,11,130751.7031250000,140074.6093750000,160515.5625000000,151508.4375000000,154676.0156250000,137388.3750000000,148775.3906250000,148292.0625000000,,,
1.5039999976,11,130661.2578125000,139985.5781250000,160467.7031250000,151407.5312500000,154622.2968750000,137307.1875000000,148702.5156250000,148296.7031250000,,,
1.5079999976,11,130571.1562500000,139894.7343750000,160406.6093750000,151323.2187500000,154563.6093750000,137223.0937500000,148625.0625000000,148269.6406250000,,,
1.5119999975,11,130616.5703125000,139941.0781250000,160430.3437500000,151402.2656250000,154586.2343750000,137266.6250000000,148660.1406250000,148281.6250000000,,,
1.5159999975,11,130750.3281250000,140057.1406250000,160527.0937500000,151562.7500000000,154679.8281250000,137388.7656250000,148775.6093750000,148311.5312500000,,,
1.5199999977,11,130774.1796875000,140090.3281250000,160544.0781250000,151563.2500000000,154692.4843750000,137409.7968750000,148796.3125000000,148316.1250000000,,,
1.5239999976,11,130675.7109375000,140006.3750000000,160471.5781250000,151459.0781250000,154668.8750000000,137323.6718750000,148707.6718750000,148310.7812500000,,,
1.5279999976,11,130577.8359375000,139909.8125000000,160390.2968750000,151375.0000000000,154626.4687500000,137234.7031250000,148617.4375000000,148276.1562500000,,,
1.5319999976,11,130609.4062500000,139938.4062500000,160404.2500000000,151404.2031250000,154609.1406250000,137259.9531250000,148633.4531250000,148254.4531250000,,,
1.5359999975,12,130711.1406250000,140028.5156250000,160474.5156250000,151478.4531250000,154628.6406250000,137352.2656250000,148702.5937500000,148276.4531250000,,,
1.5399999975,12,130748.0234375000,140067.5781250000,160510.2031250000,151501.8593750000,154647.6093750000,137389.2031250000,148717.6718750000,148296.2500000000,,,
1.5439999974,12,130658.0078125000,139986.2187500000,160457.1093750000,151405.5468750000,154613.0937500000,137302.2500000000,148624.3281250000,148288.5781250000,,,
1.5479999974,12,130564.1093750000,139897.9843750000,160401.4531250000,151317.0625000000,154563.5000000000,137213.8437500000,148533.5625000000,148261.1562500000,,,
1.5519999973,12,130591.2500000000,139923.4375000000,160408.0781250000,151351.6093750000,154557.0625000000,137237.2812500000,148555.3750000000,148255.0156250000,,,
1.5559999973,12,130700.7656250000,140033.7500000000,160480.1562500000,151487.3750000000,154619.0937500000,137334.0312500000,148658.6718750000,148273.3906250000,,,
1.5599999975,12,130739.3359375000,140073.7656250000,160509.8750000000,151520.3750000000,154667.4843750000,137369.7031250000,148699.8437500000,148296.2187500000,,,
1.5639999975,12,130648.9687500000,139985.8750000000,160449.4687500000,151412.7343750000,154634.4375000000,137294.1406250000,148624.5468750000,148297.1875000000,,,
1.5679999974,12,130549.4375000000,139889.2343750000,160376.9218750000,151316.0937500000,154568.1562500000,137203.5468750000,148545.0781250000,148260.0625000000,,,
1.5719999974,12,130580.6250000000,139915.2031250000,160398.1093750000,151378.0312500000,154565.2343750000,137227.6718750000,148573.5000000000,148235.5156250000,,,
1.5759999973,12,130691.8828125000,140028.1250000000,160477.5468750000,151509.8593750000,154633.2031250000,137328.6718750000,148665.5625000000,148260.2968750000,,,
1.5799999975,12,130724.7968750000,140058.1406250000,160503.0937500000,151504.0000000000,154639.5937500000,137359.2343750000,148692.8125000000,148285.0937500000,,,
1.5839999975,12,130631.4843750000,139964.3906250000,160438.1250000000,151421.4218750000,154606.1406250000,137273.0156250000,148603.7656250000,148273.9062500000,,,
1.5879999974,12,130544.9843750000,139880.4687500000,160368.2187500000,151393.5312500000,154584.4687500000,137193.2343750000,148516.7968750000,148258.4218750000,,,
1.5919999974,12,130587.2031250000,139924.4843750000,160391.1250000000,151431.7187500000,154585.1875000000,137232.7812500000,148545.5781250000,148279.7500000000,,,
1.5959999973,12,130676.1406250000,139992.6562500000,160440.8125000000,151425.4218750000,154591.4218750000,137315.2031250000,148615.5625000000,148263.5468750000,,,
1.5999999973,12,130690.6796875000,140005.8593750000,160456.5000000000,151424.6875000000,154578.2187500000,137324.3125000000,148631.0312500000,148251.6406250000,,,
1.6039999975,12,130598.6015625000,139935.4531250000,160408.1718750000,151327.5937500000,154520.3906250000,137241.6562500000,148558.5625000000,148243.2500000000,,,
1.6079999974,12,130503.2968750000,139845.3593750000,160329.8750000000,151247.6406250000,154508.2500000000,137152.1250000000,148473.4843750000,148201.0468750000,,,
1.6119999974,12,130530.3359375000,139866.6250000000,160329.0468750000,151301.8437500000,154529.0000000000,137175.7031250000,148493.5781250000,148185.0468750000,,,
1.6159999974,12,130652.2968750000,139988.5312500000,160420.2343750000,151424.2187500000,154588.4375000000,137290.1718750000,148600.5468750000,148223.8593750000,,,
1.6199999973,12,130701.7578125000,140040.1406250000,160471.7812500000,151469.0781250000,154628.1406250000,137338.0000000000,148648.9843750000,148257.9375000000,,,
1.6239999975,12,130617.1562500000,139952.9687500000,160417.7656250000,151376.3593750000,154598.8750000000,137260.9062500000,148576.4843750000,148251.0312500000,,,
1.6279999975,12,130526.4453125000,139858.4687500000,160348.5312500000,151281.0156250000,154546.3281250000,137178.4375000000,148497.9687500000,148230.4843750000,,,
1.6319999974,12,130564.5312500000,139893.6093750000,160370.7187500000,151327.8906250000,154540.0781250000,137207.3281250000,148529.7031250000,148223.6875000000,,,
1.6359999974,12,130694.5937500000,140017.7968750000,160489.9687500000,151476.5468750000,154564.1718750000,137326.2500000000,148656.1718750000,148274.5468750000,,,
1.6399999973,12,130737.1640625000,140067.8125000000,160524.7031250000,151518.8437500000,154621.4375000000,137368.8437500000,148706.6718750000,148303.7343750000,,,
1.6439999973,12,130638.1640625000,139965.6562500000,160426.2500000000,151418.6562500000,154642.2500000000,137279.3125000000,148623.4687500000,148260.2187500000,,,
1.6479999975,12,130533.7734375000,139855.8125000000,160348.6406250000,151292.3593750000,154577.6093750000,137181.9218750000,148538.8437500000,148215.2500000000,,,
1.6519999974,12,130560.8046875000,139880.3593750000,160366.5312500000,151308.2812500000,154562.0156250000,137203.4375000000,148566.2031250000,148207.7343750000,,,
1.6559999974,12,130679.0937500000,140001.2656250000,160454.7031250000,151448.5625000000,154612.3906250000,137312.7031250000,148671.9687500000,148244.1875000000,,,
1.6599999974,12,130729.0859375000,140051.1875000000,160510.3906250000,151516.0468750000,154649.9687500000,137359.5156250000,148718.3437500000,148279.7968750000,,,
1.6639999973,13,130641.5390625000,139965.6562500000,160450.7812500000,151423.2656250000,154628.0000000000,137281.1875000000,148641.2656250000,148281.3593750000,,,
1.6679999973,13,130539.0000000000,139864.8281250000,160363.6718750000,151299.8437500000,154567.7656250000,137187.9843750000,148549.2656250000,148241.5312500000,,,
1.6719999972,13,130570.3515625000,139891.5156250000,160384.0781250000,151330.1718750000,154547.5937500000,137221.2656250000,148573.3906250000,148234.6406250000,,,
1.6759999972,13,130690.1406250000,140010.7343750000,160488.7187500000,151453.1718750000,154583.2343750000,137332.1562500000,148680.2812500000,148261.6718750000,,,
1.6799999971,13,130730.9921875000,140054.1093750000,160533.9375000000,151513.3906250000,154620.1406250000,137369.1718750000,148719.8437500000,148273.9062500000,,,
1.6839999971,13,130649.0546875000,139977.6093750000,160452.5000000000,151441.3437500000,154647.6093750000,137295.9687500000,148631.6250000000,148269.7500000000,,,
1.6879999973,13,130560.6718750000,139887.9218750000,160367.7656250000,151341.1406250000,154610.2812500000,137217.3750000000,148525.0937500000,148257.6562500000,,,
1.6919999972,13,130597.2031250000,139920.1562500000,160393.8750000000,151360.5156250000,154594.0468750000,137246.4531250000,148543.0937500000,148256.4687500000,,,
1.6959999972,13,130703.1250000000,140016.8750000000,160465.4843750000,151448.8593750000,154604.5312500000,137339.6562500000,148651.6406250000,148246.1718750000,,,
1.6999999972,13,130748.4843750000,140057.8125000000,160502.2031250000,151463.4531250000,154611.4531250000,137382.1718750000,148712.0937500000,148268.5312500000,,,
1.7039999971,13,130677.8828125000,139989.6250000000,160463.3906250000,151390.8906250000,154591.7187500000,137321.9062500000,148667.6562500000,148286.9843750000,,,
1.7079999973,13,130599.8359375000,139908.6250000000,160406.7968750000,151313.3750000000,154549.4375000000,137255.5937500000,148610.1718750000,148276.3750000000,,,
1.7119999973,13,130635.2109375000,139912.3281250000,160416.7968750000,151345.5625000000,154582.5468750000,137291.4843750000,148641.6875000000,148251.0000000000,,,
1.7159999972,13,130752.6406250000,140011.3281250000,160489.1875000000,151488.6718750000,154645.0312500000,137398.6406250000,148743.8281250000,148248.8750000000,,,
1.7199999972,13,130812.7968750000,140093.2500000000,160540.0000000000,151541.7968750000,154690.3593750000,137454.0312500000,148798.3281250000,148290.3125000000,,,
1.7239999971,13,130743.4375000000,140027.9375000000,160501.7812500000,151456.6718750000,154665.6562500000,137387.0000000000,148744.5781250000,148297.6406250000,,,
1.7279999971,13,130655.3828125000,139936.8125000000,160432.7656250000,151349.7031250000,154579.5625000000,137316.4062500000,148673.4375000000,148266.3437500000,,,
1.7319999973,13,130691.2187500000,139983.3750000000,160445.9531250000,151413.4843750000,154563.3281250000,137353.0781250000,148701.8437500000,148279.4843750000,,,
1.7359999972,13,130806.6562500000,140099.8437500000,160508.4843750000,151494.7031250000,154637.0468750000,137457.8906250000,148795.6718750000,148295.0937500000,,,
1.7399999972,13,130842.4140625000,140110.9218750000,160531.0937500000,151513.4531250000,154668.5625000000,137489.0937500000,148830.5937500000,148303.3750000000,,,
1.7439999972,13,130760.8750000000,140022.3593750000,160475.3593750000,151428.4687500000,154649.1875000000,137414.9843750000,148758.3125000000,148303.8593750000,,,
1.7479999971,13,130680.5703125000,139928.0937500000,160426.0312500000,151357.5000000000,154627.2031250000,137334.9375000000,148691.9218750000,148300.7031250000,,,
1.7519999973,13,130710.9296875000,139943.5781250000,160446.4375000000,151353.6093750000,154593.7500000000,137360.1875000000,148723.6250000000,148271.9687500000,,,
1.7559999973,13,130819.0234375000,140066.0156250000,160521.3281250000,151457.9843750000,154608.3437500000,137455.0781250000,148811.6875000000,148289.0312500000,,,
1.7599999972,13,130870.5781250000,140128.8125000000,160552.7031250000,151521.5781250000,154662.5781250000,137508.6093750000,148850.2500000000,148330.7343750000,,,
1.7639999972,13,130806.5468750000,140030.5625000000,160517.8437500000,151449.9062500000,154651.9218750000,137453.7343750000,148800.3437500000,148322.3750000000,,,
1.7679999971,13,130714.4140625000,139941.2656250000,160464.2187500000,151359.5937500000,154600.6406250000,137366.2500000000,148723.3281250000,148290.6875000000,,,
1.7719999971,13,130737.6171875000,139993.2500000000,160489.6250000000,151389.2031250000,154608.6718750000,137385.0937500000,148748.1406250000,148273.1562500000,,,
1.7759999973,13,130843.3750000000,140096.5937500000,160552.4687500000,151515.4843750000,154662.1718750000,137473.2343750000,148842.0468750000,148295.7656250000,,,
1.7799999972,13,130885.8906250000,140151.5625000000,160564.5312500000,151568.7500000000,154693.9531250000,137516.7187500000,148877.4843750000,148336.5312500000,,,
1.7839999972,13,130810.0078125000,140079.1093750000,160515.8281250000,151460.0156250000,154654.9843750000,137449.3125000000,148811.2343750000,148351.1718750000,,,
1.7879999971,13,130715.1640625000,139982.4375000000,160454.7812500000,151355.4062500000,154609.7343750000,137359.1093750000,148722.3125000000,148338.5937500000,,,
1.7919999971,14,130715.6484375000,139965.7656250000,160438.6406250000,151376.8906250000,154603.1718750000,137350.7343750000,148713.6562500000,148269.1875000000,,,
1.7959999971,14,130816.1015625000,140026.4062500000,160522.0000000000,151495.0781250000,154617.4062500000,137436.4687500000,148797.9531250000,148268.3437500000,,,
1.7999999970,14,130860.1953125000,140087.7187500000,160552.9531250000,151571.5781250000,154692.8593750000,137476.4218750000,148829.8437500000,148298.9843750000,,,
1.8039999970,14,130770.5000000000,140026.8593750000,160493.1406250000,151475.8125000000,154686.4218750000,137397.3593750000,148757.4843750000,148298.8281250000,,,
1.8079999969,14,130656.6953125000,139923.1093750000,160418.8906250000,151334.3281250000,154605.1250000000,137295.8906250000,148663.2812500000,148267.0937500000,,,
1.8119999969,14,130673.6484375000,139960.7968750000,160446.1718750000,151371.7187500000,154591.8750000000,137312.2031250000,148681.7343750000,148268.1875000000,,,
1.8159999971,14,130785.4921875000,140079.1562500000,160540.0468750000,151488.6718750000,154613.4375000000,137419.0781250000,148782.9062500000,148300.6250000000,,,
1.8199999970,14,130827.4687500000,140127.8437500000,160552.5937500000,151552.7187500000,154688.6718750000,137464.9218750000,148813.2656250000,148317.2968750000,,,
1.8239999970,14,130746.3906250000,140052.2031250000,160497.8281250000,151478.3906250000,154672.5000000000,137392.1718750000,148745.4375000000,148349.5468750000,,,
1.8279999970,14,130642.3437500000,139947.1406250000,160427.2812500000,151366.1093750000,154624.1093750000,137284.2968750000,148660.1406250000,148305.2812500000,,,
1.8319999969,14,130646.2109375000,139958.3593750000,160412.9375000000,151362.9531250000,154620.0937500000,137290.6093750000,148657.1406250000,148292.6718750000,,,
1.8359999971,14,130754.7812500000,140063.3437500000,160495.5781250000,151494.5156250000,154658.7968750000,137391.1093750000,148753.0000000000,148292.3593750000,,,
1.8399999971,14,130823.3125000000,140145.2812500000,160562.2343750000,151570.4687500000,154710.2187500000,137458.4843750000,148819.0937500000,148331.4062500000,,,
1.8439999970,14,130733.1093750000,140039.3906250000,160504.5625000000,151482.7656250000,154677.9531250000,137374.5781250000,148741.9531250000,148308.6875000000,,,
1.8479999970,14,130625.5781250000,139910.9687500000,160430.8750000000,151349.3281250000,154589.9375000000,137267.7500000000,148652.3125000000,148258.8750000000,,,
1.8519999969,14,130641.0546875000,139927.1562500000,160424.7187500000,151370.7031250000,154574.7031250000,137276.5000000000,148662.1562500000,148260.6562500000,,,
1.8559999969,14,130741.9609375000,140053.2500000000,160485.9687500000,151487.9062500000,154652.9218750000,137376.0000000000,148738.1718750000,148288.8750000000,,,
1.8599999971,14,130794.2109375000,140117.2968750000,160551.6562500000,151548.5625000000,154693.8750000000,137433.9218750000,148784.6718750000,148318.7500000000,,,
1.8639999970,14,130721.4453125000,140046.6562500000,160509.6093750000,151466.1875000000,154663.9375000000,137369.8593750000,148729.2031250000,148331.5781250000,,,
1.8679999970,14,130627.4296875000,139954.6250000000,160435.2343750000,151368.0781250000,154614.3281250000,137282.1250000000,148650.5937500000,148303.3750000000,,,
1.8719999969,14,130648.0859375000,139962.8281250000,160452.4218750000,151396.3125000000,154606.4687500000,137292.1562500000,148666.7187500000,148280.9531250000,,,
1.8759999969,14,130758.2734375000,140066.2812500000,160518.5312500000,151530.3750000000,154660.1093750000,137389.0937500000,148754.1250000000,148300.3437500000,,,
1.8799999971,14,130816.3671875000,140126.9062500000,160555.5468750000,151563.2343750000,154693.0468750000,137444.1562500000,148803.2968750000,148321.1562500000,,,
1.8839999971,14,130722.8671875000,140023.1562500000,160482.1406250000,151468.2031250000,154682.6406250000,137356.9062500000,148722.0156250000,148300.1093750000,,,
1.8879999970,14,130619.8671875000,139919.0312500000,160409.5312500000,151367.4531250000,154630.5312500000,137259.5156250000,148632.1406250000,148272.7031250000,,,
1.8919999970,14,130637.8671875000,139924.9375000000,160417.5312500000,151371.9062500000,154623.2343750000,137269.9531250000,148647.8593750000,148260.4375000000,,,
1.8959999969,14,130748.3984375000,140035.0937500000,160499.0937500000,151489.0625000000,154666.6875000000,137365.4687500000,148745.3593750000,148280.7968750000,,,
1.8999999969,14,130808.4296875000,140115.6093750000,160551.9062500000,151560.9218750000,154705.2187500000,137426.5625000000,148800.8437500000,148326.7500000000,,,
1.9039999971,14,130731.0234375000,140036.1875000000,160509.3437500000,151500.8437500000,154694.6875000000,137356.4531250000,148736.4531250000,148340.7187500000,,,
1.9079999970,14,130624.7734375000,139914.5781250000,160437.0000000000,151397.7968750000,154641.4375000000,137259.8593750000,148645.8437500000,148286.9062500000,,,
1.9119999970,14,130635.9609375000,139941.4843750000,160445.3437500000,151376.2812500000,154575.8593750000,137266.6250000000,148654.5312500000,148270.3125000000,,,
1.9159999969,14,130734.4765625000,140051.2343750000,160499.5468750000,151489.3593750000,154642.2187500000,137357.2812500000,148735.7812500000,148276.3125000000,,,
1.9199999969,15,130795.0468750000,140119.1875000000,160551.7500000000,151559.1562500000,154682.4531250000,137415.8125000000,148792.3437500000,148316.1406250000,,,
1.9239999969,15,130721.0390625000,140050.9687500000,160493.2968750000,151471.7187500000,154641.3281250000,137352.6718750000,148733.2031250000,148326.2031250000,,,
1.9279999968,15,130602.7031250000,139917.4843750000,160404.9687500000,151370.0000000000,154598.2031250000,137239.7031250000,148628.8125000000,148289.6718750000,,,
1.9319999968,15,130604.0937500000,139913.1406250000,160414.6562500000,151386.8750000000,154621.9687500000,137236.7500000000,148625.6718750000,148256.1406250000,,,
1.9359999967,15,130712.0859375000,140023.1250000000,160480.7500000000,151488.7656250000,154650.7812500000,137339.8281250000,148714.4843750000,148269.6875000000,,,
1.9399999967,15,130769.9375000000,140072.7031250000,160507.7500000000,151538.6093750000,154676.4218750000,137395.6718750000,148763.7031250000,148300.4843750000,,,
1.9439999969,15,130694.8906250000,140000.7343750000,160454.8281250000,151451.7343750000,154658.4218750000,137329.4687500000,148698.3125000000,148312.6093750000,,,
1.9479999968,15,130602.5703125000,139931.5625000000,160393.7656250000,151359.8437500000,154602.5000000000,137251.2812500000,148620.4375000000,148312.4687500000,,,
1.9519999968,15,130618.2890625000,139953.5625000000,160408.6718750000,151387.0625000000,154557.0312500000,137268.5312500000,148631.3593750000,148320.7812500000,,,
1.9559999967,15,130726.2968750000,140036.7031250000,160491.5000000000,151522.7343750000,154618.5312500000,137363.7968750000,148725.7187500000,148272.1093750000,,,
1.9599999967,15,130771.4140625000,140078.7656250000,160517.2187500000,151564.7812500000,154677.1406250000,137404.0156250000,148763.0781250000,148260.8125000000,,,
1.9639999969,15,130700.8203125000,140014.5156250000,160460.3281250000,151442.9375000000,154657.7968750000,137341.8125000000,148704.1875000000,148265.0468750000,,,
1.9679999969,15,130603.2421875000,139913.5156250000,160384.4218750000,151330.7343750000,154609.7343750000,137247.6093750000,148624.6250000000,148248.7656250000,,,
1.9719999968,15,130610.5625000000,139916.7343750000,160390.7343750000,151352.0937500000,154594.5781250000,137247.5000000000,148632.0000000000,148231.0468750000,,,
1.9759999968,15,130714.6562500000,140025.4843750000,160457.2187500000,151474.0156250000,154637.5312500000,137344.0312500000,148715.0468750000,148257.6718750000,,,
1.9799999967,15,130767.4687500000,140082.9687500000,160496.6250000000,151532.1718750000,154669.0156250000,137395.3437500000,148756.2968750000,148296.6406250000,,,
1.9839999967,15,130695.3750000000,140019.7500000000,160465.7812500000,151441.1406250000,154625.3437500000,137329.3593750000,148697.2656250000,148309.4687500000,,,
1.9879999969,15,130601.3593750000,139922.3281250000,160414.2031250000,151347.3125000000,154580.9375000000,137245.7812500000,148620.9843750000,148278.1406250000,,,
1.9919999968,15,130614.8281250000,139927.8906250000,160396.4687500000,151365.3593750000,154593.3750000000,137261.6562500000,148628.1718750000,148248.6093750000,,,
1.9959999968,15,130728.7109375000,140044.9062500000,160472.6406250000,151495.9531250000,154654.4218750000,137363.4843750000,148717.1406250000,148276.1093750000,,,
1.9999999967,15,130793.1953125000,140113.3281250000,160523.7343750000,151574.0156250000,154703.9062500000,137422.0625000000,148772.7187500000,148318.4843750000,,,
2.0039999967,15,130729.4375000000,140032.1406250000,160487.7656250000,151505.7031250000,154689.2187500000,137359.8125000000,148731.0781250000,148320.6250000000,,,
2.0079999969,15,130619.1718750000,139903.4218750000,160407.3281250000,151388.8593750000,154633.6093750000,137252.6718750000,148636.0625000000,148274.0312500000,,,
2.0119999968,15,130626.7109375000,139944.0312500000,160400.5000000000,151392.5312500000,154615.9375000000,137267.7187500000,148635.4843750000,148265.5000000000,,,
2.0159999968,15,130736.6015625000,140053.9531250000,160479.2187500000,151505.4218750000,154652.8750000000,137371.7187500000,148727.9531250000,148282.0781250000,,,
2.0199999968,15,130799.3593750000,140095.9062500000,160533.4218750000,151570.9531250000,154688.1093750000,137426.6718750000,148783.2343750000,148322.2343750000,,,
2.0239999967,15,130726.7578125000,140038.7968750000,160489.5625000000,151495.6718750000,154661.3125000000,137362.0781250000,148716.6562500000,148320.0312500000,,,
2.0279999967,15,130616.3828125000,139926.8437500000,160409.5312500000,151401.8906250000,154632.2187500000,137257.8281250000,148618.4375000000,148268.8281250000,,,
2.0319999969,15,130624.1093750000,139928.2031250000,160412.2187500000,151411.3437500000,154612.4218750000,137260.7031250000,148622.0781250000,148242.7031250000,,,
2.0359999968,15,130739.2265625000,140041.1875000000,160484.2031250000,151481.8281250000,154628.0000000000,137364.3906250000,148717.9687500000,148265.6406250000,,,
2.0399999968,15,130790.0312500000,140097.0312500000,160501.7812500000,151526.4531250000,154676.7343750000,137412.3750000000,148758.6250000000,148293.0312500000,,,
2.0439999967,15,130718.1953125000,140026.7187500000,160457.7656250000,151441.4062500000,154658.3593750000,137347.3281250000,148701.1718750000,148293.0312500000,,,
2.0479999967,16,130616.5703125000,139907.8750000000,160401.5625000000,151329.6875000000,154583.1250000000,137254.1875000000,148618.0312500000,148261.6406250000,,,
2.0519999966,16,130626.7343750000,139894.1406250000,160402.2343750000,151355.6250000000,154565.7500000000,137262.9218750000,148626.4843750000,148266.7656250000,,,
2.0559999966,16,130727.6093750000,140007.3593750000,160462.6875000000,151483.6718750000,154622.0781250000,137355.2968750000,148711.3125000000,148260.4062500000,,,
2.0599999966,16,130788.0468750000,140102.9062500000,160512.5781250000,151551.3437500000,154682.5000000000,137415.5937500000,148765.1562500000,148279.9687500000,,,
2.0639999965,16,130712.9921875000,140033.1562500000,160467.8750000000,151456.9687500000,154653.4375000000,137351.2812500000,148702.9218750000,148275.5156250000,,,
2.0679999965,16,130599.8828125000,139926.1093750000,160383.1093750000,151328.5625000000,154584.4687500000,137245.0000000000,148610.5156250000,148246.9531250000,,,
2.0719999967,16,130595.2734375000,139924.4062500000,160367.6406250000,151342.3437500000,154583.8750000000,137238.5625000000,148603.4687500000,148224.2031250000,,,
2.0759999966,16,130700.8437500000,140024.0937500000,160457.9531250000,151470.2968750000,154610.0000000000,137336.0468750000,148692.7343750000,148254.0468750000,,,
2.0799999966,16,130772.8046875000,140100.3593750000,160531.8437500000,151565.4531250000,154641.4687500000,137408.4062500000,148754.3593750000,148329.7656250000,,,
2.0839999965,16,130696.3671875000,140013.2343750000,160453.8750000000,151484.6406250000,154651.1718750000,137342.9531250000,148685.7812500000,148304.4843750000,,,
2.0879999965,16,130573.3828125000,139892.7968750000,160350.5000000000,151338.9375000000,154615.7500000000,137229.2343750000,148583.4062500000,148231.5312500000,,,
2.0919999967,16,130565.9531250000,139888.4531250000,160337.4843750000,151329.2343750000,154568.3437500000,137216.4218750000,148577.3437500000,148206.3437500000,,,
2.0959999966,16,130666.8046875000,139982.2500000000,160398.8593750000,151431.7968750000,154600.1875000000,137304.6562500000,148660.4375000000,148222.3281250000,,,
2.0999999966,16,130734.6171875000,140057.2187500000,160455.2968750000,151509.2343750000,154646.7031250000,137366.9687500000,148722.5781250000,148253.0312500000,,,
2.1039999966,16,130687.2187500000,139989.2500000000,160444.9687500000,151465.9687500000,154645.8593750000,137321.3750000000,148693.4843750000,148266.3125000000,,,
2.1079999965,16,130596.4296875000,139908.2187500000,160386.4687500000,151355.5468750000,154603.6562500000,137236.5625000000,148620.2031250000,148250.5156250000,,,
2.1119999965,16,130598.8671875000,139918.2031250000,160379.7343750000,151364.5312500000,154592.2968750000,137237.8125000000,148618.4062500000,148225.4375000000,,,
2.1159999967,16,130698.3203125000,140011.8437500000,160447.2968750000,151471.0468750000,154617.5937500000,137325.3437500000,148698.0937500000,148230.5312500000,,,
2.1199999966,16,130760.6015625000,140077.6093750000,160494.2968750000,151514.9218750000,154638.2968750000,137385.5468750000,148748.0156250000,148271.6250000000,,,
2.1239999966,16,130679.7656250000,139999.0156250000,160432.2187500000,151430.8593750000,154603.5625000000,137316.5156250000,148678.2968750000,148271.7343750000,,,
2.1279999965,16,130576.4687500000,139894.2187500000,160354.5156250000,151323.2187500000,154556.2343750000,137226.2812500000,148592.5468750000,148238.7656250000,,,
2.1319999965,16,130587.8437500000,139902.7031250000,160366.3281250000,151334.5156250000,154538.8125000000,137229.7656250000,148604.6250000000,148237.3906250000,,,
2.1359999967,16,130686.0156250000,140009.8281250000,160446.2031250000,151453.0937500000,154597.7187500000,137319.3906250000,148685.8593750000,148237.3437500000,,,
2.1399999966,16,130750.5468750000,140075.9375000000,160488.8750000000,151522.2656250000,154662.3281250000,137383.4687500000,148738.4687500000,148264.4843750000,,,
2.1439999966,16,130686.5234375000,140012.5156250000,160443.2187500000,151448.8906250000,154639.2343750000,137327.5312500000,148688.5156250000,148284.1562500000,,,
2.1479999966,16,130584.8125000000,139908.3593750000,160372.5781250000,151349.2968750000,154593.4062500000,137232.2343750000,148603.4062500000,148243.5156250000,,,
2.1519999965,16,130571.3984375000,139895.2187500000,160345.7968750000,151349.9687500000,154568.1093750000,137215.8281250000,148589.1093750000,148224.1406250000,,,
2.1559999965,16,130664.0703125000,139975.4218750000,160400.4062500000,151450.6093750000,154603.6250000000,137302.9218750000,148666.9843750000,148227.5781250000,,,
2.1599999967,16,130733.9453125000,140055.2656250000,160468.7500000000,151491.5312500000,154639.8906250000,137370.0000000000,148729.2812500000,148269.1562500000,,,
2.1639999966,16,130674.6406250000,140008.7343750000,160445.2343750000,151426.7656250000,154606.5156250000,137317.5312500000,148680.5000000000,148275.0000000000,,,
2.1679999966,16,130563.2734375000,139888.5312500000,160363.1093750000,151320.1718750000,154544.1093750000,137214.4843750000,148587.6406250000,148249.4218750000,,,
2.1719999965,16,130553.3515625000,139881.7187500000,160341.3750000000,151311.9843750000,154530.8750000000,137208.2656250000,148579.7500000000,148201.0468750000,,,
2.1759999965,17,130656.0234375000,139990.8437500000,160397.8125000000,151430.5156250000,154580.3906250000,137304.8750000000,148660.6718750000,148230.2968750000,,,
2.1799999964,17,130729.6250000000,140058.5312500000,160446.3125000000,151506.4687500000,154630.8125000000,137370.3750000000,148721.7500000000,148256.2812500000,,,
2.1839999964,17,130675.9296875000,140002.7500000000,160432.1093750000,151454.9687500000,154617.8125000000,137320.7812500000,148682.9375000000,148262.3750000000,,,
2.1879999964,17,130571.9609375000,139908.3281250000,160363.3750000000,151375.3906250000,154591.0156250000,137223.5000000000,148592.2343750000,148253.4687500000,,,
2.1919999963,17,130567.0000000000,139898.6562500000,160350.6093750000,151380.7656250000,154566.0156250000,137214.3437500000,148585.9843750000,148215.4375000000,,,
2.1959999963,17,130667.4218750000,140006.9375000000,160407.0937500000,151442.7656250000,154593.9375000000,137306.4062500000,148666.3437500000,148235.4062500000,,,
2.1999999965,17,130728.8750000000,140065.1093750000,160444.4218750000,151463.3750000000,154613.9531250000,137366.7500000000,148717.2187500000,148259.2343750000,,,
2.2039999964,17,130670.1093750000,139994.1875000000,160410.1718750000,151398.9218750000,154584.3906250000,137312.8437500000,148669.6406250000,148256.1718750000,,,
2.2079999964,17,130565.9531250000,139883.6093750000,160339.1250000000,151279.3125000000,154531.2343750000,137214.0312500000,148581.9062500000,148220.6093750000,,,
2.2119999963,17,130567.7812500000,139880.7812500000,160337.6562500000,151295.0312500000,154523.6718750000,137211.0468750000,148580.4843750000,148198.8593750000,,,
2.2159999963,17,130682.0390625000,139991.4531250000,160424.3906250000,151421.6093750000,154567.9218750000,137310.9062500000,148677.0625000000,148223.0000000000,,,
2.2199999965,17,130746.4687500000,140044.2187500000,160467.1250000000,151485.7187500000,154588.2812500000,137367.6875000000,148730.9531250000,148262.3125000000,,,
2.2239999964,17,130691.0312500000,139997.7031250000,160452.2656250000,151421.9531250000,154555.7656250000,137317.4062500000,148690.9062500000,148277.5312500000,,,
2.2279999964,17,130586.7734375000,139907.0156250000,160371.8437500000,151319.3593750000,154552.6562500000,137224.4843750000,148599.0937500000,148231.7343750000,,,
2.2319999964,17,130564.8046875000,139879.3593750000,160307.7656250000,151319.7343750000,154569.1250000000,137207.3281250000,148568.3593750000,148196.0156250000,,,
2.2359999963,17,130663.8828125000,139980.8593750000,160379.4375000000,151443.1406250000,154603.0000000000,137301.5937500000,148654.7187500000,148212.8281250000,,,
2.2399999963,17,130741.9609375000,140061.4843750000,160453.2500000000,151537.0312500000,154654.2812500000,137377.2968750000,148725.5937500000,148240.1406250000,,,
2.2439999965,17,130677.0234375000,139991.2343750000,160410.0156250000,151458.9531250000,154636.9687500000,137319.3593750000,148671.1406250000,148256.7968750000,,,
2.2479999964,17,130571.3750000000,139886.0468750000,160331.1093750000,151324.4375000000,154579.4062500000,137221.5156250000,148587.2187500000,148239.2812500000,,,
2.2519999964,17,130557.5078125000,139884.3593750000,160333.1718750000,151284.3593750000,154518.8437500000,137205.0468750000,148580.1093750000,148199.7343750000,,,
2.2559999963,17,130666.8046875000,139999.4218750000,160424.0156250000,151410.3750000000,154550.1718750000,137302.1875000000,148674.1406250000,148216.5000000000,,,
2.2599999963,17,130741.8593750000,140066.4687500000,160485.6875000000,151504.6718750000,154622.4531250000,137370.9062500000,148736.9375000000,148262.8593750000,,,
2.2639999965,17,130679.6015625000,140002.4218750000,160451.6093750000,151437.2812500000,154617.2812500000,137316.8593750000,148683.9843750000,148286.6406250000,,,
2.2679999964,17,130573.5234375000,139907.9062500000,160368.5156250000,151330.6875000000,154583.4531250000,137219.0937500000,148593.9687500000,148249.2031250000,,,
2.2719999964,17,130576.3359375000,139918.0937500000,160351.4375000000,151333.0625000000,154573.2812500000,137218.8593750000,148591.4531250000,148234.0156250000,,,
2.2759999963,17,130676.7578125000,140002.6406250000,160409.0468750000,151453.0156250000,154597.4218750000,137308.5781250000,148671.8281250000,148238.4218750000,,,
2.2799999963,17,130759.1015625000,140073.4218750000,160482.3593750000,151522.4062500000,154630.0625000000,137386.0625000000,148748.7031250000,148267.8125000000,,,
2.2839999963,17,130693.3359375000,140005.6718750000,160438.9843750000,151437.5156250000,154622.8750000000,137328.8281250000,148694.9531250000,148263.7343750000,,,
2.2879999964,17,130587.1171875000,139885.6406250000,160368.3906250000,151321.0781250000,154576.4218750000,137234.3281250000,148608.0781250000,148241.6562500000,,,
2.2919999964,17,130578.5390625000,139872.3437500000,160345.7812500000,151331.5625000000,154569.9375000000,137221.1406250000,148596.5937500000,148218.3593750000,,,
2.2959999964,17,130677.8828125000,139986.6250000000,160403.3437500000,151453.0468750000,154614.5625000000,137313.1875000000,148674.2500000000,148226.0468750000,,,
2.2999999963,17,130748.6171875000,140068.0000000000,160456.5468750000,151539.2500000000,154664.7812500000,137382.1250000000,148731.6718750000,148276.2656250000,,,
2.3039999963,18,130690.9453125000,140015.3750000000,160427.3906250000,151458.5468750000,154640.3125000000,137332.5781250000,148687.9843750000,148302.6093750000,,,
2.3079999962,18,130575.2109375000,139876.6093750000,160349.6093750000,151337.4687500000,154596.1406250000,137223.4218750000,148590.5312500000,148240.6718750000,,,
2.3119999962,18,130569.9296875000,139871.4062500000,160346.3906250000,151360.1406250000,154575.6250000000,137212.3437500000,148589.0625000000,148230.9375000000,,,
2.3159999961,18,130680.6484375000,139992.5781250000,160437.7968750000,151502.8593750000,154620.3125000000,137314.6406250000,148682.1562500000,148245.8750000000,,,
2.3199999961,18,130744.8359375000,140065.5937500000,160488.9531250000,151506.5000000000,154634.4062500000,137382.5468750000,148735.2500000000,148276.3906250000,,,
2.3239999961,18,130674.2656250000,140003.6250000000,160418.4843750000,151428.5625000000,154637.3906250000,137322.1250000000,148672.7812500000,148259.0937500000,,,
2.3279999963,18,130563.5390625000,139901.3125000000,160330.1718750000,151335.5312500000,154602.0468750000,137222.6562500000,148575.1718750000,148234.2656250000,,,
2.3319999962,18,130548.2031250000,139886.9062500000,160317.8750000000,151331.0625000000,154581.8906250000,137205.2812500000,148561.6562500000,148202.6406250000,,,
2.3359999962,18,130648.4843750000,139975.3125000000,160395.9062500000,151421.0468750000,154606.1093750000,137296.5625000000,148645.7031250000,148220.5781250000,,,
2.3399999961,18,130733.8593750000,140060.1718750000,160465.2656250000,151501.1406250000,154629.9843750000,137376.6250000000,148718.3437500000,148260.3593750000,,,
2.3439999961,18,130697.3828125000,140024.5000000000,160443.8593750000,151450.9531250000,154622.8593750000,137348.8125000000,148694.1250000000,148275.7343750000,,,
2.3479999963,18,130589.8515625000,139916.2968750000,160363.2343750000,151328.9687500000,154572.3437500000,137245.8437500000,148605.2031250000,148270.7968750000,,,
2.3519999962,18,130574.2421875000,139889.5781250000,160337.7343750000,151316.3125000000,154568.7031250000,137222.8437500000,148586.1406250000,148224.6093750000,,,
2.3559999962,18,130683.1718750000,139991.9687500000,160413.6875000000,151435.3750000000,154605.1562500000,137321.2656250000,148674.0937500000,148238.4218750000,,,
2.3599999961,18,130763.5781250000,140050.0625000000,160491.4531250000,151526.4531250000,154628.4375000000,137394.0000000000,148742.8906250000,148288.4375000000,,,
2.3639999961,18,130705.2734375000,139996.7343750000,160452.9843750000,151479.8906250000,154637.8437500000,137340.3906250000,148694.6875000000,148275.3281250000,,,
2.3679999961,18,130596.6406250000,139909.1406250000,160352.1093750000,151357.9062500000,154609.4687500000,137240.2343750000,148603.3125000000,148245.9218750000,,,
2.3719999962,18,130583.5000000000,139901.2187500000,160323.3281250000,151338.6718750000,154593.3750000000,137229.1875000000,148588.2031250000,148232.8125000000,,,
2.3759999962,18,130684.0781250000,139996.3906250000,160400.1406250000,151456.5312500000,154635.3750000000,137317.8750000000,148669.0000000000,148251.4218750000,,,
2.3799999962,18,130764.4687500000,140071.2187500000,160474.2500000000,151556.4218750000,154667.0781250000,137390.4687500000,148741.3281250000,148281.8906250000,,,
2.3839999961,18,130725.0078125000,140036.1093750000,160477.6406250000,151488.7500000000,154652.4687500000,137357.7187500000,148715.1562500000,148316.3906250000,,,
2.3879999961,18,130615.7656250000,139921.6562500000,160398.2968750000,151343.9531250000,154595.0156250000,137255.3906250000,148622.4531250000,148274.9687500000,,,
2.3919999963,18,130587.9531250000,139867.8593750000,160358.9531250000,151325.5000000000,154598.3437500000,137221.5937500000,148596.3281250000,148220.4687500000,,,
2.3959999962,18,130685.5312500000,139968.0937500000,160419.2968750000,151447.5468750000,154653.8906250000,137312.4375000000,148675.8906250000,148235.6562500000,,,
2.3999999962,18,130769.6953125000,140089.2968750000,160490.9062500000,151534.2968750000,154692.6718750000,137394.8125000000,148749.0312500000,148284.5000000000,,,
2.4039999961,18,130713.2343750000,140034.2031250000,160459.7656250000,151475.0625000000,154676.6875000000,137345.0312500000,148704.9375000000,148288.8750000000,,,
2.4079999961,18,130600.5859375000,139911.5468750000,160386.0156250000,151366.5468750000,154617.8437500000,137236.4843750000,148613.3593750000,148253.5937500000,,,
2.4119999961,18,130586.8203125000,139901.2031250000,160373.5937500000,151356.8125000000,154577.6562500000,137222.4531250000,148601.3750000000,148244.0000000000,,,
2.4159999962,18,130676.6796875000,139984.1093750000,160399.2656250000,151463.3125000000,154627.6562500000,137303.5312500000,148665.1093750000,148237.8593750000,,,
2.4199999962,18,130751.2734375000,140057.5468750000,160460.3593750000,151544.7968750000,154682.9843750000,137375.6875000000,148725.6406250000,148265.2968750000,,,
2.4239999962,18,130702.9609375000,140031.2343750000,160438.7343750000,151490.2187500000,154682.0468750000,137339.6562500000,148687.5000000000,148281.5468750000,,,
2.4279999961,18,130596.4531250000,139931.8281250000,160367.0937500000,151384.5468750000,154609.7343750000,137244.7968750000,148597.6250000000,148271.3593750000,,,
2.4319999961,19,130579.1015625000,139909.3593750000,160346.0937500000,151331.6406250000,154560.9531250000,137225.2187500000,148583.1562500000,148236.2500000000,,,
2.4359999960,19,130671.2343750000,139995.3437500000,160395.7500000000,151419.0312500000,154598.6562500000,137307.6875000000,148658.9375000000,148241.6875000000,,,
2.4399999960,19,130761.1171875000,140078.3125000000,160469.2656250000,151516.9375000000,154645.4843750000,137391.2343750000,148736.5781250000,148292.2968750000,,,
2.4439999959,19,130710.1796875000,140019.8906250000,160451.2187500000,151477.7968750000,154636.5625000000,137340.4062500000,148700.0312500000,148291.3593750000,,,
2.4479999959,19,130598.4140625000,139917.5625000000,160378.0156250000,151367.4218750000,154575.2656250000,137238.5937500000,148606.8125000000,148253.4687500000,,,
2.4519999959,19,130578.1328125000,139899.0468750000,160359.9843750000,151331.5468750000,154557.4687500000,137222.6875000000,148587.8593750000,148226.6718750000,,,
2.4559999960,19,130677.7500000000,139977.9687500000,160421.0468750000,151413.9687500000,154594.5781250000,137313.3750000000,148673.7343750000,148226.0468750000,,,
2.4599999960,19,130760.7109375000,140061.3281250000,160470.8750000000,151508.2968750000,154665.0156250000,137388.3750000000,148745.0937500000,148261.6718750000,,,
2.4639999960,19,130708.3046875000,140021.1250000000,160445.9375000000,151456.6093750000,154651.0937500000,137342.7500000000,148700.6406250000,148266.8437500000,,,
2.4679999959,19,130599.2421875000,139914.0468750000,160376.2187500000,151344.7031250000,154598.0156250000,137244.9062500000,148610.5156250000,148248.4531250000,,,
2.4719999959,19,130591.1406250000,139906.3437500000,160379.4375000000,151334.3281250000,154554.9062500000,137236.0781250000,148605.9843750000,148237.8750000000,,,
2.4759999961,19,130702.9609375000,140009.4531250000,160450.8593750000,151469.4843750000,154603.7343750000,137340.5156250000,148698.4218750000,148271.5625000000,,,
2.4799999960,19,130771.4687500000,140063.5781250000,160491.9531250000,151572.6406250000,154664.0000000000,137399.4687500000,148749.5312500000,148280.1562500000,,,
2.4839999960,19,130705.7500000000,140013.0781250000,160436.6250000000,151484.0468750000,154671.3281250000,137333.3593750000,148694.9531250000,148258.9687500000,,,
2.4879999959,19,130598.4140625000,139896.6875000000,160367.3906250000,151359.1093750000,154619.5312500000,137230.5000000000,148613.6093750000,148232.0625000000,,,
2.4919999959,19,130572.7187500000,139869.0937500000,160344.7812500000,151329.4687500000,154590.6875000000,137201.9062500000,148590.8906250000,148208.9375000000,,,
2.4959999959,19,130668.5781250000,139974.1562500000,160418.4843750000,151423.1718750000,154598.1718750000,137290.9062500000,148670.6562500000,148224.0468750000,,,
2.4999999960,19,130746.6562500000,140038.2031250000,160489.3281250000,151514.4218750000,154643.7812500000,137366.3281250000,148736.5000000000,148245.3437500000,,,
2.5039999960,19,130693.9531250000,139991.6718750000,160447.7812500000,151469.7500000000,154641.8906250000,137320.8281250000,148689.4843750000,148252.8281250000,,,
2.5079999960,19,130581.4296875000,139899.9062500000,160355.2500000000,151361.7968750000,154595.2500000000,137219.9062500000,148590.8125000000,148246.5937500000,,,
2.5119999959,19,130554.6406250000,139877.3750000000,160330.9687500000,151311.3750000000,154547.1875000000,137196.7500000000,148564.8906250000,148216.6718750000,,,
2.5159999959,19,130650.6875000000,139975.2812500000,160405.9843750000,151402.3750000000,154552.0625000000,137284.9687500000,148647.0000000000,148230.0000000000,,,
2.5199999961,19,130734.9609375000,140049.8125000000,160475.9218750000,151492.0781250000,154579.9843750000,137364.7656250000,148722.3750000000,148249.4218750000,,,
2.5239999960,19,130683.3593750000,139992.9531250000,160444.7031250000,151437.0312500000,154565.1562500000,137321.0468750000,148678.2500000000,148249.6250000000,,,
2.5279999960,19,130574.7265625000,139886.5468750000,160345.3281250000,151323.1250000000,154542.6562500000,137223.3593750000,148584.4531250000,148228.7812500000,,,
2.5319999959,19,130554.3671875000,139858.2500000000,160292.7500000000,151327.0625000000,154578.7343750000,137203.7343750000,148559.6406250000,148198.4062500000,,,
2.5359999959,19,130650.0468750000,139960.2031250000,160371.8750000000,151423.4843750000,154610.3593750000,137287.3281250000,148636.4843750000,148193.9218750000,,,
2.5399999958,19,130727.0000000000,140042.6250000000,160430.6093750000,151494.1562500000,154629.1250000000,137355.7031250000,148696.7031250000,148224.1406250000,,,
2.5439999960,19,130677.1328125000,139989.7656250000,160401.6406250000,151431.4843750000,154605.9843750000,137309.9687500000,148654.5312500000,148233.0781250000,,,
2.5479999960,19,130568.6093750000,139880.2812500000,160329.3281250000,151316.8125000000,154560.3281250000,137208.8437500000,148565.6406250000,148215.5625000000,,,
2.5519999960,19,130555.0156250000,139863.3750000000,160318.8437500000,151314.1406250000,154537.8593750000,137191.2031250000,148553.8125000000,148209.6875000000,,,
2.5559999959,19,130645.9687500000,139949.2031250000,160383.2500000000,151408.5781250000,154562.2031250000,137270.7031250000,148629.6406250000,148205.0312500000,,,
2.5599999959,20,130723.7500000000,140027.7968750000,160449.8750000000,151462.3593750000,154587.0937500000,137342.1093750000,148698.5781250000,148224.7656250000,,,
2.5639999958,20,130682.9843750000,139992.9062500000,160442.4687500000,151413.7812500000,154570.3125000000,137308.8906250000,148668.6406250000,148250.7031250000,,,
2.5679999958,20,130589.5312500000,139902.3281250000,160367.3125000000,151317.8906250000,154547.2656250000,137226.3125000000,148591.3750000000,148240.1875000000,,,
2.5719999957,20,130564.0234375000,139866.4062500000,160322.0625000000,151300.7812500000,154555.7968750000,137199.3750000000,148565.5625000000,148191.2656250000,,,
2.5759999957,20,130660.1796875000,139957.2343750000,160390.0312500000,151426.8437500000,154597.9687500000,137286.2812500000,148645.8750000000,148201.9687500000,,,
2.5799999957,20,130752.7187500000,140047.2187500000,160463.2343750000,151518.6250000000,154645.9687500000,137376.0312500000,148727.0625000000,148246.1406250000,,,
2.5839999958,20,130708.1406250000,140007.9531250000,160442.6875000000,151480.0312500000,154648.9218750000,137336.9218750000,148692.7500000000,148254.7187500000,,,
2.5879999958,20,130592.2421875000,139897.5781250000,160360.5000000000,151356.2968750000,154577.9062500000,137232.5937500000,148596.2968750000,148217.8125000000,,,
2.5919999958,20,130561.3437500000,139865.8437500000,160322.0312500000,151304.0468750000,154538.3906250000,137205.8437500000,148566.0781250000,148187.6406250000,,,
2.5959999957,20,130647.9765625000,139956.0468750000,160390.1718750000,151393.8281250000,154569.0000000000,137283.9531250000,148638.8125000000,148203.6093750000,,,
2.5999999957,20,130727.5312500000,140040.5625000000,160449.6093750000,151491.0000000000,154616.7187500000,137358.5156250000,148703.8593750000,148228.7656250000,,,
2.6039999959,20,130697.0625000000,140007.4375000000,160446.3125000000,151453.4218750000,154605.2656250000,137333.9218750000,148681.0625000000,148249.6562500000,,,
2.6079999958,20,130584.6796875000,139875.8281250000,160360.6875000000,151322.7656250000,154561.4062500000,137228.5156250000,148585.6250000000,148221.4687500000,,,
2.6119999958,20,130556.2187500000,139861.6093750000,160325.4218750000,151289.2656250000,154537.6406250000,137200.9843750000,148559.6406250000,148196.5156250000,,,
2.6159999957,20,130647.1718750000,139964.0937500000,160382.5468750000,151403.4843750000,154576.0000000000,137283.9531250000,148635.8125000000,148202.7656250000,,,
2.6199999957,20,130735.3125000000,140057.4375000000,160449.4375000000,151496.0937500000,154618.1875000000,137370.2343750000,148709.5937500000,148231.3593750000,,,
2.6239999956,20,130712.7812500000,140040.2500000000,160445.6875000000,151455.8125000000,154607.8906250000,137356.6875000000,148694.4218750000,148294.2812500000,,,
2.6279999958,20,130593.7187500000,139897.0625000000,160350.2343750000,151329.1875000000,154545.3593750000,137245.3281250000,148595.3125000000,148226.6406250000,,,
2.6319999958,20,130558.3125000000,139866.3906250000,160318.6093750000,151310.6250000000,154540.0468750000,137211.6875000000,148563.4218750000,148191.0781250000,,,
2.6359999957,20,130639.0234375000,139959.0000000000,160371.0625000000,151409.0625000000,154571.3750000000,137281.6250000000,148630.9062500000,148194.0000000000,,,
2.6399999957,20,130730.0234375000,140058.2343750000,160435.7343750000,151500.6562500000,154630.7656250000,137367.7656250000,148707.8281250000,148235.2812500000,,,
2.6439999957,20,130694.0859375000,140024.5468750000,160421.1406250000,151444.4843750000,154623.4218750000,137338.5937500000,148681.6718750000,148255.8593750000,,,
2.6479999959,20,130584.4062500000,139894.1718750000,160356.0000000000,151326.9531250000,154570.0468750000,137236.6718750000,148597.3750000000,148223.7968750000,,,
2.6519999958,20,130552.1718750000,139866.0625000000,160325.2812500000,151288.3593750000,154532.9687500000,137203.6718750000,148570.0156250000,148207.5937500000,,,
2.6559999958,20,130651.8906250000,139973.0625000000,160401.5937500000,151387.1406250000,154551.3437500000,137291.1093750000,148654.9687500000,148212.0000000000,,,
2.6599999957,20,130743.7031250000,140061.2500000000,160467.9843750000,151492.8750000000,154608.1250000000,137371.7187500000,148734.9687500000,148243.1875000000,,,
2.6639999957,20,130700.2578125000,140019.9375000000,160424.6406250000,151461.8750000000,154624.4843750000,137336.1406250000,148695.6250000000,148274.1406250000,,,
2.6679999956,20,130596.1875000000,139917.6406250000,160362.0312500000,151357.6718750000,154587.9375000000,137242.7343750000,148607.0937500000,148256.5468750000,,,
2.6719999958,20,130558.6640625000,139870.0781250000,160339.7656250000,151324.1718750000,154530.5625000000,137201.2343750000,148572.6250000000,148216.6875000000,,,
2.6759999958,20,130640.5468750000,139930.0781250000,160396.3437500000,151410.0468750000,154542.0312500000,137272.3593750000,148642.0312500000,148201.1875000000,,,
2.6799999957,20,130720.7968750000,140017.5000000000,160442.7968750000,151476.7343750000,154616.5156250000,137347.8437500000,148706.2812500000,148211.8593750000,,,
2.6839999957,20,130689.4218750000,140001.4375000000,160430.4218750000,151438.7968750000,154612.3125000000,137321.2343750000,148680.9062500000,148231.4687500000,,,
2.6879999957,21,130587.2500000000,139897.3593750000,160367.3750000000,151321.5156250000,154549.9531250000,137227.0156250000,148595.5312500000,148227.3593750000,,,
2.6919999956,21,130571.3515625000,139880.1093750000,160350.4687500000,151293.6718750000,154539.6718750000,137209.4062500000,148581.2500000000,148219.8906250000,,,
2.6959999956,21,130665.9218750000,139973.5156250000,160402.7500000000,151416.2968750000,154593.4531250000,137291.6718750000,148660.1718750000,148225.2187500000,,,
2.6999999955,21,130744.5937500000,140057.9531250000,160455.9843750000,151520.7187500000,154641.9531250000,137364.8437500000,148723.5781250000,148228.8437500000,,,
2.7039999955,21,130714.8203125000,140020.4687500000,160439.1093750000,151477.5000000000,154648.7968750000,137340.1718750000,148698.2500000000,148250.6406250000,,,
2.7079999954,21,130614.3671875000,139889.8593750000,160368.5156250000,151352.0000000000,154612.5781250000,137242.6718750000,148617.3593750000,148242.1718750000,,,
2.7119999956,21,130580.0078125000,139864.7187500000,160341.0781250000,151308.9375000000,154580.6093750000,137210.8281250000,148586.8593750000,148217.7343750000,,,
2.7159999956,21,130657.8750000000,139961.5000000000,160387.0781250000,151404.0937500000,154590.5312500000,137286.7187500000,148647.7968750000,148209.7500000000,,,
2.7199999955,21,130742.6328125000,140055.1562500000,160457.5781250000,151493.9218750000,154599.3281250000,137368.7031250000,148723.1406250000,148238.1718750000,,,
2.7239999955,21,130709.1093750000,140021.3906250000,160457.3593750000,151458.1406250000,154601.2343750000,137343.2031250000,148697.5000000000,148260.5781250000,,,
2.7279999955,21,130595.2500000000,139902.5156250000,160371.7968750000,151342.2968750000,154598.5781250000,137242.2500000000,148601.8281250000,148246.9531250000,,,
2.7319999957,21,130550.2890625000,139869.0312500000,160322.9218750000,151308.7500000000,154577.0937500000,137199.9531250000,148562.5625000000,148210.7031250000,,,
2.7359999956,21,130627.7812500000,139950.9218750000,160371.8750000000,151405.8437500000,154593.2656250000,137267.5156250000,148624.1718750000,148201.7187500000,,,
2.7399999956,21,130718.4921875000,140034.9531250000,160451.5156250000,151500.4687500000,154628.7500000000,137350.3125000000,148704.2656250000,148216.0781250000,,,
2.7439999955,21,130691.6718750000,140005.9062500000,160433.0781250000,151458.8125000000,154624.7812500000,137331.2968750000,148680.1562500000,148230.0468750000,,,
2.7479999955,21,130582.9062500000,139895.4375000000,160341.7500000000,151319.2812500000,154570.0937500000,137230.5781250000,148583.8906250000,148218.2500000000,,,
2.7519999954,21,130552.4687500000,139860.1562500000,160318.4218750000,151284.9531250000,154535.2031250000,137199.4843750000,148561.1718750000,148210.9218750000,,,
2.7559999956,21,130641.8906250000,139939.5468750000,160399.1718750000,151402.3750000000,154545.7968750000,137277.4687500000,148640.5000000000,148213.1562500000,,,
2.7599999956,21,130729.9218750000,140035.6875000000,160476.0312500000,151495.7656250000,154588.3125000000,137358.4062500000,148717.8593750000,148208.2968750000,,,
2.7639999955,21,130695.1328125000,140014.3125000000,160438.7656250000,151454.1718750000,154630.5468750000,137330.8125000000,148686.8281250000,148231.9843750000,,,
2.7679999955,21,130570.3828125000,139886.0468750000,160328.5312500000,151318.3906250000,154580.8437500000,137215.2031250000,148579.8593750000,148201.7187500000,,,
2.7719999955,21,130532.8281250000,139851.4218750000,160299.4062500000,151288.0937500000,154545.2812500000,137180.0625000000,148548.9843750000,148188.1562500000,,,
2.7759999956,21,130621.6640625000,139928.2031250000,160374.3906250000,151383.3593750000,154548.7968750000,137257.7968750000,148628.7031250000,148190.1718750000,,,
2.7799999956,21,130716.7734375000,140025.9218750000,160435.5000000000,151505.7812500000,154626.6093750000,137348.1875000000,148710.9375000000,148237.9375000000,,,
2.7839999956,21,130689.1796875000,140012.2343750000,160414.4375000000,151431.8593750000,154614.7500000000,137333.7656250000,148689.0625000000,148257.8906250000,,,
2.7879999955,21,130573.4140625000,139905.9531250000,160353.9531250000,151310.3593750000,154556.4687500000,137225.6093750000,148592.8750000000,148210.7343750000,,,
2.7919999955,21,130520.0390625000,139850.6875000000,160325.0156250000,151259.3437500000,154508.0625000000,137170.2812500000,148550.3593750000,148150.9218750000,,,
2.7959999954,21,130605.5468750000,139922.2343750000,160365.4375000000,151346.3125000000,154553.3593750000,137248.2187500000,148616.6093750000,148162.4531250000,,,
2.7999999956,21,130712.7031250000,140024.6875000000,160452.7500000000,151466.0781250000,154601.2812500000,137343.3593750000,148709.1250000000,148215.2968750000,,,
2.8039999956,21,130691.4843750000,140007.3125000000,160430.0000000000,151452.1406250000,154640.6093750000,137324.9062500000,148690.1250000000,148239.1093750000,,,
2.8079999955,21,130571.2968750000,139888.9375000000,160339.3125000000,151319.6250000000,154605.1718750000,137218.2343750000,148583.3281250000,148202.4531250000,,,
2.8119999955,21,130530.0156250000,139849.5468750000,160310.0000000000,151280.8281250000,154563.6093750000,137180.8281250000,148549.5781250000,148179.4062500000,,,
2.8159999955,22,130625.5781250000,139955.6250000000,160374.6093750000,151385.1875000000,154583.9843750000,137268.8750000000,148631.5781250000,148211.9375000000,,,
2.8199999954,22,130731.8515625000,140058.6718750000,160459.2656250000,151501.4062500000,154633.5000000000,137372.4843750000,148722.2343750000,148266.6562500000,,,
2.8239999954,22,130691.0546875000,139981.9843750000,160438.0937500000,151471.6875000000,154635.9218750000,137334.7812500000,148686.5625000000,148240.8281250000,,,
2.8279999953,22,130582.4765625000,139906.3437500000,160371.8281250000,151348.2500000000,154562.4843750000,137238.1093750000,148593.4687500000,148237.9687500000,,,
2.8319999953,22,130538.8125000000,139875.2812500000,160344.0312500000,151312.1718750000,154514.8906250000,137192.6562500000,148557.3593750000,148191.6875000000,,,
2.8359999952,22,130622.3671875000,139963.2656250000,160394.8593750000,151387.3593750000,154536.4062500000,137264.5625000000,148626.0000000000,148214.6250000000,,,
2.8399999954,22,130705.6484375000,140035.3281250000,160432.8125000000,151490.6250000000,154617.9375000000,137337.2500000000,148688.9687500000,148221.8125000000,,,
2.8439999954,22,130678.6640625000,139993.5468750000,160407.7343750000,151459.4218750000,154640.3750000000,137312.9687500000,148663.0937500000,148222.7187500000,,,
2.8479999953,22,130579.9843750000,139890.1406250000,160351.3593750000,151354.4218750000,154578.5625000000,137220.5156250000,148584.2343750000,148234.3437500000,,,
2.8519999953,22,130546.7812500000,139862.1250000000,160348.7500000000,151302.0625000000,154509.4687500000,137185.7343750000,148558.0781250000,148200.7343750000,,,
2.8559999953,22,130631.9921875000,139949.4843750000,160383.4062500000,151436.9843750000,154572.8906250000,137265.5312500000,148619.6093750000,148203.2812500000,,,
2.8599999954,22,130732.6015625000,140039.0625000000,160450.1875000000,151548.0156250000,154651.5781250000,137358.1093750000,148702.8906250000,148253.9218750000,,,
2.8639999954,22,130701.7578125000,140021.5156250000,160437.4531250000,151463.9375000000,154641.9218750000,137334.0000000000,148678.9218750000,148287.1562500000,,,
2.8679999954,22,130577.7578125000,139907.4687500000,160344.9375000000,151301.3593750000,154556.9843750000,137219.9843750000,148577.1875000000,148228.8125000000,,,
2.8719999953,22,130519.9531250000,139840.5468750000,160307.6562500000,151269.4531250000,154537.1093750000,137162.9843750000,148528.3906250000,148176.1406250000,,,
2.8759999953,22,130600.7421875000,139901.8437500000,160354.9531250000,151342.2656250000,154569.4843750000,137236.1562500000,148594.3750000000,148193.1093750000,,,
2.8799999952,22,130684.9921875000,139986.5000000000,160403.1250000000,151428.0000000000,154604.8593750000,137312.5781250000,148664.7500000000,148190.6718750000,,,
2.8839999954,22,130662.0625000000,139972.5781250000,160418.5156250000,151403.0156250000,154569.5625000000,137290.4218750000,148654.9062500000,148195.9843750000,,,
2.8879999954,22,130552.8671875000,139862.4062500000,160326.5937500000,151303.6250000000,154572.6093750000,137189.7187500000,148561.7812500000,148187.8281250000,,,
2.8919999953,22,130517.0625000000,139827.4375000000,160304.9843750000,151266.0468750000,154555.7968750000,137154.5937500000,148533.3281250000,148179.6562500000,,,
2.8959999953,22,130598.4140625000,139903.9375000000,160364.3125000000,151358.5312500000,154584.8750000000,137224.2968750000,148598.8750000000,148174.8437500000,,,
2.8999999953,22,130698.3515625000,140003.4375000000,160428.7343750000,151466.2656250000,154630.8750000000,137314.6562500000,148684.3281250000,148215.0000000000,,,
2.9039999954,22,130684.3203125000,139991.9687500000,160430.9062500000,151443.1406250000,154616.5781250000,137304.1250000000,148676.1875000000,148243.6250000000,,,
2.9079999954,22,130578.6406250000,139875.7187500000,160370.7187500000,151329.0781250000,154542.7343750000,137210.5156250000,148589.4062500000,148228.1718750000,,,
2.9119999954,22,130526.6093750000,139833.6093750000,160324.3437500000,151280.7343750000,154540.8281250000,137165.7968750000,148538.6875000000,148198.0781250000,,,
2.9159999953,22,130607.7968750000,139933.6562500000,160369.9375000000,151372.7656250000,154577.8437500000,137239.7187500000,148604.1562500000,148212.8281250000,,,
2.9199999953,22,130699.3984375000,140023.6875000000,160422.3281250000,151486.3593750000,154635.3750000000,137326.0156250000,148680.3437500000,148218.4375000000,,,
2.9239999952,22,130678.2578125000,140002.6875000000,160413.8750000000,151455.5625000000,154633.6406250000,137312.0625000000,148663.2187500000,148237.9062500000,,,
2.9279999954,22,130567.9140625000,139889.6406250000,160336.2343750000,151327.9687500000,154586.0000000000,137211.9843750000,148570.2656250000,148205.0312500000,,,
2.9319999954,22,130529.5625000000,139852.0312500000,160308.8437500000,151294.6093750000,154550.2656250000,137176.3906250000,148536.6562500000,148200.0156250000,,,
2.9359999953,22,130609.6796875000,139932.0781250000,160359.0312500000,151397.6875000000,154580.5312500000,137249.8281250000,148604.0000000000,148199.3593750000,,,
2.9399999953,22,130712.8593750000,140037.3437500000,160439.7031250000,151509.8281250000,154636.1562500000,137346.5000000000,148690.7187500000,148239.7656250000,,,
2.9439999952,23,130694.8359375000,140001.8906250000,160443.0625000000,151436.8437500000,154597.6718750000,137332.9531250000,148676.9531250000,148248.2812500000,,,
