Time:250Hz,Epoch,Channel 1,Channel 2,Channel 3,Channel 4,Channel 5,Channel 6,Channel 7,Channel 8,Event Id,Event Date,Event Duration
0.0000000000,0,150676.4687500000,147654.3593750000,169175.1875000000,109028.4062500000,138148.7500000000,166351.6406250000,157146.6562500000,151964.9375000000,,,
0.0040000000,0,150122.7031250000,147098.2343750000,168622.1562500000,108475.2031250000,137593.0468750000,165798.7812500000,156595.3281250000,151422.8125000000,,,
0.0079999999,0,150559.7812500000,147476.6093750000,169059.2031250000,108883.9375000000,138034.6718750000,166191.2968750000,157015.7031250000,151771.7500000000,,,
0.0119999999,0,151419.5937500000,148296.1718750000,169916.3750000000,109718.7500000000,138884.7187500000,167018.3593750000,157860.5156250000,152563.6093750000,,,
0.0159999998,0,151523.6093750000,148431.5625000000,170012.8281250000,109835.6406250000,138982.9375000000,167144.7187500000,157967.3281250000,152710.8906250000,,,
0.0199999998,0,150700.8750000000,147671.5625000000,169191.3281250000,109027.0390625000,138151.9218750000,166369.0312500000,157160.7343750000,151981.6875000000,,,
0.0240000000,0,150141.6250000000,147106.4218750000,168627.2656250000,108460.7187500000,137588.5156250000,165811.0468750000,156604.5000000000,151422.8750000000,,,
0.0279999999,0,150573.8906250000,147478.3906250000,169051.6406250000,108866.0234375000,138031.5312500000,166196.9062500000,157022.0312500000,151773.3281250000,,,
0.0319999999,0,151433.7656250000,148297.9687500000,169910.4218750000,109718.3515625000,138889.9218750000,167022.8906250000,157871.5468750000,152566.8593750000,,,
0.0359999998,0,151535.7968750000,148437.9531250000,170021.2812500000,109838.7031250000,138982.1875000000,167151.1875000000,157978.5937500000,152708.4843750000,,,
0.0399999998,0,150721.5000000000,147689.8750000000,169214.0937500000,109044.6328125000,138167.6093750000,166385.1718750000,157178.1406250000,151997.7500000000,,,
0.0440000000,0,150148.0468750000,147116.2031250000,168637.2031250000,108469.5156250000,137599.4375000000,165810.7031250000,156608.3906250000,151446.2343750000,,,
0.0480000000,0,150572.6875000000,147488.5000000000,169058.3906250000,108879.7812500000,138032.5625000000,166190.9843750000,157023.7500000000,151784.7500000000,,,
0.0519999999,0,151427.5937500000,148296.6250000000,169916.3750000000,109726.1796875000,138893.3281250000,167010.4687500000,157868.8593750000,152570.3437500000,,,
0.0559999999,0,151534.9531250000,148430.5937500000,170026.2187500000,109848.7578125000,138998.4218750000,167142.0312500000,157984.3906250000,152718.5937500000,,,
0.0599999998,0,150713.9375000000,147680.7343750000,169206.3281250000,109049.2421875000,138174.9062500000,166375.5468750000,157181.0625000000,152001.3125000000,,,
0.0639999998,0,150125.4062500000,147097.8281250000,168619.4843750000,108466.0781250000,137584.5937500000,165792.8281250000,156598.0625000000,151428.4687500000,,,
0.0680000000,0,150546.7343750000,147462.8281250000,169037.4531250000,108864.6328125000,138008.4218750000,166169.5468750000,157004.6250000000,151769.8125000000,,,
0.0719999999,0,151413.3437500000,148286.7187500000,169901.4375000000,109716.6562500000,138880.1406250000,167001.5468750000,157861.6718750000,152567.6718750000,,,
0.0759999999,0,151535.5156250000,148443.0937500000,170027.2968750000,109850.6875000000,139002.4218750000,167150.5625000000,157996.2187500000,152729.2343750000,,,
0.0799999998,0,150719.8906250000,147694.8906250000,169218.5468750000,109057.4531250000,138180.4843750000,166389.3906250000,157195.4687500000,152014.5156250000,,,
0.0839999998,0,150129.7500000000,147111.4843750000,168634.2812500000,108459.8281250000,137592.7343750000,165805.7343750000,156606.3750000000,151438.8281250000,,,
0.0880000000,0,150544.7187500000,147462.8593750000,169041.2500000000,108852.8281250000,138007.7656250000,166175.2343750000,157009.1875000000,151758.8125000000,,,
0.0919999999,0,151413.6406250000,148286.9062500000,169909.8125000000,109712.6406250000,138884.4218750000,167006.5000000000,157870.1250000000,152560.4531250000,,,
0.0959999999,0,151542.3125000000,148445.7500000000,170043.7343750000,109853.0468750000,139011.6093750000,167155.8593750000,158004.0156250000,152726.1875000000,,,
0.0999999999,0,150726.6562500000,147693.6875000000,169230.4062500000,109054.5000000000,138182.6875000000,166389.7656250000,157205.9218750000,152006.4375000000,,,
0.1039999998,0,150137.9062500000,147111.2656250000,168641.9843750000,108465.4375000000,137591.0312500000,165806.3281250000,156622.2187500000,151433.5937500000,,,
0.1079999998,0,150542.1093750000,147465.4843750000,169033.5937500000,108855.1875000000,138009.0000000000,166167.2656250000,157011.3906250000,151761.2812500000,,,
0.1120000000,0,151406.9375000000,148297.1875000000,169896.1093750000,109708.3203125000,138872.9687500000,166996.3906250000,157861.0625000000,152572.0625000000,,,
0.1159999999,0,151547.5468750000,148457.5781250000,170053.6250000000,109858.2265625000,139015.8281250000,167155.1875000000,158009.5781250000,152742.2812500000,,,
0.1199999999,0,150734.4843750000,147709.1562500000,169244.4375000000,109070.4921875000,138206.5000000000,166393.4062500000,157212.8437500000,152023.7343750000,,,
0.1239999998,0,150129.5625000000,147109.4687500000,168642.5781250000,108467.6328125000,137599.4375000000,165795.1718750000,156616.5156250000,151437.5625000000,,,
0.1279999998,1,150524.6250000000,147459.0937500000,169031.7031250000,108845.0234375000,137998.3906250000,166151.8281250000,156998.5625000000,151753.6406250000,,,
0.1319999998,1,151396.3125000000,148291.6875000000,169890.7656250000,109699.7890625000,138870.9375000000,166992.2656250000,157851.8593750000,152550.6875000000,,,
0.1359999997,1,151544.0781250000,148453.9375000000,170037.7031250000,109854.9531250000,139010.0000000000,167161.4375000000,158001.8281250000,152727.3906250000,,,
0.1399999997,1,150742.5000000000,147706.3281250000,169246.0156250000,109070.9218750000,138201.7187500000,166406.4687500000,157217.6562500000,152015.1875000000,,,
0.1439999996,1,150143.3750000000,147110.9531250000,168646.1718750000,108473.5937500000,137609.4843750000,165809.4375000000,156620.0468750000,151424.6875000000,,,
0.1479999996,1,150535.7031250000,147444.4843750000,169026.0468750000,108853.8203125000,137999.4843750000,166155.8750000000,156995.2656250000,151746.8750000000,,,
0.1519999998,1,151397.7343750000,148263.4375000000,169880.0937500000,109696.0625000000,138855.3437500000,166979.8125000000,157843.9687500000,152537.8125000000,,,
0.1559999997,1,151555.7187500000,148447.7031250000,170040.7500000000,109860.5625000000,139009.7656250000,167155.0156250000,158009.2187500000,152729.3750000000,,,
0.1599999997,1,150756.1875000000,147710.3125000000,169245.0312500000,109074.6171875000,138201.5937500000,166403.0937500000,157223.8125000000,152021.0312500000,,,
0.1639999996,1,150150.8593750000,147110.3593750000,168636.2968750000,108462.5625000000,137589.3750000000,165803.8906250000,156619.7812500000,151425.9843750000,,,
0.1679999996,1,150545.8125000000,147449.5468750000,169027.0156250000,108841.0000000000,137990.2656250000,166154.0000000000,157000.1250000000,151748.2031250000,,,
0.1719999998,1,151407.9375000000,148275.3281250000,169885.8125000000,109691.4453125000,138853.2656250000,166982.6406250000,157848.0468750000,152546.5312500000,,,
0.1759999997,1,151569.7187500000,148471.5000000000,170055.0000000000,109866.7031250000,139019.3437500000,167167.3125000000,158016.5468750000,152746.9218750000,,,
0.1799999997,1,150766.9687500000,147732.1718750000,169261.7343750000,109081.3750000000,138212.1875000000,166417.6562500000,157233.2343750000,152046.0781250000,,,
0.1839999997,1,150142.2031250000,147109.5000000000,168635.8750000000,108459.3203125000,137586.8750000000,165800.8593750000,156616.8281250000,151431.2656250000,,,
0.1879999996,1,150529.0781250000,147439.9218750000,169016.2812500000,108835.6093750000,137983.7968750000,166142.7343750000,156993.2031250000,151739.5781250000,,,
0.1919999996,1,151399.2187500000,148268.5312500000,169882.3125000000,109689.4375000000,138854.8437500000,166978.3437500000,157847.9687500000,152540.7031250000,,,
0.1959999998,1,151559.1562500000,148461.9218750000,170043.0312500000,109865.1484375000,139010.0000000000,167163.5781250000,158010.3750000000,152738.0312500000,,,
0.1999999997,1,150763.8750000000,147732.6875000000,169254.8906250000,109090.1250000000,138216.8437500000,166420.4375000000,157232.6093750000,152037.3593750000,,,
0.2039999997,1,150146.8906250000,147118.6562500000,168636.9218750000,108473.3203125000,137594.2343750000,165810.9062500000,156618.9062500000,151438.8593750000,,,
0.2079999996,1,150516.0625000000,147426.8593750000,168998.3125000000,108818.2031250000,137962.7187500000,166135.2500000000,156973.4687500000,151722.2031250000,,,
0.2119999996,1,151384.8437500000,148247.9375000000,169864.7500000000,109676.0781250000,138838.1093750000,166964.9531250000,157830.8281250000,152518.5781250000,,,
0.2159999998,1,151560.2812500000,148452.6718750000,170047.3593750000,109865.1171875000,139015.4062500000,167160.2812500000,158014.8593750000,152727.9531250000,,,
0.2199999997,1,150771.1718750000,147730.7031250000,169265.8437500000,109098.2500000000,138217.1718750000,166424.8437500000,157244.6250000000,152036.1562500000,,,
0.2239999997,1,150137.1875000000,147109.3750000000,168632.3593750000,108467.9296875000,137581.8593750000,165802.6718750000,156615.8906250000,151425.8281250000,,,
0.2279999997,1,150498.3125000000,147414.8125000000,168988.7656250000,108816.9921875000,137944.8437500000,166123.7968750000,156966.1718750000,151718.3437500000,,,
0.2319999996,1,151359.3281250000,148232.9687500000,169842.1875000000,109664.3593750000,138814.1562500000,166949.0000000000,157815.0000000000,152507.7656250000,,,
0.2359999996,1,151546.7656250000,148451.4062500000,170038.8750000000,109864.0468750000,139007.6250000000,167156.1406250000,158006.1406250000,152734.2500000000,,,
0.2399999998,1,150762.1093750000,147734.1406250000,169267.7187500000,109102.2734375000,138215.9062500000,166424.5468750000,157237.5312500000,152047.0156250000,,,
0.2439999997,1,150128.3281250000,147107.6718750000,168628.4375000000,108469.9140625000,137579.0468750000,165799.2656250000,156607.6093750000,151434.2187500000,,,
0.2479999997,1,150490.0468750000,147407.8437500000,168976.8593750000,108814.9296875000,137948.2812500000,166117.6718750000,156957.3437500000,151712.7656250000,,,
0.2519999996,1,151362.8125000000,148238.3125000000,169843.9062500000,109676.7734375000,138826.4843750000,166954.4687500000,157815.6406250000,152514.6562500000,,,
0.2559999996,2,151549.8125000000,148458.6562500000,170036.4375000000,109873.1640625000,139013.0937500000,167163.3125000000,158006.0781250000,152742.4687500000,,,
0.2599999995,2,150769.8281250000,147746.5468750000,169266.4218750000,109115.4453125000,138235.8750000000,166435.6718750000,157245.2031250000,152060.1093750000,,,
0.2639999995,2,150125.8593750000,147109.8281250000,168626.0312500000,108477.1562500000,137592.8906250000,165799.4375000000,156607.9531250000,151446.7656250000,,,
0.2679999995,2,150480.5000000000,147405.7031250000,168986.1406250000,108808.2187500000,137944.2656250000,166112.2656250000,156954.0156250000,151711.9531250000,,,
0.2719999994,2,151352.7812500000,148234.2656250000,169859.5781250000,109672.2968750000,138823.3281250000,166948.8593750000,157815.3281250000,152512.5781250000,,,
0.2759999994,2,151547.5156250000,148457.0156250000,170047.8125000000,109880.2734375000,139022.6406250000,167160.7656250000,158013.2500000000,152741.5000000000,,,
0.2799999996,2,150776.9375000000,147751.1093750000,169279.5781250000,109127.9687500000,138243.9375000000,166438.5000000000,157256.3281250000,152068.4843750000,,,
0.2839999995,2,150130.0937500000,147114.0625000000,168635.2812500000,108482.6562500000,137599.8906250000,165800.0468750000,156612.8437500000,151436.4218750000,,,
0.2879999995,2,150478.0937500000,147408.0000000000,168983.2968750000,108807.3125000000,137972.3125000000,166106.7031250000,156949.2187500000,151716.8906250000,,,
0.2919999994,2,151354.8750000000,148242.7968750000,169850.6718750000,109668.2187500000,138829.0156250000,166945.7031250000,157811.7656250000,152518.2656250000,,,
0.2959999994,2,151557.1093750000,148473.8906250000,170050.5156250000,109879.4140625000,139021.1406250000,167169.2031250000,158015.3437500000,152747.2343750000,,,
0.2999999996,2,150785.6093750000,147762.0625000000,169286.4062500000,109126.5468750000,138244.8750000000,166449.5937500000,157260.6406250000,152071.3437500000,,,
0.3039999995,2,150135.4843750000,147116.2656250000,168640.3750000000,108481.3671875000,137589.1562500000,165807.5000000000,156617.2656250000,151440.6250000000,,,
0.3079999995,2,150480.0156250000,147401.2500000000,168976.8906250000,108803.5859375000,137932.4531250000,166108.5000000000,156949.7500000000,151699.3593750000,,,
0.3119999995,2,151344.8437500000,148222.9375000000,169833.1875000000,109650.3593750000,138797.7031250000,166936.3125000000,157800.6250000000,152493.2031250000,,,
0.3159999994,2,151567.0625000000,148471.3593750000,170058.1406250000,109875.3359375000,139013.9218750000,167177.6093750000,158026.4375000000,152749.3281250000,,,
0.3199999994,2,150803.1406250000,147770.2656250000,169293.9687500000,109132.4765625000,138251.0000000000,166462.7968750000,157274.9687500000,152073.6250000000,,,
0.3239999996,2,150143.1875000000,147122.4843750000,168630.3437500000,108483.6484375000,137589.2343750000,165810.9062500000,156617.6875000000,151445.0312500000,,,
0.3279999995,2,150483.0468750000,147399.5625000000,168973.1875000000,108794.5156250000,137933.9062500000,166103.0000000000,156947.5781250000,151696.8593750000,,,
0.3319999995,2,151359.7656250000,148229.5937500000,169842.8906250000,109650.5703125000,138808.3906250000,166939.0781250000,157811.1406250000,152497.9843750000,,,
0.3359999994,2,151593.4843750000,148490.4375000000,170072.5937500000,109891.3515625000,139042.0000000000,167193.0781250000,158045.2187500000,152757.0781250000,,,
0.3399999994,2,150823.6718750000,147788.3125000000,169307.7343750000,109140.3593750000,138260.4062500000,166479.0781250000,157290.0625000000,152081.9687500000,,,
0.3439999996,2,150161.7812500000,147136.9687500000,168651.1093750000,108482.7890625000,137600.4531250000,165829.4218750000,156632.7968750000,151450.9218750000,,,
0.3479999995,2,150484.0468750000,147407.2031250000,168972.0312500000,108790.7109375000,137926.7500000000,166111.0000000000,156945.0625000000,151701.1562500000,,,
0.3519999995,2,151351.7968750000,148237.6406250000,169831.4375000000,109642.9296875000,138808.7343750000,166940.6250000000,157800.5937500000,152517.6093750000,,,
0.3559999994,2,151591.6875000000,148499.2031250000,170072.4062500000,109890.6015625000,139044.6093750000,167193.6406250000,158041.8906250000,152768.9375000000,,,
0.3599999994,2,150832.4687500000,147789.7031250000,169317.1718750000,109150.7421875000,138275.3281250000,166480.1250000000,157297.6562500000,152094.0156250000,,,
0.3639999994,2,150177.2500000000,147136.3281250000,168656.3125000000,108496.7109375000,137618.2968750000,165831.3281250000,156647.1718750000,151460.2656250000,,,
0.3679999996,2,150495.1718750000,147395.2187500000,168975.1093750000,108794.0078125000,137937.2656250000,166104.7812500000,156953.7500000000,151700.2343750000,,,
0.3719999995,2,151368.2343750000,148221.6562500000,169859.9531250000,109653.7656250000,138815.8906250000,166937.9218750000,157816.4062500000,152493.5468750000,,,
0.3759999995,2,151603.8906250000,148487.4843750000,170099.8125000000,109900.1250000000,139054.0000000000,167193.8906250000,158057.6562500000,152761.9062500000,,,
0.3799999994,2,150838.5000000000,147789.7031250000,169331.3437500000,109158.0937500000,138286.7031250000,166482.9062500000,157309.0000000000,152091.9687500000,,,
0.3839999994,3,150171.0625000000,147139.1875000000,168661.0781250000,108499.8750000000,137618.6875000000,165830.0312500000,156647.0156250000,151460.4531250000,,,
0.3879999993,3,150473.2812500000,147395.8593750000,168958.2968750000,108785.4218750000,137924.2031250000,166096.4531250000,156937.3906250000,151696.7968750000,,,
0.3919999993,3,151344.7031250000,148228.0625000000,169828.8593750000,109642.3906250000,138801.0312500000,166933.5468750000,157794.3750000000,152492.7500000000,,,
0.3959999993,3,151583.5312500000,148486.2812500000,170067.3125000000,109900.7968750000,139041.2812500000,167187.8437500000,158033.4687500000,152763.5937500000,,,
0.3999999992,3,150824.3593750000,147789.0156250000,169310.6875000000,109160.3984375000,138273.4218750000,166477.3281250000,157289.0000000000,152095.1093750000,,,
0.4039999992,3,150160.2187500000,147131.0937500000,168648.6406250000,108484.0546875000,137597.0781250000,165819.9843750000,156633.6718750000,151449.0156250000,,,
0.4079999994,3,150477.3437500000,147391.7187500000,168960.0468750000,108777.1875000000,137912.0781250000,166095.3906250000,156940.7343750000,151687.4218750000,,,
0.4119999993,3,151344.3281250000,148210.7031250000,169824.4375000000,109631.5781250000,138788.9375000000,166923.8437500000,157795.0468750000,152480.1718750000,,,
0.4159999993,3,151591.8437500000,148478.9062500000,170073.1093750000,109878.8281250000,139036.4062500000,167186.8906250000,158044.8437500000,152754.2968750000,,,
0.4199999992,3,150846.3906250000,147798.6093750000,169332.9687500000,109159.1875000000,138278.5156250000,166492.9375000000,157313.8906250000,152104.2343750000,,,
0.4239999992,3,150177.4687500000,147141.3906250000,168673.0468750000,108495.5312500000,137606.7031250000,165833.3281250000,156650.3125000000,151466.2656250000,,,
0.4279999994,3,150476.4843750000,147387.1093750000,168962.5937500000,108779.2265625000,137914.3593750000,166092.4843750000,156936.5781250000,151687.7656250000,,,
0.4319999993,3,151339.6093750000,148207.6250000000,169813.0312500000,109625.8125000000,138782.7187500000,166918.6718750000,157784.5312500000,152482.3437500000,,,
0.4359999993,3,151601.9062500000,148489.7343750000,170090.2656250000,109892.1875000000,139042.9375000000,167195.4218750000,158051.4687500000,152769.4687500000,,,
0.4399999992,3,150867.6250000000,147822.5625000000,169360.5468750000,109182.4453125000,138317.9375000000,166514.1875000000,157332.6562500000,152130.7812500000,,,
0.4439999992,3,150195.4843750000,147165.1875000000,168679.1093750000,108518.5937500000,137634.7812500000,165856.4062500000,156665.5781250000,151493.5000000000,,,
0.4479999992,3,150479.7031250000,147395.5937500000,168963.2031250000,108788.9921875000,137928.5937500000,166099.5156250000,156941.9375000000,151700.3437500000,,,
0.4519999993,3,151334.8593750000,148209.7500000000,169817.1406250000,109633.2734375000,138789.6875000000,166915.7343750000,157785.3125000000,152484.8906250000,,,
0.4559999993,3,151594.7500000000,148490.3593750000,170087.2343750000,109903.2343750000,139051.0468750000,167188.7968750000,158050.9843750000,152777.2031250000,,,
0.4599999993,3,150857.5468750000,147814.5156250000,169362.9687500000,109188.8046875000,138312.8281250000,166503.0781250000,157332.4687500000,152125.4687500000,,,
0.4639999992,3,150179.0781250000,147152.7343750000,168679.4843750000,108517.0703125000,137630.3125000000,165839.7656250000,156658.7500000000,151478.2031250000,,,
0.4679999992,3,150465.3750000000,147388.0781250000,168949.3125000000,108785.7734375000,137913.6562500000,166086.4062500000,156932.0156250000,151694.1250000000,,,
0.4719999994,3,151329.8281250000,148201.7187500000,169805.1250000000,109628.0937500000,138779.8281250000,166910.4843750000,157778.9062500000,152474.6406250000,,,
0.4759999993,3,151600.7812500000,148494.8906250000,170077.3125000000,109895.8828125000,139040.5625000000,167198.5000000000,158048.3906250000,152773.9062500000,,,
0.4799999993,3,150868.6250000000,147830.3125000000,169353.1250000000,109183.7031250000,138299.8906250000,166516.8437500000,157333.7031250000,152138.6250000000,,,
0.4839999992,3,150186.1093750000,147162.5625000000,168674.5156250000,108504.7812500000,137616.6875000000,165844.5937500000,156661.3125000000,151472.4062500000,,,
0.4879999992,3,150470.1718750000,147389.6875000000,168959.6718750000,108771.9843750000,137908.9531250000,166090.3125000000,156936.4531250000,151682.9843750000,,,
0.4919999992,3,151324.1718750000,148191.9062500000,169817.5156250000,109608.2421875000,138767.6718750000,166907.2656250000,157779.2968750000,152469.2031250000,,,
0.4959999993,3,151592.4375000000,148487.3593750000,170082.0156250000,109890.6562500000,139039.9218750000,167189.3281250000,158049.0781250000,152770.6562500000,,,
0.4999999993,3,150868.4843750000,147826.8281250000,169356.9218750000,109195.0781250000,138314.1406250000,166515.3906250000,157342.8281250000,152146.1875000000,,,
0.5039999993,3,150189.6250000000,147160.4687500000,168680.6406250000,108524.8750000000,137630.5000000000,165852.3281250000,156671.1718750000,151488.0468750000,,,
0.5079999992,3,150458.3437500000,147380.0000000000,168952.1250000000,108774.1015625000,137923.8437500000,166083.0781250000,156928.7812500000,151689.2656250000,,,
0.5119999992,4,151306.0625000000,148181.4531250000,169798.3906250000,109605.3203125000,138785.0312500000,166892.5937500000,157760.6875000000,152458.6875000000,,,
0.5159999991,4,151584.3125000000,148484.2968750000,170061.4843750000,109897.9531250000,139027.1718750000,167188.7031250000,158034.7812500000,152765.3437500000,,,
0.5199999991,4,150870.2500000000,147834.2343750000,169362.3125000000,109207.3359375000,138318.7812500000,166525.7500000000,157338.2968750000,152136.9218750000,,,
0.5239999990,4,150186.7187500000,147168.3437500000,168688.4687500000,108530.8515625000,137639.4531250000,165855.4843750000,156664.7187500000,151488.8281250000,,,
0.5279999990,4,150444.7031250000,147377.1875000000,168945.8750000000,108774.0546875000,137907.5468750000,166073.0781250000,156914.8593750000,151683.0781250000,,,
0.5319999990,4,151304.8750000000,148194.7500000000,169804.5625000000,109618.2265625000,138774.5312500000,166893.6406250000,157763.0781250000,152467.4531250000,,,
0.5359999991,4,151590.7812500000,148507.3906250000,170092.2500000000,109908.5156250000,139064.1562500000,167191.2812500000,158048.1406250000,152778.0312500000,,,
0.5399999991,4,150883.2343750000,147851.2656250000,169383.2343750000,109216.2421875000,138338.1875000000,166530.1718750000,157352.6406250000,152147.8906250000,,,
0.5439999991,4,150198.7343750000,147169.7187500000,168694.1875000000,108530.5859375000,137645.9218750000,165856.4062500000,156674.7968750000,151481.2812500000,,,
0.5479999990,4,150460.4062500000,147377.7187500000,168942.2500000000,108774.2109375000,137910.2968750000,166076.2656250000,156927.4843750000,151684.0156250000,,,
0.5519999990,4,151301.9062500000,148164.6562500000,169776.7187500000,109602.7500000000,138754.7968750000,166877.1718750000,157756.0000000000,152455.7031250000,,,
0.5559999992,4,151599.1250000000,148474.7968750000,170080.5937500000,109905.0859375000,139046.0625000000,167186.0781250000,158054.7187500000,152765.0000000000,,,
0.5599999991,4,150897.1875000000,147837.9687500000,169386.0000000000,109218.0625000000,138328.9218750000,166535.9062500000,157366.2500000000,152153.3437500000,,,
0.5639999991,4,150203.1406250000,147160.5781250000,168695.5000000000,108531.8515625000,137639.5312500000,165857.7500000000,156675.8437500000,151488.5781250000,,,
0.5679999990,4,150448.0468750000,147360.2031250000,168939.5781250000,108763.8359375000,137893.7187500000,166067.0625000000,156912.5781250000,151670.9687500000,,,
0.5719999990,4,151288.5781250000,148162.0000000000,169778.0937500000,109591.5078125000,138741.6562500000,166871.7500000000,157743.5000000000,152446.0312500000,,,
0.5759999990,4,151587.2968750000,148481.1875000000,170084.5312500000,109904.7343750000,139050.4843750000,167184.7656250000,158047.8750000000,152775.1406250000,,,
0.5799999991,4,150892.6562500000,147848.6406250000,169394.0156250000,109234.3984375000,138343.9062500000,166540.0781250000,157370.1875000000,152161.4687500000,,,
0.5839999991,4,150205.4375000000,147179.3750000000,168701.6093750000,108553.5468750000,137654.9843750000,165868.4531250000,156689.5468750000,151505.9687500000,,,
0.5879999991,4,150447.6718750000,147372.2812500000,168935.1562500000,108776.1406250000,137903.4687500000,166074.9218750000,156920.1718750000,151681.0000000000,,,
0.5919999990,4,151281.5156250000,148158.7812500000,169767.7812500000,109594.5625000000,138743.4531250000,166868.6406250000,157742.6875000000,152441.5000000000,,,
0.5959999990,4,151586.5312500000,148482.3593750000,170079.1093750000,109899.1562500000,139052.2500000000,167185.2812500000,158051.1250000000,152770.1250000000,,,
0.5999999992,4,150900.7812500000,147855.7500000000,169397.1875000000,109236.7031250000,138360.1562500000,166545.1875000000,157380.7343750000,152176.1406250000,,,
0.6039999991,4,150211.7968750000,147181.7031250000,168709.0156250000,108551.5859375000,137667.1562500000,165869.3906250000,156698.6093750000,151516.6406250000,,,
0.6079999991,4,150446.7031250000,147360.3437500000,168942.7187500000,108771.2109375000,137901.4218750000,166066.5781250000,156920.7500000000,151665.6875000000,,,
0.6119999990,4,151287.8437500000,148153.9843750000,169780.6093750000,109594.8906250000,138752.4687500000,166869.8281250000,157746.3437500000,152434.4687500000,,,
0.6159999990,4,151592.6875000000,148486.0937500000,170091.0781250000,109906.1562500000,139053.0312500000,167190.8593750000,158053.9062500000,152763.6562500000,,,
0.6199999989,4,150910.9687500000,147871.4687500000,169403.9218750000,109237.6718750000,138363.9375000000,166560.5156250000,157385.6406250000,152175.5468750000,,,
0.6239999991,4,150219.3906250000,147192.5625000000,168711.1562500000,108551.5859375000,137669.8437500000,165881.2187500000,156701.2187500000,151509.0468750000,,,
0.6279999991,4,150455.1562500000,147379.2812500000,168945.0937500000,108762.8906250000,137897.5312500000,166076.6406250000,156928.8593750000,151678.5625000000,,,
0.6319999991,4,151296.2656250000,148170.0937500000,169776.9062500000,109584.2968750000,138739.6718750000,166877.9687500000,157755.8593750000,152444.2500000000,,,
0.6359999990,4,151602.4375000000,148489.6093750000,170080.1562500000,109897.0156250000,139040.2031250000,167194.3750000000,158062.2187500000,152760.2968750000,,,
0.6399999990,5,150926.3125000000,147870.2812500000,169412.3125000000,109240.9140625000,138362.1250000000,166564.5000000000,157402.5625000000,152173.0312500000,,,
0.6439999989,5,150239.9062500000,147205.7656250000,168731.4687500000,108556.3359375000,137682.9375000000,165897.4375000000,156722.4843750000,151526.5312500000,,,
0.6479999989,5,150444.5312500000,147365.5156250000,168936.1093750000,108751.4375000000,137887.5000000000,166070.1406250000,156914.8593750000,151669.9843750000,,,
0.6519999988,5,151276.4531250000,148151.3750000000,169771.8125000000,109577.4531250000,138721.4218750000,166862.9843750000,157734.2500000000,152436.1093750000,,,
0.6559999988,5,151584.9062500000,148481.7500000000,170078.1250000000,109900.9296875000,139035.0937500000,167185.4062500000,158046.6093750000,152764.8906250000,,,
0.6599999988,5,150908.4531250000,147878.1093750000,169409.1250000000,109243.3828125000,138353.7500000000,166562.1406250000,157389.7187500000,152178.0468750000,,,
0.6639999989,5,150223.7031250000,147204.5625000000,168733.2656250000,108561.9921875000,137674.4062500000,165890.9687500000,156712.8906250000,151512.1875000000,,,
0.6679999989,5,150443.9218750000,147368.0156250000,168942.6875000000,108759.2421875000,137896.8906250000,166074.0625000000,156917.2343750000,151680.6562500000,,,
0.6719999989,5,151271.9375000000,148140.4062500000,169748.9531250000,109573.5937500000,138717.1406250000,166859.7656250000,157724.1562500000,152420.2500000000,,,
0.6759999988,5,151597.5625000000,148480.6406250000,170064.5781250000,109906.3984375000,139033.3437500000,167193.2968750000,158048.7343750000,152756.8906250000,,,
0.6799999988,5,150936.2343750000,147883.8750000000,169413.2812500000,109257.8671875000,138370.5937500000,166575.6875000000,157407.7187500000,152183.4062500000,,,
0.6839999990,5,150233.9062500000,147205.5312500000,168719.4218750000,108562.2343750000,137673.5468750000,165886.7343750000,156715.9218750000,151513.5312500000,,,
0.6879999989,5,150440.2187500000,147360.8281250000,168925.5468750000,108758.4687500000,137896.4062500000,166058.6406250000,156912.4218750000,151667.8906250000,,,
0.6919999989,5,151256.2031250000,148126.3281250000,169743.5156250000,109568.9531250000,138711.0156250000,166840.2343750000,157715.2031250000,152423.5468750000,,,
0.6959999988,5,151584.0468750000,148474.1250000000,170078.5781250000,109907.9843750000,139043.2968750000,167182.3750000000,158047.3593750000,152766.5156250000,,,
0.6999999988,5,150923.6562500000,147881.5156250000,169423.3906250000,109262.4296875000,138382.4843750000,166571.0000000000,157405.3750000000,152196.9062500000,,,
0.7039999987,5,150226.7187500000,147201.2812500000,168729.7656250000,108570.9843750000,137688.7812500000,165888.0781250000,156718.6250000000,151536.6718750000,,,
0.7079999989,5,150425.3593750000,147349.7187500000,168922.4375000000,108763.1640625000,137888.0468750000,166051.5312500000,156904.5312500000,151664.7812500000,,,
0.7119999989,5,151253.8593750000,148127.2968750000,169745.9843750000,109568.6796875000,138716.4687500000,166842.1718750000,157717.0000000000,152420.4062500000,,,
0.7159999989,5,151590.2343750000,148477.4062500000,170083.4062500000,109902.3750000000,139041.3281250000,167190.0468750000,158052.5468750000,152762.0781250000,,,
0.7199999988,5,150945.6562500000,147894.2968750000,169438.6875000000,109265.9921875000,138388.0312500000,166592.6093750000,157418.2812500000,152198.1562500000,,,
0.7239999988,5,150243.9531250000,147210.6250000000,168733.1718750000,108566.9609375000,137685.5625000000,165905.4531250000,156722.4843750000,151533.0625000000,,,
0.7279999990,5,150431.3593750000,147346.7500000000,168908.6562500000,108739.6093750000,137871.3593750000,166056.1718750000,156896.8593750000,151651.5781250000,,,
0.7319999989,5,151247.1875000000,148111.5781250000,169718.2187500000,109545.6171875000,138689.2968750000,166830.1718750000,157698.5937500000,152392.6562500000,,,
0.7359999989,5,151588.8750000000,148471.3906250000,170071.7343750000,109897.0390625000,139035.1406250000,167181.3593750000,158045.3750000000,152761.9843750000,,,
0.7399999988,5,150941.7656250000,147891.2656250000,169431.5000000000,109269.0546875000,138390.0937500000,166583.6875000000,157417.6093750000,152208.4375000000,,,
0.7439999988,5,150232.5000000000,147203.0312500000,168725.1250000000,108566.4765625000,137686.9062500000,165892.4218750000,156716.1250000000,151526.5312500000,,,
0.7479999987,5,150423.1875000000,147347.5156250000,168912.9687500000,108749.1328125000,137867.8125000000,166050.5625000000,156895.8125000000,151650.6406250000,,,
0.7519999989,5,151239.8125000000,148119.3281250000,169733.2656250000,109547.4140625000,138688.8125000000,166831.2187500000,157700.1250000000,152403.0781250000,,,
0.7559999989,5,151571.5781250000,148469.2968750000,170062.1093750000,109885.3984375000,139031.5937500000,167177.7968750000,158033.3125000000,152755.0468750000,,,
0.7599999988,5,150947.0781250000,147906.4375000000,169443.9843750000,109281.2812500000,138395.4375000000,166600.4687500000,157426.1093750000,152214.3437500000,,,
0.7639999988,5,150246.1093750000,147222.0937500000,168746.7500000000,108581.5781250000,137693.3125000000,165912.9375000000,156731.9062500000,151543.2187500000,,,
0.7679999988,6,150425.2968750000,147346.0468750000,168910.9531250000,108745.4296875000,137876.2968750000,166054.0312500000,156896.1875000000,151655.5000000000,,,
0.7719999987,6,151244.8593750000,148114.2031250000,169727.4218750000,109552.0546875000,138687.7656250000,166833.8593750000,157700.9375000000,152400.2968750000,,,
0.7759999987,6,151591.7968750000,148476.1093750000,170076.2343750000,109906.4765625000,139038.3906250000,167190.3750000000,158050.2031250000,152764.0000000000,,,
0.7799999986,6,150961.0937500000,147908.9062500000,169454.8750000000,109297.3203125000,138408.5156250000,166606.9375000000,157435.3437500000,152223.1406250000,,,
0.7839999986,6,150249.5156250000,147221.9375000000,168746.5156250000,108597.2421875000,137699.5625000000,165912.5625000000,156733.5156250000,151554.0781250000,,,
0.7879999985,6,150408.6718750000,147343.5000000000,168900.4218750000,108753.3437500000,137872.0312500000,166041.9375000000,156887.7343750000,151667.1875000000,,,
0.7919999987,6,151212.8593750000,148105.5937500000,169708.1093750000,109551.4921875000,138695.4062500000,166810.7656250000,157683.4375000000,152403.7812500000,,,
0.7959999987,6,151562.3750000000,148477.0312500000,170069.0781250000,109914.6328125000,139051.6406250000,167173.3593750000,158036.6406250000,152771.7500000000,,,
0.7999999986,6,150929.2968750000,147906.9531250000,169441.6875000000,109301.3984375000,138413.2187500000,166586.9531250000,157417.6093750000,152227.9375000000,,,
0.8039999986,6,150218.7187500000,147210.0781250000,168727.6562500000,108591.3125000000,137691.0000000000,165890.5937500000,156711.8125000000,151544.7500000000,,,
0.8079999986,6,150393.3906250000,147328.0781250000,168892.3437500000,108750.8203125000,137864.8437500000,166027.4531250000,156872.9375000000,151649.5468750000,,,
0.8119999988,6,151203.3593750000,148081.4062500000,169693.9531250000,109539.2890625000,138673.3437500000,166795.9062500000,157666.2031250000,152373.8750000000,,,
0.8159999987,6,151573.2031250000,148461.2500000000,170065.2187500000,109908.0625000000,139039.6406250000,167171.8125000000,158037.0937500000,152752.4218750000,,,
0.8199999987,6,150963.0000000000,147909.6875000000,169463.9531250000,109311.1406250000,138419.2031250000,166604.6562500000,157440.3593750000,152224.7500000000,,,
0.8239999986,6,150263.6250000000,147231.4062500000,168769.5781250000,108611.9687500000,137711.8125000000,165919.9687500000,156746.2031250000,151554.3281250000,,,
0.8279999986,6,150419.3437500000,147339.5000000000,168913.8593750000,108751.7890625000,137869.1562500000,166045.2343750000,156891.8906250000,151650.2343750000,,,
0.8319999985,6,151222.9687500000,148091.4375000000,169718.3750000000,109545.4843750000,138682.3750000000,166811.1406250000,157683.2343750000,152390.4843750000,,,
0.8359999987,6,151574.1406250000,148462.5156250000,170080.6718750000,109904.9531250000,139040.9843750000,167174.2187500000,158038.8125000000,152762.0781250000,,,
0.8399999987,6,150954.3125000000,147911.4218750000,169466.9218750000,109304.8593750000,138425.4531250000,166606.0000000000,157437.0312500000,152226.1406250000,,,
0.8439999986,6,150236.9375000000,147225.2343750000,168754.3750000000,108592.6015625000,137704.4687500000,165910.5625000000,156728.5468750000,151570.4218750000,,,
0.8479999986,6,150382.8750000000,147324.2656250000,168890.5156250000,108727.4843750000,137858.2968750000,166024.7343750000,156862.9218750000,151645.7812500000,33029,0.8518096972,0.0000000000
0.8519999986,6,151189.7343750000,148077.1406250000,169685.4375000000,109519.9218750000,138663.0156250000,166791.6875000000,157654.6562500000,152369.7656250000,,,
0.8559999987,6,151562.6718750000,148464.0937500000,170062.7031250000,109898.2734375000,139031.1718750000,167172.7031250000,158030.5156250000,152756.0312500000,,,
0.8599999987,6,150955.4218750000,147923.0625000000,169464.1406250000,109312.0468750000,138422.1250000000,166614.0468750000,157437.4062500000,152234.9687500000,,,
0.8639999987,6,150241.7812500000,147230.7968750000,168759.1718750000,108604.1093750000,137712.8125000000,165916.1093750000,156732.6250000000,151570.0937500000,,,
0.8679999986,6,150396.9218750000,147335.4843750000,168910.6406250000,108748.6484375000,137872.2187500000,166032.6250000000,156874.8125000000,151662.6406250000,,,
0.8719999986,6,151194.3750000000,148082.9843750000,169700.2031250000,109529.5234375000,138670.7031250000,166788.3593750000,157655.5781250000,152392.1093750000,,,
0.8759999985,6,151562.1093750000,148468.7187500000,170059.1875000000,109900.1484375000,139041.8125000000,167167.1406250000,158022.0781250000,152774.8437500000,,,
0.8799999987,6,150958.8750000000,147927.9531250000,169462.0625000000,109314.4921875000,138431.4843750000,166611.3437500000,157434.8281250000,152249.3437500000,,,
0.8839999987,6,150251.3593750000,147244.1250000000,168755.5000000000,108617.7890625000,137716.6718750000,165921.4687500000,156738.1250000000,151575.8906250000,,,
0.8879999986,6,150381.3750000000,147332.8437500000,168878.0468750000,108742.6953125000,137850.4375000000,166021.2031250000,156858.1250000000,151655.5468750000,,,
0.8919999986,6,151171.6250000000,148073.2812500000,169669.1562500000,109520.5937500000,138643.6250000000,166774.9531250000,157637.0468750000,152370.2500000000,,,
0.8959999986,7,151552.0781250000,148462.3281250000,170051.7031250000,109900.6093750000,139026.7656250000,167162.6875000000,158018.5000000000,152757.9687500000,,,
0.8999999985,7,150963.4062500000,147931.1093750000,169464.1562500000,109321.5468750000,138420.9375000000,166618.8437500000,157441.2343750000,152246.8437500000,,,
0.9039999985,7,150252.2968750000,147237.0468750000,168752.2812500000,108607.3281250000,137702.5625000000,165925.2343750000,156734.7968750000,151568.2656250000,,,
0.9079999984,7,150387.1406250000,147322.3906250000,168882.3125000000,108725.8750000000,137840.0625000000,166026.4843750000,156858.7656250000,151644.9062500000,,,
0.9119999984,7,151178.0625000000,148060.3437500000,169664.9218750000,109505.0312500000,138633.0156250000,166778.4375000000,157633.6875000000,152354.3281250000,,,
0.9159999983,7,151551.8281250000,148446.8750000000,170036.8125000000,109882.9296875000,139008.9375000000,167161.5312500000,158006.5468750000,152738.2187500000,,,
0.9199999985,7,150969.6875000000,147925.2656250000,169464.9687500000,109315.0781250000,138422.1406250000,166625.9843750000,157440.5625000000,152242.7656250000,,,
0.9239999985,7,150248.4062500000,147227.3593750000,168747.1875000000,108599.9218750000,137698.7812500000,165923.2656250000,156729.4531250000,151561.1406250000,,,
0.9279999984,7,150377.8750000000,147314.6875000000,168872.6875000000,108717.1328125000,137831.6250000000,166019.9843750000,156849.1875000000,151640.0156250000,,,
0.9319999984,7,151165.6718750000,148050.9531250000,169660.4531250000,109493.4765625000,138627.6562500000,166766.6406250000,157623.1250000000,152355.5781250000,,,
0.9359999984,7,151539.7031250000,148434.2968750000,170031.9843750000,109877.7500000000,139002.6250000000,167147.4375000000,157997.5781250000,152725.1875000000,,,
0.9399999985,7,150962.8750000000,147918.6250000000,169464.8281250000,109313.5546875000,138417.6718750000,166615.2812500000,157437.2187500000,152226.8906250000,,,
0.9439999985,7,150253.8906250000,147230.6093750000,168759.9531250000,108606.2500000000,137708.1406250000,165921.2343750000,156736.8125000000,151552.9531250000,,,
0.9479999985,7,150378.1718750000,147308.3125000000,168874.5000000000,108720.5390625000,137836.7812500000,166012.1093750000,156851.1718750000,151617.5468750000,,,
0.9519999984,7,151167.2812500000,148048.7812500000,169654.8593750000,109493.3671875000,138631.5156250000,166761.9687500000,157624.1406250000,152334.8437500000,,,
0.9559999984,7,151566.9375000000,148463.0781250000,170063.6875000000,109889.4765625000,139023.6093750000,167167.2031250000,158021.7812500000,152749.7656250000,,,
0.9599999983,7,151001.1406250000,147957.2656250000,169508.6093750000,109342.9765625000,138458.6718750000,166645.8906250000,157470.7656250000,152276.7187500000,,,
0.9639999985,7,150276.7968750000,147255.0156250000,168788.8593750000,108617.7031250000,137744.0000000000,165942.3437500000,156755.5000000000,151575.2968750000,,,
0.9679999985,7,150388.1875000000,147327.0000000000,168874.7656250000,108724.0546875000,137834.6875000000,166024.0937500000,156854.2656250000,151634.8125000000,,,
0.9719999984,7,151173.0156250000,148062.7656250000,169645.8281250000,109500.4218750000,138623.1718750000,166767.5156250000,157622.3906250000,152349.9218750000,,,
0.9759999984,7,151565.4375000000,148460.2656250000,170037.6250000000,109893.7968750000,139006.8906250000,167166.7187500000,158015.6093750000,152742.7343750000,,,
0.9799999984,7,151004.2656250000,147957.2656250000,169484.0937500000,109344.3125000000,138439.9375000000,166653.3593750000,157470.9843750000,152264.4375000000,,,
0.9839999985,7,150275.7187500000,147252.3906250000,168762.9531250000,108618.6406250000,137705.6718750000,165947.0000000000,156753.2500000000,151568.5937500000,,,
0.9879999985,7,150383.5468750000,147317.5625000000,168870.9687500000,108714.4218750000,137818.4843750000,166024.0937500000,156850.6718750000,151622.1562500000,,,
0.9919999985,7,151165.8593750000,148049.3281250000,169642.3906250000,109489.9609375000,138612.6875000000,166767.1250000000,157617.3750000000,152335.2500000000,,,
0.9959999984,7,151557.2500000000,148449.4531250000,170031.0937500000,109888.7265625000,139006.0937500000,167165.1250000000,158008.2343750000,152733.3125000000,,,
0.9999999984,7,151000.1250000000,147951.1718750000,169481.5156250000,109342.3828125000,138443.7343750000,166653.6562500000,157464.6250000000,152252.3437500000,,,
1.0039999983,7,150288.4375000000,147260.4531250000,168780.4062500000,108632.3750000000,137727.1406250000,165960.7968750000,156761.1875000000,151572.7500000000,,,
1.0079999985,7,150385.0156250000,147310.7500000000,168866.6406250000,108715.4453125000,137820.8437500000,166026.7031250000,156846.7343750000,151610.5781250000,,,
1.0119999985,7,151153.3906250000,148024.6406250000,169622.4687500000,109471.5625000000,138593.6250000000,166755.5312500000,157600.9687500000,152297.4062500000,,,
1.0159999984,7,151559.4531250000,148439.5781250000,170030.9062500000,109884.1875000000,138998.7656250000,167165.2343750000,158007.5625000000,152706.8125000000,,,
1.0199999984,7,151010.5000000000,147950.3437500000,169494.8437500000,109348.2890625000,138442.6093750000,166659.1093750000,157476.0781250000,152240.7500000000,,,
1.0239999983,8,150285.7187500000,147251.3593750000,168773.5156250000,108637.2578125000,137725.1718750000,165954.7812500000,156762.8593750000,151558.1093750000,,,
1.0279999983,8,150369.0000000000,147300.4218750000,168853.7187500000,108714.0000000000,137814.5000000000,166014.0312500000,156838.5937500000,151590.2968750000,,,
1.0319999983,8,151132.3281250000,148025.5312500000,169612.2968750000,109462.6250000000,138588.6562500000,166744.9843750000,157586.0312500000,152292.5156250000,,,
1.0359999982,8,151546.0156250000,148445.1406250000,170032.0312500000,109883.1484375000,139013.8437500000,167164.2187500000,158000.0000000000,152719.2656250000,,,
1.0399999982,8,151011.0937500000,147963.1406250000,169517.1562500000,109363.6796875000,138459.2968750000,166670.3750000000,157483.1875000000,152245.0000000000,,,
1.0439999981,8,150290.2031250000,147267.4062500000,168802.6718750000,108646.4843750000,137740.0625000000,165961.4062500000,156770.9531250000,151577.3906250000,,,
1.0479999983,8,150378.2812500000,147315.8125000000,168868.4375000000,108722.5781250000,137824.0156250000,166012.3750000000,156843.8281250000,151614.2656250000,,,
1.0519999983,8,151145.8281250000,148036.6406250000,169611.6875000000,109469.0625000000,138588.4375000000,166749.3125000000,157590.7656250000,152313.9062500000,,,
1.0559999982,8,151558.2187500000,148451.1093750000,170020.4218750000,109879.0156250000,138993.2656250000,167173.9531250000,158004.6093750000,152719.0000000000,,,
1.0599999982,8,151026.2812500000,147979.4843750000,169498.3125000000,109361.0546875000,138458.7656250000,166683.8593750000,157488.4531250000,152267.7343750000,,,
1.0639999982,8,150304.2343750000,147283.7656250000,168784.1718750000,108651.9062500000,137739.5000000000,165982.0312500000,156775.9687500000,151588.9843750000,,,
1.0679999983,8,150376.7812500000,147317.3437500000,168849.4218750000,108714.1015625000,137814.6562500000,166030.2031250000,156839.1562500000,151609.3125000000,,,
1.0719999983,8,151140.7031250000,148030.8906250000,169610.8281250000,109462.2265625000,138586.7812500000,166754.1875000000,157589.1875000000,152296.3125000000,,,
1.0759999983,8,151558.5625000000,148456.9687500000,170035.5781250000,109883.7343750000,139006.7656250000,167176.0156250000,158009.4843750000,152719.1562500000,,,
1.0799999982,8,151020.3281250000,147973.1406250000,169511.8750000000,109365.7734375000,138466.3750000000,166682.4375000000,157490.2968750000,152268.2031250000,,,
1.0839999982,8,150297.7343750000,147272.7968750000,168788.2500000000,108649.4921875000,137738.9843750000,165978.6875000000,156777.3437500000,151572.4062500000,,,
1.0879999981,8,150368.1718750000,147298.7812500000,168853.6562500000,108709.3281250000,137809.9375000000,166016.4531250000,156838.6875000000,151587.0468750000,,,
1.0919999983,8,151141.5312500000,148016.5468750000,169617.5312500000,109468.9843750000,138590.4531250000,166749.1250000000,157595.2031250000,152288.2343750000,,,
1.0959999983,8,151568.6406250000,148449.0000000000,170037.8593750000,109897.0390625000,139019.5312500000,167178.5937500000,158017.9375000000,152718.8906250000,,,
1.0999999982,8,151042.4218750000,147980.3593750000,169520.3593750000,109383.2890625000,138486.6875000000,166693.7343750000,157507.2968750000,152272.9687500000,,,
1.1039999982,8,150315.5781250000,147281.7031250000,168799.7187500000,108659.5234375000,137755.2187500000,165986.5468750000,156791.0781250000,151584.4531250000,,,
1.1079999981,8,150379.9218750000,147301.2031250000,168857.3906250000,108712.7890625000,137820.9843750000,166020.1562500000,156844.8437500000,151595.3437500000,,,
1.1119999983,8,151142.2031250000,148008.5000000000,169613.5312500000,109462.3828125000,138592.6875000000,166742.6093750000,157591.6875000000,152283.1406250000,,,
1.1159999983,8,151572.9375000000,148455.8906250000,170043.4687500000,109895.8046875000,139024.9218750000,167182.1875000000,158018.7187500000,152725.7031250000,,,
1.1199999982,8,151051.4687500000,147998.2812500000,169532.8750000000,109396.8046875000,138493.9218750000,166708.6718750000,157512.9531250000,152281.2500000000,,,
1.1239999982,8,150316.6718750000,147296.3125000000,168807.9062500000,108669.3671875000,137763.9062500000,165999.8125000000,156790.7812500000,151593.4062500000,,,
1.1279999982,8,150372.2968750000,147314.0156250000,168864.3906250000,108711.9609375000,137820.7187500000,166027.5781250000,156838.0625000000,151604.4531250000,,,
1.1319999981,8,151118.1718750000,148006.2187500000,169606.7187500000,109446.3203125000,138571.0937500000,166732.4687500000,157567.1406250000,152279.4375000000,,,
1.1359999983,8,151560.5781250000,148455.5156250000,170048.9062500000,109886.3359375000,139011.6406250000,167177.2031250000,158009.3593750000,152721.0937500000,,,
1.1399999983,8,151057.9218750000,148010.8281250000,169549.4218750000,109394.7421875000,138505.6250000000,166718.1718750000,157523.9062500000,152291.5625000000,,,
1.1439999982,8,150330.5156250000,147308.7031250000,168823.6562500000,108670.7578125000,137770.9687500000,166011.2187500000,156808.3750000000,151602.3593750000,,,
1.1479999982,8,150373.8906250000,147316.0000000000,168864.9531250000,108706.6484375000,137821.5156250000,166026.4218750000,156844.7343750000,151601.7500000000,,,
1.1519999981,9,151113.3750000000,148006.2968750000,169600.8750000000,109442.1640625000,138569.2187500000,166726.2656250000,157571.2500000000,152277.9843750000,,,
1.1559999981,9,151557.3281250000,148458.0312500000,170042.4531250000,109896.0468750000,139016.2031250000,167173.0937500000,158014.7968750000,152729.2656250000,,,
1.1599999981,9,151044.6250000000,148004.5312500000,169537.0156250000,109398.6015625000,138500.2031250000,166705.2968750000,157518.0625000000,152285.8437500000,,,
1.1639999980,9,150307.6406250000,147294.2031250000,168803.6406250000,108671.8359375000,137759.3125000000,165989.7031250000,156791.9843750000,151592.5000000000,,,
1.1679999980,9,150358.5156250000,147306.5312500000,168848.8125000000,108708.5234375000,137818.1718750000,166010.0156250000,156832.2968750000,151603.1093750000,,,
1.1719999979,9,151109.7031250000,147996.2343750000,169590.0312500000,109444.7890625000,138567.1250000000,166714.8906250000,157564.6718750000,152273.9375000000,,,
1.1759999981,9,151560.4062500000,148449.3125000000,170043.7031250000,109892.3750000000,139008.8593750000,167164.7343750000,158014.4843750000,152719.5000000000,,,
1.1799999981,9,151065.0156250000,148007.6406250000,169558.6093750000,109414.5390625000,138509.4843750000,166711.3281250000,157533.2187500000,152294.4062500000,,,
1.1839999980,9,150339.0468750000,147298.7343750000,168834.0000000000,108694.2265625000,137782.3906250000,166006.3906250000,156815.5937500000,151604.8906250000,,,
1.1879999980,9,150380.2968750000,147301.1406250000,168859.6406250000,108725.4765625000,137826.0312500000,166019.9375000000,156845.8437500000,151602.5781250000,,,
1.1919999979,9,151113.1562500000,147985.3437500000,169580.4843750000,109448.0390625000,138564.5468750000,166714.8437500000,157564.1718750000,152269.8125000000,,,
1.1959999981,9,151562.2968750000,148442.0312500000,170030.1406250000,109898.2734375000,139014.8125000000,167168.0625000000,158012.9843750000,152721.8906250000,,,
1.1999999981,9,151074.2656250000,148012.9531250000,169552.8593750000,109416.5781250000,138506.6406250000,166722.3593750000,157541.2031250000,152314.8437500000,,,
1.2039999980,9,150348.3437500000,147309.0625000000,168831.2343750000,108693.9609375000,137784.2968750000,166016.9375000000,156826.3125000000,151614.4375000000,,,
1.2079999980,9,150375.2812500000,147296.8281250000,168853.4687500000,108712.6796875000,137815.4843750000,166017.2500000000,156844.6875000000,151586.6250000000,,,
1.2119999980,9,151111.2500000000,147979.9375000000,169582.8750000000,109436.1015625000,138551.7031250000,166712.2343750000,157563.9218750000,152250.6562500000,,,
1.2159999979,9,151570.7656250000,148445.1562500000,170046.0625000000,109893.9531250000,139008.7500000000,167172.4062500000,158020.1406250000,152714.5156250000,,,
1.2199999981,9,151080.4843750000,148015.1718750000,169566.1875000000,109417.1093750000,138514.0937500000,166726.1562500000,157546.7343750000,152301.0312500000,,,
1.2239999981,9,150349.8593750000,147312.2031250000,168840.4062500000,108683.2578125000,137783.2187500000,166017.3593750000,156828.2187500000,151613.2500000000,,,
1.2279999980,9,150379.3906250000,147302.0781250000,168864.2343750000,108698.8125000000,137811.2812500000,166018.1875000000,156849.5937500000,151589.3750000000,,,
1.2319999980,9,151115.4843750000,147983.5468750000,169585.3125000000,109421.2109375000,138545.0156250000,166712.9375000000,157565.7968750000,152250.0625000000,,,
1.2359999979,9,151570.5468750000,148441.0312500000,170035.7343750000,109877.4609375000,138996.5625000000,167168.8593750000,158016.4375000000,152706.2031250000,,,
1.2399999981,9,151089.0468750000,148019.9218750000,169561.5312500000,109414.1328125000,138523.2187500000,166734.0000000000,157551.5000000000,152303.4687500000,,,
1.2439999981,9,150357.0468750000,147323.2968750000,168841.7031250000,108694.1250000000,137789.4687500000,166030.5312500000,156833.1250000000,151616.3125000000,,,
1.2479999980,9,150370.9375000000,147305.2968750000,168850.9218750000,108703.0781250000,137808.3750000000,166021.2812500000,156838.6562500000,151590.2656250000,,,
1.2519999980,9,151093.1718750000,147977.5937500000,169564.9843750000,109421.9375000000,138539.8437500000,166705.5156250000,157544.1562500000,152245.0468750000,,,
1.2559999980,9,151557.9687500000,148450.2343750000,170029.2968750000,109892.1562500000,139006.8906250000,167172.6718750000,158007.6875000000,152713.8906250000,,,
1.2599999979,9,151091.0781250000,148036.5312500000,169572.3593750000,109436.9843750000,138537.9375000000,166747.0781250000,157560.7343750000,152316.8281250000,,,
1.2639999981,9,150360.8750000000,147331.9687500000,168847.7656250000,108707.8281250000,137802.2343750000,166036.5937500000,156840.2031250000,151631.1406250000,,,
1.2679999981,9,150374.6093750000,147305.2500000000,168860.2031250000,108705.7109375000,137814.2500000000,166021.0625000000,156842.9218750000,151596.5468750000,,,
1.2719999980,9,151104.4062500000,147978.2500000000,169575.4531250000,109419.7421875000,138548.1250000000,166710.2343750000,157552.6562500000,152247.8125000000,,,
1.2759999980,9,151567.6562500000,148444.2031250000,170027.0781250000,109888.6171875000,139001.5000000000,167174.4062500000,158010.5156250000,152713.0468750000,,,
1.2799999979,10,151097.4062500000,148027.6250000000,169568.8281250000,109432.7734375000,138520.7656250000,166745.7968750000,157556.1718750000,152311.8125000000,,,
1.2839999979,10,150369.5625000000,147329.3125000000,168845.8281250000,108708.0156250000,137792.8437500000,166040.3750000000,156838.3281250000,151629.2656250000,,,
1.2879999978,10,150371.4375000000,147295.2968750000,168839.8281250000,108700.1015625000,137801.8281250000,166015.3437500000,156830.9218750000,151591.0781250000,,,
1.2919999978,10,151097.8593750000,147973.6250000000,169560.5312500000,109417.5390625000,138537.0000000000,166705.1562500000,157540.4218750000,152249.1562500000,,,
1.2959999978,10,151562.7812500000,148443.7656250000,170029.5156250000,109885.5859375000,139002.0937500000,167171.1093750000,158005.9531250000,152713.1718750000,,,
1.2999999977,10,151102.6875000000,148039.1250000000,169585.0468750000,109434.6562500000,138537.8593750000,166750.6562500000,157566.0937500000,152334.5781250000,,,
1.3039999979,10,150367.1562500000,147335.6875000000,168850.8281250000,108704.7187500000,137801.6250000000,166041.1250000000,156840.4843750000,151633.2343750000,,,
1.3079999979,10,150369.0781250000,147303.6093750000,168845.7812500000,108701.3125000000,137808.4531250000,166017.8125000000,156834.3125000000,151596.2968750000,,,
1.3119999978,10,151086.0156250000,147968.7812500000,169556.5156250000,109409.4921875000,138535.0156250000,166696.4687500000,157533.6406250000,152240.6250000000,,,
1.3159999978,10,151556.5312500000,148442.2343750000,170034.4062500000,109883.4921875000,139005.0937500000,167167.7343750000,158003.6718750000,152705.1875000000,,,
1.3199999977,10,151109.0468750000,148050.8750000000,169601.9687500000,109446.8593750000,138552.5781250000,166760.8437500000,157574.2968750000,152328.5156250000,,,
1.3239999979,10,150375.5156250000,147351.2031250000,168877.8593750000,108727.8906250000,137816.0156250000,166052.0468750000,156851.8437500000,151654.2031250000,,,
1.3279999979,10,150367.5625000000,147307.9531250000,168864.9531250000,108710.1875000000,137827.6875000000,166016.6093750000,156835.1093750000,151607.6406250000,,,
1.3319999978,10,151079.5468750000,147963.8906250000,169560.5937500000,109414.2656250000,138548.9843750000,166684.9375000000,157531.6562500000,152239.6875000000,,,
1.3359999978,10,151551.7031250000,148434.4531250000,170024.2656250000,109891.1640625000,139009.9531250000,167155.1875000000,158001.4375000000,152703.4843750000,,,
1.3399999978,10,151106.0937500000,148045.4531250000,169587.8125000000,109454.9843750000,138557.3906250000,166750.9218750000,157571.5156250000,152333.1093750000,,,
1.3439999977,10,150374.3906250000,147344.1406250000,168861.9531250000,108725.5859375000,137817.2343750000,166045.3906250000,156850.3750000000,151641.1718750000,,,
1.3479999979,10,150356.5625000000,147290.4218750000,168839.5625000000,108700.8515625000,137806.2656250000,166005.1875000000,156823.7656250000,151580.4531250000,,,
1.3519999979,10,151066.2656250000,147950.8281250000,169544.1718750000,109406.9687500000,138527.6093750000,166677.8281250000,157518.6718750000,152224.4531250000,,,
1.3559999978,10,151541.3125000000,148428.6718750000,170023.6718750000,109884.4296875000,139000.8281250000,167154.5625000000,157994.9531250000,152696.0156250000,,,
1.3599999978,10,151104.0312500000,148047.3593750000,169600.7187500000,109459.3828125000,138560.1406250000,166760.0156250000,157575.6718750000,152333.0000000000,,,
1.3639999977,10,150368.3593750000,147343.1562500000,168866.6406250000,108728.3437500000,137822.8125000000,166048.8437500000,156850.6718750000,151641.2343750000,,,
1.3679999979,10,150352.8906250000,147294.4687500000,168842.5000000000,108698.3828125000,137804.5156250000,166008.8593750000,156825.2500000000,151582.5937500000,,,
1.3719999979,10,151062.3593750000,147952.8125000000,169544.1718750000,109394.4765625000,138513.0000000000,166678.7187500000,157517.4687500000,152223.3437500000,,,
1.3759999978,10,151542.6875000000,148432.0468750000,170021.7343750000,109875.8203125000,138993.7031250000,167156.0468750000,157993.5625000000,152695.8437500000,,,
1.3799999978,10,151109.8593750000,148050.1250000000,169599.2656250000,109453.4843750000,138559.0156250000,166761.7500000000,157577.0937500000,152334.0937500000,,,
1.3839999977,10,150383.9687500000,147353.9375000000,168886.7031250000,108727.7265625000,137835.0312500000,166060.3593750000,156864.6250000000,151650.5312500000,,,
1.3879999977,10,150360.7656250000,147294.9531250000,168861.0625000000,108697.6328125000,137805.0781250000,166012.5000000000,156833.7656250000,151583.1250000000,,,
1.3919999979,10,151057.0156250000,147939.2187500000,169545.1093750000,109382.1328125000,138506.8593750000,166668.6093750000,157517.3281250000,152216.4062500000,,,
1.3959999979,10,151543.2500000000,148431.7187500000,170025.5468750000,109876.1718750000,138998.7500000000,167157.9375000000,158002.8593750000,152701.7812500000,,,
1.3999999978,10,151112.9375000000,148058.7968750000,169607.5312500000,109465.2265625000,138567.5781250000,166773.7187500000,157589.0000000000,152341.0156250000,,,
1.4039999978,10,150375.9531250000,147352.8906250000,168879.6875000000,108734.1640625000,137827.6406250000,166061.6406250000,156864.8281250000,151651.8437500000,,,
1.4079999977,11,150342.3750000000,147288.8281250000,168836.3593750000,108695.7031250000,137802.1875000000,166001.7500000000,156820.4375000000,151582.7031250000,,,
1.4119999977,11,151039.4687500000,147935.6250000000,169524.0000000000,109383.8515625000,138504.2812500000,166657.0468750000,157499.2343750000,152216.9375000000,,,
1.4159999976,11,151528.6875000000,148421.5312500000,170012.5937500000,109875.9843750000,138996.3750000000,167142.8750000000,157984.1406250000,152696.5468750000,,,
1.4199999976,11,151114.6875000000,148059.9218750000,169608.2500000000,109474.5937500000,138572.2500000000,166767.0468750000,157584.4687500000,152348.1250000000,,,
1.4239999976,11,150378.0625000000,147352.7031250000,168872.8125000000,108737.7890625000,137828.0937500000,166053.7656250000,156855.6250000000,151652.2500000000,,,
1.4279999975,11,150343.0937500000,147286.0937500000,168827.9687500000,108686.4218750000,137785.1718750000,165995.5000000000,156809.9531250000,151577.7187500000,,,
1.4319999977,11,151042.9062500000,147937.9531250000,169510.8593750000,109373.7656250000,138485.9531250000,166656.5625000000,157490.1093750000,152204.2187500000,,,
1.4359999977,11,151544.9375000000,148440.4218750000,170005.8281250000,109873.7812500000,138999.8906250000,167155.4218750000,157987.7187500000,152693.7500000000,,,
1.4399999976,11,151128.5000000000,148073.7031250000,169611.0156250000,109470.2421875000,138571.7656250000,166780.1250000000,157590.5312500000,152351.5000000000,,,
1.4439999976,11,150390.7031250000,147369.4687500000,168883.3906250000,108740.0156250000,137830.9843750000,166069.0937500000,156869.4375000000,151669.6406250000,,,
1.4479999975,11,150344.9218750000,147292.0781250000,168837.2812500000,108688.6250000000,137795.3750000000,166002.1875000000,156820.6562500000,151582.2187500000,,,
1.4519999977,11,151034.6250000000,147930.7968750000,169521.1562500000,109372.9609375000,138490.8593750000,166653.7968750000,157495.0156250000,152199.9843750000,,,
1.4559999977,11,151537.1250000000,148431.1875000000,170026.0312500000,109883.7656250000,139002.6562500000,167151.8750000000,157998.1406250000,152702.1562500000,,,
1.4599999976,11,151133.1718750000,148079.0468750000,169631.2656250000,109486.4453125000,138594.1093750000,166786.1093750000,157614.5312500000,152368.9687500000,,,
1.4639999976,11,150399.4531250000,147373.4062500000,168897.8125000000,108749.3203125000,137848.3750000000,166077.7187500000,156889.0312500000,151668.7812500000,,,
1.4679999975,11,150350.9218750000,147294.8906250000,168837.2500000000,108687.2265625000,137793.4375000000,166006.7343750000,156826.5625000000,151582.4687500000,,,
1.4719999975,11,151026.5937500000,147919.7656250000,169502.2500000000,109354.2109375000,138481.2968750000,166642.4843750000,157482.8437500000,152192.6406250000,,,
1.4759999977,11,151525.3281250000,148419.1718750000,170003.5781250000,109861.1484375000,138984.4218750000,167138.4687500000,157979.7500000000,152683.7187500000,,,
1.4799999977,11,151129.7656250000,148078.1562500000,169621.5312500000,109476.7890625000,138577.4531250000,166784.0468750000,157600.8281250000,152360.1718750000,,,
1.4839999976,11,150391.2656250000,147373.1406250000,168894.4062500000,108744.9218750000,137828.6250000000,166071.7500000000,156876.3906250000,151674.8593750000,,,
1.4879999976,11,150335.5312500000,147288.0000000000,168839.3437500000,108681.9453125000,137783.9687500000,165993.3281250000,156817.0312500000,151585.0937500000,,,
1.4919999975,11,151012.9218750000,147910.0625000000,169507.7187500000,109351.2890625000,138472.7656250000,166629.4375000000,157481.7343750000,152189.4687500000,,,
1.4959999977,11,151515.8906250000,148412.0625000000,170002.4531250000,109858.6796875000,138973.3437500000,167127.1562500000,157982.1093750000,152684.0156250000,,,
1.4999999977,11,151129.9687500000,148078.8281250000,169619.5937500000,109491.3046875000,138587.5000000000,166778.6875000000,157609.4375000000,152373.1250000000,,,
1.5039999976,11,150397.0000000000,147373.6250000000,168893.8125000000,108762.3828125000,137847.3281250000,166069.6406250000,156888.2968750000,151675.7031250000,,,
1.5079999976,11,150327.6718750000,147269.3281250000,168821.9531250000,108680.9218750000,137779.9531250000,165975.6875000000,156809.9062500000,151564.7812500000,,,
1.5119999975,11,151009.5937500000,147891.9843750000,169494.6562500000,109348.5781250000,138468.4687500000,166614.9375000000,157471.5937500000,152171.9531250000,,,
1.5159999975,11,151526.9375000000,148402.2968750000,170005.5625000000,109866.4609375000,138988.8125000000,167123.8593750000,157983.0156250000,152677.9843750000,,,
1.5199999977,11,151141.8593750000,148066.6718750000,169626.8437500000,109491.6484375000,138598.8281250000,166776.2656250000,157612.6562500000,152358.3750000000,,,
1.5239999976,11,150408.8906250000,147362.3593750000,168897.4687500000,108758.7343750000,137856.6875000000,166068.1562500000,156891.8906250000,151670.5937500000,,,
1.5279999976,11,150340.2031250000,147270.7500000000,168825.6093750000,108685.6171875000,137791.5625000000,165981.2656250000,156814.5156250000,151574.8125000000,,,
1.5319999976,11,151018.8750000000,147893.8906250000,169504.0781250000,109351.7734375000,138479.5156250000,166620.4843750000,157476.1093750000,152182.1562500000,,,
1.5359999975,12,151535.2500000000,148407.3750000000,170029.6562500000,109870.0312500000,138998.0468750000,167135.6250000000,157991.5156250000,152686.5468750000,,,
1.5399999975,12,151149.2343750000,148080.3750000000,169644.6406250000,109500.3671875000,138601.9687500000,166794.1250000000,157624.6250000000,152376.9375000000,,,
1.5439999974,12,150413.4531250000,147383.8593750000,168912.3281250000,108772.6328125000,137863.6093750000,166089.7343750000,156904.5312500000,151688.8593750000,,,
1.5479999974,12,150330.3593750000,147276.3906250000,168821.9375000000,108683.2343750000,137788.3750000000,165989.2187500000,156812.9375000000,151577.5781250000,,,
1.5519999973,12,151002.7031250000,147899.7343750000,169488.9687500000,109345.4687500000,138465.3906250000,166625.0468750000,157468.8125000000,152180.3750000000,,,
1.5559999973,12,151513.6562500000,148410.6718750000,169998.8593750000,109853.9921875000,138976.7812500000,167134.9062500000,157980.7968750000,152680.9531250000,,,
1.5599999975,12,151142.5312500000,148095.4843750000,169637.7343750000,109493.3125000000,138596.9531250000,166804.9062500000,157628.4375000000,152382.4531250000,,,
1.5639999975,12,150406.1250000000,147392.6875000000,168910.3906250000,108766.8359375000,137856.0937500000,166094.4687500000,156904.2031250000,151695.8593750000,,,
1.5679999974,12,150319.9531250000,147273.1093750000,168818.7343750000,108676.6640625000,137781.2343750000,165984.7656250000,156808.8281250000,151568.6250000000,,,
1.5719999974,12,150990.2343750000,147888.1250000000,169480.1250000000,109338.0156250000,138457.0156250000,166613.1875000000,157461.7031250000,152171.2656250000,,,
1.5759999973,12,151517.0625000000,148404.6093750000,170008.5156250000,109863.8046875000,138988.1718750000,167133.1875000000,157983.1250000000,152681.9843750000,,,
1.5799999975,12,151152.8281250000,148088.8281250000,169648.6250000000,109510.5625000000,138608.5625000000,166806.5000000000,157631.3281250000,152377.3281250000,,,
1.5839999975,12,150421.6093750000,147392.0468750000,168923.7968750000,108783.9453125000,137867.1250000000,166102.4687500000,156911.4218750000,151699.2968750000,,,
1.5879999974,12,150330.1406250000,147272.9843750000,168816.9375000000,108688.3828125000,137780.4531250000,165990.4531250000,156808.3750000000,151571.0625000000,,,
1.5919999974,12,150987.8906250000,147879.7031250000,169464.1406250000,109339.5390625000,138450.3125000000,166608.5468750000,157448.9843750000,152166.3750000000,,,
1.5959999973,12,151516.3125000000,148401.9843750000,169995.8281250000,109873.5937500000,138982.8593750000,167130.8750000000,157975.9843750000,152682.7500000000,,,
1.5999999973,12,151149.4687500000,148085.7500000000,169637.6250000000,109519.7343750000,138615.2656250000,166801.1250000000,157625.0312500000,152383.5625000000,,,
1.6039999975,12,150410.5468750000,147381.0781250000,168903.9843750000,108783.1718750000,137865.9062500000,166087.2031250000,156898.2187500000,151692.5937500000,,,
1.6079999974,12,150317.8281250000,147257.1250000000,168801.7656250000,108684.1953125000,137771.6250000000,165969.4843750000,156795.0156250000,151568.8125000000,,,
1.6119999974,12,150980.9687500000,147863.4687500000,169451.2656250000,109333.9375000000,138439.3906250000,166586.1250000000,157438.9062500000,152157.2031250000,,,
1.6159999974,12,151524.7343750000,148404.3437500000,170005.2187500000,109877.6484375000,138981.3281250000,167122.0781250000,157978.8125000000,152685.2500000000,,,
1.6199999973,12,151176.5312500000,148108.2187500000,169665.5468750000,109538.6171875000,138638.8906250000,166810.4843750000,157644.5781250000,152402.0937500000,,,
1.6239999975,12,150444.3437500000,147405.4531250000,168925.0312500000,108801.9765625000,137889.6562500000,166103.7812500000,156922.3906250000,151712.9531250000,,,
1.6279999975,12,150338.0000000000,147269.6875000000,168806.4843750000,108689.5859375000,137781.9531250000,165979.5468750000,156809.4218750000,151570.5468750000,,,
1.6319999974,12,150999.5625000000,147880.4218750000,169461.1562500000,109341.9296875000,138454.8750000000,166606.7968750000,157456.2812500000,152160.4218750000,,,
1.6359999974,12,151533.0781250000,148407.1875000000,169997.9218750000,109875.7187500000,138992.9218750000,167135.6875000000,157987.2031250000,152685.6875000000,,,
1.6399999973,12,151185.3125000000,148109.3750000000,169662.4531250000,109536.1171875000,138637.3906250000,166828.4062500000,157654.6875000000,152398.9218750000,,,
1.6439999973,12,150445.7656250000,147408.5468750000,168931.2812500000,108803.9296875000,137891.4531250000,166121.1875000000,156929.3125000000,151709.4687500000,,,
1.6479999975,12,150325.9531250000,147264.7187500000,168808.7968750000,108681.3515625000,137776.6718750000,165984.2343750000,156803.2187500000,151564.5156250000,,,
1.6519999974,12,150979.5000000000,147870.0937500000,169458.6562500000,109327.6328125000,138440.9843750000,166601.1250000000,157441.5937500000,152155.2968750000,,,
1.6559999974,12,151515.9218750000,148385.2968750000,170008.3593750000,109865.1718750000,138988.1718750000,167133.1562500000,157978.0781250000,152680.3750000000,,,
1.6599999974,12,151167.2812500000,148088.2343750000,169673.6406250000,109528.9062500000,138629.5156250000,166822.6406250000,157645.3281250000,152413.8906250000,,,
1.6639999973,13,150419.2968750000,147390.5156250000,168929.3281250000,108793.6562500000,137875.6250000000,166100.5312500000,156911.1875000000,151702.2812500000,,,
1.6679999973,13,150303.2968750000,147255.9531250000,168795.5625000000,108676.0468750000,137770.6718750000,165964.5468750000,156785.6875000000,151554.9218750000,,,
1.6719999972,13,150959.1406250000,147860.5000000000,169435.0000000000,109325.2734375000,138431.2187500000,166581.9062500000,157423.3750000000,152143.2656250000,,,
1.6759999972,13,151506.3125000000,148398.7343750000,169980.2656250000,109869.3593750000,138976.2343750000,167120.9062500000,157966.2031250000,152671.3281250000,,,
1.6799999971,13,151166.0781250000,148110.4218750000,169649.8437500000,109537.2500000000,138627.7343750000,166817.5156250000,157639.9687500000,152397.4218750000,,,
1.6839999971,13,150422.2656250000,147403.4531250000,168912.2500000000,108796.6640625000,137879.7812500000,166098.9531250000,156906.8593750000,151707.7500000000,,,
1.6879999973,13,150310.1093750000,147259.8437500000,168783.9062500000,108667.3515625000,137769.2500000000,165961.6562500000,156779.7812500000,151563.3125000000,,,
1.6919999972,13,150975.7656250000,147867.2187500000,169444.3593750000,109323.0468750000,138424.5156250000,166583.9218750000,157426.4843750000,152153.0156250000,,,
1.6959999972,13,151527.5312500000,148411.7343750000,169993.6562500000,109872.9765625000,138975.6250000000,167127.4687500000,157973.1250000000,152684.7187500000,,,
1.6999999972,13,151207.2968750000,148139.4218750000,169677.3750000000,109564.4453125000,138651.8593750000,166842.2500000000,157665.2500000000,152422.7187500000,,,
1.7039999971,13,150462.5781250000,147427.2656250000,168938.6093750000,108824.3984375000,137905.1718750000,166126.9375000000,156933.9062500000,151731.8906250000,,,
1.7079999973,13,150324.9687500000,147266.5156250000,168795.3593750000,108679.5312500000,137775.0937500000,165972.6562500000,156790.8906250000,151567.1406250000,,,
1.7119999973,13,150968.7656250000,147862.1562500000,169433.7656250000,109307.1640625000,138423.8437500000,166578.6406250000,157417.6093750000,152150.7656250000,,,
1.7159999972,13,151523.3125000000,148403.1093750000,169983.7812500000,109863.6171875000,138980.3125000000,167125.8593750000,157969.2812500000,152677.7656250000,,,
1.7199999972,13,151198.4218750000,148127.7187500000,169667.4218750000,109551.4062500000,138646.9375000000,166838.9687500000,157662.3906250000,152418.2187500000,,,
1.7239999971,13,150451.5156250000,147420.7500000000,168934.0156250000,108816.9687500000,137904.3437500000,166122.7187500000,156930.5937500000,151720.5937500000,,,
1.7279999971,13,150313.7500000000,147258.0468750000,168794.8125000000,108672.8281250000,137773.4062500000,165967.7656250000,156786.3750000000,151551.2343750000,,,
1.7319999973,13,150951.3125000000,147840.4062500000,169421.9375000000,109300.0078125000,138418.0937500000,166565.5781250000,157406.2343750000,152120.5937500000,,,
1.7359999972,13,151520.0468750000,148397.7343750000,169991.4375000000,109866.3281250000,138986.3437500000,167126.6718750000,157970.8906250000,152667.5000000000,,,
1.7399999972,13,151216.0937500000,148139.4218750000,169692.7968750000,109567.6640625000,138665.3437500000,166858.2812500000,157680.7031250000,152420.9531250000,,,
1.7439999972,13,150464.4062500000,147423.5156250000,168948.3125000000,108822.0078125000,137903.1406250000,166136.4218750000,156941.8593750000,151721.3437500000,,,
1.7479999971,13,150319.7343750000,147256.0000000000,168793.1250000000,108670.4921875000,137764.7343750000,165975.6250000000,156788.5156250000,151558.0000000000,,,
1.7519999973,13,150955.3593750000,147840.8593750000,169417.5468750000,109293.9140625000,138407.3750000000,166573.4062500000,157405.9375000000,152127.8125000000,,,
1.7559999973,13,151525.5781250000,148391.2500000000,169989.2343750000,109870.8906250000,138979.7187500000,167129.7031250000,157971.6718750000,152666.3437500000,,,
1.7599999972,13,151222.7968750000,148133.1406250000,169696.7656250000,109581.6406250000,138662.6562500000,166855.1250000000,157689.0000000000,152425.7812500000,,,
1.7639999972,13,150475.2500000000,147424.9062500000,168951.8906250000,108830.8593750000,137910.4062500000,166132.8906250000,156960.9843750000,151740.7968750000,,,
1.7679999971,13,150329.8125000000,147261.7656250000,168804.3437500000,108683.5546875000,137779.3906250000,165970.9375000000,156809.0625000000,151581.2500000000,,,
1.7719999971,13,150959.1093750000,147832.3593750000,169432.0312500000,109310.5234375000,138416.6718750000,166560.2656250000,157422.5156250000,152114.0156250000,,,
1.7759999973,13,151523.9843750000,148390.5781250000,169990.4687500000,109879.2812500000,138982.3750000000,167118.5156250000,157980.8750000000,152669.5625000000,,,
1.7799999972,13,151210.2812500000,148133.1093750000,169684.3750000000,109576.5937500000,138666.7968750000,166846.6406250000,157680.3281250000,152425.4843750000,,,
1.7839999972,13,150460.1406250000,147425.0625000000,168941.7500000000,108829.0078125000,137903.6718750000,166130.2343750000,156940.5312500000,151731.4062500000,,,
1.7879999971,13,150307.5000000000,147245.8593750000,168781.3593750000,108671.8359375000,137754.1093750000,165958.1406250000,156778.2968750000,151553.3125000000,,,
1.7919999971,14,150946.6250000000,147831.9218750000,169407.1093750000,109298.3671875000,138395.3281250000,166557.7968750000,157399.4843750000,152121.3750000000,,,
1.7959999971,14,151523.8281250000,148402.1718750000,169986.4687500000,109876.2812500000,138976.2968750000,167128.5000000000,157973.0156250000,152675.4062500000,,,
1.7999999970,14,151218.1093750000,148148.1875000000,169695.2656250000,109579.1406250000,138666.9062500000,166861.2656250000,157684.7343750000,152437.7968750000,,,
1.8039999970,14,150466.1250000000,147416.4062500000,168955.6093750000,108830.0546875000,137909.0937500000,166136.8750000000,156951.3906250000,151748.6718750000,,,
1.8079999969,14,150316.7500000000,147238.2812500000,168800.9843750000,108674.0312500000,137767.8437500000,165966.4218750000,156798.2812500000,151570.2031250000,,,
1.8119999969,14,150944.9062500000,147832.9531250000,169422.8593750000,109296.4375000000,138402.6406250000,166555.8125000000,157408.6562500000,152129.8750000000,,,
1.8159999971,14,151522.9375000000,148407.5625000000,170010.6875000000,109871.9296875000,138992.3281250000,167126.4843750000,157983.6562500000,152684.5781250000,,,
1.8199999970,14,151228.7343750000,148157.8906250000,169711.5156250000,109584.3750000000,138692.8906250000,166868.4531250000,157698.2812500000,152444.7968750000,,,
1.8239999970,14,150465.9375000000,147434.4218750000,168945.0937500000,108826.7578125000,137914.4062500000,166134.5000000000,156943.6562500000,151741.1093750000,,,
1.8279999970,14,150303.9375000000,147245.1718750000,168774.3750000000,108660.5390625000,137744.4062500000,165953.2812500000,156772.8281250000,151543.5937500000,,,
1.8319999969,14,150942.7031250000,147830.4843750000,169398.9375000000,109289.0078125000,138391.4843750000,166552.3593750000,157391.6250000000,152110.1562500000,,,
1.8359999971,14,151521.7343750000,148405.6562500000,169982.5000000000,109873.9218750000,138975.8906250000,167126.6093750000,157964.8593750000,152676.8906250000,,,
1.8399999971,14,151222.4062500000,148163.7500000000,169698.5937500000,109588.8281250000,138672.3906250000,166870.1406250000,157682.3437500000,152445.3593750000,,,
1.8439999970,14,150464.4062500000,147449.4531250000,168952.0468750000,108844.1093750000,137910.2968750000,166146.1406250000,156943.4218750000,151748.5937500000,,,
1.8479999970,14,150281.6718750000,147242.2656250000,168772.1718750000,108654.5078125000,137737.3750000000,165948.5156250000,156758.8593750000,151548.1093750000,,,
1.8519999969,14,150903.9218750000,147809.5312500000,169390.7500000000,109269.5625000000,138375.7500000000,166530.1718750000,157367.3437500000,152097.9843750000,,,
1.8559999969,14,151503.7656250000,148402.1406250000,169985.2031250000,109872.0156250000,138965.0781250000,167121.4375000000,157962.0937500000,152685.5468750000,,,
1.8599999971,14,151216.7187500000,148160.2343750000,169704.8125000000,109594.2421875000,138678.4375000000,166870.3906250000,157690.4375000000,152445.9531250000,,,
1.8639999970,14,150458.7031250000,147440.7343750000,168957.2187500000,108840.6250000000,137922.2968750000,166141.7968750000,156949.7031250000,151749.7187500000,,,
1.8679999970,14,150278.1250000000,147240.5781250000,168770.6250000000,108662.3671875000,137740.6562500000,165945.7812500000,156763.2343750000,151550.5781250000,,,
1.8719999969,14,150899.8125000000,147805.3437500000,169377.8281250000,109275.8359375000,138367.6250000000,166526.9531250000,157368.8750000000,152099.6406250000,,,
1.8759999969,14,151507.2031250000,148398.5468750000,169991.5156250000,109880.3046875000,138976.7187500000,167121.8906250000,157975.4843750000,152685.0156250000,,,
1.8799999971,14,151225.6250000000,148164.4218750000,169723.4843750000,109612.0781250000,138695.6250000000,166874.4687500000,157710.7187500000,152458.7968750000,,,
1.8839999971,14,150460.1250000000,147437.8593750000,168960.7656250000,108849.7734375000,137924.0312500000,166137.8125000000,156958.4375000000,151749.0312500000,,,
1.8879999970,14,150276.7031250000,147223.0156250000,168764.0312500000,108653.7265625000,137739.7656250000,165932.1718750000,156768.6406250000,151531.1718750000,,,
1.8919999970,14,150906.1406250000,147791.0468750000,169383.0781250000,109269.6953125000,138375.6093750000,166517.8125000000,157381.6875000000,152080.1406250000,,,
1.8959999969,14,151520.9375000000,148388.0000000000,170000.0625000000,109875.8515625000,138987.3750000000,167119.9687500000,157992.1406250000,152663.3906250000,,,
1.8999999969,14,151264.5468750000,148173.3125000000,169749.5468750000,109622.1640625000,138721.2656250000,166895.7031250000,157747.8437500000,152466.3906250000,,,
1.9039999971,14,150495.8750000000,147439.8125000000,168978.1406250000,108860.6328125000,137948.6875000000,166155.9843750000,156989.7968750000,151754.5312500000,,,
1.9079999970,14,150305.4843750000,147223.7343750000,168783.9218750000,108659.7656250000,137749.6093750000,165949.5312500000,156792.3281250000,151535.0625000000,,,
1.9119999970,14,150929.7500000000,147786.7812500000,169404.0000000000,109272.1640625000,138380.4062500000,166535.2187500000,157399.9062500000,152090.6406250000,,,
1.9159999969,14,151545.7187500000,148375.6718750000,170027.6406250000,109886.2031250000,138994.1250000000,167140.7500000000,158013.0312500000,152684.6562500000,,,
1.9199999969,15,151276.8437500000,148171.7656250000,169766.9218750000,109626.9921875000,138723.6875000000,166907.9687500000,157760.1875000000,152465.2500000000,,,
1.9239999969,15,150501.5000000000,147446.6875000000,168984.4531250000,108864.1171875000,137944.9062500000,166165.5312500000,156997.6562500000,151753.3750000000,,,
1.9279999968,15,150293.1250000000,147220.7656250000,168767.4062500000,108650.2421875000,137737.5156250000,165944.1093750000,156782.4062500000,151532.2968750000,,,
1.9319999968,15,150907.7812500000,147784.0468750000,169369.4843750000,109255.9921875000,138360.8125000000,166519.8750000000,157379.2031250000,152070.9531250000,,,
1.9359999967,15,151527.0156250000,148390.4687500000,169990.8125000000,109881.7265625000,138986.2968750000,167126.7500000000,157992.2187500000,152673.7500000000,,,
1.9399999967,15,151271.4375000000,148181.6406250000,169754.4843750000,109638.2343750000,138730.9218750000,166905.1406250000,157751.2968750000,152473.2812500000,,,
1.9439999969,15,150489.8125000000,147446.9843750000,168979.2187500000,108869.5625000000,137937.2031250000,166157.2656250000,156984.1875000000,151762.1093750000,,,
1.9479999968,15,150275.2343750000,147210.7500000000,168756.5625000000,108651.1796875000,137726.4375000000,165928.2031250000,156760.9531250000,151523.1093750000,,,
1.9519999968,15,150896.3593750000,147780.1093750000,169374.2343750000,109258.8359375000,138354.9062500000,166511.2031250000,157363.2656250000,152073.8437500000,,,
1.9559999967,15,151525.8125000000,148399.7812500000,170003.2031250000,109889.6875000000,138992.7812500000,167130.8750000000,157989.5937500000,152681.9843750000,,,
1.9599999967,15,151271.8125000000,148196.7031250000,169754.0625000000,109647.3750000000,138733.5468750000,166913.5937500000,157753.4218750000,152493.2031250000,,,
1.9639999969,15,150493.1406250000,147464.0625000000,168982.4062500000,108876.3750000000,137951.0781250000,166170.2812500000,156989.1250000000,151779.9531250000,,,
1.9679999969,15,150272.7656250000,147220.7343750000,168755.8750000000,108647.5859375000,137734.3437500000,165933.4687500000,156761.1093750000,151526.5156250000,,,
1.9719999968,15,150890.8593750000,147781.5625000000,169365.4062500000,109253.8203125000,138354.2812500000,166508.2031250000,157361.4218750000,152071.4062500000,,,
1.9759999968,15,151525.8593750000,148397.5000000000,170001.6250000000,109886.1484375000,138984.8750000000,167127.3750000000,157989.0000000000,152677.8281250000,,,
1.9799999967,15,151288.8125000000,148208.6406250000,169770.4687500000,109650.0859375000,138739.3750000000,166923.1093750000,157765.9687500000,152497.7656250000,,,
1.9839999967,15,150500.3281250000,147461.1406250000,168976.6093750000,108872.4921875000,137941.8437500000,166165.0156250000,156989.9375000000,151770.8125000000,,,
1.9879999969,15,150280.3906250000,147216.8437500000,168756.4062500000,108636.6953125000,137723.2187500000,165926.6562500000,156767.5781250000,151526.0312500000,,,
1.9919999968,15,150894.6875000000,147774.9531250000,169368.4531250000,109237.1093750000,138340.6093750000,166498.1406250000,157366.6718750000,152071.1093750000,,,
1.9959999968,15,151538.2343750000,148397.3593750000,170009.6406250000,109876.3593750000,138984.0156250000,167128.4687500000,158004.7656250000,152683.8281250000,,,
1.9999999967,15,151299.6250000000,148206.3437500000,169778.7343750000,109653.9765625000,138741.7343750000,166928.4843750000,157778.0468750000,152494.1718750000,,,
2.0039999967,15,150512.2031250000,147466.2656250000,168995.5468750000,108876.0859375000,137952.1250000000,166178.1406250000,157005.7343750000,151772.9531250000,,,
2.0079999969,15,150276.2031250000,147211.5625000000,168757.8750000000,108638.0390625000,137725.1250000000,165930.0625000000,156773.0937500000,151514.9843750000,,,
2.0119999968,15,150882.2968750000,147763.1250000000,169360.6562500000,109230.9140625000,138332.4218750000,166493.0312500000,157368.8125000000,152048.7968750000,,,
2.0159999968,15,151524.6875000000,148387.1718750000,170001.8437500000,109877.4296875000,138983.6093750000,167119.8593750000,158005.7031250000,152667.9531250000,,,
2.0199999968,15,151298.9218750000,148208.7187500000,169787.2656250000,109662.2109375000,138752.5156250000,166929.6562500000,157791.4062500000,152503.1562500000,,,
2.0239999967,15,150513.0937500000,147472.2656250000,169005.2656250000,108886.6796875000,137963.1875000000,166181.3593750000,157016.7187500000,151785.5625000000,,,
2.0279999967,15,150267.8281250000,147210.0000000000,168753.7812500000,108630.9296875000,137714.1718750000,165923.2500000000,156764.9687500000,151525.4687500000,,,
2.0319999969,15,150882.2968750000,147762.5625000000,169361.2656250000,109230.2656250000,138332.9687500000,166491.6093750000,157361.5781250000,152052.9218750000,,,
2.0359999968,15,151539.6562500000,148403.2343750000,170012.0625000000,109887.2734375000,138995.2500000000,167134.4687500000,158013.1875000000,152678.0625000000,,,
2.0399999968,15,151308.1718750000,148225.6562500000,169794.2656250000,109672.6171875000,138761.6562500000,166942.4062500000,157798.0312500000,152518.4218750000,,,
2.0439999967,15,150511.9687500000,147483.0468750000,169010.7812500000,108893.7812500000,137965.8437500000,166188.4843750000,157017.2656250000,151791.4843750000,,,
2.0479999967,16,150256.6406250000,147209.0625000000,168754.9375000000,108635.9453125000,137710.4218750000,165926.3593750000,156753.6562500000,151518.2500000000,,,
2.0519999966,16,150864.1093750000,147737.2656250000,169359.9062500000,109227.9062500000,138327.4062500000,166493.6875000000,157343.2500000000,152039.6406250000,,,
2.0559999966,16,151519.1093750000,148379.9375000000,170003.4218750000,109882.1015625000,138984.5000000000,167133.4062500000,157991.1406250000,152665.3750000000,,,
2.0599999966,16,151307.4218750000,148231.0468750000,169788.8750000000,109678.6796875000,138761.3593750000,166956.8281250000,157791.7812500000,152512.1406250000,,,
2.0639999965,16,150508.9375000000,147478.1406250000,168997.5156250000,108884.9609375000,137953.7500000000,166193.1250000000,157009.7812500000,151781.9687500000,,,
2.0679999965,16,150253.5312500000,147199.2187500000,168733.7187500000,108623.1250000000,137703.8750000000,165922.1718750000,156751.4218750000,151505.9375000000,,,
2.0719999967,16,150859.6406250000,147751.2968750000,169334.2343750000,109220.3203125000,138316.9843750000,166484.5781250000,157341.1875000000,152042.7500000000,,,
2.0759999966,16,151533.0312500000,148403.2343750000,170010.0781250000,109897.0156250000,138997.2968750000,167138.7656250000,158007.6406250000,152691.6875000000,,,
2.0799999966,16,151324.5156250000,148235.7343750000,169818.4843750000,109696.6250000000,138788.5625000000,166959.9218750000,157816.4843750000,152528.3906250000,,,
2.0839999965,16,150524.8437500000,147483.4062500000,169029.0468750000,108899.3125000000,137989.5000000000,166195.3593750000,157033.0625000000,151793.5000000000,,,
2.0879999965,16,150254.9062500000,147190.0781250000,168754.7968750000,108628.9453125000,137711.3125000000,165908.7656250000,156761.0000000000,151506.2812500000,,,
2.0919999967,16,150854.1875000000,147735.9531250000,169348.6093750000,109212.6484375000,138314.1406250000,166459.3437500000,157344.9218750000,152030.8437500000,,,
2.0959999966,16,151537.0000000000,148405.4687500000,170020.3125000000,109884.2421875000,138989.1093750000,167124.4218750000,158016.8125000000,152684.2656250000,,,
2.0999999966,16,151347.9062500000,148247.0000000000,169844.2812500000,109702.2265625000,138791.7812500000,166964.9375000000,157838.5312500000,152536.6875000000,,,
2.1039999966,16,150538.8906250000,147477.3593750000,169041.9062500000,108907.1953125000,137978.9062500000,166191.7343750000,157043.3281250000,151790.7343750000,,,
2.1079999965,16,150263.7500000000,147184.1250000000,168750.8281250000,108628.8125000000,137705.4687500000,165906.6093750000,156763.5781250000,151499.5625000000,,,
2.1119999965,16,150870.0625000000,147736.0937500000,169342.1718750000,109221.3906250000,138318.6718750000,166472.3437500000,157350.0937500000,152031.7656250000,,,
2.1159999967,16,151546.6562500000,148395.7343750000,170019.4375000000,109900.3906250000,138996.6718750000,167132.4375000000,158018.9843750000,152683.5937500000,,,
2.1199999966,16,151346.9375000000,148247.1093750000,169831.3281250000,109719.9062500000,138802.7031250000,166970.1562500000,157829.8593750000,152553.5625000000,,,
2.1239999966,16,150536.0312500000,147489.0625000000,169024.9843750000,108928.4375000000,137998.4062500000,166199.2968750000,157030.7031250000,151819.1875000000,,,
2.1279999965,16,150248.7343750000,147183.9375000000,168736.9687500000,108637.0156250000,137713.3437500000,165900.0937500000,156739.3593750000,151514.6093750000,,,
2.1319999965,16,150842.1250000000,147721.1562500000,169320.7500000000,109215.7343750000,138310.7500000000,166450.2968750000,157318.9062500000,152026.4218750000,,,
2.1359999967,16,151525.9687500000,148381.2656250000,169999.3906250000,109893.9531250000,138996.5937500000,167114.7656250000,157995.0937500000,152667.2812500000,,,
2.1399999966,16,151342.2187500000,148243.7500000000,169825.3281250000,109718.9375000000,138802.9687500000,166963.3750000000,157822.9687500000,152540.5937500000,,,
2.1439999966,16,150541.5781250000,147488.0468750000,169037.7656250000,108924.6875000000,137993.7968750000,166197.6406250000,157037.8906250000,151805.9687500000,,,
2.1479999966,16,150246.3125000000,147175.1406250000,168730.8125000000,108622.9609375000,137700.8750000000,165891.9218750000,156737.5625000000,151493.3125000000,,,
2.1519999965,16,150841.8437500000,147717.6718750000,169314.3125000000,109204.3593750000,138297.4843750000,166448.7656250000,157318.7656250000,152015.4531250000,,,
2.1559999965,16,151532.5156250000,148387.1250000000,170002.2656250000,109891.0312500000,138989.6562500000,167123.7500000000,158002.2500000000,152668.6562500000,,,
2.1599999967,16,151354.6093750000,148259.4218750000,169831.6718750000,109722.8593750000,138806.9062500000,166982.0937500000,157834.5312500000,152555.1718750000,,,
2.1639999966,16,150538.4375000000,147494.9375000000,169019.8593750000,108918.4609375000,137981.1093750000,166205.2812500000,157033.1093750000,151812.3281250000,,,
2.1679999966,16,150244.9531250000,147179.6093750000,168723.0625000000,108621.5937500000,137690.2500000000,165899.2343750000,156736.6250000000,151497.1718750000,,,
2.1719999965,16,150835.3593750000,147710.2968750000,169303.8125000000,109181.9062500000,138280.2656250000,166444.8593750000,157309.0937500000,151996.8906250000,,,
2.1759999965,17,151536.5468750000,148389.0781250000,170004.9531250000,109880.6796875000,138982.9375000000,167127.2343750000,158002.7343750000,152659.2656250000,,,
2.1799999964,17,151365.1718750000,148265.9843750000,169851.5312500000,109721.5390625000,138810.2968750000,166990.5468750000,157846.2500000000,152553.0156250000,,,
2.1839999964,17,150547.3750000000,147499.2500000000,169039.3750000000,108917.9531250000,137987.4375000000,166212.2968750000,157045.9843750000,151811.1406250000,,,
2.1879999964,17,150238.4375000000,147177.8750000000,168728.4062500000,108601.6953125000,137674.9375000000,165894.2968750000,156734.3125000000,151486.7343750000,,,
2.1919999963,17,150823.9843750000,147707.1562500000,169308.1093750000,109173.7265625000,138267.4843750000,166436.8281250000,157304.7656250000,151997.2187500000,,,
2.1959999963,17,151530.6093750000,148390.2031250000,170012.1875000000,109882.1250000000,138981.3281250000,167123.2656250000,158006.7500000000,152668.5468750000,,,
2.1999999965,17,151360.7187500000,148267.4687500000,169847.9062500000,109730.8750000000,138814.7656250000,166989.6093750000,157849.2031250000,152566.8125000000,,,
2.2039999964,17,150541.2500000000,147503.8906250000,169038.8750000000,108929.4062500000,137998.5468750000,166218.0937500000,157045.5625000000,151823.7187500000,,,
2.2079999964,17,150231.8281250000,147180.5312500000,168721.3281250000,108614.6171875000,137689.3125000000,165904.2031250000,156731.9843750000,151496.6250000000,,,
2.2119999963,17,150813.4218750000,147704.0937500000,169289.6093750000,109181.1015625000,138269.3437500000,166439.1718750000,157292.9062500000,151999.7812500000,,,
2.2159999963,17,151521.4218750000,148385.0000000000,170000.2031250000,109885.6093750000,138982.8906250000,167121.8437500000,157994.4375000000,152664.7812500000,,,
2.2199999965,17,151362.6562500000,148267.6875000000,169855.5468750000,109748.5781250000,138817.4843750000,166993.4375000000,157855.7968750000,152565.7031250000,,,
2.2239999964,17,150543.9062500000,147498.6093750000,169047.0312500000,108938.2265625000,137995.0312500000,166210.9062500000,157058.3281250000,151820.5156250000,,,
2.2279999964,17,150221.4062500000,147165.6093750000,168713.9531250000,108608.5625000000,137679.7656250000,165877.8906250000,156731.8750000000,151489.8125000000,,,
2.2319999964,17,150803.4218750000,147697.2812500000,169285.8437500000,109179.8125000000,138257.7031250000,166420.4375000000,157296.2656250000,151997.7500000000,,,
2.2359999963,17,151509.2656250000,148382.2656250000,169992.0156250000,109877.9140625000,138973.7187500000,167111.2187500000,157990.7968750000,152661.9687500000,,,
2.2399999963,17,151357.7187500000,148279.2656250000,169843.7500000000,109738.9218750000,138818.0625000000,166996.2343750000,157848.1093750000,152571.5781250000,,,
2.2439999965,17,150544.5781250000,147517.6875000000,169036.8281250000,108933.3203125000,138002.7031250000,166224.0781250000,157049.2812500000,151830.9375000000,,,
2.2479999964,17,150216.5468750000,147170.8125000000,168700.8281250000,108601.5312500000,137670.4531250000,165884.8125000000,156714.6250000000,151491.4062500000,,,
2.2519999964,17,150787.4843750000,147679.8125000000,169275.1406250000,109164.7421875000,138250.4375000000,166414.0000000000,157270.2968750000,151965.6718750000,,,
2.2559999963,17,151510.5312500000,148380.7031250000,170000.0468750000,109882.5000000000,138980.0468750000,167118.4375000000,157988.2187500000,152657.6562500000,,,
2.2599999963,17,151360.9375000000,148279.2968750000,169847.6562500000,109743.6171875000,138823.7812500000,167003.5000000000,157849.2500000000,152575.9062500000,,,
2.2639999965,17,150537.1718750000,147511.5625000000,169031.4375000000,108928.8671875000,137991.1718750000,166220.2187500000,157040.9531250000,151831.5781250000,,,
2.2679999964,17,150198.5781250000,147155.4687500000,168693.9843750000,108587.9296875000,137658.2031250000,165870.0625000000,156701.4843750000,151471.9843750000,,,
2.2719999964,17,150778.6875000000,147677.8593750000,169266.1406250000,109152.3203125000,138237.4218750000,166406.5312500000,157265.5312500000,151979.3281250000,,,
2.2759999963,17,151504.5781250000,148375.6875000000,169988.9375000000,109879.8203125000,138969.3437500000,167113.2343750000,157982.4843750000,152656.6875000000,,,
2.2799999963,17,151358.5781250000,148275.0781250000,169848.0468750000,109747.6640625000,138824.5625000000,167000.1250000000,157846.5781250000,152563.9687500000,,,
2.2839999963,17,150545.3125000000,147512.7656250000,169042.7812500000,108943.5937500000,137995.8593750000,166226.3593750000,157049.7656250000,151833.3750000000,,,
2.2879999964,17,150204.7500000000,147142.5468750000,168694.3750000000,108599.1171875000,137662.9218750000,165876.5781250000,156704.3593750000,151484.9843750000,,,
2.2919999964,17,150768.3906250000,147661.2812500000,169251.3281250000,109156.8046875000,138229.1093750000,166392.2812500000,157251.0625000000,151968.2968750000,,,
2.2959999964,17,151495.9531250000,148371.2187500000,169971.5000000000,109874.2421875000,138957.7812500000,167097.2500000000,157969.3593750000,152648.9062500000,,,
2.2999999963,17,151373.3281250000,148294.8437500000,169850.3750000000,109761.1875000000,138828.7968750000,167009.4375000000,157854.8281250000,152583.7500000000,,,
2.3039999963,18,150549.5625000000,147525.7031250000,169038.1406250000,108953.6015625000,137999.2968750000,166227.3750000000,157049.3125000000,151842.8750000000,,,
2.3079999962,18,150206.3593750000,147169.7500000000,168696.8593750000,108603.0859375000,137659.2187500000,165876.8437500000,156705.9843750000,151496.6250000000,,,
2.3119999962,18,150771.0937500000,147672.6250000000,169252.0468750000,109150.9296875000,138218.6562500000,166398.3125000000,157252.7812500000,151969.7500000000,,,
2.3159999961,18,151501.8281250000,148378.7031250000,169980.5625000000,109872.7343750000,138953.5937500000,167107.9687500000,157972.5625000000,152660.1406250000,,,
2.3199999961,18,151386.0937500000,148310.2500000000,169871.7812500000,109772.1015625000,138837.7031250000,167024.8281250000,157868.1875000000,152603.2031250000,,,
2.3239999961,18,150561.8281250000,147536.6093750000,169054.4531250000,108958.3750000000,138015.6562500000,166240.2812500000,157061.2187500000,151856.9531250000,,,
2.3279999963,18,150190.8281250000,147140.4062500000,168681.8125000000,108591.2031250000,137641.0156250000,165860.9062500000,156692.6562500000,151461.2500000000,,,
2.3319999962,18,150759.0000000000,147651.3593750000,169242.2343750000,109143.0390625000,138208.3437500000,166384.4531250000,157247.0937500000,151947.4531250000,,,
2.3359999962,18,151506.4531250000,148368.0000000000,169980.4375000000,109878.5078125000,138961.7343750000,167107.8437500000,157984.5781250000,152644.5312500000,,,
2.3399999961,18,151386.1250000000,148292.2812500000,169866.0937500000,109769.1250000000,138847.7656250000,167019.1406250000,157874.6875000000,152586.5781250000,,,
2.3439999961,18,150568.1875000000,147525.7812500000,169058.2968750000,108960.5468750000,138023.9218750000,166238.9375000000,157073.3750000000,151848.2343750000,,,
2.3479999963,18,150201.1562500000,147145.3906250000,168688.7812500000,108589.2187500000,137654.6406250000,165859.2656250000,156704.4062500000,151472.5156250000,,,
2.3519999962,18,150766.4062500000,147648.0156250000,169246.9531250000,109134.9687500000,138225.8906250000,166376.1093750000,157255.8906250000,151958.0000000000,,,
2.3559999962,18,151512.0781250000,148368.7500000000,169990.5937500000,109873.9453125000,138972.4843750000,167101.6718750000,157993.5625000000,152660.6875000000,,,
2.3599999961,18,151404.5781250000,148305.5468750000,169892.9687500000,109780.3593750000,138860.9375000000,167028.6406250000,157896.7656250000,152612.5937500000,,,
2.3639999961,18,150581.7343750000,147543.4375000000,169079.3437500000,108965.6406250000,138027.4843750000,166250.8437500000,157090.6718750000,151866.6093750000,,,
2.3679999961,18,150201.7343750000,147154.9687500000,168697.0468750000,108579.8828125000,137644.0625000000,165865.7031250000,156710.2500000000,151478.1562500000,,,
2.3719999962,18,150759.7812500000,147653.8906250000,169247.5156250000,109126.5703125000,138207.8906250000,166381.9531250000,157252.5156250000,151965.9062500000,,,
2.3759999962,18,151510.2031250000,148380.0625000000,169999.6718750000,109876.8125000000,138964.3281250000,167116.1093750000,157994.0937500000,152678.3906250000,,,
2.3799999962,18,151400.6875000000,148323.0468750000,169897.2031250000,109785.7500000000,138852.3750000000,167045.0781250000,157894.5781250000,152633.8593750000,,,
2.3839999961,18,150574.7500000000,147558.5000000000,169079.0468750000,108979.3984375000,138027.2500000000,166263.0468750000,157085.9062500000,151893.2968750000,,,
2.3879999961,18,150186.3750000000,147161.3281250000,168677.5468750000,108587.6093750000,137630.3125000000,165866.5156250000,156695.6406250000,151500.2500000000,,,
2.3919999963,18,150740.0625000000,147656.6718750000,169215.6562500000,109126.1171875000,138188.0781250000,166373.9687500000,157232.2187500000,151970.0468750000,,,
2.3959999962,18,151495.0781250000,148382.2656250000,169969.2968750000,109873.9218750000,138947.6406250000,167104.9687500000,157976.5312500000,152674.4218750000,,,
2.3999999962,18,151406.9062500000,148332.0468750000,169887.3593750000,109796.4843750000,138856.9375000000,167044.0625000000,157896.2812500000,152638.4531250000,,,
2.4039999961,18,150593.8281250000,147564.0625000000,169084.0312500000,108985.9218750000,138040.2343750000,166267.5625000000,157098.8281250000,151896.5468750000,,,
2.4079999961,18,150201.4687500000,147148.4531250000,168693.4843750000,108584.8515625000,137642.5937500000,165862.0156250000,156704.7500000000,151485.6093750000,,,
2.4119999961,18,150752.2031250000,147638.6250000000,169234.6718750000,109120.0312500000,138201.4062500000,166366.4843750000,157240.1250000000,151948.5625000000,,,
2.4159999962,18,151516.0312500000,148373.1406250000,169989.2031250000,109877.8046875000,138971.2500000000,167106.6093750000,157993.6093750000,152671.3281250000,,,
2.4199999962,18,151428.9375000000,148324.5468750000,169904.0937500000,109806.4609375000,138881.1562500000,167049.4531250000,157912.8281250000,152634.1875000000,,,
2.4239999962,18,150593.2656250000,147542.4062500000,169074.4375000000,108986.3203125000,138036.4218750000,166255.8593750000,157092.0937500000,151878.8750000000,,,
2.4279999961,18,150194.9218750000,147135.4375000000,168675.6718750000,108583.8593750000,137639.2343750000,165850.7656250000,156692.3125000000,151472.9218750000,,,
2.4319999961,19,150737.8593750000,147623.3906250000,169215.7968750000,109110.7187500000,138191.1093750000,166351.5937500000,157222.2343750000,151943.2500000000,,,
2.4359999960,19,151503.5468750000,148354.6406250000,169976.0625000000,109875.4453125000,138963.9531250000,167093.6562500000,157977.8125000000,152664.9218750000,,,
2.4399999960,19,151439.7343750000,148331.2968750000,169915.0625000000,109820.2734375000,138890.5937500000,167061.1718750000,157921.8125000000,152650.4062500000,,,
2.4439999959,19,150609.4843750000,147555.6875000000,169086.7187500000,108998.8437500000,138053.9843750000,166275.0937500000,157107.4843750000,151895.4687500000,,,
2.4479999959,19,150199.6562500000,147133.5156250000,168676.5781250000,108587.5859375000,137642.2968750000,165857.8281250000,156697.0625000000,151474.6406250000,,,
2.4519999959,19,150741.5312500000,147617.8906250000,169217.8750000000,109113.1093750000,138190.4531250000,166352.4218750000,157223.2343750000,151933.9843750000,,,
2.4559999960,19,151510.7656250000,148363.5937500000,169982.2031250000,109877.3281250000,138962.6875000000,167100.6562500000,157980.4218750000,152666.5312500000,,,
2.4599999960,19,151436.8906250000,148337.9843750000,169905.2968750000,109814.3203125000,138885.1718750000,167064.5000000000,157914.5625000000,152647.5468750000,,,
2.4639999960,19,150608.7656250000,147570.1718750000,169084.9531250000,108999.2500000000,138047.1406250000,166285.0781250000,157101.9375000000,151899.7656250000,,,
2.4679999959,19,150185.7031250000,147142.3593750000,168659.5312500000,108579.8828125000,137631.8125000000,165856.0000000000,156679.1093750000,151478.5468750000,,,
2.4719999959,19,150713.1093750000,147618.1875000000,169183.9218750000,109096.1015625000,138164.4375000000,166339.6250000000,157195.8750000000,151933.4531250000,,,
2.4759999961,19,151494.0312500000,148369.7187500000,169963.7968750000,109869.9765625000,138943.0000000000,167095.5625000000,157970.2812500000,152667.7031250000,,,
2.4799999960,19,151436.8437500000,148350.6718750000,169915.2812500000,109822.4765625000,138884.4218750000,167070.7187500000,157922.2343750000,152666.6406250000,,,
2.4839999960,19,150609.2187500000,147583.0156250000,169095.5156250000,109013.3046875000,138051.1250000000,166292.1250000000,157111.1093750000,151926.0000000000,,,
2.4879999959,19,150180.8125000000,147149.9843750000,168665.2656250000,108587.3671875000,137624.2500000000,165862.6562500000,156683.4843750000,151493.7812500000,,,
2.4919999959,19,150705.0000000000,147620.0625000000,169183.5156250000,109094.8671875000,138153.0468750000,166345.2812500000,157191.2343750000,151931.9843750000,,,
2.4959999959,19,151487.8593750000,148367.7187500000,169969.2812500000,109870.7500000000,138954.0312500000,167102.0000000000,157964.4375000000,152661.7343750000,,,
2.4999999960,19,151435.4531250000,148353.2968750000,169921.7500000000,109832.6093750000,138899.1562500000,167078.1250000000,157920.1718750000,152665.7500000000,,,
2.5039999960,19,150602.7031250000,147577.5156250000,169097.0937500000,109014.0859375000,138059.3593750000,166289.7343750000,157105.0781250000,151917.6093750000,,,
2.5079999960,19,150172.6875000000,147137.2656250000,168670.3281250000,108579.1328125000,137627.7031250000,165855.7031250000,156677.3125000000,151481.1250000000,,,
2.5119999959,19,150706.1250000000,147613.2812500000,169191.6250000000,109093.2109375000,138167.6875000000,166343.7656250000,157193.9375000000,151936.5625000000,,,
2.5159999959,19,151489.8125000000,148363.1718750000,169965.3906250000,109864.5546875000,138950.0000000000,167097.3750000000,157965.0000000000,152671.1093750000,,,
2.5199999961,19,151448.8906250000,148354.4531250000,169927.5468750000,109837.5234375000,138900.5468750000,167081.6093750000,157932.4062500000,152671.4687500000,,,
2.5239999960,19,150623.3906250000,147582.2187500000,169104.3906250000,109016.2812500000,138067.4218750000,166299.4218750000,157122.7187500000,151925.3281250000,,,
2.5279999960,19,150195.2031250000,147140.4531250000,168673.7343750000,108578.2734375000,137630.5468750000,165863.3750000000,156692.4218750000,151483.7812500000,,,
2.5319999959,19,150717.2656250000,147601.7656250000,169180.1718750000,109079.6093750000,138152.0156250000,166338.0937500000,157193.7812500000,151918.7031250000,,,
2.5359999959,19,151508.0625000000,148360.4375000000,169965.6875000000,109861.0468750000,138943.6718750000,167100.5468750000,157970.1718750000,152658.6406250000,,,
2.5399999958,19,151468.6250000000,148358.4687500000,169936.8437500000,109834.4375000000,138903.6562500000,167087.3750000000,157939.1562500000,152667.7656250000,,,
2.5439999960,19,150642.3437500000,147590.9531250000,169122.9843750000,109030.6328125000,138076.8906250000,166304.9687500000,157131.3125000000,151929.5468750000,,,
2.5479999960,19,150190.0156250000,147137.2656250000,168669.3437500000,108570.5000000000,137628.9687500000,165851.4062500000,156680.4375000000,151476.1093750000,,,
2.5519999960,19,150698.8125000000,147593.6875000000,169165.7968750000,109067.1640625000,138139.5156250000,166320.2968750000,157171.2500000000,151914.7031250000,,,
2.5559999959,19,151495.9843750000,148363.9687500000,169966.5156250000,109860.2890625000,138940.0312500000,167094.8906250000,157958.5312500000,152665.7031250000,,,
2.5599999959,20,151465.4843750000,148376.6875000000,169943.9062500000,109843.7968750000,138905.9687500000,167097.6250000000,157938.1250000000,152684.3906250000,,,
2.5639999958,20,150630.8125000000,147598.2500000000,169109.5781250000,109028.2734375000,138063.6718750000,166308.3750000000,157121.4062500000,151933.5937500000,,,
2.5679999958,20,150182.4218750000,147139.9375000000,168657.6406250000,108578.3281250000,137618.0156250000,165854.1718750000,156675.3125000000,151482.8125000000,,,
2.5719999957,20,150693.0468750000,147591.9843750000,169160.1406250000,109073.6796875000,138137.2656250000,166318.1250000000,157170.0937500000,151914.3281250000,,,
2.5759999957,20,151489.7343750000,148359.4687500000,169955.3281250000,109866.0078125000,138938.1718750000,167090.3593750000,157957.2656250000,152660.1406250000,,,
2.5799999957,20,151464.1562500000,148379.5000000000,169938.0000000000,109861.3359375000,138915.7500000000,167099.6406250000,157939.5937500000,152694.1093750000,,,
2.5839999958,20,150627.4375000000,147606.8437500000,169112.1718750000,109045.1718750000,138076.5781250000,166311.5781250000,157121.8437500000,151950.8125000000,,,
2.5879999958,20,150161.3437500000,147134.8281250000,168650.2656250000,108576.6171875000,137614.3125000000,165841.6250000000,156659.6406250000,151484.1562500000,,,
2.5919999958,20,150670.2500000000,147580.8437500000,169150.8750000000,109065.2343750000,138134.4062500000,166302.2968750000,157155.1562500000,151903.0937500000,,,
2.5959999957,20,151473.7500000000,148346.8593750000,169951.0625000000,109856.0000000000,138929.7031250000,167075.2031250000,157949.0312500000,152648.4531250000,,,
2.5999999957,20,151462.4843750000,148374.6718750000,169948.5937500000,109852.7812500000,138916.1250000000,167093.8437500000,157946.2968750000,152683.9375000000,,,
2.6039999959,20,150640.7656250000,147607.8281250000,169130.2812500000,109046.8593750000,138092.1093750000,166317.3593750000,157138.9531250000,151946.2968750000,,,
2.6079999958,20,150170.9531250000,147127.4687500000,168651.3437500000,108570.9531250000,137616.7343750000,165842.2968750000,156666.9375000000,151463.8593750000,,,
2.6119999958,20,150686.0468750000,147576.6562500000,169162.6875000000,109061.1015625000,138131.6093750000,166307.6562500000,157165.5937500000,151891.8281250000,,,
2.6159999957,20,151497.6718750000,148352.6250000000,169970.7500000000,109856.6953125000,138957.1718750000,167090.2656250000,157964.8906250000,152646.8437500000,,,
2.6199999957,20,151497.7812500000,148393.5312500000,169960.1093750000,109864.2109375000,138937.7500000000,167119.0000000000,157970.5781250000,152695.3906250000,,,
2.6239999956,20,150671.7500000000,147625.0156250000,169136.3125000000,109051.5781250000,138097.4062500000,166337.1562500000,157157.6250000000,151956.2343750000,,,
2.6279999958,20,150190.0156250000,147139.1875000000,168653.6562500000,108566.6640625000,137614.4062500000,165854.3906250000,156675.8750000000,151484.9687500000,,,
2.6319999958,20,150686.1250000000,147572.4218750000,169144.7031250000,109043.9609375000,138116.1875000000,166304.7031250000,157159.2031250000,151892.7968750000,,,
2.6359999957,20,151494.4062500000,148348.5156250000,169953.0468750000,109847.3125000000,138930.0312500000,167083.6250000000,157959.2031250000,152649.3125000000,,,
2.6399999957,20,151493.3281250000,148393.4218750000,169955.5468750000,109858.6328125000,138924.5781250000,167113.5781250000,157966.5781250000,152703.3593750000,,,
2.6439999957,20,150664.7968750000,147628.4218750000,169139.4218750000,109048.5234375000,138092.7656250000,166334.7187500000,157154.3437500000,151965.2187500000,,,
2.6479999959,20,150170.5468750000,147133.2656250000,168644.3906250000,108558.5078125000,137597.0000000000,165840.8750000000,156659.9062500000,151480.0312500000,,,
2.6519999958,20,150667.1562500000,147573.7968750000,169126.6562500000,109037.5546875000,138096.8750000000,166294.0000000000,157138.6562500000,151894.9375000000,,,
2.6559999958,20,151488.3750000000,148361.0937500000,169943.3906250000,109854.6093750000,138924.4687500000,167088.6875000000,157949.4062500000,152653.0625000000,,,
2.6599999957,20,151492.3437500000,148405.4687500000,169953.0468750000,109866.8359375000,138922.9218750000,167122.8593750000,157961.7812500000,152704.5937500000,,,
2.6639999957,20,150669.5937500000,147638.2187500000,169136.9062500000,109057.5312500000,138094.1718750000,166344.5625000000,157155.3750000000,151966.9218750000,,,
2.6679999956,20,150176.7187500000,147133.8906250000,168645.2031250000,108559.6640625000,137601.1562500000,165845.2968750000,156666.6718750000,151472.4687500000,,,
2.6719999958,20,150667.0468750000,147561.5625000000,169137.1250000000,109035.1640625000,138095.1093750000,166286.1718750000,157143.9218750000,151883.1406250000,,,
2.6759999958,20,151490.3281250000,148351.7187500000,169953.8750000000,109854.3906250000,138932.7656250000,167079.9531250000,157951.2031250000,152651.9375000000,,,
2.6799999957,20,151506.4218750000,148409.3593750000,169972.8906250000,109883.3046875000,138947.3281250000,167126.2187500000,157975.0312500000,152714.8906250000,,,
2.6839999957,20,150677.3750000000,147639.0468750000,169148.5937500000,109078.4296875000,138120.6875000000,166346.7343750000,157165.4531250000,151976.8593750000,,,
2.6879999957,21,150163.5000000000,147123.2812500000,168636.8906250000,108562.5859375000,137612.7031250000,165835.0468750000,156656.8281250000,151470.1875000000,,,
2.6919999956,21,150643.7187500000,147546.1718750000,169124.1718750000,109031.5156250000,138101.6718750000,166269.8437500000,157127.5312500000,151875.4375000000,,,
2.6959999956,21,151468.5156250000,148337.9218750000,169948.6562500000,109849.0781250000,138932.8437500000,167067.7656250000,157946.4375000000,152644.5625000000,,,
2.6999999955,21,151498.5312500000,148406.8125000000,169981.2656250000,109889.6328125000,138962.9843750000,167125.0937500000,157984.6875000000,152724.9687500000,,,
2.7039999955,21,150671.0781250000,147632.1875000000,169161.3437500000,109074.0859375000,138123.9687500000,166341.0000000000,157172.3750000000,151969.2656250000,,,
2.7079999954,21,150170.8125000000,147124.9218750000,168654.7187500000,108567.0078125000,137619.2812500000,165839.8593750000,156671.9062500000,151466.6093750000,,,
2.7119999956,21,150654.4375000000,147547.1250000000,169120.6250000000,109028.5625000000,138105.8593750000,166278.0156250000,157138.2031250000,151870.3437500000,,,
2.7159999956,21,151479.5937500000,148337.4375000000,169941.9218750000,109838.5703125000,138930.4218750000,167072.4687500000,157951.9062500000,152638.8281250000,,,
2.7199999955,21,151511.1093750000,148411.6406250000,169983.3906250000,109883.6796875000,138960.6562500000,167133.0468750000,157992.9687500000,152727.3906250000,,,
2.7239999955,21,150674.8593750000,147638.6718750000,169158.7343750000,109073.3593750000,138116.2968750000,166344.8906250000,157174.5781250000,151987.9531250000,,,
2.7279999955,21,150157.6406250000,147115.1562500000,168647.3750000000,108556.5781250000,137594.8125000000,165825.9531250000,156660.3125000000,151470.0781250000,,,
2.7319999957,21,150627.9375000000,147527.6250000000,169112.5781250000,109005.3125000000,138065.0312500000,166249.8750000000,157118.7500000000,151853.7656250000,,,
2.7359999956,21,151462.5156250000,148330.1562500000,169944.0937500000,109837.7656250000,138908.7500000000,167054.4687500000,157943.0468750000,152637.1406250000,,,
2.7399999956,21,151512.3281250000,148422.1250000000,169999.9375000000,109901.2265625000,138955.9687500000,167132.7812500000,157999.4375000000,152741.3437500000,,,
2.7439999955,21,150682.0781250000,147652.4843750000,169168.7500000000,109085.9140625000,138117.3906250000,166352.7187500000,157180.3437500000,152001.1875000000,,,
2.7479999955,21,150158.3125000000,147121.7031250000,168633.0468750000,108553.8125000000,137583.6406250000,165831.0625000000,156654.7812500000,151475.3125000000,,,
2.7519999954,21,150637.2500000000,147535.4375000000,169104.2656250000,109008.9062500000,138062.8593750000,166263.2968750000,157120.0468750000,151860.0468750000,,,
2.7559999956,21,151477.5000000000,148336.2968750000,169941.7343750000,109840.3125000000,138906.7968750000,167069.8906250000,157949.3593750000,152634.4531250000,,,
2.7599999956,21,151526.8125000000,148423.1093750000,169999.7656250000,109905.9140625000,138961.8281250000,167145.6406250000,158009.4062500000,152733.2968750000,,,
2.7639999955,21,150694.9687500000,147654.0937500000,169179.5000000000,109092.0000000000,138129.9687500000,166362.6718750000,157196.6250000000,151995.5156250000,,,
2.7679999955,21,150159.1406250000,147121.6562500000,168648.0937500000,108552.0703125000,137592.4843750000,165829.3125000000,156662.9687500000,151473.2968750000,,,
2.7719999955,21,150625.0468750000,147514.2968750000,169118.4218750000,109004.4296875000,138068.5781250000,166244.0625000000,157117.0937500000,151853.5781250000,,,
2.7759999956,21,151467.6875000000,148321.0625000000,169964.2656250000,109842.6718750000,138929.8437500000,167053.8437500000,157948.5468750000,152633.8281250000,,,
2.7799999956,21,151531.0468750000,148422.1562500000,170022.9531250000,109915.5703125000,138989.2968750000,167145.3437500000,158017.9687500000,152736.3750000000,,,
2.7839999956,21,150700.9531250000,147655.8750000000,169193.2656250000,109105.6562500000,138149.5781250000,166365.5937500000,157202.1250000000,151997.9687500000,,,
2.7879999955,21,150162.0937500000,147118.7500000000,168653.3906250000,108570.5546875000,137616.3906250000,165828.2656250000,156664.6093750000,151472.8437500000,,,
2.7919999955,21,150617.4218750000,147516.5312500000,169099.4375000000,109006.1171875000,138073.8125000000,166241.0625000000,157105.1562500000,151845.2656250000,,,
2.7959999954,21,151460.6562500000,148325.5937500000,169939.4531250000,109837.7109375000,138921.5781250000,167053.9843750000,157934.0468750000,152631.6406250000,,,
2.7999999956,21,151523.7968750000,148429.9218750000,170006.8750000000,109910.9609375000,138980.6406250000,167145.4218750000,158000.4531250000,152744.4218750000,,,
2.8039999956,21,150700.8750000000,147669.2812500000,169191.5625000000,109104.6093750000,138147.3750000000,166372.4062500000,157194.3750000000,152011.2968750000,,,
2.8079999955,21,150157.1093750000,147124.8437500000,168649.8750000000,108554.8046875000,137604.6406250000,165828.6875000000,156654.8125000000,151473.5312500000,,,
2.8119999955,21,150602.1093750000,147510.3906250000,169094.6093750000,108979.4531250000,138052.1562500000,166229.4218750000,157088.5781250000,151834.3281250000,,,
2.8159999955,22,151446.3125000000,148322.9531250000,169937.4843750000,109820.6250000000,138904.9218750000,167047.1406250000,157923.3593750000,152619.5937500000,,,
2.8199999954,22,151516.2968750000,148437.2031250000,170004.3593750000,109905.8359375000,138973.4687500000,167147.7500000000,158000.9843750000,152739.6406250000,,,
2.8239999954,22,150696.2031250000,147683.6250000000,169190.2500000000,109104.8515625000,138150.0937500000,166378.2031250000,157198.1718750000,152016.6093750000,,,
2.8279999953,22,150139.2968750000,147125.7500000000,168636.1562500000,108548.9843750000,137593.7500000000,165824.2968750000,156645.9687500000,151477.0781250000,,,
2.8319999953,22,150582.0312500000,147508.1875000000,169072.1250000000,108973.0468750000,138037.5156250000,166222.7968750000,157073.6718750000,151842.8281250000,,,
2.8359999952,22,151441.1093750000,148324.0000000000,169924.7812500000,109822.8203125000,138894.4843750000,167046.5000000000,157917.6562500000,152631.5781250000,,,
2.8399999954,22,151524.7343750000,148438.4218750000,170012.2187500000,109919.4062500000,138975.9375000000,167154.4531250000,158005.0312500000,152743.5312500000,,,
2.8439999954,22,150699.6406250000,147673.4375000000,169194.4062500000,109109.7578125000,138139.2500000000,166375.5468750000,157192.5156250000,152013.0312500000,,,
2.8479999953,22,150137.3125000000,147111.0000000000,168636.2187500000,108551.8828125000,137578.6718750000,165813.3593750000,156633.4687500000,151464.4375000000,,,
2.8519999953,22,150574.2968750000,147489.4375000000,169066.8437500000,108976.6093750000,138033.3593750000,166205.7031250000,157058.3593750000,151822.8125000000,,,
2.8559999953,22,151427.6250000000,148301.3906250000,169919.4687500000,109821.6718750000,138892.0468750000,167023.9687500000,157901.8593750000,152612.7812500000,,,
2.8599999954,22,151534.7187500000,148436.8125000000,170028.6875000000,109936.0937500000,138998.4218750000,167152.2031250000,158016.0156250000,152757.4531250000,,,
2.8639999954,22,150714.3437500000,147674.7812500000,169216.4062500000,109124.9375000000,138166.1562500000,166380.6406250000,157211.3437500000,152019.4218750000,,,
2.8679999954,22,150147.7500000000,147104.9687500000,168643.4531250000,108554.7265625000,137601.6562500000,165814.9687500000,156647.8125000000,151462.6406250000,,,
2.8719999953,22,150587.5468750000,147482.1718750000,169072.5625000000,108973.4453125000,138051.1250000000,166206.6250000000,157072.9218750000,151818.1406250000,,,
2.8759999953,22,151442.9843750000,148299.0156250000,169925.5000000000,109819.2812500000,138911.1718750000,167028.0468750000,157915.3125000000,152605.1875000000,,,
2.8799999952,22,151546.0937500000,148436.7656250000,170043.0156250000,109939.9843750000,139010.4843750000,167155.5781250000,158026.5312500000,152748.1718750000,,,
2.8839999954,22,150720.1875000000,147676.8906250000,169224.5937500000,109133.4921875000,138186.4062500000,166382.5781250000,157219.4218750000,152017.9218750000,,,
2.8879999954,22,150148.9531250000,147111.7812500000,168648.2812500000,108552.5312500000,137610.3437500000,165817.8125000000,156649.1250000000,151464.5781250000,,,
2.8919999953,22,150574.0312500000,147477.0156250000,169062.9062500000,108958.3984375000,138032.8281250000,166198.4843750000,157058.9375000000,151807.6875000000,,,
2.8959999953,22,151430.9218750000,148291.6093750000,169912.5468750000,109801.1484375000,138893.0156250000,167021.1718750000,157900.7031250000,152589.1250000000,,,
2.8999999953,22,151548.1093750000,148445.1562500000,170030.9375000000,109926.2500000000,139005.4531250000,167162.9843750000,158019.5000000000,152752.9218750000,,,
2.9039999954,22,150730.1406250000,147694.4062500000,169212.5781250000,109127.5703125000,138172.4062500000,166398.0000000000,157215.5625000000,152033.7500000000,,,
2.9079999954,22,150140.5000000000,147109.3750000000,168623.7656250000,108540.7265625000,137584.0156250000,165814.2187500000,156630.8281250000,151459.9375000000,,,
2.9119999954,22,150561.4218750000,147470.7968750000,169039.3750000000,108947.1328125000,138006.4062500000,166188.1875000000,157038.3750000000,151796.6562500000,,,
2.9159999953,22,151414.7187500000,148285.9531250000,169895.7343750000,109790.2578125000,138860.9843750000,167007.5000000000,157879.6250000000,152584.1406250000,,,
2.9199999953,22,151538.0468750000,148447.4687500000,170020.3906250000,109925.5234375000,138988.6250000000,167156.3281250000,158009.7656250000,152758.5625000000,,,
2.9239999952,22,150724.8593750000,147699.4062500000,169209.7500000000,109136.2265625000,138174.1250000000,166393.7343750000,157212.3125000000,152045.2968750000,,,
2.9279999954,22,150123.5781250000,147104.4531250000,168612.1250000000,108539.3828125000,137575.3437500000,165801.7968750000,156614.6406250000,151462.6406250000,,,
2.9319999954,22,150540.5781250000,147463.8437500000,169030.7968750000,108941.8750000000,138005.6562500000,166174.9687500000,157019.4375000000,151796.5625000000,,,
2.9359999953,22,151409.7343750000,148288.7031250000,169888.5468750000,109798.8984375000,138876.4062500000,167009.5937500000,157873.8281250000,152597.0937500000,,,
2.9399999953,22,151531.7968750000,148440.1406250000,170007.5312500000,109930.6171875000,138990.2187500000,167155.2656250000,157998.5781250000,152757.8125000000,,,
2.9439999952,23,150725.6875000000,147699.7031250000,169210.4843750000,109141.3515625000,138185.7187500000,166398.7500000000,157207.6718750000,152045.4375000000,,,
