Time:250Hz,Epoch,Channel 1,Channel 2,Channel 3,Channel 4,Channel 5,Channel 6,Channel 7,Channel 8,Event Id,Event Date,Event Duration
0.0000000000,0,180551.1250000000,163333.6562500000,194204.0781250000,179542.2343750000,168113.7812500000,139413.9687500000,162529.5781250000,142317.4375000000,,,
0.0040000000,0,180532.6406250000,163321.2812500000,194187.7187500000,179519.8125000000,168099.0000000000,139412.6093750000,162518.8437500000,142252.0468750000,,,
0.0079999999,0,180520.1250000000,163314.1562500000,194168.0625000000,179518.7656250000,168080.0312500000,139386.4531250000,162510.3437500000,142861.2812500000,,,
0.0119999999,0,180528.2968750000,163318.0937500000,194167.6250000000,179555.1718750000,168081.2656250000,139390.8281250000,162508.2812500000,143287.2187500000,,,
0.0159999998,0,180593.9687500000,163370.6718750000,194244.6406250000,179625.7968750000,168152.9843750000,139443.7968750000,162567.2968750000,142928.1250000000,,,
0.0199999998,0,180623.3906250000,163400.3281250000,194281.2968750000,179638.6406250000,168188.7187500000,139478.9375000000,162597.9218750000,142258.5625000000,,,
0.0240000000,0,180567.4375000000,163354.5156250000,194214.5937500000,179562.9218750000,168126.8906250000,139438.2968750000,162552.4375000000,142182.6562500000,,,
0.0279999999,0,180508.0000000000,163297.4062500000,194145.2656250000,179487.9843750000,168060.1093750000,139381.3593750000,162488.8593750000,142766.9843750000,,,
0.0319999999,0,180515.3281250000,163300.5781250000,194147.0312500000,179508.4218750000,168060.3437500000,139381.4062500000,162485.0000000000,143177.6718750000,,,
0.0359999998,0,180578.7031250000,163351.8125000000,194218.1875000000,179598.8125000000,168126.6250000000,139432.3281250000,162557.9218750000,142818.8281250000,,,
0.0399999998,0,180603.1093750000,163377.7656250000,194251.8281250000,179617.3125000000,168159.8593750000,139462.0625000000,162600.6093750000,142157.5000000000,,,
0.0440000000,0,180565.8750000000,163350.6875000000,194214.0312500000,179564.4218750000,168128.8281250000,139437.7656250000,162569.5468750000,142093.7656250000,,,
0.0480000000,0,180509.2031250000,163300.6562500000,194148.6718750000,179489.5156250000,168066.0625000000,139384.9531250000,162499.1562500000,142669.9687500000,,,
0.0519999999,0,180503.4687500000,163289.7187500000,194139.4687500000,179493.1250000000,168053.4062500000,139378.6250000000,162477.9687500000,143085.1093750000,,,
0.0559999999,0,180552.9531250000,163331.0156250000,194194.3437500000,179569.7031250000,168101.5468750000,139411.5625000000,162531.1093750000,142749.3593750000,,,
0.0599999998,0,180581.1406250000,163358.8593750000,194230.7968750000,179594.6718750000,168136.1250000000,139442.7812500000,162571.2031250000,142100.2812500000,,,
0.0639999998,0,180546.5156250000,163335.7968750000,194195.6875000000,179526.0937500000,168105.5468750000,139425.4843750000,162536.1250000000,141975.4375000000,,,
0.0680000000,0,180505.1250000000,163304.1250000000,194146.0625000000,179465.9375000000,168058.2812500000,139392.5781250000,162487.5468750000,142546.2031250000,,,
0.0719999999,0,180519.0781250000,163313.3750000000,194155.6718750000,179523.8906250000,168061.9531250000,139394.2031250000,162492.3281250000,142960.1250000000,,,
0.0759999999,0,180560.7343750000,163346.8750000000,194198.8750000000,179580.0937500000,168102.6250000000,139434.1406250000,162533.5156250000,142675.9687500000,,,
0.0799999998,0,180577.4062500000,163361.9687500000,194221.9218750000,179564.5781250000,168127.8593750000,139463.2968750000,162563.5625000000,142115.6250000000,,,
0.0839999998,0,180560.5625000000,163348.4531250000,194209.8281250000,179527.4062500000,168115.4687500000,139447.2031250000,162564.9218750000,142068.2343750000,,,
0.0880000000,0,180534.5312500000,163329.8906250000,194172.2656250000,179519.0625000000,168082.1562500000,139416.8437500000,162533.2812500000,142716.8437500000,,,
0.0919999999,0,180542.9687500000,163330.4062500000,194177.9843750000,179529.4687500000,168085.1875000000,139416.0937500000,162522.7968750000,143223.0625000000,,,
0.0959999999,0,180580.1562500000,163359.3125000000,194223.5000000000,179557.7187500000,168124.6093750000,139449.3750000000,162560.4218750000,142958.7812500000,,,
0.0999999999,0,180593.3125000000,163373.0312500000,194243.8593750000,179555.4687500000,168146.4687500000,139472.6406250000,162599.2656250000,142360.4843750000,,,
0.1039999998,0,180557.0625000000,163344.2968750000,194204.3281250000,179518.4843750000,168112.1093750000,139442.2500000000,162564.0468750000,142313.3906250000,,,
0.1079999998,0,180519.0156250000,163309.5937500000,194162.2968750000,179487.5781250000,168071.5781250000,139392.7031250000,162516.2968750000,142956.6093750000,,,
0.1120000000,0,180540.2343750000,163323.3281250000,194184.0156250000,179509.7812500000,168092.1093750000,139404.2968750000,162541.5625000000,143475.0000000000,,,
0.1159999999,0,180575.4843750000,163352.6406250000,194222.0781250000,179552.4375000000,168128.3437500000,139439.5937500000,162584.8906250000,143228.5000000000,,,
0.1199999999,0,180577.9218750000,163354.2031250000,194233.8750000000,179538.8906250000,168139.6406250000,139444.5312500000,162600.0468750000,142660.5781250000,,,
0.1239999998,0,180556.3906250000,163339.9531250000,194206.6093750000,179524.9687500000,168116.4375000000,139431.3281250000,162571.6562500000,142594.8593750000,,,
0.1279999998,1,180542.0625000000,163331.2031250000,194183.9687500000,179517.6718750000,168097.7031250000,139414.5625000000,162552.9375000000,143194.3906250000,,,
0.1319999998,1,180566.2500000000,163348.9062500000,194204.4843750000,179554.6406250000,168117.6875000000,139428.4843750000,162573.0312500000,143663.8593750000,,,
0.1359999997,1,180604.3125000000,163375.1718750000,194251.1875000000,179601.1093750000,168162.0625000000,139460.7031250000,162623.3281250000,143400.5468750000,,,
0.1399999997,1,180615.6406250000,163386.0937500000,194267.5468750000,179631.6718750000,168179.4687500000,139474.9375000000,162637.6093750000,142811.2031250000,,,
0.1439999996,1,180585.8906250000,163368.0312500000,194235.1718750000,179571.7968750000,168147.7656250000,139456.0000000000,162606.5312500000,142716.0937500000,,,
0.1479999996,1,180560.5468750000,163351.3281250000,194202.1562500000,179522.3906250000,168114.6406250000,139436.4218750000,162578.6875000000,143303.9843750000,,,
0.1519999998,1,180572.2968750000,163356.2343750000,194209.4218750000,179589.2812500000,168120.9062500000,139438.4375000000,162591.0000000000,143760.4375000000,,,
0.1559999997,1,180607.3437500000,163384.4531250000,194254.3750000000,179612.4843750000,168164.5781250000,139470.8125000000,162644.1093750000,143461.5625000000,,,
0.1599999997,1,180608.9218750000,163382.9218750000,194267.7656250000,179564.8750000000,168179.4375000000,139481.5468750000,162663.3906250000,142854.5468750000,,,
0.1639999996,1,180580.1562500000,163358.0312500000,194240.9843750000,179515.9531250000,168155.7187500000,139466.0937500000,162639.0156250000,142740.3125000000,,,
0.1679999996,1,180547.1250000000,163335.3593750000,194194.8906250000,179501.6562500000,168111.8750000000,139433.8281250000,162589.8125000000,143324.4687500000,,,
0.1719999998,1,180562.0937500000,163346.3593750000,194203.9687500000,179528.2968750000,168119.9687500000,139436.0156250000,162594.6718750000,143793.0000000000,,,
0.1759999997,1,180599.4843750000,163370.3125000000,194247.3281250000,179572.2812500000,168159.5156250000,139465.6093750000,162639.0625000000,143522.5000000000,,,
0.1799999997,1,180621.2187500000,163390.7031250000,194273.7656250000,179585.7968750000,168184.3125000000,139490.4218750000,162668.8437500000,142900.3593750000,,,
0.1839999997,1,180594.0156250000,163372.9375000000,194246.1718750000,179540.3125000000,168158.3593750000,139474.2500000000,162647.1093750000,142732.0000000000,,,
0.1879999996,1,180561.0468750000,163350.2812500000,194205.9375000000,179503.0312500000,168119.1406250000,139448.0468750000,162606.3906250000,143212.0312500000,,,
0.1919999996,1,180584.3281250000,163371.7656250000,194226.7187500000,179537.3281250000,168135.9375000000,139464.7968750000,162618.3906250000,143629.9531250000,,,
0.1959999998,1,180612.8437500000,163384.7187500000,194261.8906250000,179581.3750000000,168169.7812500000,139486.3125000000,162654.7812500000,143371.5468750000,,,
0.1999999997,1,180635.1562500000,163399.9062500000,194294.6875000000,179603.8281250000,168203.0937500000,139503.4062500000,162696.3281250000,142763.3593750000,,,
0.2039999997,1,180606.6562500000,163379.4062500000,194262.0937500000,179567.3750000000,168173.5312500000,139486.3125000000,162665.7812500000,142640.9218750000,,,
0.2079999996,1,180553.5625000000,163335.1718750000,194196.2187500000,179519.9843750000,168108.8125000000,139436.9375000000,162591.7031250000,143205.8750000000,,,
0.2119999996,1,180579.7187500000,163359.5937500000,194220.9062500000,179560.4218750000,168130.2500000000,139456.9218750000,162615.0625000000,143654.7343750000,,,
0.2159999998,1,180627.4687500000,163399.4687500000,194275.7187500000,179607.1250000000,168184.0312500000,139503.1250000000,162680.7500000000,143372.3593750000,,,
0.2199999997,1,180643.0156250000,163415.7031250000,194298.8750000000,179611.7031250000,168207.0156250000,139524.3281250000,162702.9218750000,142747.4218750000,,,
0.2239999997,1,180585.2187500000,163369.7031250000,194238.7656250000,179544.3125000000,168149.9531250000,139479.6562500000,162645.7968750000,142671.2500000000,,,
0.2279999997,1,180560.7031250000,163347.5156250000,194207.4843750000,179514.0781250000,168120.9375000000,139458.6406250000,162614.3906250000,143236.4531250000,,,
0.2319999996,1,180590.4218750000,163372.4687500000,194235.5781250000,179541.8906250000,168151.0625000000,139479.7187500000,162651.1406250000,143627.7812500000,,,
0.2359999996,1,180636.2656250000,163410.0625000000,194288.6875000000,179592.9375000000,168203.8750000000,139520.7343750000,162710.8125000000,143321.3593750000,,,
0.2399999998,1,180638.0781250000,163413.2812500000,194297.3437500000,179593.6875000000,168212.7187500000,139539.9062500000,162725.3281250000,142710.3281250000,,,
0.2439999997,1,180609.3281250000,163395.4531250000,194266.4687500000,179571.3437500000,168183.9375000000,139538.5937500000,162700.8906250000,142601.8281250000,,,
0.2479999997,1,180591.3281250000,163380.8281250000,194242.4375000000,179547.5000000000,168160.7968750000,139523.5937500000,162677.9843750000,143124.6562500000,,,
0.2519999996,1,180591.4687500000,163373.9843750000,194241.9531250000,179545.1718750000,168159.6406250000,139509.7812500000,162685.0312500000,143547.3125000000,,,
0.2559999996,2,180632.2343750000,163408.1093750000,194289.2187500000,179581.8906250000,168203.3281250000,139540.0312500000,162730.4531250000,143280.5156250000,,,
0.2599999995,2,180642.3437500000,163416.1875000000,194303.5625000000,179591.2500000000,168216.6406250000,139552.5312500000,162747.9843750000,142659.7656250000,,,
0.2639999995,2,180627.3593750000,163403.5468750000,194286.9843750000,179583.3593750000,168200.2968750000,139546.0468750000,162737.7500000000,142503.0156250000,,,
0.2679999995,2,180621.3437500000,163404.8125000000,194278.6250000000,179583.1250000000,168190.2187500000,139535.0781250000,162727.5781250000,143033.5156250000,,,
0.2719999994,2,180631.5625000000,163412.4843750000,194289.4062500000,179595.0468750000,168203.0468750000,139542.4531250000,162743.1562500000,143470.5468750000,,,
0.2759999994,2,180665.4375000000,163436.4062500000,194327.1718750000,179631.9375000000,168241.0468750000,139572.5937500000,162776.1875000000,143185.5312500000,,,
0.2799999996,2,180667.0000000000,163439.0000000000,194332.9375000000,179626.7031250000,168249.0156250000,139580.3593750000,162795.5937500000,142534.7812500000,,,
0.2839999995,2,180627.5937500000,163411.1406250000,194292.8593750000,179575.5000000000,168213.5781250000,139556.4531250000,162773.9218750000,142353.6250000000,,,
0.2879999995,2,180603.9062500000,163390.4062500000,194260.1718750000,179567.4218750000,168183.1406250000,139531.2187500000,162739.2187500000,142882.0156250000,,,
0.2919999994,2,180635.5937500000,163415.3750000000,194290.7656250000,179609.2187500000,168210.9531250000,139542.4531250000,162757.9687500000,143335.9218750000,,,
0.2959999994,2,180664.6093750000,163440.1406250000,194321.3281250000,179618.4218750000,168242.8125000000,139573.1718750000,162801.9843750000,143108.3750000000,,,
0.2999999996,2,180669.2812500000,163442.8437500000,194333.3125000000,179614.0781250000,168254.8906250000,139583.8906250000,162821.7031250000,142494.2031250000,,,
0.3039999995,2,180639.2656250000,163417.7343750000,194309.1406250000,179549.2656250000,168228.7343750000,139561.0937500000,162788.5468750000,142309.9531250000,,,
0.3079999995,2,180626.5781250000,163419.0781250000,194289.7500000000,179520.2968750000,168213.4218750000,139552.8906250000,162772.1875000000,142808.4375000000,,,
0.3119999995,2,180631.0000000000,163410.5781250000,194288.4375000000,179568.6562500000,168214.1250000000,139539.8437500000,162767.0000000000,143271.5000000000,,,
0.3159999994,2,180652.8437500000,163418.8125000000,194315.3125000000,179598.7031250000,168236.7500000000,139555.4375000000,162788.8125000000,143058.4531250000,,,
0.3199999994,2,180639.4062500000,163407.9531250000,194307.5156250000,179567.8906250000,168228.7031250000,139560.1093750000,162791.9218750000,142438.2500000000,,,
0.3239999996,2,180616.7031250000,163392.3906250000,194283.9843750000,179551.3281250000,168206.0468750000,139540.2812500000,162777.4062500000,142255.3750000000,,,
0.3279999995,2,180605.0468750000,163385.0625000000,194266.2343750000,179541.9531250000,168184.6718750000,139521.3906250000,162755.6093750000,142771.8906250000,,,
0.3319999995,2,180612.9531250000,163385.8750000000,194271.8593750000,179555.9531250000,168185.5000000000,139509.7500000000,162750.6250000000,143297.0937500000,,,
0.3359999994,2,180649.0000000000,163416.7968750000,194312.0937500000,179586.3437500000,168221.0312500000,139543.9062500000,162778.5625000000,143123.9843750000,,,
0.3399999994,2,180649.7500000000,163418.5468750000,194318.6093750000,179589.4218750000,168226.5937500000,139552.5625000000,162774.1093750000,142572.2812500000,,,
0.3439999996,2,180624.7812500000,163404.0625000000,194294.1250000000,179559.5468750000,168204.2500000000,139536.6093750000,162740.7968750000,142468.0781250000,,,
0.3479999995,2,180573.7656250000,163364.8125000000,194229.2968750000,179530.4375000000,168143.8125000000,139490.4218750000,162668.7343750000,143027.3125000000,,,
0.3519999995,2,180582.6718750000,163367.5468750000,194232.4687500000,179559.5156250000,168147.3281250000,139493.7500000000,162669.4531250000,143511.0156250000,,,
0.3559999994,2,180612.6875000000,163390.9218750000,194263.1406250000,179588.3281250000,168176.8281250000,139519.5781250000,162704.2656250000,143320.7500000000,,,
0.3599999994,2,180625.2343750000,163404.1875000000,194282.2187500000,179605.6250000000,168193.6562500000,139532.8437500000,162722.9375000000,142730.4531250000,,,
0.3639999994,2,180601.8750000000,163391.3750000000,194258.7812500000,179571.7187500000,168172.6250000000,139514.8750000000,162691.1250000000,142553.6093750000,,,
0.3679999996,2,180566.3593750000,163357.8437500000,194220.0625000000,179516.1406250000,168136.6093750000,139472.0468750000,162651.1562500000,143094.9531250000,,,
0.3719999995,2,180579.0468750000,163359.1562500000,194231.0156250000,179542.2968750000,168143.2500000000,139467.9375000000,162667.5000000000,143607.1875000000,,,
0.3759999995,2,180598.4375000000,163374.0156250000,194252.5468750000,179566.6562500000,168163.2656250000,139497.1718750000,162689.5156250000,143443.7812500000,,,
0.3799999994,2,180612.6562500000,163391.6406250000,194268.6406250000,179572.7343750000,168179.6718750000,139522.9218750000,162705.6718750000,142899.1250000000,,,
0.3839999994,3,180591.8437500000,163378.2812500000,194246.6718750000,179552.4843750000,168158.1093750000,139507.3125000000,162680.5781250000,142752.7968750000,,,
0.3879999993,3,180581.6718750000,163375.3281250000,194228.0312500000,179582.9375000000,168135.4687500000,139481.2656250000,162644.5937500000,143303.3906250000,,,
0.3919999993,3,180549.3906250000,163336.4375000000,194193.7343750000,179533.3593750000,168100.5781250000,139441.8750000000,162604.2968750000,143799.0625000000,,,
0.3959999993,3,180523.9062500000,163293.8125000000,194176.2343750000,179519.0156250000,168080.4843750000,139406.5156250000,162588.9843750000,143594.2500000000,,,
0.3999999992,3,180536.9062500000,163302.9375000000,194200.6562500000,179505.6562500000,168103.7656250000,139419.7968750000,162609.7968750000,143035.9843750000,,,
0.4039999992,3,180612.6093750000,163386.3750000000,194279.4218750000,179536.2031250000,168181.9375000000,139509.2187500000,162672.3281250000,142891.0625000000,,,
0.4079999994,3,180627.5937500000,163411.6718750000,194283.8593750000,179535.9843750000,168185.2812500000,139526.7812500000,162669.3750000000,143465.0781250000,,,
0.4119999993,3,180616.4687500000,163397.8593750000,194266.7343750000,179559.3593750000,168165.4843750000,139497.9218750000,162655.9843750000,144020.2968750000,,,
0.4159999993,3,180602.2031250000,163369.2656250000,194257.1406250000,179566.2187500000,168153.5468750000,139465.6093750000,162646.3281250000,143836.4062500000,,,
0.4199999992,3,180583.7187500000,163340.1875000000,194248.1718750000,179538.0625000000,168144.4687500000,139437.8437500000,162638.2812500000,143216.0625000000,,,
0.4239999992,3,180580.7187500000,163349.0937500000,194234.0156250000,179528.5312500000,168139.7187500000,139449.0312500000,162625.1406250000,143017.5000000000,,,
0.4279999994,3,180594.0468750000,163372.4062500000,194241.7187500000,179539.9375000000,168149.9531250000,139472.2031250000,162617.0156250000,143550.6406250000,,,
0.4319999993,3,180611.3750000000,163390.5156250000,194255.6562500000,179563.9062500000,168162.1093750000,139485.4843750000,162639.7656250000,144088.0781250000,,,
0.4359999993,3,180609.4375000000,163373.4531250000,194263.5000000000,179592.4218750000,168165.1093750000,139465.2031250000,162648.3125000000,143887.0625000000,,,
0.4399999992,3,180610.0781250000,163371.1250000000,194274.8125000000,179590.2500000000,168176.9375000000,139476.5312500000,162651.8281250000,143259.8593750000,,,
0.4439999992,3,180553.1875000000,163327.6093750000,194209.5625000000,179577.2500000000,168116.0781250000,139438.7343750000,162570.2187500000,143091.0468750000,,,
0.4479999992,3,180481.5312500000,163264.9062500000,194131.3906250000,179488.1875000000,168038.4375000000,139374.3125000000,162525.2031250000,143632.6562500000,,,
0.4519999993,3,180544.8281250000,163329.0312500000,194190.6406250000,179533.0156250000,168094.2187500000,139436.9687500000,162591.4531250000,144161.2187500000,,,
0.4559999993,3,180595.2031250000,163370.3906250000,194241.7187500000,179576.5781250000,168146.2656250000,139496.7812500000,162659.1875000000,143998.6562500000,,,
0.4599999993,3,180564.1562500000,163334.8593750000,194215.7187500000,179550.8281250000,168121.4218750000,139476.9843750000,162651.2187500000,143388.0468750000,,,
0.4639999992,3,180494.6093750000,163272.4218750000,194145.2343750000,179473.1250000000,168054.8750000000,139419.2031250000,162565.4375000000,143208.4218750000,,,
0.4679999992,3,180515.6406250000,163304.3906250000,194167.1718750000,179497.0156250000,168072.8750000000,139433.7656250000,162580.7500000000,143740.7500000000,,,
0.4719999994,3,180579.5625000000,163370.5312500000,194235.7656250000,179532.9375000000,168135.0156250000,139482.7812500000,162651.1406250000,144248.5000000000,,,
0.4759999993,3,180567.6562500000,163344.5625000000,194230.1562500000,179548.4687500000,168132.5781250000,139471.9687500000,162654.7500000000,144031.3125000000,,,
0.4799999993,3,180561.0468750000,163337.0000000000,194223.2031250000,179537.2187500000,168129.5468750000,139472.1562500000,162656.5000000000,143371.1406250000,,,
0.4839999992,3,180535.5937500000,163327.1875000000,194195.0781250000,179506.0781250000,168100.9843750000,139463.7812500000,162620.9843750000,143168.5312500000,,,
0.4879999992,3,180516.3437500000,163311.5156250000,194182.0625000000,179488.0937500000,168084.4375000000,139443.8750000000,162604.4062500000,143682.8125000000,,,
0.4919999992,3,180530.2031250000,163316.8593750000,194188.9843750000,179507.2187500000,168090.4375000000,139443.9843750000,162602.5312500000,144170.5000000000,,,
0.4959999993,3,180577.5937500000,163347.2031250000,194247.0000000000,179542.7031250000,168141.2968750000,139470.1406250000,162651.4375000000,143969.5156250000,,,
0.4999999993,3,180616.8906250000,163390.4062500000,194289.9375000000,179565.0625000000,168185.4375000000,139525.2812500000,162710.1406250000,143358.0781250000,,,
0.5039999993,3,180596.8281250000,163389.1718750000,194251.9843750000,179539.2031250000,168153.2656250000,139530.5781250000,162678.0937500000,143170.2500000000,,,
0.5079999992,3,180529.7812500000,163322.2031250000,194178.8437500000,179504.3437500000,168082.6406250000,139470.1093750000,162603.7968750000,143699.1875000000,,,
0.5119999992,4,180535.9218750000,163326.9218750000,194182.2031250000,179515.0468750000,168085.5937500000,139476.8437500000,162610.0937500000,144225.4218750000,,,
0.5159999991,4,180563.8906250000,163345.4218750000,194214.3593750000,179557.6406250000,168117.1875000000,139501.6562500000,162647.1406250000,144026.4375000000,,,
0.5199999991,4,180580.6250000000,163358.4843750000,194241.8281250000,179565.3593750000,168145.1093750000,139518.5781250000,162682.9687500000,143427.9843750000,,,
0.5239999990,4,180573.6093750000,163357.4687500000,194238.4375000000,179557.1562500000,168143.5468750000,139516.7343750000,162689.3906250000,143219.5000000000,,,
0.5279999990,4,180552.5000000000,163342.9531250000,194213.6250000000,179538.4062500000,168119.1718750000,139496.2656250000,162665.3750000000,143740.7031250000,,,
0.5319999990,4,180539.3750000000,163330.4843750000,194194.3437500000,179543.3906250000,168097.8437500000,139489.7187500000,162643.5156250000,144304.9062500000,,,
0.5359999991,4,180584.6875000000,163373.5312500000,194247.9843750000,179548.9531250000,168149.2812500000,139544.1718750000,162699.3593750000,144188.2343750000,,,
0.5399999991,4,180593.7812500000,163389.7343750000,194254.5937500000,179549.0781250000,168158.0000000000,139559.6250000000,162704.0781250000,143634.1406250000,,,
0.5439999991,4,180566.0625000000,163367.6093750000,194225.2187500000,179556.7812500000,168131.1562500000,139556.2656250000,162681.8750000000,143443.2187500000,,,
0.5479999990,4,180531.9218750000,163335.3437500000,194182.8906250000,179532.1250000000,168095.5625000000,139539.2656250000,162657.3593750000,143961.8437500000,,,
0.5519999990,4,180538.2812500000,163329.5937500000,194191.0000000000,179529.6093750000,168105.4375000000,139533.6093750000,162670.9375000000,144477.3125000000,,,
0.5559999992,4,180580.7656250000,163365.5625000000,194239.5625000000,179569.0625000000,168152.3437500000,139566.8281250000,162714.7500000000,144324.7031250000,,,
0.5599999991,4,180602.9218750000,163387.7812500000,194267.8125000000,179576.2500000000,168182.4687500000,139598.8593750000,162745.2343750000,143764.6875000000,,,
0.5639999991,4,180595.3906250000,163389.9531250000,194260.5937500000,179542.5625000000,168179.5937500000,139607.1250000000,162748.3125000000,143572.8281250000,,,
0.5679999990,4,180589.2656250000,163387.7968750000,194254.5312500000,179527.5937500000,168172.4062500000,139596.9531250000,162735.9687500000,144066.5937500000,,,
0.5719999990,4,180613.1093750000,163408.9375000000,194276.8281250000,179555.5937500000,168190.3593750000,139608.0312500000,162744.6875000000,144575.6718750000,,,
0.5759999990,4,180625.3437500000,163418.1718750000,194284.6875000000,179577.7343750000,168201.7187500000,139618.8750000000,162760.9687500000,144434.1875000000,,,
0.5799999991,4,180636.7187500000,163424.8750000000,194301.7187500000,179584.5625000000,168218.5781250000,139637.6250000000,162790.7500000000,143877.5000000000,,,
0.5839999991,4,180624.2500000000,163416.6406250000,194291.0937500000,179570.3281250000,168208.0000000000,139639.0937500000,162783.6093750000,143677.5937500000,,,
0.5879999991,4,180607.7500000000,163405.1875000000,194268.2343750000,179574.5937500000,168183.2187500000,139615.6718750000,162748.6562500000,144141.2343750000,,,
0.5919999990,4,180615.1250000000,163408.7187500000,194272.7812500000,179573.1875000000,168184.7968750000,139609.5156250000,162746.6562500000,144663.7031250000,,,
0.5959999990,4,180614.7812500000,163401.2187500000,194272.9062500000,179555.4843750000,168184.6718750000,139606.2968750000,162747.9062500000,144561.0000000000,,,
0.5999999992,4,180620.0000000000,163402.5625000000,194284.4218750000,179539.5937500000,168197.4843750000,139618.3281250000,162764.6250000000,144006.8281250000,,,
0.6039999991,4,180617.8125000000,163406.2031250000,194284.8125000000,179535.9375000000,168198.3750000000,139620.1093750000,162763.5468750000,143752.6875000000,,,
0.6079999991,4,180596.0000000000,163388.0156250000,194258.5781250000,179534.0000000000,168171.8437500000,139597.6250000000,162730.2812500000,144186.4375000000,,,
0.6119999990,4,180608.9062500000,163404.8437500000,194258.9687500000,179571.9843750000,168173.9687500000,139610.4531250000,162724.9531250000,144668.6718750000,,,
0.6159999990,4,180639.5312500000,163434.0156250000,194290.2031250000,179604.2812500000,168202.6406250000,139641.0312500000,162745.3593750000,144526.7500000000,,,
0.6199999989,4,180643.9375000000,163435.2187500000,194298.8750000000,179596.1562500000,168212.0468750000,139639.6093750000,162756.2031250000,143952.0781250000,,,
0.6239999991,4,180606.7031250000,163405.2968750000,194264.2968750000,179556.6718750000,168180.0468750000,139610.6093750000,162725.4375000000,143708.6250000000,,,
0.6279999991,4,180591.7968750000,163396.4687500000,194242.6875000000,179548.2031250000,168159.4531250000,139594.2187500000,162704.1562500000,144122.0625000000,,,
0.6319999991,4,180593.1093750000,163395.7187500000,194236.2500000000,179570.8125000000,168151.6250000000,139587.4375000000,162690.3281250000,144611.2343750000,,,
0.6359999990,4,180624.7343750000,163418.6718750000,194268.7187500000,179601.8437500000,168183.2500000000,139616.0468750000,162714.5937500000,144461.5937500000,,,
0.6399999990,5,180624.9218750000,163417.5156250000,194278.4375000000,179577.6718750000,168191.9062500000,139624.0156250000,162720.1562500000,143875.5625000000,,,
0.6439999989,5,180597.0781250000,163394.4843750000,194254.1406250000,179541.7031250000,168167.0937500000,139592.5312500000,162695.0156250000,143635.9062500000,,,
0.6479999989,5,180582.7812500000,163383.5625000000,194235.9687500000,179534.3593750000,168147.8125000000,139566.7812500000,162672.2187500000,144062.4843750000,,,
0.6519999988,5,180599.0625000000,163394.9687500000,194249.5156250000,179557.6406250000,168159.1250000000,139571.8750000000,162683.0000000000,144563.6875000000,,,
0.6559999988,5,180629.8281250000,163419.0312500000,194284.3906250000,179591.3750000000,168193.2031250000,139602.7968750000,162718.6718750000,144452.9062500000,,,
0.6599999988,5,180636.9375000000,163424.4375000000,194300.2656250000,179598.6718750000,168210.2812500000,139613.0000000000,162741.2812500000,143906.7812500000,,,
0.6639999989,5,180603.3750000000,163400.5468750000,194269.3750000000,179553.2343750000,168181.1250000000,139588.9375000000,162708.7187500000,143665.9687500000,,,
0.6679999989,5,180568.8281250000,163376.0781250000,194227.5468750000,179515.5312500000,168141.6406250000,139560.5781250000,162666.5000000000,144076.1093750000,,,
0.6719999989,5,180582.8593750000,163387.6718750000,194236.3281250000,179534.8593750000,168151.5468750000,139566.1875000000,162681.0625000000,144566.2656250000,,,
0.6759999988,5,180631.8906250000,163425.8437500000,194295.4375000000,179581.0312500000,168208.8593750000,139603.3906250000,162741.5000000000,144443.2812500000,,,
0.6799999988,5,180637.7968750000,163430.4843750000,194308.7500000000,179594.4375000000,168221.5781250000,139611.2187500000,162757.1562500000,143879.9687500000,,,
0.6839999990,5,180604.2968750000,163407.0312500000,194271.8906250000,179561.3437500000,168185.7656250000,139590.1093750000,162717.6875000000,143634.1406250000,,,
0.6879999989,5,180588.2187500000,163394.1406250000,194251.4843750000,179550.6875000000,168164.2812500000,139563.1406250000,162697.6250000000,144057.1250000000,,,
0.6919999989,5,180603.0000000000,163404.3281250000,194262.6406250000,179579.1718750000,168174.4531250000,139569.9218750000,162713.9218750000,144534.7187500000,,,
0.6959999988,5,180632.2656250000,163425.1093750000,194290.8281250000,179610.5312500000,168202.2968750000,139597.9531250000,162743.2500000000,144405.3593750000,,,
0.6999999988,5,180645.5468750000,163435.3281250000,194310.3281250000,179614.6875000000,168223.7812500000,139618.1718750000,162772.5781250000,143815.9843750000,,,
0.7039999987,5,180626.3437500000,163425.8437500000,194291.2812500000,179583.2031250000,168207.3281250000,139616.7968750000,162760.0000000000,143540.6562500000,,,
0.7079999989,5,180615.8437500000,163422.4843750000,194276.5312500000,179578.3750000000,168193.1406250000,139610.6406250000,162741.9218750000,143935.4218750000,,,
0.7119999989,5,180627.6250000000,163429.4062500000,194285.1875000000,179588.8593750000,168201.3437500000,139607.2031250000,162747.2343750000,144370.7812500000,,,
0.7159999989,5,180664.0000000000,163457.6250000000,194321.4375000000,179626.3750000000,168237.9375000000,139647.1718750000,162786.2656250000,144209.6093750000,,,
0.7199999988,5,180656.1562500000,163451.6093750000,194318.3437500000,179602.6406250000,168236.0000000000,139655.0312500000,162784.2031250000,143646.9531250000,,,
0.7239999988,5,180624.4843750000,163426.3281250000,194290.5000000000,179560.7812500000,168209.6093750000,139625.4062500000,162762.6875000000,143392.6093750000,,,
0.7279999990,5,180627.3906250000,163432.0625000000,194288.3593750000,179574.6093750000,168207.8750000000,139629.8906250000,162765.9375000000,143721.0937500000,,,
0.7319999989,5,180626.0625000000,163428.1406250000,194280.3906250000,179582.4531250000,168201.2968750000,139629.4687500000,162758.6875000000,144147.6250000000,,,
0.7359999989,5,180662.1718750000,163455.7968750000,194318.5312500000,179621.5000000000,168237.9843750000,139649.0468750000,162796.3750000000,144018.7343750000,,,
0.7399999988,5,180666.2812500000,163458.9687500000,194328.9687500000,179627.9062500000,168247.4843750000,139655.6406250000,162807.9062500000,143456.0312500000,,,
0.7439999988,5,180628.9062500000,163429.7812500000,194295.2812500000,179580.6718750000,168216.9843750000,139630.7187500000,162763.5468750000,143158.1250000000,,,
0.7479999987,5,180620.8593750000,163427.1250000000,194284.8125000000,179578.1875000000,168206.7968750000,139619.4531250000,162760.3281250000,143480.1718750000,,,
0.7519999989,5,180635.1093750000,163440.8281250000,194293.0468750000,179609.0000000000,168212.7187500000,139627.7968750000,162786.0781250000,143889.8593750000,,,
0.7559999989,5,180652.1718750000,163453.1718750000,194311.1562500000,179625.5000000000,168226.3281250000,139641.4843750000,162801.3593750000,143741.2968750000,,,
0.7599999988,5,180636.9062500000,163432.5937500000,194305.8125000000,179609.3281250000,168218.9531250000,139615.8906250000,162788.4687500000,143185.9062500000,,,
0.7639999988,5,180607.1562500000,163409.7968750000,194279.3437500000,179573.5468750000,168194.5937500000,139596.8437500000,162743.6718750000,142891.1718750000,,,
0.7679999988,6,180601.6406250000,163410.5000000000,194269.9375000000,179570.3281250000,168185.2343750000,139597.1718750000,162727.0625000000,143202.2968750000,,,
0.7719999987,6,180622.6562500000,163428.3281250000,194281.2812500000,179596.3125000000,168194.1406250000,139609.2343750000,162754.9687500000,143610.1562500000,,,
0.7759999987,6,180652.5937500000,163451.0781250000,194312.4218750000,179628.8750000000,168222.2187500000,139621.9843750000,162793.9062500000,143497.4531250000,,,
0.7799999986,6,180652.2812500000,163447.9375000000,194318.1562500000,179623.7812500000,168227.1875000000,139619.8281250000,162791.0468750000,142890.8750000000,,,
0.7839999986,6,180627.0312500000,163429.0000000000,194295.2500000000,179583.6562500000,168206.4218750000,139597.3593750000,162757.3750000000,142542.6093750000,,,
0.7879999985,6,180596.0000000000,163400.2968750000,194260.7812500000,179536.5312500000,168174.5625000000,139553.9843750000,162726.7968750000,142865.1718750000,,,
0.7919999987,6,180617.2187500000,163419.7968750000,194276.5781250000,179563.2187500000,168187.0781250000,139569.4375000000,162732.5937500000,143314.3125000000,,,
0.7959999987,6,180663.9218750000,163459.2031250000,194326.1562500000,179624.0468750000,168235.5781250000,139628.5000000000,162780.1250000000,143220.4375000000,,,
0.7999999986,6,180673.6562500000,163468.8906250000,194343.4531250000,179614.1250000000,168251.9843750000,139625.4687500000,162793.2187500000,142689.8125000000,,,
0.8039999986,6,180647.6875000000,163443.6250000000,194325.2968750000,179581.3437500000,168230.9687500000,139581.1250000000,162770.4687500000,142376.9843750000,,,
0.8079999986,6,180617.7500000000,163419.6406250000,194284.4687500000,179565.5781250000,168190.5156250000,139554.5781250000,162724.7656250000,142681.8437500000,,,
0.8119999988,6,180628.7968750000,163435.7812500000,194281.9218750000,179592.4218750000,168189.8437500000,139564.7343750000,162723.6406250000,143077.3437500000,,,
0.8159999987,6,180665.8125000000,163461.2500000000,194327.4375000000,179630.4375000000,168230.2968750000,139594.7031250000,162765.8750000000,142921.9843750000,,,
0.8199999987,6,180674.6406250000,163464.8125000000,194342.8125000000,179636.4375000000,168242.6250000000,139599.3437500000,162767.0000000000,142345.2812500000,,,
0.8239999986,6,180650.5312500000,163439.1093750000,194325.2968750000,179610.7656250000,168227.3125000000,139575.0625000000,162743.0312500000,141982.9375000000,,,
0.8279999986,6,180627.2500000000,163423.3437500000,194297.6718750000,179594.2500000000,168202.5781250000,139548.9375000000,162716.3593750000,142247.7812500000,,,
0.8319999985,6,180625.6875000000,163417.2500000000,194289.6250000000,179607.8281250000,168192.5781250000,139538.0468750000,162705.2343750000,142676.9843750000,,,
0.8359999987,6,180661.1718750000,163439.9687500000,194323.2812500000,179653.8750000000,168221.5468750000,139549.8750000000,162730.7187500000,142561.7031250000,,,
0.8399999987,6,180686.4375000000,163465.1250000000,194354.7500000000,179676.4531250000,168251.4843750000,139583.2812500000,162754.4843750000,141962.6406250000,,,
0.8439999986,6,180673.2968750000,163462.2656250000,194347.7968750000,179644.2187500000,168245.4531250000,139577.0000000000,162750.6406250000,141589.2968750000,,,
0.8479999986,6,180655.4687500000,163456.0156250000,194317.9375000000,179621.2343750000,168219.6718750000,139573.1875000000,162725.6718750000,141829.2031250000,,,
0.8519999986,6,180632.1250000000,163419.9375000000,194290.7187500000,179593.1718750000,168193.5468750000,139540.5000000000,162702.0781250000,142255.4218750000,,,
0.8559999987,6,180644.3281250000,163419.6718750000,194307.1875000000,179594.0625000000,168207.9531250000,139542.5625000000,162706.8437500000,142193.5468750000,,,
0.8599999987,6,180660.9843750000,163432.8906250000,194332.2656250000,179595.0468750000,168232.4375000000,139555.7031250000,162729.4531250000,141647.8593750000,,,
0.8639999987,6,180630.0312500000,163411.0781250000,194303.3593750000,179557.9375000000,168205.2187500000,139533.0312500000,162702.8437500000,141339.9062500000,,,
0.8679999986,6,180611.7656250000,163399.6875000000,194282.2500000000,179549.3437500000,168184.4218750000,139515.5468750000,162677.5781250000,141629.9375000000,,,
0.8719999986,6,180615.4218750000,163404.3281250000,194280.1250000000,179572.9843750000,168182.8125000000,139513.6250000000,162672.0625000000,142022.9843750000,,,
0.8759999985,6,180642.2656250000,163427.3906250000,194306.6562500000,179604.8437500000,168209.6093750000,139547.2500000000,162698.0937500000,141952.7968750000,,,
0.8799999987,6,180655.0156250000,163433.6093750000,194324.2968750000,179615.8750000000,168227.0468750000,139543.3593750000,162720.9062500000,141441.8593750000,,,
0.8839999987,6,180631.5156250000,163412.4062500000,194302.7031250000,179595.5156250000,168204.5468750000,139509.2500000000,162699.4375000000,141101.8125000000,,,
0.8879999986,6,180603.3281250000,163394.3281250000,194267.1093750000,179574.0000000000,168168.8906250000,139494.6562500000,162663.7656250000,141410.7187500000,,,
0.8919999986,6,180609.8125000000,163403.5468750000,194269.5625000000,179585.7500000000,168170.0000000000,139497.6406250000,162665.2656250000,141860.2031250000,,,
0.8959999986,7,180622.4687500000,163406.4531250000,194285.9218750000,179606.4218750000,168185.1718750000,139510.7500000000,162680.1250000000,141807.6562500000,,,
0.8999999985,7,180639.2187500000,163416.7968750000,194308.9531250000,179617.9531250000,168208.2187500000,139526.1406250000,162701.4218750000,141285.3281250000,,,
0.9039999985,7,180633.9062500000,163417.4687500000,194303.4062500000,179607.0781250000,168203.9218750000,139521.7500000000,162697.3437500000,140921.3281250000,,,
0.9079999984,7,180593.7187500000,163387.7031250000,194254.2187500000,179583.7343750000,168156.7500000000,139486.2656250000,162651.7812500000,141204.9687500000,,,
0.9119999984,7,180587.5781250000,163382.0156250000,194241.2031250000,179590.0625000000,168142.0000000000,139475.5781250000,162636.2500000000,141693.8593750000,,,
0.9159999983,7,180624.5156250000,163409.5000000000,194284.0937500000,179626.6718750000,168180.5625000000,139509.6562500000,162672.8125000000,141675.9062500000,,,
0.9199999985,7,180615.1250000000,163399.9843750000,194280.8281250000,179611.3281250000,168178.0937500000,139510.2343750000,162671.1406250000,141152.2343750000,,,
0.9239999985,7,180598.7656250000,163391.3437500000,194263.8906250000,179591.5937500000,168163.9531250000,139501.1250000000,162654.3593750000,140819.3750000000,,,
0.9279999984,7,180573.2031250000,163370.0468750000,194235.3593750000,179572.1250000000,168138.4843750000,139477.6718750000,162629.9687500000,141136.1406250000,,,
0.9319999984,7,180574.5468750000,163369.5312500000,194237.5312500000,179579.7656250000,168140.1718750000,139477.0625000000,162632.8437500000,141621.8593750000,,,
0.9359999984,7,180602.8437500000,163385.7656250000,194267.9218750000,179616.0781250000,168167.1718750000,139486.6562500000,162658.8593750000,141602.2500000000,,,
0.9399999985,7,180624.8281250000,163408.6250000000,194293.6406250000,179628.9531250000,168191.9843750000,139514.2656250000,162686.9687500000,141095.8593750000,,,
0.9439999985,7,180595.1718750000,163389.8437500000,194263.2187500000,179582.7968750000,168163.5000000000,139492.8125000000,162658.6406250000,140739.6250000000,,,
0.9479999985,7,180559.7343750000,163366.9843750000,194221.0312500000,179540.5781250000,168121.5781250000,139454.3750000000,162611.5781250000,141037.8593750000,,,
0.9519999984,7,180572.7968750000,163380.9062500000,194222.5625000000,179563.0312500000,168122.7343750000,139455.4687500000,162606.9062500000,141550.1875000000,,,
0.9559999984,7,180597.5312500000,163394.1875000000,194250.7343750000,179588.1093750000,168148.3281250000,139479.9375000000,162630.8281250000,141558.0781250000,,,
0.9599999983,7,180592.8906250000,163380.5156250000,194258.2031250000,179578.8593750000,168152.1562500000,139467.2187500000,162631.7656250000,141054.4687500000,,,
0.9639999985,7,180598.4687500000,163388.0468750000,194269.8281250000,179598.9687500000,168163.6875000000,139474.4843750000,162645.0000000000,140696.5312500000,,,
0.9679999985,7,180587.2343750000,163381.8437500000,194253.3281250000,179599.9375000000,168150.5468750000,139468.0781250000,162637.1406250000,140987.7343750000,,,
0.9719999984,7,180588.9687500000,163384.6406250000,194244.5000000000,179612.2968750000,168140.6718750000,139463.3750000000,162625.8125000000,141480.4843750000,,,
0.9759999984,7,180610.6718750000,163396.9531250000,194271.2187500000,179630.5937500000,168162.9218750000,139480.8437500000,162643.2968750000,141467.4687500000,,,
0.9799999984,7,180633.3593750000,163410.7656250000,194310.0312500000,179632.5000000000,168199.7187500000,139484.2500000000,162685.6250000000,140928.4531250000,,,
0.9839999985,7,180609.8906250000,163399.6093750000,194280.4531250000,179620.1406250000,168173.9687500000,139479.8437500000,162662.5156250000,140584.3593750000,,,
0.9879999985,7,180568.4531250000,163366.6875000000,194232.0312500000,179585.2968750000,168126.4687500000,139442.1093750000,162607.1406250000,140907.1093750000,,,
0.9919999985,7,180538.9218750000,163334.0468750000,194198.8593750000,179544.0312500000,168093.9062500000,139418.3437500000,162576.5156250000,141471.8750000000,,,
0.9959999984,7,180549.6718750000,163335.3125000000,194212.4531250000,179545.4843750000,168108.2187500000,139414.9687500000,162598.9062500000,141518.1875000000,,,
0.9999999984,7,180570.8750000000,163346.3906250000,194247.8281250000,179564.3750000000,168143.1250000000,139427.4687500000,162641.3437500000,141044.0937500000,,,
1.0039999983,7,180567.0625000000,163350.9531250000,194238.3906250000,179557.9375000000,168135.7500000000,139432.4843750000,162622.2968750000,140692.0156250000,,,
1.0079999985,7,180551.2031250000,163345.7187500000,194214.8125000000,179547.1250000000,168112.6562500000,139419.4218750000,162589.9218750000,140968.4218750000,,,
1.0119999985,7,180545.6562500000,163340.2812500000,194204.8593750000,179544.6562500000,168102.6250000000,139406.4843750000,162576.8593750000,141522.7031250000,,,
1.0159999984,7,180565.6406250000,163354.6250000000,194223.3125000000,179571.0468750000,168119.7656250000,139430.8437500000,162597.9531250000,141574.4375000000,,,
1.0199999984,7,180585.5937500000,163367.0937500000,194258.7968750000,179585.1250000000,168151.8125000000,139435.8906250000,162626.4843750000,141072.4687500000,,,
1.0239999983,8,180559.6093750000,163350.6093750000,194233.1250000000,179549.5937500000,168131.5625000000,139429.6718750000,162604.5468750000,140701.6718750000,,,
1.0279999983,8,180536.8593750000,163337.2656250000,194201.0468750000,179525.5312500000,168102.6250000000,139413.8125000000,162580.4843750000,141008.5468750000,,,
1.0319999983,8,180541.2343750000,163341.7031250000,194199.6250000000,179542.2187500000,168100.5000000000,139407.6406250000,162586.4062500000,141568.1875000000,,,
1.0359999982,8,180565.6093750000,163361.2812500000,194225.0312500000,179569.7343750000,168124.0000000000,139434.6250000000,162602.7968750000,141638.6562500000,,,
1.0399999982,8,180580.2500000000,163375.8906250000,194247.8281250000,179560.3125000000,168145.9843750000,139463.1718750000,162620.6093750000,141191.1875000000,,,
1.0439999981,8,180561.7968750000,163358.4531250000,194232.7500000000,179550.5625000000,168132.1718750000,139434.1718750000,162613.5781250000,140876.1562500000,,,
1.0479999983,8,180541.2031250000,163339.7968750000,194209.7968750000,179556.7187500000,168110.0781250000,139411.5625000000,162588.0000000000,141185.6562500000,,,
1.0519999983,8,180550.5937500000,163345.2968750000,194222.1093750000,179568.9531250000,168118.0156250000,139412.7656250000,162595.7812500000,141736.6406250000,,,
1.0559999982,8,180582.9062500000,163374.6875000000,194250.1562500000,179606.6093750000,168145.9375000000,139442.8125000000,162622.9218750000,141822.4687500000,,,
1.0599999982,8,180594.8750000000,163385.3906250000,194267.8593750000,179599.7812500000,168165.1718750000,139468.8750000000,162641.9062500000,141394.1093750000,,,
1.0639999982,8,180590.7968750000,163391.1875000000,194275.2656250000,179583.0156250000,168171.7968750000,139483.3906250000,162637.5312500000,141054.4218750000,,,
1.0679999983,8,180551.2812500000,163358.8593750000,194220.9531250000,179552.3750000000,168119.7812500000,139404.3750000000,162593.6562500000,141380.5156250000,,,
1.0719999983,8,180525.6406250000,163325.3906250000,194185.0156250000,179540.3125000000,168083.6250000000,139378.9687500000,162571.5312500000,141951.8281250000,,,
1.0759999983,8,180554.9062500000,163349.0468750000,194222.5625000000,179569.5937500000,168118.1718750000,139416.8437500000,162603.7187500000,142067.7187500000,,,
1.0799999982,8,180550.8593750000,163351.3281250000,194220.7656250000,179564.1250000000,168118.6093750000,139436.5937500000,162609.6875000000,141674.9375000000,,,
1.0839999982,8,180530.2031250000,163333.8593750000,194205.3437500000,179551.0937500000,168103.5625000000,139421.1406250000,162591.5312500000,141392.5312500000,,,
1.0879999981,8,180499.6250000000,163313.5937500000,194165.7343750000,179512.6562500000,168065.8750000000,139388.8750000000,162547.0625000000,141771.3437500000,,,
1.0919999983,8,180501.2187500000,163317.5000000000,194169.4218750000,179519.9218750000,168067.6406250000,139400.8125000000,162549.4843750000,142425.1875000000,,,
1.0959999983,8,180545.6250000000,163347.7812500000,194217.9218750000,179572.2343750000,168112.6718750000,139412.9531250000,162595.3750000000,142566.7031250000,,,
1.0999999982,8,180546.3593750000,163343.3593750000,194213.6093750000,179567.4218750000,168106.8906250000,139401.0000000000,162589.6093750000,142155.5625000000,,,
1.1039999982,8,180563.8906250000,163374.5468750000,194241.3437500000,179524.8125000000,168130.5625000000,139429.2343750000,162611.0156250000,141878.2031250000,,,
1.1079999981,8,180504.9375000000,163319.8906250000,194179.5625000000,179479.4531250000,168074.7031250000,139390.6718750000,162554.0156250000,142191.7812500000,,,
1.1119999983,8,180462.7968750000,163273.8125000000,194121.9531250000,179486.0000000000,168024.2187500000,139354.2656250000,162501.8750000000,142767.4687500000,,,
1.1159999983,8,180506.7656250000,163308.7031250000,194165.8906250000,179527.2812500000,168066.8593750000,139384.3125000000,162546.4218750000,142955.3437500000,,,
1.1199999982,8,180546.9375000000,163340.1875000000,194217.1406250000,179571.6406250000,168117.5781250000,139414.6718750000,162602.4531250000,142608.1406250000,,,
1.1239999982,8,180570.4375000000,163363.1562500000,194245.5000000000,179596.6562500000,168143.7031250000,139425.2968750000,162625.4062500000,142282.6562500000,,,
1.1279999982,8,180573.9218750000,163384.1250000000,194235.9531250000,179589.8437500000,168134.3750000000,139447.4687500000,162607.7031250000,142566.7500000000,,,
1.1319999981,8,180543.1093750000,163353.4218750000,194201.2343750000,179569.3906250000,168099.3437500000,139435.5156250000,162580.4062500000,143094.1562500000,,,
1.1359999983,8,180565.6875000000,163364.9531250000,194227.0468750000,179595.8593750000,168122.3593750000,139436.1250000000,162610.6093750000,143160.7500000000,,,
1.1399999983,8,180587.8437500000,163379.4687500000,194260.7812500000,179615.6250000000,168154.0156250000,139430.2500000000,162646.3906250000,142736.6406250000,,,
1.1439999982,8,180566.0156250000,163365.6718750000,194242.6875000000,179580.8437500000,168135.3906250000,139425.7187500000,162617.2031250000,142403.4843750000,,,
1.1479999982,8,180536.0468750000,163350.8125000000,194201.0312500000,179551.6562500000,168098.9687500000,139420.2812500000,162577.0000000000,142660.7031250000,,,
1.1519999981,9,180522.9843750000,163338.9843750000,194181.3437500000,179556.0312500000,168079.6875000000,139401.0000000000,162560.0156250000,143193.2656250000,,,
1.1559999981,9,180545.6875000000,163354.8125000000,194205.1875000000,179583.5156250000,168100.6562500000,139422.1562500000,162572.6875000000,143311.0156250000,,,
1.1599999981,9,180566.3437500000,163366.5000000000,194246.3593750000,179590.1250000000,168138.3437500000,139430.9218750000,162603.4218750000,142880.7812500000,,,
1.1639999980,9,180551.8750000000,163359.1562500000,194225.8437500000,179559.6562500000,168124.4843750000,139425.7500000000,162610.9062500000,142512.3593750000,,,
1.1679999980,9,180523.8437500000,163341.2343750000,194187.9062500000,179534.7031250000,168088.4062500000,139406.4687500000,162569.2187500000,142789.1093750000,,,
1.1719999979,9,180530.4218750000,163345.6875000000,194190.4062500000,179556.5156250000,168087.7343750000,139423.7968750000,162567.5312500000,143323.0468750000,,,
1.1759999981,9,180554.0781250000,163358.5468750000,194220.6093750000,179587.5937500000,168115.0937500000,139415.2343750000,162601.9218750000,143428.5468750000,,,
1.1799999981,9,180563.9218750000,163364.6093750000,194237.9843750000,179580.1718750000,168130.8906250000,139424.8593750000,162605.0000000000,142997.8125000000,,,
1.1839999980,9,180548.3437500000,163354.4062500000,194226.2187500000,179554.1562500000,168119.9687500000,139425.2656250000,162597.4843750000,142621.2812500000,,,
1.1879999980,9,180542.7343750000,163352.0156250000,194223.6093750000,179547.7187500000,168113.1562500000,139417.4687500000,162591.1875000000,142869.1718750000,,,
1.1919999979,9,180535.5937500000,163350.1718750000,194203.6250000000,179549.5156250000,168094.3593750000,139414.4843750000,162569.0625000000,143420.3125000000,,,
1.1959999981,9,180547.1093750000,163358.9687500000,194211.9687500000,179562.1093750000,168104.5468750000,139431.2500000000,162575.3906250000,143525.1562500000,,,
1.1999999981,9,180574.4687500000,163376.2500000000,194259.1718750000,179604.4375000000,168149.1250000000,139457.1875000000,162609.4531250000,143113.5000000000,,,
1.2039999980,9,180558.9062500000,163365.2968750000,194237.3125000000,179579.9062500000,168129.9843750000,139442.8125000000,162612.3750000000,142754.1875000000,,,
1.2079999980,9,180535.0312500000,163354.1406250000,194203.9218750000,179536.4531250000,168098.3750000000,139443.9687500000,162600.8437500000,143007.6562500000,,,
1.2119999980,9,180527.7343750000,163352.7812500000,194184.1562500000,179530.0156250000,168080.2812500000,139428.1562500000,162583.0625000000,143560.9375000000,,,
1.2159999979,9,180555.3593750000,163368.4375000000,194214.0312500000,179579.0468750000,168105.0625000000,139441.8125000000,162573.7343750000,143692.3437500000,,,
1.2199999981,9,180570.9531250000,163381.9375000000,194241.4687500000,179579.4375000000,168131.1093750000,139445.4687500000,162606.2656250000,143268.4218750000,,,
1.2239999981,9,180537.9531250000,163350.1718750000,194218.0000000000,179536.5625000000,168110.1562500000,139425.3437500000,162593.6093750000,142933.7656250000,,,
1.2279999980,9,180503.3906250000,163323.1875000000,194175.4062500000,179511.2812500000,168066.0000000000,139399.3593750000,162544.2031250000,143249.0781250000,,,
1.2319999980,9,180515.5312500000,163335.3906250000,194181.0468750000,179529.5781250000,168068.6875000000,139409.8437500000,162547.1406250000,143785.4687500000,,,
1.2359999979,9,180550.0000000000,163363.1250000000,194221.4062500000,179560.2656250000,168107.5781250000,139441.1406250000,162590.2812500000,143904.2812500000,,,
1.2399999981,9,180568.9843750000,163377.0156250000,194252.7968750000,179565.4218750000,168141.8125000000,139467.1406250000,162626.7812500000,143509.9531250000,,,
1.2439999981,9,180550.3437500000,163361.1718750000,194229.9687500000,179543.4218750000,168121.4218750000,139428.5937500000,162597.3906250000,143131.3906250000,,,
1.2479999980,9,180522.4531250000,163344.6406250000,194192.4687500000,179517.6406250000,168084.9218750000,139414.2968750000,162558.1718750000,143386.0625000000,,,
1.2519999980,9,180522.7031250000,163344.5156250000,194189.5937500000,179531.3593750000,168083.3281250000,139414.8281250000,162554.8906250000,143934.4062500000,,,
1.2559999980,9,180542.3281250000,163355.2343750000,194210.5000000000,179558.2343750000,168104.4687500000,139426.0781250000,162572.1406250000,144044.3281250000,,,
1.2599999979,9,180552.8750000000,163364.9531250000,194228.9687500000,179569.5156250000,168120.0468750000,139444.7968750000,162587.8281250000,143642.2343750000,,,
1.2639999981,9,180544.0781250000,163365.3593750000,194232.7500000000,179549.4062500000,168123.6406250000,139437.5000000000,162588.0468750000,143299.3906250000,,,
1.2679999981,9,180514.3593750000,163337.1406250000,194187.1093750000,179529.9062500000,168079.2500000000,139409.4218750000,162551.0156250000,143572.1718750000,,,
1.2719999980,9,180506.6250000000,163326.8906250000,194167.4375000000,179532.0468750000,168058.5781250000,139398.3125000000,162541.7343750000,144133.9062500000,,,
1.2759999980,9,180536.7187500000,163344.0781250000,194203.5000000000,179567.9843750000,168092.2343750000,139398.2812500000,162575.9843750000,144255.7343750000,,,
1.2799999979,10,180553.7031250000,163359.2343750000,194226.6406250000,179585.3906250000,168112.4687500000,139421.4531250000,162583.6718750000,143835.7812500000,,,
1.2839999979,10,180554.1093750000,163367.6093750000,194230.6562500000,179549.1875000000,168119.8906250000,139438.7812500000,162591.0781250000,143461.7031250000,,,
1.2879999978,10,180542.0937500000,163368.1093750000,194219.4843750000,179527.6250000000,168109.3281250000,139435.8125000000,162580.8593750000,143697.8593750000,,,
1.2919999978,10,180535.5781250000,163362.3437500000,194208.1406250000,179535.8593750000,168096.8593750000,139428.8125000000,162560.2031250000,144223.4218750000,,,
1.2959999978,10,180547.2343750000,163360.2500000000,194221.1718750000,179566.7500000000,168110.0468750000,139429.9375000000,162576.5625000000,144350.1718750000,,,
1.2999999977,10,180538.7656250000,163344.1406250000,194217.0937500000,179560.1250000000,168107.8281250000,139422.3437500000,162581.9843750000,143959.1718750000,,,
1.3039999979,10,180519.1562500000,163324.7968750000,194202.7187500000,179531.5468750000,168094.7343750000,139395.1718750000,162571.2343750000,143604.8437500000,,,
1.3079999979,10,180498.3437500000,163316.3437500000,194177.0468750000,179494.8125000000,168068.8750000000,139382.0312500000,162544.9531250000,143855.9843750000,,,
1.3119999978,10,180505.2343750000,163326.2812500000,194177.9843750000,179507.6406250000,168067.4531250000,139383.2343750000,162538.4218750000,144424.3750000000,,,
1.3159999978,10,180551.5625000000,163365.9687500000,194225.9218750000,179545.1718750000,168114.7968750000,139421.6718750000,162573.5625000000,144549.5781250000,,,
1.3199999977,10,180572.0468750000,163391.5000000000,194244.4843750000,179558.7031250000,168135.2656250000,139450.0312500000,162591.2656250000,144091.4531250000,,,
1.3239999979,10,180530.9531250000,163343.8437500000,194210.6875000000,179527.4062500000,168103.2031250000,139427.4375000000,162575.3593750000,143670.0312500000,,,
1.3279999979,10,180497.5625000000,163316.6250000000,194178.1250000000,179502.2187500000,168071.3437500000,139412.2343750000,162550.5000000000,143905.9218750000,,,
1.3319999978,10,180516.3906250000,163332.7656250000,194191.3906250000,179530.8437500000,168081.6093750000,139391.9062500000,162555.5468750000,144445.0781250000,,,
1.3359999978,10,180545.7968750000,163355.0000000000,194215.5937500000,179570.6406250000,168104.3125000000,139397.0781250000,162577.9843750000,144575.3437500000,,,
1.3399999978,10,180573.0937500000,163379.5937500000,194254.6093750000,179582.1562500000,168141.4843750000,139436.3750000000,162609.1093750000,144117.9531250000,,,
1.3439999977,10,180564.9218750000,163375.9687500000,194251.1250000000,179580.2968750000,168138.9375000000,139442.7812500000,162606.0937500000,143640.5781250000,,,
1.3479999979,10,180547.0312500000,163365.7343750000,194229.6250000000,179564.7968750000,168116.1406250000,139427.8906250000,162583.2968750000,143813.3593750000,,,
1.3519999979,10,180532.1093750000,163356.7500000000,194208.6093750000,179521.0781250000,168097.3593750000,139417.8125000000,162570.7500000000,144351.3125000000,,,
1.3559999978,10,180536.1406250000,163348.9062500000,194214.1093750000,179535.7812500000,168103.6718750000,139416.6250000000,162580.6250000000,144515.7187500000,,,
1.3599999978,10,180549.3281250000,163358.8906250000,194232.5625000000,179553.0781250000,168123.3593750000,139429.5312500000,162592.5312500000,144121.6250000000,,,
1.3639999977,10,180546.1093750000,163358.3281250000,194241.2812500000,179552.8437500000,168131.9375000000,139454.0781250000,162586.6250000000,143731.0156250000,,,
1.3679999979,10,180525.1562500000,163353.0625000000,194204.4375000000,179533.2343750000,168099.9375000000,139465.4687500000,162574.5625000000,143943.4218750000,,,
1.3719999979,10,180521.2812500000,163348.6093750000,194190.2656250000,179517.2656250000,168084.2968750000,139383.4843750000,162558.3593750000,144478.1718750000,,,
1.3759999978,10,180523.3906250000,163333.1093750000,194192.3906250000,179528.9843750000,168082.1562500000,139380.0156250000,162541.5937500000,144621.3437500000,,,
1.3799999978,10,180564.4062500000,163374.4218750000,194245.2812500000,179574.2656250000,168133.3906250000,139439.5625000000,162602.0781250000,144217.7656250000,,,
1.3839999977,10,180559.8750000000,163382.9218750000,194249.6562500000,179556.8281250000,168137.5937500000,139445.4062500000,162608.8437500000,143784.0937500000,,,
1.3879999977,10,180523.1250000000,163348.1406250000,194207.3593750000,179512.5000000000,168090.6562500000,139404.9843750000,162560.5625000000,143970.4531250000,,,
1.3919999979,10,180508.1562500000,163335.4531250000,194182.8906250000,179513.5468750000,168066.9375000000,139411.0468750000,162541.7343750000,144541.6875000000,33029,1.3923497552,0.0000000000
1.3959999979,10,180543.2187500000,163369.5156250000,194220.7343750000,179555.3281250000,168102.6718750000,139432.4062500000,162574.0156250000,144711.4218750000,,,
1.3999999978,10,180560.4843750000,163369.7187500000,194246.7812500000,179585.8593750000,168127.2656250000,139426.5312500000,162593.2031250000,144291.8125000000,,,
1.4039999978,10,180544.1875000000,163355.4843750000,194232.6250000000,179560.6093750000,168118.2812500000,139422.0156250000,162593.6093750000,143853.9375000000,,,
1.4079999977,11,180511.5937500000,163337.3281250000,194191.2343750000,179536.8750000000,168080.3281250000,139397.7812500000,162552.0781250000,144039.1562500000,,,
1.4119999977,11,180498.5781250000,163330.9687500000,194171.0156250000,179526.7656250000,168060.5312500000,139389.4062500000,162530.4687500000,144574.5468750000,,,
1.4159999976,11,180540.1562500000,163363.7187500000,194217.3906250000,179567.9843750000,168103.9375000000,139433.6093750000,162566.0781250000,144711.6093750000,,,
1.4199999976,11,180568.5625000000,163388.4531250000,194257.0781250000,179599.5937500000,168139.3125000000,139445.5468750000,162594.7500000000,144268.2343750000,,,
1.4239999976,11,180531.9218750000,163350.9843750000,194235.9531250000,179528.8281250000,168117.9375000000,139418.4062500000,162576.1093750000,143828.4062500000,,,
1.4279999975,11,180501.1875000000,163330.2968750000,194189.6250000000,179493.7500000000,168075.2656250000,139412.2656250000,162558.4375000000,143999.6093750000,,,
1.4319999977,11,180512.3906250000,163345.0000000000,194183.0000000000,179514.4843750000,168072.2500000000,139407.0781250000,162566.7812500000,144500.0937500000,,,
1.4359999977,11,180548.4218750000,163377.3125000000,194223.0000000000,179544.4375000000,168104.2031250000,139425.6406250000,162580.7343750000,144655.2500000000,,,
1.4399999976,11,180554.8281250000,163372.0000000000,194240.8906250000,179562.1093750000,168120.4062500000,139436.7812500000,162592.7968750000,144243.2187500000,,,
1.4439999976,11,180546.5937500000,163359.3125000000,194245.4218750000,179565.5000000000,168132.0937500000,139421.0625000000,162621.1718750000,143782.8593750000,,,
1.4479999975,11,180530.3750000000,163353.5468750000,194231.0937500000,179521.3281250000,168117.6875000000,139405.3593750000,162586.7343750000,143942.6250000000,,,
1.4519999977,11,180537.2031250000,163364.9531250000,194209.4218750000,179536.9843750000,168094.2968750000,139414.6406250000,162557.6875000000,144428.5000000000,,,
1.4559999977,11,180554.0468750000,163369.4375000000,194223.3906250000,179572.8750000000,168111.8125000000,139428.5156250000,162586.6250000000,144549.9531250000,,,
1.4599999976,11,180556.6562500000,163366.2968750000,194239.8593750000,179569.5937500000,168128.4218750000,139430.5312500000,162611.2500000000,144143.6562500000,,,
1.4639999976,11,180536.7812500000,163351.0312500000,194226.7812500000,179533.6562500000,168114.4687500000,139410.3281250000,162588.5937500000,143714.3125000000,,,
1.4679999975,11,180515.3437500000,163340.1875000000,194198.0781250000,179505.3906250000,168089.8437500000,139397.0000000000,162563.7812500000,143857.3281250000,,,
1.4719999975,11,180528.8125000000,163357.5781250000,194211.9687500000,179521.7500000000,168100.7187500000,139395.0937500000,162567.8593750000,144352.3593750000,,,
1.4759999977,11,180564.1406250000,163384.7968750000,194242.0156250000,179559.8125000000,168126.7656250000,139420.9687500000,162597.4375000000,144497.8125000000,,,
1.4799999977,11,180583.2031250000,163391.2968750000,194273.4375000000,179579.5312500000,168157.3593750000,139433.7187500000,162632.9843750000,144100.1406250000,,,
1.4839999976,11,180575.4218750000,163385.4218750000,194269.7968750000,179580.1875000000,168158.4062500000,139430.3125000000,162632.9531250000,143658.5781250000,,,
1.4879999976,11,180560.1406250000,163379.0312500000,194248.0156250000,179561.1250000000,168138.7500000000,139413.5937500000,162607.3593750000,143804.7187500000,,,
1.4919999975,11,180530.5312500000,163361.6562500000,194205.7968750000,179526.1718750000,168099.0468750000,139389.2500000000,162566.4375000000,144355.8593750000,,,
1.4959999977,11,180530.6562500000,163354.0312500000,194202.6562500000,179541.9531250000,168094.2500000000,139399.2812500000,162561.7656250000,144551.2031250000,,,
1.4999999977,11,180550.3281250000,163366.7187500000,194228.1406250000,179567.0312500000,168117.2343750000,139418.7187500000,162587.5156250000,144158.5312500000,,,
1.5039999976,11,180530.7500000000,163346.7968750000,194210.3125000000,179544.6875000000,168101.4843750000,139397.2343750000,162579.3906250000,143742.7968750000,,,
1.5079999976,11,180511.5156250000,163334.2343750000,194185.0625000000,179527.8906250000,168076.9843750000,139387.6875000000,162549.5000000000,143925.7968750000,,,
1.5119999975,11,180516.3125000000,163342.2812500000,194185.2812500000,179535.5937500000,168074.6718750000,139380.4218750000,162545.2656250000,144503.4062500000,,,
1.5159999975,11,180551.0468750000,163371.5781250000,194231.6093750000,179578.1562500000,168116.5468750000,139407.1562500000,162581.5312500000,144687.8437500000,,,
1.5199999977,11,180551.8750000000,163369.9375000000,194244.4531250000,179570.0625000000,168127.4062500000,139397.5312500000,162578.3437500000,144292.2656250000,,,
1.5239999976,11,180528.7343750000,163354.2187500000,194206.6250000000,179543.7187500000,168098.5937500000,139392.0312500000,162579.7812500000,143851.5625000000,,,
1.5279999976,11,180515.6093750000,163343.3593750000,194199.0156250000,179525.8593750000,168091.8125000000,139391.5468750000,162574.3906250000,144004.0468750000,,,
1.5319999976,11,180531.5000000000,163360.9843750000,194211.7031250000,179537.7343750000,168103.4531250000,139390.5312500000,162583.1406250000,144526.4062500000,,,
1.5359999975,12,180563.5000000000,163387.5312500000,194240.7968750000,179575.3593750000,168130.3750000000,139405.7968750000,162608.0625000000,144700.7656250000,,,
1.5399999975,12,180588.5937500000,163410.2812500000,194265.5937500000,179598.4531250000,168151.6250000000,139443.6718750000,162620.9375000000,144275.2968750000,,,
1.5439999974,12,180576.3125000000,163398.3125000000,194261.2656250000,179563.6250000000,168150.8125000000,139452.2500000000,162627.8750000000,143790.6406250000,,,
1.5479999974,12,180575.6718750000,163406.0156250000,194261.6406250000,179577.7500000000,168154.1093750000,139466.8125000000,162638.6875000000,143922.6093750000,,,
1.5519999973,12,180564.5312500000,163403.3125000000,194237.8593750000,179562.4062500000,168128.0781250000,139440.6093750000,162603.3125000000,144459.7968750000,,,
1.5559999973,12,180543.1562500000,163372.2187500000,194206.9062500000,179560.0468750000,168096.1250000000,139378.9531250000,162561.0937500000,144633.6093750000,,,
1.5599999975,12,180556.5781250000,163377.6718750000,194236.0000000000,179566.9218750000,168122.3906250000,139404.4531250000,162585.9375000000,144261.7968750000,,,
1.5639999975,12,180551.0937500000,163375.8125000000,194246.3750000000,179543.8437500000,168131.1093750000,139407.5312500000,162591.0781250000,143812.8593750000,,,
1.5679999974,12,180526.9687500000,163357.7968750000,194212.5000000000,179524.0000000000,168101.1093750000,139389.3593750000,162578.6093750000,143957.2656250000,,,
1.5719999974,12,180544.6406250000,163380.7500000000,194226.1562500000,179539.7500000000,168113.5625000000,139406.2031250000,162585.4531250000,144488.7968750000,,,
1.5759999973,12,180580.2812500000,163407.4375000000,194253.7500000000,179594.1406250000,168142.2343750000,139416.1250000000,162641.1562500000,144645.8125000000,,,
1.5799999975,12,180581.8437500000,163401.2656250000,194261.4531250000,179592.7968750000,168146.9531250000,139419.6562500000,162629.8593750000,144250.4218750000,,,
1.5839999975,12,180546.0312500000,163370.5000000000,194233.1093750000,179542.1406250000,168121.6562500000,139408.9375000000,162597.2187500000,143828.9218750000,,,
1.5879999974,12,180521.7812500000,163355.9062500000,194208.6406250000,179529.7656250000,168101.8750000000,139402.7968750000,162588.2968750000,143973.2500000000,,,
1.5919999974,12,180509.8281250000,163340.0625000000,194191.6718750000,179548.5781250000,168085.5000000000,139376.2968750000,162567.7656250000,144519.2187500000,,,
1.5959999973,12,180519.5625000000,163351.5468750000,194200.5156250000,179562.2187500000,168091.1875000000,139385.3281250000,162562.4843750000,144767.0000000000,,,
1.5999999973,12,180538.3281250000,163372.0312500000,194220.3437500000,179560.4062500000,168112.9218750000,139391.2343750000,162590.8593750000,144409.3281250000,,,
1.6039999975,12,180532.9218750000,163364.4687500000,194222.7187500000,179551.2500000000,168115.8125000000,139394.5312500000,162590.8125000000,143946.1875000000,,,
1.6079999974,12,180509.3125000000,163348.0000000000,194195.5312500000,179520.2500000000,168087.5937500000,139370.3281250000,162552.0781250000,144069.7031250000,,,
1.6119999974,12,180516.0156250000,163353.0468750000,194181.5468750000,179544.7031250000,168075.2656250000,139368.5156250000,162562.8906250000,144596.9687500000,,,
1.6159999974,12,180536.7187500000,163361.0156250000,194202.1718750000,179598.6718750000,168093.8750000000,139372.4531250000,162575.3906250000,144852.0156250000,,,
1.6199999973,12,180561.1250000000,163377.6093750000,194243.5312500000,179590.1718750000,168131.7812500000,139399.5781250000,162612.2500000000,144483.1093750000,,,
1.6239999975,12,180562.0156250000,163383.0000000000,194256.8906250000,179551.5000000000,168144.1718750000,139415.8281250000,162616.7500000000,144015.9218750000,,,
1.6279999975,12,180518.8906250000,163356.3437500000,194200.5156250000,179500.6406250000,168091.5156250000,139397.2968750000,162560.0937500000,144138.2812500000,,,
1.6319999974,12,180479.0781250000,163309.0468750000,194146.4218750000,179493.7187500000,168041.1093750000,139336.7343750000,162517.2187500000,144688.9218750000,,,
1.6359999974,12,180515.3750000000,163330.9375000000,194187.6406250000,179530.1718750000,168081.8593750000,139362.8750000000,162555.7812500000,144936.8125000000,,,
1.6399999973,12,180549.2812500000,163359.0468750000,194234.0937500000,179559.2500000000,168126.8906250000,139400.8125000000,162591.6406250000,144617.7343750000,,,
1.6439999973,12,180560.9218750000,163374.2656250000,194253.5625000000,179567.0312500000,168145.4062500000,139409.8906250000,162620.5312500000,144179.7500000000,,,
1.6479999975,12,180521.6562500000,163349.0000000000,194211.2187500000,179520.7031250000,168100.2656250000,139365.3437500000,162565.9687500000,144320.5156250000,,,
1.6519999974,12,180511.2500000000,163349.1875000000,194184.8750000000,179518.4218750000,168075.6406250000,139346.6250000000,162531.2656250000,144871.3593750000,,,
1.6559999974,12,180516.2343750000,163341.4218750000,194180.4062500000,179523.0625000000,168072.3593750000,139362.0156250000,162542.7187500000,145102.1406250000,,,
1.6599999974,12,180549.2031250000,163371.8750000000,194219.2656250000,179554.3125000000,168109.8593750000,139404.1093750000,162579.5156250000,144727.7812500000,,,
1.6639999973,13,180566.2500000000,163393.6562500000,194249.0937500000,179574.6093750000,168139.5000000000,139431.0000000000,162610.5781250000,144231.8125000000,,,
1.6679999973,13,180530.8750000000,163367.5312500000,194219.0156250000,179526.7656250000,168109.4531250000,139402.5781250000,162584.3437500000,144333.2812500000,,,
1.6719999972,13,180526.7187500000,163365.6250000000,194210.5781250000,179531.4062500000,168100.8437500000,139394.9062500000,162572.0312500000,144832.5000000000,,,
1.6759999972,13,180546.2968750000,163377.0156250000,194210.0937500000,179572.0937500000,168100.3125000000,139390.6093750000,162557.7187500000,145038.6718750000,,,
1.6799999971,13,180560.4062500000,163374.0468750000,194241.9531250000,179579.2500000000,168132.9218750000,139406.5156250000,162604.5781250000,144672.6093750000,,,
1.6839999971,13,180551.1562500000,163375.2187500000,194240.1875000000,179552.9375000000,168135.5000000000,139407.0000000000,162615.3593750000,144205.8437500000,,,
1.6879999973,13,180537.6562500000,163375.9218750000,194218.7812500000,179532.5781250000,168117.4531250000,139395.6562500000,162591.1875000000,144309.8125000000,,,
1.6919999972,13,180544.1875000000,163384.1875000000,194227.4375000000,179545.1093750000,168122.4687500000,139404.9687500000,162575.9062500000,144821.4375000000,,,
1.6959999972,13,180547.9843750000,163371.4218750000,194220.5000000000,179561.4531250000,168114.3593750000,139399.2031250000,162582.4687500000,145021.8281250000,,,
1.6999999972,13,180565.9531250000,163381.2812500000,194237.2343750000,179576.7031250000,168133.7031250000,139427.5000000000,162616.8281250000,144661.9062500000,,,
1.7039999971,13,180543.7812500000,163364.2343750000,194219.1562500000,179554.3593750000,168115.0156250000,139410.4687500000,162583.5468750000,144200.7500000000,,,
1.7079999973,13,180537.4531250000,163366.7500000000,194210.8437500000,179526.7343750000,168107.4218750000,139410.4375000000,162576.9218750000,144258.2031250000,,,
1.7119999973,13,180532.0625000000,163361.8593750000,194198.5312500000,179538.7031250000,168095.0000000000,139391.9531250000,162561.3593750000,144741.8125000000,,,
1.7159999972,13,180566.8750000000,163390.1875000000,194234.2812500000,179592.4062500000,168129.4375000000,139420.3906250000,162590.4687500000,144939.5156250000,,,
1.7199999972,13,180586.7812500000,163405.7812500000,194267.9531250000,179578.5312500000,168164.3906250000,139451.2656250000,162629.4843750000,144575.7500000000,,,
1.7239999971,13,180577.8750000000,163405.7812500000,194269.9531250000,179549.0781250000,168168.7343750000,139475.0468750000,162637.9687500000,144119.7812500000,,,
1.7279999971,13,180544.3750000000,163369.1093750000,194236.3750000000,179527.0625000000,168132.9843750000,139391.9062500000,162606.0000000000,144210.9218750000,,,
1.7319999973,13,180525.5937500000,163348.8125000000,194196.5937500000,179542.4531250000,168094.4843750000,139378.7031250000,162546.7656250000,144722.9062500000,,,
1.7359999972,13,180554.3125000000,163372.9375000000,194220.0937500000,179584.3281250000,168113.9687500000,139393.1093750000,162560.5625000000,144930.1875000000,,,
1.7399999972,13,180586.5625000000,163398.1562500000,194261.5156250000,179579.8125000000,168155.6718750000,139439.1562500000,162616.7031250000,144540.5312500000,,,
1.7439999972,13,180557.7187500000,163368.5468750000,194245.4218750000,179557.0156250000,168140.5468750000,139425.4062500000,162597.9687500000,144045.8750000000,,,
1.7479999971,13,180515.0000000000,163328.9062500000,194196.0937500000,179519.6093750000,168094.2968750000,139397.3125000000,162553.3437500000,144111.9218750000,,,
1.7519999973,13,180529.9843750000,163360.0937500000,194199.3593750000,179525.4218750000,168095.7812500000,139425.6718750000,162562.0000000000,144596.9375000000,,,
1.7559999973,13,180561.2187500000,163384.6718750000,194234.2031250000,179565.7031250000,168129.6250000000,139426.3906250000,162590.4843750000,144791.0000000000,,,
1.7599999972,13,180572.2656250000,163381.9531250000,194255.4218750000,179586.7656250000,168147.8437500000,139432.5937500000,162596.5468750000,144375.7187500000,,,
1.7639999972,13,180546.3750000000,163366.0312500000,194230.9375000000,179557.3750000000,168126.2812500000,139414.2656250000,162580.0000000000,143873.7968750000,,,
1.7679999971,13,180544.4218750000,163372.5468750000,194227.6093750000,179556.5625000000,168123.4375000000,139408.6093750000,162572.6250000000,143908.6093750000,,,
1.7719999971,13,180528.9218750000,163365.7500000000,194185.6093750000,179554.8750000000,168084.0781250000,139409.2812500000,162547.2812500000,144363.4531250000,,,
1.7759999973,13,180555.8437500000,163383.5468750000,194224.9531250000,179585.5312500000,168121.0156250000,139429.0781250000,162581.0156250000,144543.1718750000,,,
1.7799999972,13,180590.2031250000,163413.5468750000,194276.1875000000,179622.7812500000,168168.4375000000,139447.3750000000,162619.3437500000,144149.8125000000,,,
1.7839999972,13,180573.4687500000,163398.3437500000,194251.5781250000,179623.3281250000,168145.4531250000,139442.0000000000,162589.8437500000,143624.2968750000,,,
1.7879999971,13,180532.5625000000,163362.2656250000,194203.8125000000,179545.8593750000,168103.2031250000,139426.7187500000,162561.5000000000,143610.6718750000,,,
1.7919999971,14,180513.2343750000,163344.3593750000,194182.6562500000,179498.2500000000,168081.8593750000,139397.1875000000,162542.7812500000,144063.5000000000,,,
1.7959999971,14,180545.7968750000,163375.6250000000,194213.6250000000,179537.5468750000,168107.6875000000,139412.3906250000,162551.6250000000,144255.5000000000,,,
1.7999999970,14,180570.1250000000,163383.8125000000,194254.0000000000,179568.6562500000,168145.5937500000,139432.5625000000,162588.1093750000,143881.9218750000,,,
1.8039999970,14,180568.7187500000,163385.2343750000,194261.1093750000,179562.7343750000,168151.1406250000,139431.3593750000,162601.7031250000,143367.5000000000,,,
1.8079999969,14,180555.3593750000,163383.4375000000,194241.8281250000,179564.3750000000,168133.5468750000,139428.1562500000,162595.4531250000,143392.3593750000,,,
1.8119999969,14,180537.5625000000,163370.3906250000,194212.9375000000,179550.6875000000,168105.7031250000,139413.1093750000,162565.7812500000,143922.3593750000,,,
1.8159999971,14,180569.4687500000,163399.4218750000,194242.5937500000,179581.5156250000,168136.2031250000,139430.9218750000,162601.0625000000,144144.9687500000,,,
1.8199999970,14,180557.0312500000,163382.7656250000,194224.5156250000,179577.4531250000,168120.1562500000,139428.5937500000,162565.5156250000,143764.6250000000,,,
1.8239999970,14,180538.2500000000,163365.8593750000,194209.9062500000,179566.4375000000,168109.4375000000,139415.2968750000,162564.6875000000,143280.4375000000,,,
1.8279999970,14,180533.9687500000,163372.4062500000,194206.9062500000,179567.2343750000,168106.7500000000,139427.4375000000,162558.4687500000,143320.5312500000,,,
1.8319999969,14,180528.4687500000,163382.6250000000,194194.6093750000,179529.5312500000,168094.7031250000,139426.6093750000,162547.6562500000,143811.8593750000,,,
1.8359999971,14,180542.0312500000,163384.0156250000,194215.0000000000,179538.0625000000,168110.2656250000,139415.8281250000,162566.7031250000,144051.5156250000,,,
1.8399999971,14,180564.6250000000,163386.1718750000,194258.5000000000,179574.0312500000,168147.6718750000,139430.0625000000,162608.6562500000,143672.3593750000,,,
1.8439999970,14,180550.4062500000,163378.5781250000,194232.1718750000,179554.4531250000,168126.1406250000,139448.1718750000,162569.6250000000,143166.0156250000,,,
1.8479999970,14,180531.0937500000,163369.0312500000,194208.4218750000,179529.9843750000,168101.6875000000,139424.2968750000,162556.8593750000,143201.5468750000,,,
1.8519999969,14,180542.5781250000,163380.8593750000,194226.8593750000,179541.7656250000,168118.5781250000,139425.3750000000,162573.1093750000,143696.2500000000,,,
1.8559999969,14,180557.7031250000,163393.0000000000,194229.3437500000,179568.1250000000,168122.1718750000,139444.5468750000,162590.2500000000,143942.7500000000,,,
1.8599999971,14,180561.7968750000,163389.4062500000,194244.3437500000,179581.7812500000,168137.5625000000,139450.9843750000,162597.0937500000,143585.9687500000,,,
1.8639999970,14,180555.0156250000,163376.9218750000,194250.0000000000,179583.7656250000,168147.2812500000,139449.1093750000,162587.5937500000,143069.5312500000,,,
1.8679999970,14,180531.1250000000,163365.7031250000,194198.6406250000,179539.6718750000,168103.6093750000,139441.4218750000,162581.6718750000,143130.8437500000,,,
1.8719999969,14,180535.5781250000,163383.8281250000,194194.0312500000,179535.3281250000,168098.6718750000,139438.4375000000,162574.1250000000,143660.1250000000,,,
1.8759999969,14,180560.5625000000,163395.0000000000,194229.0781250000,179570.1875000000,168129.8125000000,139447.1250000000,162606.3437500000,143922.2031250000,,,
1.8799999971,14,180561.4062500000,163383.8593750000,194235.5468750000,179566.2187500000,168133.1406250000,139456.3750000000,162612.9062500000,143573.3281250000,,,
1.8839999971,14,180565.4218750000,163397.0625000000,194251.5312500000,179539.1562500000,168147.7343750000,139473.0312500000,162630.4218750000,143054.8125000000,,,
1.8879999970,14,180547.5937500000,163394.7187500000,194225.8437500000,179514.7187500000,168123.5468750000,139472.6875000000,162607.1718750000,143109.5156250000,,,
1.8919999970,14,180534.8125000000,163381.7187500000,194203.3281250000,179542.5156250000,168104.6875000000,139456.1875000000,162593.7343750000,143616.7812500000,,,
1.8959999969,14,180565.4218750000,163400.2812500000,194238.3593750000,179617.2031250000,168136.2812500000,139474.9687500000,162631.4218750000,143841.2343750000,,,
1.8999999969,14,180600.2343750000,163434.4687500000,194280.6875000000,179643.8906250000,168179.2031250000,139525.1718750000,162678.1718750000,143447.0468750000,,,
1.9039999971,14,180596.3281250000,163438.4218750000,194286.0000000000,179606.9843750000,168189.0937500000,139541.3593750000,162696.0937500000,142928.8281250000,,,
1.9079999970,14,180567.9218750000,163423.0781250000,194252.2031250000,179550.2656250000,168163.9062500000,139517.4062500000,162676.6406250000,142962.5156250000,,,
1.9119999970,14,180550.8281250000,163402.0781250000,194233.3750000000,179528.0000000000,168144.9687500000,139496.9843750000,162641.1875000000,143472.8750000000,,,
1.9159999969,14,180575.6718750000,163421.0937500000,194263.3281250000,179556.2500000000,168176.4375000000,139533.8750000000,162684.7968750000,143728.4375000000,,,
1.9199999969,15,180592.2500000000,163443.5937500000,194274.4687500000,179568.0937500000,168190.7031250000,139568.7343750000,162727.7968750000,143368.8593750000,,,
1.9239999969,15,180581.2968750000,163435.0156250000,194263.9843750000,179537.5468750000,168182.1250000000,139564.6875000000,162722.7187500000,142851.3593750000,,,
1.9279999968,15,180547.6875000000,163397.7343750000,194226.5937500000,179508.2812500000,168147.4375000000,139533.8750000000,162691.7500000000,142914.6406250000,,,
1.9319999968,15,180550.0000000000,163402.8437500000,194227.1562500000,179518.9062500000,168147.8750000000,139542.5937500000,162701.3125000000,143448.8750000000,,,
1.9359999967,15,180578.0625000000,163426.2343750000,194260.2968750000,179538.6250000000,168178.1718750000,139564.4687500000,162735.5937500000,143715.8125000000,,,
1.9399999967,15,180610.5937500000,163448.7968750000,194310.2187500000,179570.0000000000,168223.3750000000,139577.8593750000,162763.7656250000,143352.7968750000,,,
1.9439999969,15,180599.7812500000,163429.5625000000,194305.1562500000,179570.7500000000,168215.6250000000,139551.8125000000,162749.9687500000,142828.9843750000,,,
1.9479999968,15,180575.8281250000,163411.1406250000,194268.8281250000,179535.9062500000,168182.0625000000,139538.6718750000,162728.1875000000,142856.9687500000,,,
1.9519999968,15,180571.5156250000,163411.1718750000,194259.6250000000,179555.5468750000,168177.1093750000,139554.5156250000,162713.5000000000,143362.3750000000,,,
1.9559999967,15,180592.8125000000,163422.0625000000,194279.1250000000,179593.8750000000,168194.9687500000,139563.7812500000,162733.9062500000,143627.9687500000,,,
1.9599999967,15,180627.1093750000,163447.0468750000,194318.0468750000,179634.7187500000,168231.9531250000,139577.6406250000,162784.0312500000,143247.4375000000,,,
1.9639999969,15,180615.7968750000,163443.2656250000,194310.0312500000,179570.1093750000,168225.2812500000,139572.5937500000,162764.4843750000,142714.9687500000,,,
1.9679999969,15,180570.7656250000,163417.1718750000,194245.0625000000,179544.8906250000,168165.7812500000,139555.5156250000,162697.2656250000,142763.9218750000,,,
1.9719999968,15,180572.7500000000,163420.1562500000,194246.1718750000,179568.7656250000,168165.1093750000,139536.2031250000,162703.3281250000,143301.0937500000,,,
1.9759999968,15,180579.3906250000,163422.0000000000,194253.0312500000,179568.8750000000,168172.1406250000,139528.4531250000,162719.1562500000,143559.2812500000,,,
1.9799999967,15,180574.7031250000,163415.0781250000,194251.3750000000,179555.3281250000,168167.3593750000,139522.8750000000,162690.7500000000,143220.2187500000,,,
1.9839999967,15,180585.3593750000,163422.8906250000,194273.5781250000,179577.4843750000,168187.1093750000,139521.9062500000,162712.1093750000,142684.5312500000,,,
1.9879999969,15,180589.0781250000,163435.2187500000,194281.3906250000,179569.2031250000,168195.2812500000,139530.4843750000,162726.5312500000,142686.4531250000,,,
1.9919999968,15,180575.1093750000,163428.9687500000,194261.6718750000,179555.8125000000,168176.4375000000,139538.7500000000,162709.5000000000,143194.4687500000,,,
1.9959999968,15,180573.7187500000,163416.6718750000,194252.1718750000,179568.0468750000,168168.1406250000,139500.6718750000,162701.2656250000,143527.3593750000,,,
1.9999999967,15,180590.9843750000,163424.3906250000,194257.5156250000,179591.6406250000,168173.9062500000,139515.9062500000,162686.4375000000,143220.7500000000,,,
2.0039999967,15,180582.6093750000,163412.6875000000,194279.1562500000,179552.8593750000,168192.7187500000,139522.5468750000,162724.4062500000,142712.2031250000,,,
2.0079999969,15,180562.0156250000,163404.9218750000,194242.7343750000,179544.9531250000,168160.9843750000,139510.6406250000,162668.2968750000,142761.7500000000,,,
2.0119999968,15,180556.4375000000,163402.4218750000,194236.2968750000,179547.4687500000,168157.9843750000,139499.2968750000,162660.6562500000,143296.0156250000,,,
2.0159999968,15,180569.9375000000,163409.0156250000,194255.2343750000,179552.6718750000,168172.0000000000,139520.9375000000,162669.6093750000,143597.6875000000,,,
2.0199999968,15,180594.9531250000,163424.6562500000,194280.2343750000,179567.9062500000,168195.2812500000,139527.2656250000,162698.3437500000,143263.2187500000,,,
2.0239999967,15,180583.1875000000,163408.2187500000,194269.3750000000,179563.6250000000,168183.0000000000,139513.8125000000,162687.3750000000,142719.3437500000,,,
2.0279999967,15,180568.7187500000,163406.1250000000,194256.1250000000,179541.0000000000,168171.8750000000,139513.0625000000,162679.1406250000,142741.5781250000,,,
2.0319999969,15,180572.5000000000,163420.0156250000,194241.0468750000,179533.7343750000,168159.6718750000,139526.6250000000,162674.4218750000,143256.1093750000,,,
2.0359999968,15,180592.5468750000,163430.6406250000,194263.0156250000,179571.0781250000,168180.3281250000,139512.3906250000,162690.7812500000,143527.3593750000,,,
2.0399999968,15,180609.6562500000,163433.0312500000,194297.2656250000,179593.2500000000,168214.1250000000,139544.5468750000,162744.3437500000,143178.8281250000,,,
2.0439999967,15,180602.2187500000,163430.3750000000,194308.1875000000,179564.0468750000,168224.7968750000,139551.4843750000,162753.0625000000,142637.5312500000,,,
2.0479999967,16,180566.2812500000,163415.3281250000,194237.5000000000,179529.3125000000,168160.1562500000,139519.5000000000,162702.8437500000,142655.6718750000,,,
2.0519999966,16,180561.8593750000,163413.7343750000,194239.3281250000,179529.9531250000,168159.5937500000,139522.0625000000,162685.7968750000,143209.2187500000,,,
2.0559999966,16,180581.2500000000,163425.1093750000,194266.5000000000,179559.4375000000,168183.3281250000,139520.5625000000,162701.2187500000,143544.2343750000,,,
2.0599999966,16,180597.6093750000,163441.1875000000,194274.7812500000,179555.2187500000,168192.6562500000,139561.3281250000,162721.7031250000,143219.3281250000,,,
2.0639999965,16,180611.4218750000,163456.3125000000,194304.9843750000,179561.1250000000,168227.3437500000,139601.5156250000,162767.4843750000,142665.4843750000,,,
2.0679999965,16,180589.8281250000,163447.9062500000,194275.5312500000,179550.8437500000,168200.8906250000,139557.3437500000,162728.1875000000,142655.1093750000,,,
2.0719999967,16,180566.4687500000,163412.7812500000,194248.7343750000,179542.4218750000,168171.9218750000,139527.2187500000,162694.4062500000,143211.0937500000,,,
2.0759999966,16,180577.4375000000,163424.7968750000,194256.5156250000,179556.3281250000,168179.9218750000,139554.5156250000,162690.9062500000,143520.5468750000,,,
2.0799999966,16,180602.3593750000,163444.3437500000,194274.2500000000,179580.9218750000,168202.5781250000,139567.0000000000,162747.8281250000,143182.7500000000,,,
2.0839999965,16,180595.6718750000,163429.4375000000,194297.2031250000,179556.9687500000,168223.0781250000,139557.9218750000,162758.5625000000,142651.4218750000,,,
2.0879999965,16,180583.0937500000,163420.3906250000,194275.5937500000,179533.1250000000,168202.6718750000,139536.1250000000,162729.5937500000,142668.4062500000,,,
2.0919999967,16,180568.3281250000,163418.6718750000,194228.0937500000,179531.9687500000,168161.2031250000,139548.3281250000,162702.6562500000,143210.6093750000,,,
2.0959999966,16,180587.3125000000,163430.0156250000,194259.9531250000,179551.3281250000,168190.0625000000,139568.4687500000,162722.1406250000,143531.2187500000,,,
2.0999999966,16,180625.0468750000,163456.1250000000,194326.6406250000,179584.1093750000,168250.9375000000,139584.8125000000,162770.2500000000,143175.8593750000,,,
2.1039999966,16,180608.7343750000,163438.8437500000,194302.6250000000,179571.6093750000,168225.4062500000,139559.8593750000,162779.8593750000,142620.2031250000,,,
2.1079999965,16,180585.6250000000,163422.7187500000,194282.5625000000,179539.0000000000,168204.4375000000,139556.6718750000,162762.7343750000,142633.2500000000,,,
2.1119999965,16,180583.3906250000,163426.9843750000,194275.9375000000,179542.0312500000,168200.7656250000,139559.3750000000,162729.5625000000,143138.3906250000,,,
2.1159999967,16,180593.6718750000,163437.3750000000,194284.3125000000,179557.3750000000,168204.1093750000,139555.1718750000,162729.3281250000,143452.2812500000,,,
2.1199999966,16,180608.7187500000,163449.0937500000,194288.8437500000,179578.8593750000,168209.2968750000,139594.4062500000,162721.0312500000,143134.7343750000,,,
2.1239999966,16,180604.8750000000,163443.1406250000,194284.2500000000,179574.7031250000,168204.5937500000,139609.9062500000,162730.5625000000,142572.5468750000,,,
2.1279999965,16,180564.4062500000,163406.3125000000,194249.2500000000,179531.6250000000,168172.6250000000,139524.7968750000,162704.0625000000,142567.7187500000,,,
2.1319999965,16,180558.9062500000,163412.6718750000,194246.0625000000,179524.5312500000,168169.5156250000,139497.6562500000,162691.2812500000,143103.8593750000,,,
2.1359999967,16,180579.5000000000,163418.5937500000,194268.6406250000,179568.2031250000,168186.1093750000,139544.6718750000,162716.2656250000,143427.3437500000,,,
2.1399999966,16,180612.9531250000,163447.2656250000,194292.3281250000,179604.0156250000,168214.9687500000,139592.9375000000,162746.0781250000,143060.8125000000,,,
2.1439999966,16,180611.3125000000,163456.3281250000,194305.3125000000,179580.5781250000,168234.3906250000,139585.2812500000,162773.6093750000,142490.3593750000,,,
2.1479999966,16,180561.0781250000,163405.4062500000,194255.1562500000,179521.6718750000,168184.2343750000,139548.5468750000,162749.6562500000,142493.1562500000,,,
2.1519999965,16,180548.7343750000,163396.0312500000,194225.5625000000,179523.1718750000,168155.1093750000,139517.9062500000,162696.7031250000,143045.3593750000,,,
2.1559999965,16,180572.8593750000,163422.9687500000,194246.8437500000,179562.0625000000,168172.0937500000,139539.9531250000,162672.5156250000,143353.0468750000,,,
2.1599999967,16,180604.6093750000,163454.8125000000,194292.2187500000,179572.7343750000,168218.4687500000,139582.0156250000,162737.6093750000,143022.1562500000,,,
2.1639999966,16,180605.6562500000,163458.8593750000,194299.5937500000,179584.1875000000,168221.5000000000,139570.2187500000,162745.4375000000,142512.3906250000,,,
2.1679999966,16,180560.2812500000,163427.2343750000,194245.3593750000,179507.2187500000,168166.8906250000,139504.9531250000,162669.4062500000,142540.5468750000,,,
2.1719999965,16,180533.3906250000,163387.1406250000,194218.2968750000,179503.3281250000,168136.3281250000,139505.9218750000,162650.3593750000,143095.9531250000,,,
2.1759999965,17,180561.9375000000,163405.0000000000,194245.4375000000,179562.8125000000,168158.1406250000,139535.0000000000,162675.1718750000,143414.8125000000,,,
2.1799999964,17,180584.3906250000,163425.2500000000,194264.7500000000,179574.5312500000,168186.4843750000,139545.8593750000,162729.6093750000,143090.7500000000,,,
2.1839999964,17,180591.6875000000,163445.0625000000,194285.8125000000,179550.0000000000,168212.7812500000,139587.8437500000,162750.7500000000,142561.3906250000,,,
2.1879999964,17,180581.3906250000,163437.6406250000,194284.2031250000,179542.2968750000,168202.7656250000,139538.8125000000,162701.1093750000,142551.9218750000,,,
2.1919999963,17,180548.2031250000,163393.7343750000,194237.0468750000,179540.4218750000,168157.0468750000,139472.2812500000,162671.9218750000,143048.2343750000,,,
2.1959999963,17,180559.3906250000,163412.2656250000,194223.1875000000,179567.5156250000,168145.9062500000,139532.2343750000,162668.7031250000,143360.2343750000,,,
2.1999999965,17,180622.8281250000,163472.7031250000,194300.8281250000,179612.7500000000,168224.4687500000,139592.0156250000,162760.3281250000,143071.6718750000,,,
2.2039999964,17,180645.9218750000,163490.1250000000,194351.4218750000,179617.9375000000,168266.1718750000,139575.5468750000,162819.9843750000,142532.7187500000,,,
2.2079999964,17,180570.5937500000,163422.4375000000,194251.6718750000,179561.4218750000,168163.5625000000,139512.3281250000,162665.6250000000,142524.7500000000,,,
2.2119999963,17,180530.7656250000,163373.7187500000,194204.1406250000,179527.4843750000,168121.4531250000,139515.5781250000,162705.3437500000,143048.7500000000,,,
2.2159999963,17,180521.5625000000,163364.8125000000,194199.0156250000,179533.2500000000,168106.6406250000,139497.3125000000,162584.1562500000,143396.8437500000,,,
2.2199999965,17,180547.6875000000,163398.1093750000,194229.8593750000,179581.8593750000,168136.6875000000,139523.2812500000,162640.7031250000,143166.5156250000,,,
2.2239999964,17,180570.4687500000,163409.3906250000,194276.0000000000,179593.8750000000,168184.0312500000,139522.7656250000,162717.4062500000,142695.9062500000,,,
2.2279999964,17,180572.6718750000,163411.9375000000,194291.8125000000,179522.3125000000,168204.9218750000,139555.5625000000,162733.3750000000,142694.5000000000,,,
2.2319999964,17,180563.8906250000,163437.7968750000,194240.1562500000,179500.7187500000,168156.2343750000,139464.9843750000,162641.8281250000,143256.3281250000,,,
2.2359999963,17,180556.3593750000,163432.2812500000,194211.6406250000,179524.2187500000,168128.5000000000,139451.9843750000,162622.0625000000,143610.4218750000,,,
2.2399999963,17,180573.1562500000,163394.5937500000,194259.2031250000,179568.8281250000,168172.3593750000,139549.9687500000,162680.7968750000,143306.3125000000,,,
2.2439999965,17,180579.8593750000,163405.2343750000,194271.2500000000,179580.7031250000,168184.7968750000,139578.8281250000,162704.2656250000,142756.3281250000,,,
2.2479999964,17,180561.7187500000,163413.7968750000,194271.1093750000,179536.3437500000,168187.6250000000,139592.9375000000,162757.3437500000,142736.2968750000,,,
2.2519999964,17,180572.2031250000,163423.2031250000,194273.4375000000,179578.6718750000,168188.2343750000,139512.5781250000,162679.0312500000,143256.3437500000,,,
2.2559999963,17,180551.6718750000,163392.3437500000,194232.4843750000,179551.5781250000,168145.4531250000,139493.3906250000,162612.0625000000,143612.4843750000,,,
2.2599999963,17,180564.4062500000,163403.6562500000,194282.8281250000,179532.0468750000,168193.5937500000,139536.1250000000,162724.5781250000,143341.1875000000,,,
2.2639999965,17,180567.7343750000,163419.0781250000,194255.6875000000,179536.8750000000,168176.2500000000,139537.3593750000,162692.4687500000,142802.2812500000,,,
2.2679999964,17,180557.1406250000,163413.9531250000,194233.8750000000,179539.5312500000,168153.0468750000,139469.0937500000,162661.9375000000,142783.0156250000,,,
2.2719999964,17,180553.7500000000,163404.9687500000,194234.7656250000,179578.9062500000,168148.3281250000,139537.3593750000,162631.8281250000,143288.6406250000,,,
2.2759999963,17,180594.3437500000,163453.3906250000,194275.4531250000,179636.0625000000,168187.5156250000,139552.5156250000,162684.7968750000,143626.2187500000,,,
2.2799999963,17,180591.7343750000,163434.4687500000,194279.9687500000,179578.3125000000,168192.3125000000,139520.7031250000,162689.9687500000,143308.8125000000,,,
2.2839999963,17,180564.8906250000,163390.6250000000,194247.0781250000,179543.8437500000,168161.1406250000,139579.6562500000,162676.1406250000,142719.7968750000,,,
2.2879999964,17,180586.9375000000,163434.9062500000,194297.1875000000,179553.1250000000,168218.7656250000,139624.0937500000,162733.3437500000,142686.9218750000,,,
2.2919999964,17,180605.6875000000,163470.7968750000,194282.5937500000,179583.5156250000,168202.2656250000,139469.3593750000,162656.3593750000,143232.2343750000,,,
2.2959999964,17,180595.9531250000,163453.5937500000,194252.3906250000,179581.0468750000,168175.4375000000,139509.4375000000,162672.0625000000,143585.4218750000,,,
2.2999999963,17,180622.7500000000,163459.6562500000,194319.4687500000,179588.2656250000,168241.6406250000,139628.5781250000,162684.7500000000,143301.3281250000,,,
2.3039999963,18,180636.5000000000,163497.9062500000,194314.3437500000,179630.5468750000,168234.4531250000,139627.4218750000,162714.4375000000,142772.4531250000,,,
2.3079999962,18,180629.0781250000,163475.6406250000,194344.4687500000,179601.0156250000,168276.0000000000,139582.6562500000,162810.5156250000,142748.0625000000,,,
2.3119999962,18,180602.5156250000,163461.4531250000,194325.9062500000,179507.3437500000,168263.2812500000,139638.5000000000,162760.5468750000,143329.3906250000,,,
2.3159999961,18,180569.4218750000,163434.6875000000,194208.8281250000,179512.0468750000,168142.9531250000,139544.4375000000,162690.0312500000,143783.8906250000,,,
2.3199999961,18,180608.7656250000,163473.7343750000,194258.8750000000,179569.6562500000,168191.2656250000,139575.9843750000,162632.8125000000,143532.3750000000,,,
2.3239999961,18,180654.7343750000,163514.0000000000,194372.4218750000,179561.8281250000,168304.8281250000,139651.3281250000,162808.2343750000,143020.0156250000,,,
2.3279999963,18,180625.3437500000,163478.1406250000,194335.1562500000,179515.8281250000,168265.5312500000,139458.7656250000,162765.4843750000,142965.9218750000,,,
2.3319999962,18,180595.8906250000,163465.0312500000,194268.9687500000,179504.5312500000,168207.3593750000,139533.0937500000,162774.5156250000,143449.9687500000,,,
2.3359999962,18,180652.1718750000,163511.7968750000,194347.7187500000,179633.5156250000,168278.1718750000,139710.0156250000,162772.1250000000,143811.9687500000,,,
2.3399999961,18,180692.1250000000,163569.8125000000,194378.7968750000,179628.3437500000,168308.2031250000,139848.0937500000,162853.1093750000,143513.7031250000,,,
2.3439999961,18,180647.4218750000,163532.2187500000,194322.9375000000,179553.8750000000,168253.2500000000,139661.4062500000,162761.4531250000,142932.6875000000,,,
2.3479999963,18,180599.9375000000,163483.1875000000,194269.0156250000,179546.8593750000,168196.5781250000,139470.3593750000,162654.5625000000,142905.2968750000,,,
2.3519999962,18,180554.1875000000,163399.2031250000,194241.3125000000,179508.0468750000,168175.0156250000,139497.9062500000,162658.7031250000,143445.6562500000,,,
2.3559999962,18,180580.7187500000,163415.4375000000,194283.6406250000,179538.6250000000,168217.7656250000,139604.8750000000,162796.8281250000,143797.5625000000,,,
2.3599999961,18,180597.8750000000,163444.0156250000,194279.0781250000,179588.6406250000,168206.5000000000,139579.0937500000,162733.4843750000,143502.4687500000,,,
2.3639999961,18,180600.5000000000,163442.6562500000,194292.6718750000,179586.0468750000,168216.0781250000,139589.9218750000,162740.9843750000,142925.3593750000,,,
2.3679999961,18,180581.7812500000,163435.8750000000,194273.6093750000,179564.0156250000,168198.9062500000,139614.9843750000,162708.0000000000,142872.2500000000,,,
2.3719999962,18,180613.4687500000,163476.7968750000,194330.3281250000,179584.1093750000,168259.9843750000,139618.3593750000,162757.7812500000,143407.5468750000,,,
2.3759999962,18,180623.5000000000,163495.6562500000,194290.3125000000,179616.4531250000,168217.2343750000,139666.7656250000,162725.7031250000,143748.3750000000,,,
2.3799999962,18,180667.1093750000,163546.0781250000,194351.6875000000,179632.5468750000,168277.1562500000,139667.9062500000,162854.7343750000,143417.8125000000,,,
2.3839999961,18,180657.1562500000,163486.8906250000,194399.7812500000,179620.0468750000,168316.9843750000,139594.5468750000,162830.4687500000,142822.7656250000,,,
2.3879999961,18,180546.8593750000,163418.5468750000,194184.0468750000,179568.7187500000,168098.9375000000,139560.5625000000,162475.7968750000,142747.2031250000,,,
2.3919999963,18,180515.4531250000,163381.9843750000,194150.8906250000,179524.5625000000,168080.4375000000,139532.8281250000,162619.1562500000,143260.8593750000,,,
2.3959999962,18,180574.8125000000,163425.6718750000,194296.7500000000,179537.8906250000,168220.9843750000,139504.8281250000,162767.6250000000,143595.7812500000,,,
2.3999999962,18,180617.9218750000,163459.8281250000,194337.9062500000,179610.0937500000,168241.3437500000,139650.9218750000,162573.5625000000,143277.3437500000,,,
2.4039999961,18,180620.8593750000,163466.0156250000,194320.0312500000,179604.1406250000,168235.7656250000,139661.6250000000,162664.1093750000,142683.5156250000,,,
2.4079999961,18,180603.4531250000,163462.4218750000,194286.4062500000,179560.0000000000,168198.9687500000,139630.0781250000,162692.3125000000,142592.3437500000,,,
2.4119999961,18,180587.6093750000,163467.7343750000,194257.7031250000,179545.4062500000,168174.1875000000,139659.1562500000,162635.0468750000,143109.3906250000,,,
2.4159999962,18,180646.6093750000,163499.0312500000,194377.1093750000,179588.2187500000,168287.6718750000,139656.6406250000,162812.0156250000,143466.0468750000,,,
2.4199999962,18,180681.4531250000,163523.0937500000,194406.7812500000,179647.9531250000,168319.0000000000,139593.6562500000,162859.5625000000,143107.3750000000,,,
2.4239999962,18,180625.5625000000,163522.2343750000,194236.7187500000,179614.4531250000,168157.1250000000,139599.3750000000,162609.2968750000,142475.9843750000,,,
2.4279999961,18,180546.6562500000,163415.9375000000,194188.1718750000,179524.1406250000,168108.7031250000,139673.0781250000,162474.2500000000,142398.5000000000,,,
2.4319999961,19,180570.7343750000,163411.1718750000,194314.6406250000,179508.7187500000,168226.9375000000,139600.4218750000,162735.2031250000,142941.8125000000,,,
2.4359999960,19,180582.9062500000,163477.6250000000,194249.7031250000,179568.4218750000,168149.1562500000,139611.1718750000,162511.4531250000,143322.9531250000,,,
2.4399999960,19,180573.4218750000,163453.7812500000,194202.2343750000,179579.2343750000,168119.7031250000,139575.1250000000,162533.7343750000,143006.3125000000,,,
2.4439999959,19,180595.5937500000,163446.2031250000,194311.5625000000,179558.1250000000,168217.6875000000,139522.7343750000,162662.3750000000,142389.8906250000,,,
2.4479999959,19,180548.3593750000,163388.6875000000,194286.6875000000,179510.8125000000,168186.1718750000,139610.1718750000,162641.9687500000,142315.4218750000,,,
2.4519999959,19,180520.7656250000,163415.2187500000,194192.5000000000,179503.1875000000,168119.3281250000,139613.1875000000,162505.6250000000,142900.3125000000,,,
2.4559999960,19,180564.9375000000,163470.4218750000,194213.7968750000,179556.6250000000,168128.9375000000,139606.6875000000,162548.9687500000,143329.2968750000,,,
2.4599999960,19,180544.9062500000,163377.1562500000,194195.9062500000,179565.9062500000,168112.4062500000,139625.0156250000,162630.9375000000,143034.0156250000,,,
2.4639999960,19,180569.5000000000,163407.3906250000,194270.4687500000,179546.5937500000,168181.3125000000,139615.4062500000,162574.9062500000,142441.1093750000,,,
2.4679999959,19,180578.7500000000,163436.7500000000,194314.0781250000,179562.2812500000,168221.9531250000,139573.1718750000,162630.1562500000,142347.1875000000,,,
2.4719999959,19,180543.4843750000,163413.5000000000,194211.5625000000,179607.0156250000,168112.6562500000,139629.4062500000,162565.0937500000,142874.7031250000,,,
2.4759999961,19,180562.5312500000,163427.5468750000,194236.4843750000,179597.8437500000,168135.6093750000,139579.7968750000,162557.3437500000,143283.5781250000,,,
2.4799999960,19,180581.1406250000,163440.5937500000,194291.0937500000,179541.7031250000,168201.6406250000,139667.0625000000,162673.0468750000,142966.9843750000,,,
2.4839999960,19,180584.5781250000,163464.1093750000,194305.3906250000,179552.5625000000,168218.3593750000,139626.3750000000,162596.1718750000,142354.6093750000,,,
2.4879999959,19,180533.1250000000,163405.7187500000,194212.9375000000,179498.1406250000,168135.2812500000,139652.3906250000,162544.2812500000,142289.2812500000,,,
2.4919999959,19,180547.6718750000,163413.1718750000,194266.7187500000,179494.0937500000,168178.5312500000,139658.8125000000,162621.7656250000,142846.1875000000,,,
2.4959999959,19,180556.3906250000,163418.6718750000,194268.8593750000,179546.9375000000,168169.0000000000,139620.6406250000,162560.1250000000,143245.7031250000,,,
2.4999999960,19,180521.2968750000,163381.9843750000,194157.5156250000,179550.6875000000,168074.1093750000,139627.1562500000,162500.7500000000,142914.6562500000,,,
2.5039999960,19,180595.2812500000,163470.7656250000,194273.5468750000,179556.8906250000,168180.5156250000,139693.8125000000,162622.8906250000,142277.0156250000,,,
2.5079999960,19,180600.1093750000,163476.4843750000,194329.9062500000,179530.6250000000,168240.2187500000,139633.4375000000,162740.4531250000,142179.8125000000,,,
2.5119999959,19,180493.0625000000,163347.9218750000,194186.5625000000,179506.7812500000,168091.7812500000,139618.1406250000,162482.6875000000,142727.6875000000,,,
2.5159999959,19,180491.9062500000,163377.0468750000,194154.2187500000,179499.3281250000,168056.3281250000,139593.8437500000,162400.1093750000,143144.5000000000,,,
2.5199999961,19,180527.2031250000,163394.2656250000,194208.1093750000,179534.2187500000,168126.8125000000,139711.8906250000,162552.0312500000,142868.9843750000,,,
2.5239999960,19,180534.6250000000,163402.3125000000,194202.8437500000,179574.1406250000,168117.8593750000,139682.3281250000,162512.3593750000,142273.6406250000,,,
2.5279999960,19,180491.5781250000,163378.3125000000,194154.6562500000,179537.1406250000,168065.3593750000,139611.7343750000,162401.0468750000,142190.8437500000,,,
2.5319999959,19,180434.8750000000,163321.7187500000,194087.0000000000,179495.9687500000,167993.1562500000,139613.3125000000,162406.4687500000,142767.1093750000,,,
2.5359999959,19,180523.6562500000,163414.8437500000,194240.7500000000,179536.9843750000,168147.8750000000,139628.4218750000,162580.2187500000,143197.9218750000,,,
2.5399999958,19,180537.5312500000,163415.5937500000,194227.3125000000,179545.1093750000,168136.3281250000,139615.3593750000,162582.5781250000,142950.0468750000,,,
2.5439999960,19,180535.2812500000,163415.7031250000,194220.9218750000,179509.1718750000,168140.3593750000,139799.8125000000,162574.7500000000,142395.0156250000,,,
2.5479999960,19,180515.0781250000,163418.8593750000,194189.9218750000,179532.8281250000,168096.7187500000,139718.6718750000,162525.3437500000,142329.2343750000,,,
2.5519999960,19,180477.8437500000,163349.7187500000,194222.1562500000,179507.5000000000,168124.1250000000,139692.2500000000,162536.7343750000,142895.7500000000,,,
2.5559999959,19,180532.0312500000,163424.2500000000,194265.8750000000,179559.1406250000,168184.0781250000,139739.9687500000,162599.0468750000,143313.8281250000,,,
2.5599999959,20,180525.7812500000,163416.0468750000,194222.0000000000,179571.0468750000,168128.5312500000,139635.9218750000,162511.6875000000,142992.0156250000,,,
2.5639999958,20,180465.2656250000,163328.5468750000,194124.7968750000,179521.0781250000,168028.7031250000,139739.4687500000,162298.3750000000,142360.4687500000,,,
2.5679999958,20,180477.6562500000,163356.4218750000,194185.7656250000,179480.2812500000,168109.0000000000,139726.4062500000,162600.4375000000,142277.2031250000,,,
2.5719999957,20,180513.0625000000,163429.6406250000,194256.8437500000,179459.9843750000,168161.7812500000,139397.4062500000,162609.7812500000,142830.5781250000,,,
2.5759999957,20,180482.8906250000,163385.6875000000,194148.1093750000,179496.1406250000,168045.2187500000,139787.1718750000,162497.1250000000,143224.2343750000,,,
2.5799999957,20,180486.4062500000,163337.9375000000,194138.6406250000,179581.5312500000,168036.2812500000,139770.3593750000,162364.3281250000,142920.0000000000,,,
2.5839999958,20,180495.2343750000,163365.6718750000,194176.8906250000,179547.1562500000,168075.5312500000,139753.6562500000,162410.1093750000,142298.4218750000,,,
2.5879999958,20,180487.5937500000,163383.8593750000,194215.1093750000,179477.0312500000,168109.9687500000,139706.4687500000,162409.1406250000,142198.6406250000,,,
2.5919999958,20,180446.5781250000,163317.0156250000,194137.4843750000,179504.5000000000,168043.9843750000,139727.5000000000,162549.1093750000,142720.3906250000,,,
2.5959999957,20,180536.0468750000,163443.7343750000,194220.6250000000,179542.8906250000,168122.2500000000,139713.9531250000,162567.6718750000,143149.9375000000,,,
2.5999999957,20,180542.2187500000,163434.1718750000,194229.5937500000,179536.2343750000,168130.2500000000,139760.7812500000,162391.0156250000,142909.4375000000,,,
2.6039999959,20,180497.4531250000,163367.3593750000,194185.3125000000,179513.8125000000,168096.0937500000,139737.6406250000,162389.6718750000,142311.2968750000,,,
2.6079999958,20,180514.7812500000,163385.8125000000,194251.6093750000,179493.8750000000,168140.9218750000,139703.3593750000,162489.7500000000,142186.7968750000,,,
2.6119999958,20,180438.9531250000,163322.7343750000,194118.9843750000,179478.2656250000,168023.4687500000,139700.3281250000,162445.4843750000,142695.6250000000,,,
2.6159999957,20,180475.8437500000,163354.0937500000,194170.3437500000,179534.1718750000,168071.6093750000,139693.2187500000,162586.8437500000,143099.8750000000,,,
2.6199999957,20,180522.2656250000,163419.1250000000,194181.6093750000,179569.4687500000,168074.9843750000,139706.6093750000,162394.7968750000,142815.4218750000,,,
2.6239999956,20,180525.2187500000,163391.9843750000,194217.8750000000,179511.1562500000,168139.6406250000,139850.5000000000,162618.0937500000,142203.9218750000,,,
2.6279999958,20,180490.8125000000,163357.0156250000,194194.4062500000,179504.0468750000,168098.5468750000,139769.7656250000,162453.6718750000,142104.1562500000,,,
2.6319999958,20,180458.5312500000,163340.7656250000,194155.4843750000,179452.5000000000,168046.4531250000,139741.0781250000,162369.9062500000,142662.4062500000,,,
2.6359999957,20,180528.7656250000,163442.0156250000,194265.2656250000,179494.1718750000,168162.1562500000,139684.9062500000,162626.6250000000,143112.1718750000,,,
2.6399999957,20,180530.1250000000,163405.8750000000,194224.3906250000,179567.5156250000,168117.8750000000,139833.6093750000,162516.2968750000,142863.6250000000,,,
2.6439999957,20,180462.0312500000,163337.5156250000,194102.9375000000,179529.8750000000,168004.0781250000,139777.7343750000,162321.9687500000,142273.7812500000,,,
2.6479999959,20,180519.6406250000,163437.4218750000,194186.9687500000,179486.1562500000,168089.6875000000,139768.5937500000,162486.8750000000,142175.9843750000,,,
2.6519999958,20,180491.0781250000,163382.2031250000,194175.4062500000,179500.9375000000,168077.6718750000,139867.9062500000,162564.0781250000,142739.1093750000,,,
2.6559999958,20,180468.2187500000,163336.0625000000,194185.0156250000,179513.5156250000,168081.3437500000,139763.8437500000,162422.4843750000,143207.8750000000,,,
2.6599999957,20,180500.3281250000,163367.2031250000,194175.8437500000,179556.9687500000,168050.3750000000,139610.6562500000,162445.2968750000,142954.8906250000,,,
2.6639999957,20,180512.3750000000,163378.9062500000,194216.6562500000,179532.3437500000,168105.0000000000,139733.7500000000,162346.5156250000,142361.9687500000,,,
2.6679999956,20,180542.6718750000,163440.0468750000,194288.7812500000,179498.2500000000,168192.1718750000,139838.0937500000,162610.8437500000,142225.3906250000,,,
2.6719999958,20,180436.7031250000,163326.2812500000,194056.5156250000,179471.3437500000,167961.2968750000,139807.2343750000,162435.6406250000,142723.4218750000,,,
2.6759999958,20,180458.1093750000,163346.9843750000,194110.2031250000,179497.2656250000,168013.9687500000,139730.5781250000,162433.3437500000,143149.1406250000,,,
2.6799999957,20,180537.7187500000,163409.3437500000,194229.0312500000,179557.7968750000,168126.7656250000,139805.8437500000,162551.0937500000,142905.6562500000,,,
2.6839999957,20,180524.1718750000,163431.2031250000,194173.9843750000,179539.5625000000,168075.3750000000,139979.6250000000,162540.4687500000,142330.8750000000,,,
2.6879999957,21,180483.7500000000,163394.6406250000,194143.8906250000,179512.8437500000,168048.7656250000,139895.3281250000,162450.3750000000,142217.4218750000,,,
2.6919999956,21,180468.1406250000,163367.5781250000,194175.8593750000,179498.2500000000,168073.8906250000,139700.6718750000,162492.8593750000,142763.0312500000,,,
2.6959999956,21,180508.9062500000,163406.3125000000,194237.8593750000,179532.7656250000,168127.4843750000,139751.7187500000,162580.1562500000,143187.8125000000,,,
2.6999999955,21,180513.1718750000,163376.4375000000,194203.4687500000,179590.5156250000,168082.3750000000,139910.9062500000,162444.2500000000,142890.1718750000,,,
2.7039999955,21,180479.8125000000,163338.6093750000,194150.9531250000,179547.9218750000,168043.6562500000,139849.6718750000,162351.4218750000,142238.0000000000,,,
2.7079999954,21,180484.4218750000,163359.7812500000,194205.2656250000,179500.6093750000,168113.5156250000,139800.5937500000,162561.5468750000,142106.5156250000,,,
2.7119999956,21,180523.6875000000,163418.7031250000,194234.6406250000,179532.2656250000,168141.9687500000,139835.6718750000,162525.6875000000,142620.8281250000,,,
2.7159999956,21,180539.5625000000,163448.9062500000,194171.9218750000,179572.6562500000,168071.5781250000,139938.1562500000,162510.7500000000,143073.9375000000,,,
2.7199999955,21,180545.5781250000,163449.5000000000,194245.9218750000,179551.1718750000,168145.5937500000,139748.0937500000,162718.1875000000,142817.8125000000,,,
2.7239999955,21,180531.4062500000,163401.4062500000,194237.6718750000,179576.9218750000,168108.7656250000,139928.3437500000,162459.0156250000,142205.4062500000,,,
2.7279999955,21,180485.0312500000,163383.7500000000,194187.4843750000,179511.5000000000,168062.0156250000,139911.4375000000,162395.2500000000,142065.2031250000,,,
2.7319999957,21,180473.9531250000,163368.4062500000,194138.5312500000,179498.4687500000,168022.0468750000,139823.6875000000,162326.9687500000,142565.1406250000,,,
2.7359999956,21,180472.6718750000,163364.8906250000,194097.2968750000,179524.3281250000,168005.8750000000,139792.8437500000,162402.0625000000,143004.0000000000,,,
2.7399999956,21,180508.5625000000,163414.9531250000,194173.4531250000,179548.8593750000,168080.4843750000,139863.4062500000,162453.4531250000,142795.3281250000,,,
2.7439999955,21,180549.5468750000,163413.2031250000,194290.7656250000,179556.1406250000,168181.7656250000,139838.4062500000,162710.1718750000,142211.5156250000,,,
2.7479999955,21,180561.0781250000,163462.3750000000,194297.6875000000,179541.7656250000,168188.7187500000,139799.2812500000,162655.5625000000,142091.3906250000,,,
2.7519999954,21,180463.9843750000,163379.6562500000,194144.5156250000,179498.4218750000,168019.8125000000,139748.3906250000,162303.8906250000,142611.7031250000,,,
2.7559999956,21,180467.7187500000,163356.5781250000,194120.9843750000,179525.4843750000,167995.0312500000,139905.0937500000,162288.3437500000,143058.2187500000,,,
2.7599999956,21,180454.8593750000,163317.5625000000,194102.0468750000,179526.2031250000,167989.7500000000,139768.1406250000,162376.4531250000,142865.7343750000,,,
2.7639999955,21,180506.2500000000,163384.6875000000,194211.7500000000,179527.4843750000,168100.8281250000,139806.7656250000,162533.4062500000,142269.5625000000,,,
2.7679999955,21,180518.4843750000,163418.5156250000,194197.7500000000,179544.0625000000,168092.3437500000,139808.4687500000,162538.0312500000,142105.3281250000,,,
2.7719999955,21,180471.0625000000,163334.0468750000,194135.2812500000,179544.7031250000,168029.8281250000,139887.2968750000,162502.7500000000,142610.8437500000,,,
2.7759999956,21,180541.8281250000,163415.8125000000,194253.1093750000,179551.6250000000,168145.8750000000,139850.5625000000,162546.7968750000,143060.5937500000,,,
2.7799999956,21,180506.7343750000,163408.9375000000,194184.5312500000,179533.2343750000,168062.9687500000,139757.1562500000,162434.2500000000,142860.7968750000,,,
2.7839999956,21,180514.1093750000,163408.0625000000,194224.6875000000,179528.5156250000,168116.2656250000,139833.6875000000,162474.4843750000,142311.4531250000,,,
2.7879999955,21,180493.2656250000,163385.5468750000,194181.3437500000,179516.4062500000,168080.7031250000,139883.7343750000,162516.5156250000,142157.5781250000,,,
2.7919999955,21,180466.6406250000,163350.6093750000,194131.1562500000,179501.5468750000,168017.0625000000,139927.3281250000,162389.9687500000,142637.4218750000,,,
2.7959999954,21,180498.3750000000,163401.2343750000,194170.1250000000,179545.2968750000,168060.9687500000,139799.6562500000,162495.7031250000,143117.4062500000,,,
2.7999999956,21,180551.4218750000,163439.2812500000,194246.4843750000,179577.2500000000,168141.5937500000,139870.2500000000,162511.5000000000,142944.4375000000,,,
2.8039999956,21,180562.8750000000,163465.3437500000,194240.9062500000,179567.7968750000,168139.3593750000,140000.7656250000,162483.5781250000,142386.0781250000,,,
2.8079999955,21,180529.6093750000,163404.7031250000,194200.2500000000,179546.6718750000,168084.5625000000,139738.4375000000,162565.5937500000,142195.4531250000,,,
2.8119999955,21,180497.7812500000,163405.8750000000,194203.9218750000,179498.5156250000,168082.1250000000,139693.2968750000,162385.3281250000,142681.5000000000,,,
2.8159999955,22,180453.9843750000,163338.0156250000,194110.2031250000,179504.6093750000,168007.7968750000,139922.2500000000,162420.3906250000,143137.5781250000,,,
2.8199999954,22,180483.8281250000,163333.2500000000,194160.9218750000,179532.3125000000,168046.2656250000,139901.7343750000,162322.5156250000,142961.4687500000,,,
2.8239999954,22,180495.9531250000,163351.0625000000,194180.9062500000,179532.1562500000,168075.0781250000,139769.1562500000,162465.5312500000,142410.5937500000,,,
2.8279999953,22,180465.5312500000,163341.6406250000,194126.1406250000,179517.6250000000,168001.1250000000,139879.4687500000,162280.7187500000,142229.7343750000,,,
2.8319999953,22,180478.3125000000,163392.1250000000,194136.0625000000,179496.7812500000,168028.2343750000,139886.6875000000,162390.0781250000,142721.8437500000,,,
2.8359999952,22,180553.2968750000,163444.8281250000,194226.7968750000,179551.0937500000,168130.8593750000,139820.5781250000,162547.5000000000,143223.8437500000,,,
2.8399999954,22,180536.1093750000,163446.5156250000,194175.1406250000,179556.0312500000,168071.0781250000,139822.4687500000,162482.1093750000,143058.0000000000,,,
2.8439999954,22,180511.5156250000,163366.6875000000,194214.8437500000,179535.2968750000,168094.7656250000,139920.2187500000,162504.7968750000,142485.7187500000,,,
2.8479999953,22,180502.3906250000,163394.4531250000,194172.7500000000,179544.3906250000,168050.5000000000,139922.5156250000,162368.7500000000,142265.7812500000,,,
2.8519999953,22,180525.9375000000,163471.4375000000,194179.4375000000,179534.6250000000,168059.2968750000,139837.4687500000,162489.9375000000,142691.1562500000,,,
2.8559999953,22,180540.1562500000,163397.1718750000,194271.9218750000,179572.0625000000,168165.6250000000,139850.2968750000,162510.6093750000,143125.7500000000,,,
2.8599999954,22,180493.9375000000,163349.9843750000,194199.2343750000,179557.4218750000,168091.1406250000,139746.3593750000,162363.9218750000,142964.1406250000,,,
2.8639999954,22,180498.5625000000,163378.0625000000,194117.2812500000,179547.0468750000,168009.6562500000,139871.4062500000,162489.2031250000,142422.7968750000,,,
2.8679999954,22,180521.0937500000,163407.2968750000,194167.8437500000,179535.4062500000,168055.4062500000,139858.1562500000,162430.5468750000,142226.1093750000,,,
2.8719999953,22,180501.0000000000,163373.2968750000,194182.9218750000,179509.2500000000,168066.8593750000,139780.5312500000,162464.7187500000,142644.5312500000,,,
2.8759999953,22,180514.3750000000,163393.9687500000,194222.3750000000,179517.5625000000,168088.0312500000,139887.1093750000,162353.2031250000,143111.4531250000,,,
2.8799999952,22,180514.9687500000,163415.8125000000,194148.2187500000,179538.0625000000,168025.2968750000,139854.5000000000,162435.1875000000,142946.5781250000,,,
2.8839999954,22,180528.0937500000,163414.8750000000,194218.7031250000,179531.3750000000,168098.3593750000,139874.6406250000,162475.9375000000,142357.6718750000,,,
2.8879999954,22,180531.5937500000,163450.6250000000,194199.7968750000,179550.0156250000,168090.6875000000,139937.8593750000,162349.7656250000,142157.9218750000,,,
2.8919999953,22,180490.9687500000,163369.8281250000,194154.6562500000,179533.3906250000,168055.5468750000,139815.9062500000,162461.6562500000,142601.7500000000,,,
2.8959999953,22,180524.2187500000,163417.0156250000,194176.4062500000,179558.5781250000,168063.6718750000,139934.8593750000,162470.7812500000,143046.5468750000,,,
2.8999999953,22,180522.7968750000,163392.2812500000,194188.9218750000,179573.4062500000,168063.3750000000,139871.3437500000,162361.6718750000,142856.7187500000,,,
2.9039999954,22,180512.1093750000,163379.9687500000,194168.5781250000,179575.0781250000,168046.4218750000,139856.8593750000,162427.2031250000,142287.6093750000,,,
2.9079999954,22,180525.9375000000,163392.7187500000,194259.2343750000,179531.6250000000,168138.3437500000,139862.5781250000,162537.8437500000,142055.4218750000,,,
2.9119999954,22,180530.5000000000,163435.2187500000,194236.2968750000,179525.9843750000,168121.2656250000,139863.4375000000,162478.4218750000,142469.8125000000,,,
2.9159999953,22,180496.5156250000,163377.5312500000,194174.3593750000,179532.0156250000,168046.0781250000,139770.6562500000,162349.7812500000,142956.7656250000,,,
2.9199999953,22,180500.6718750000,163359.9843750000,194130.9375000000,179548.7656250000,168012.9531250000,139905.1406250000,162291.7968750000,142836.8750000000,,,
2.9239999952,22,180517.0156250000,163392.7968750000,194162.1093750000,179550.2656250000,168063.5312500000,139956.1875000000,162447.1875000000,142282.0312500000,,,
2.9279999954,22,180535.6562500000,163428.2031250000,194210.3281250000,179565.5156250000,168100.6562500000,139845.8437500000,162539.3750000000,142057.8750000000,,,
2.9319999954,22,180482.8906250000,163372.4062500000,194151.0000000000,179534.7656250000,168028.6718750000,139867.5156250000,162363.6250000000,142484.4843750000,,,
2.9359999953,22,180498.7187500000,163382.2812500000,194174.0468750000,179531.4375000000,168054.2031250000,139892.1562500000,162404.1875000000,142939.5781250000,,,
2.9399999953,22,180537.5312500000,163406.0625000000,194212.7187500000,179555.2812500000,168102.8906250000,139947.8750000000,162572.1718750000,142776.4218750000,,,
2.9439999952,23,180543.0781250000,163414.2031250000,194217.4687500000,179562.9531250000,168106.7500000000,139866.4062500000,162507.3125000000,142204.7656250000,,,
