Time:250Hz,Epoch,Channel 1,Channel 2,Channel 3,Channel 4,Channel 5,Channel 6,Channel 7,Channel 8,Event Id,Event Date,Event Duration
0.0000000000,0,204853.6406250000,195404.0781250000,202286.1406250000,188183.9687500000,187320.0781250000,165280.3750000000,170646.1562500000,-93461.0468750000,,,
0.0040000000,0,204844.1093750000,195401.4687500000,202274.3906250000,188171.2343750000,187299.6250000000,165263.1562500000,170625.8593750000,-93477.3281250000,,,
0.0079999999,0,204880.7187500000,195424.9375000000,202318.9687500000,188196.7187500000,187340.1562500000,165289.5781250000,170659.7343750000,-93455.4687500000,,,
0.0119999999,0,204864.4218750000,195403.2968750000,202303.3125000000,188200.0156250000,187332.8593750000,165283.0468750000,170647.2031250000,-93467.4062500000,,,
0.0159999998,0,204833.6562500000,195368.4062500000,202275.7656250000,188188.2031250000,187308.9531250000,165257.9687500000,170628.3281250000,-93491.1953125000,,,
0.0199999998,0,204819.5781250000,195365.2343750000,202257.3437500000,188161.5156250000,187287.1718750000,165236.1406250000,170608.1250000000,-93499.9687500000,,,
0.0240000000,0,204821.4218750000,195366.4531250000,202255.4062500000,188161.9218750000,187282.0000000000,165223.5312500000,170597.2812500000,-93510.3203125000,,,
0.0279999999,0,204850.6875000000,195386.5156250000,202287.5625000000,188187.9218750000,187310.5312500000,165241.9687500000,170618.3125000000,-93495.8125000000,,,
0.0319999999,0,204868.2031250000,195396.0781250000,202310.3593750000,188201.4531250000,187335.9375000000,165260.4687500000,170650.5000000000,-93478.3750000000,,,
0.0359999998,0,204852.5156250000,195376.0468750000,202296.5312500000,188210.8750000000,187326.2812500000,165249.2031250000,170645.7343750000,-93487.0937500000,,,
0.0399999998,0,204836.6562500000,195377.4375000000,202269.0781250000,188201.6718750000,187296.1875000000,165227.4218750000,170611.6093750000,-93498.2812500000,,,
0.0440000000,0,204842.7187500000,195379.6093750000,202275.5781250000,188209.1250000000,187296.7500000000,165214.2031250000,170609.0625000000,-93505.5468750000,,,
0.0480000000,0,204878.9062500000,195403.4062500000,202315.0781250000,188232.3125000000,187334.2187500000,165242.2500000000,170642.2656250000,-93484.5703125000,,,
0.0519999999,0,204865.8593750000,195384.3125000000,202303.3437500000,188207.2500000000,187326.0625000000,165237.3281250000,170633.0625000000,-93494.6328125000,,,
0.0559999999,0,204847.9218750000,195372.6406250000,202287.2500000000,188185.3593750000,187313.5468750000,165231.9843750000,170620.3593750000,-93499.2968750000,,,
0.0599999998,0,204837.3281250000,195382.5625000000,202269.0781250000,188166.4375000000,187294.8437500000,165224.6093750000,170604.6406250000,-93501.9296875000,,,
0.0639999998,0,204843.5156250000,195392.8906250000,202270.5312500000,188173.5312500000,187293.7656250000,165219.0781250000,170601.7656250000,-93503.8593750000,,,
0.0680000000,0,204881.2031250000,195412.5781250000,202311.6562500000,188229.2968750000,187334.7500000000,165242.3125000000,170637.5781250000,-93483.3671875000,,,
0.0719999999,0,204886.3593750000,195404.8593750000,202329.4687500000,188222.5468750000,187352.8906250000,165242.2343750000,170649.5937500000,-93483.5234375000,,,
0.0759999999,0,204868.2031250000,195391.0625000000,202313.3125000000,188203.6562500000,187340.0468750000,165233.9218750000,170642.5937500000,-93490.0468750000,,,
0.0799999998,0,204839.3437500000,195373.1562500000,202275.5000000000,188185.1250000000,187300.1250000000,165204.9531250000,170607.7500000000,-93513.7578125000,,,
0.0839999998,0,204830.7343750000,195373.5468750000,202259.5625000000,188176.8125000000,187277.5468750000,165184.8593750000,170588.7656250000,-93529.4218750000,,,
0.0880000000,0,204834.6718750000,195365.9062500000,202264.7656250000,188165.2812500000,187283.5312500000,165192.9843750000,170595.8906250000,-93535.1015625000,,,
0.0919999999,0,204851.8906250000,195379.5312500000,202290.0625000000,188181.7500000000,187311.6562500000,165224.9375000000,170619.0468750000,-93511.4765625000,,,
0.0959999999,0,204855.0625000000,195394.5312500000,202294.4531250000,188179.9531250000,187320.6250000000,165239.5000000000,170620.7812500000,-93494.0937500000,,,
0.0999999999,0,204830.1718750000,195372.3125000000,202269.1406250000,188172.4687500000,187293.7500000000,165206.3125000000,170604.6093750000,-93515.4218750000,,,
0.1039999998,0,204825.1250000000,195372.0468750000,202259.1093750000,188175.2031250000,187279.7656250000,165194.8125000000,170590.0000000000,-93526.4140625000,,,
0.1079999998,0,204854.2500000000,195394.0781250000,202289.7343750000,188194.2968750000,187309.8125000000,165218.5000000000,170616.6250000000,-93510.4296875000,,,
0.1120000000,0,204861.7656250000,195393.5625000000,202301.5625000000,188214.2500000000,187325.5312500000,165229.5625000000,170634.4687500000,-93504.9296875000,,,
0.1159999999,0,204851.9375000000,195386.9062500000,202292.3906250000,188219.3281250000,187320.7500000000,165231.7968750000,170638.8125000000,-93503.3515625000,,,
0.1199999999,0,204840.9218750000,195384.2343750000,202275.2812500000,188205.0312500000,187303.0781250000,165214.2812500000,170624.8281250000,-93513.9140625000,,,
0.1239999998,0,204827.7500000000,195378.5156250000,202256.1875000000,188164.6093750000,187279.6875000000,165183.4843750000,170594.9218750000,-93537.4140625000,,,
0.1279999998,1,204851.2812500000,195391.7343750000,202281.6875000000,188195.5625000000,187303.9687500000,165201.1406250000,170619.0625000000,-93527.8671875000,,,
0.1319999998,1,204867.9375000000,195395.5468750000,202305.3437500000,188227.2656250000,187330.0156250000,165222.8906250000,170643.4687500000,-93512.0625000000,,,
0.1359999997,1,204865.7656250000,195388.5781250000,202308.2656250000,188233.3437500000,187335.3281250000,165225.9531250000,170649.4843750000,-93505.2812500000,,,
0.1399999997,1,204830.0312500000,195364.7500000000,202267.5625000000,188164.3906250000,187293.2031250000,165194.4375000000,170604.7968750000,-93533.0703125000,,,
0.1439999996,1,204821.8750000000,195355.9843750000,202259.1406250000,188137.6250000000,187279.7187500000,165175.1718750000,170578.2500000000,-93549.8593750000,,,
0.1479999996,1,204854.7031250000,195373.3906250000,202289.9843750000,188213.2812500000,187308.9531250000,165205.0468750000,170607.2968750000,-93530.8125000000,,,
0.1519999998,1,204875.7031250000,195388.2500000000,202313.6562500000,188242.9062500000,187333.6562500000,165227.0781250000,170640.9062500000,-93510.6953125000,,,
0.1559999997,1,204851.8437500000,195369.5625000000,202293.9218750000,188186.7656250000,187316.0937500000,165210.4531250000,170631.4531250000,-93523.2500000000,,,
0.1599999997,1,204827.3750000000,195357.0000000000,202264.1250000000,188180.4375000000,187282.4218750000,165185.4218750000,170596.5937500000,-93541.9687500000,,,
0.1639999996,1,204827.8906250000,195364.9687500000,202257.7968750000,188177.3750000000,187272.0156250000,165175.9218750000,170578.2187500000,-93546.7500000000,,,
0.1679999996,1,204842.0468750000,195364.4375000000,202276.0312500000,188187.5156250000,187292.9687500000,165186.7812500000,170598.8750000000,-93542.8046875000,,,
0.1719999998,1,204844.2968750000,195352.8437500000,202286.8906250000,188196.7656250000,187308.5781250000,165189.6562500000,170612.6875000000,-93544.1171875000,,,
0.1759999997,1,204848.6250000000,195362.3906250000,202297.6562500000,188200.9531250000,187319.5781250000,165197.5468750000,170624.8125000000,-93531.7265625000,,,
0.1799999997,1,204811.5312500000,195339.5156250000,202251.1718750000,188137.1875000000,187275.1875000000,165161.7968750000,170578.8125000000,-93563.4062500000,,,
0.1839999997,1,204794.2500000000,195335.4062500000,202220.7187500000,188104.9843750000,187246.5625000000,165147.4687500000,170547.8593750000,-93579.6875000000,,,
0.1879999996,1,204836.1718750000,195361.5156250000,202267.5781250000,188153.4531250000,187293.2968750000,165183.2500000000,170595.5937500000,-93551.1953125000,,,
0.1919999996,1,204837.9218750000,195345.0468750000,202283.8125000000,188170.4843750000,187313.4531250000,165179.5000000000,170589.4531250000,-93554.7656250000,,,
0.1959999998,1,204843.9843750000,195353.2500000000,202292.5000000000,188175.7656250000,187319.6562500000,165192.0781250000,170612.5000000000,-93537.1171875000,,,
0.1999999997,1,204839.9843750000,195361.1093750000,202283.5625000000,188171.7187500000,187303.5312500000,165187.2500000000,170620.5625000000,-93535.0000000000,,,
0.2039999997,1,204813.4062500000,195338.6250000000,202251.7500000000,188130.4687500000,187265.9062500000,165154.8437500000,170589.5625000000,-93570.4062500000,,,
0.2079999996,1,204808.7812500000,195328.7656250000,202243.6250000000,188142.7968750000,187254.7500000000,165139.7187500000,170573.0937500000,-93588.3750000000,,,
0.2119999996,1,204807.5468750000,195325.0312500000,202244.0000000000,188166.2656250000,187258.5625000000,165142.5000000000,170574.8593750000,-93588.2109375000,,,
0.2159999998,1,204811.3437500000,195327.2343750000,202252.9687500000,188159.2343750000,187269.6875000000,165152.9375000000,170586.8281250000,-93574.4765625000,,,
0.2199999997,1,204785.2968750000,195303.7656250000,202218.6250000000,188130.5468750000,187240.2968750000,165127.0781250000,170557.8906250000,-93594.0859375000,,,
0.2239999997,1,204780.1406250000,195304.4375000000,202207.4687500000,188113.5937500000,187229.4843750000,165118.6562500000,170544.5312500000,-93601.1953125000,,,
0.2279999997,1,204811.7343750000,195328.3906250000,202241.8281250000,188152.7187500000,187264.7812500000,165147.8750000000,170582.0312500000,-93578.0234375000,,,
0.2319999996,1,204812.5937500000,195324.0468750000,202248.4531250000,188177.0312500000,187277.8750000000,165154.8437500000,170592.1718750000,-93578.4218750000,,,
0.2359999996,1,204807.4218750000,195319.4531250000,202249.2031250000,188160.7187500000,187281.7812500000,165153.9843750000,170603.5312500000,-93575.3671875000,,,
0.2399999998,1,204800.9843750000,195320.3125000000,202243.6250000000,188111.9531250000,187273.5468750000,165139.6875000000,170601.3437500000,-93576.8437500000,,,
0.2439999997,1,204798.9218750000,195328.9218750000,202235.6093750000,188122.8750000000,187262.0156250000,165147.1718750000,170586.2656250000,-93580.2500000000,,,
0.2479999997,1,204818.2812500000,195334.9531250000,202258.1093750000,188194.3593750000,187281.8593750000,165170.2187500000,170607.1562500000,-93574.6953125000,,,
0.2519999996,1,204843.0625000000,195351.3125000000,202286.2968750000,188220.5625000000,187311.3750000000,165191.9375000000,170631.4843750000,-93552.1093750000,,,
0.2559999996,2,204813.5312500000,195330.0000000000,202256.5781250000,188148.4375000000,187282.7187500000,165171.5000000000,170606.7343750000,-93571.6640625000,,,
0.2599999995,2,204774.9375000000,195287.8593750000,202222.3125000000,188143.6093750000,187244.9375000000,165127.9218750000,170576.1250000000,-93607.8750000000,,,
0.2639999995,2,204773.9218750000,195284.9843750000,202221.0937500000,188131.1875000000,187239.3750000000,165117.8281250000,170565.7968750000,-93617.1250000000,,,
0.2679999995,2,204779.6250000000,195285.0625000000,202225.2500000000,188111.1718750000,187241.8437500000,165124.7500000000,170569.8437500000,-93622.4375000000,,,
0.2719999994,2,204776.3281250000,195272.4062500000,202226.2031250000,188116.5625000000,187244.6406250000,165125.5000000000,170572.8593750000,-93626.7265625000,,,
0.2759999994,2,204782.2343750000,195276.8593750000,202233.4843750000,188119.5468750000,187253.3281250000,165129.7187500000,170581.9531250000,-93613.5625000000,,,
0.2799999996,2,204775.4687500000,195281.0937500000,202222.7968750000,188117.8593750000,187240.1875000000,165120.3437500000,170571.3750000000,-93614.0390625000,,,
0.2839999995,2,204782.2031250000,195290.8906250000,202229.0937500000,188111.5000000000,187244.1250000000,165119.2500000000,170574.1093750000,-93611.3593750000,,,
0.2879999995,2,204796.7968750000,195296.1718750000,202242.5781250000,188141.5156250000,187259.0625000000,165124.4843750000,170580.4687500000,-93610.7734375000,,,
0.2919999994,2,204811.7343750000,195306.3906250000,202259.7968750000,188153.3906250000,187279.4218750000,165140.3125000000,170598.5468750000,-93596.2578125000,,,
0.2959999994,2,204795.8906250000,195294.7812500000,202245.7968750000,188128.6718750000,187267.8125000000,165133.1406250000,170593.7500000000,-93600.5781250000,,,
0.2999999996,2,204763.6718750000,195276.5625000000,202202.8125000000,188107.6093750000,187227.3281250000,165107.7187500000,170554.8281250000,-93619.8906250000,,,
0.3039999995,2,204759.1718750000,195273.7812500000,202192.1250000000,188106.5937500000,187214.4531250000,165097.6562500000,170538.8437500000,-93629.5468750000,,,
0.3079999995,2,204778.2656250000,195276.0000000000,202213.1406250000,188128.9531250000,187232.5625000000,165106.2343750000,170558.0781250000,-93631.0781250000,,,
0.3119999995,2,204779.8437500000,195271.7031250000,202224.9062500000,188146.3593750000,187244.3125000000,165112.8437500000,170574.4062500000,-93630.9375000000,,,
0.3159999994,2,204757.3437500000,195249.6406250000,202204.1250000000,188136.3593750000,187229.0312500000,165102.5625000000,170569.1250000000,-93642.2031250000,,,
0.3199999994,2,204754.7968750000,195255.9062500000,202193.4218750000,188125.0156250000,187220.1250000000,165104.4687500000,170565.3750000000,-93636.6796875000,,,
0.3239999996,2,204754.2343750000,195262.5312500000,202188.1875000000,188092.3281250000,187212.5312500000,165102.1718750000,170555.0937500000,-93638.0781250000,,,
0.3279999995,2,204777.3750000000,195281.5000000000,202213.9843750000,188094.5937500000,187239.2187500000,165122.8125000000,170582.3281250000,-93620.8828125000,,,
0.3319999995,2,204788.2500000000,195287.5937500000,202231.5937500000,188100.8750000000,187260.8125000000,165139.2812500000,170600.7812500000,-93610.6640625000,,,
0.3359999994,2,204784.2656250000,195285.5156250000,202230.3281250000,188112.1406250000,187264.7500000000,165139.9531250000,170602.4843750000,-93605.5156250000,,,
0.3399999994,2,204768.3906250000,195276.0000000000,202205.5156250000,188109.5937500000,187241.4375000000,165112.6562500000,170574.8125000000,-93618.7656250000,,,
0.3439999996,2,204754.3593750000,195267.2812500000,202189.3437500000,188081.0781250000,187221.9218750000,165090.5000000000,170549.3593750000,-93637.1875000000,,,
0.3479999995,2,204784.3750000000,195291.5625000000,202223.1406250000,188121.3906250000,187253.9218750000,165114.2343750000,170576.1562500000,-93620.2656250000,,,
0.3519999995,2,204785.1093750000,195280.2968750000,202229.8906250000,188146.1562500000,187262.7343750000,165119.1093750000,170579.1562500000,-93622.3828125000,,,
0.3559999994,2,204781.4531250000,195281.5000000000,202224.5312500000,188123.0000000000,187259.3593750000,165129.1250000000,170577.7812500000,-93613.2109375000,,,
0.3599999994,2,204748.0312500000,195251.6406250000,202184.1718750000,188074.7187500000,187218.2968750000,165096.3750000000,170546.2187500000,-93643.8671875000,,,
0.3639999994,2,204753.0468750000,195254.0000000000,202186.0937500000,188098.5937500000,187217.0625000000,165090.0937500000,170548.3125000000,-93647.0625000000,,,
0.3679999996,2,204799.0312500000,195294.5156250000,202233.6718750000,188146.5625000000,187263.0312500000,165124.8906250000,170594.2031250000,-93611.8203125000,,,
0.3719999995,2,204803.2656250000,195298.5781250000,202246.2343750000,188136.6093750000,187278.2500000000,165140.5781250000,170606.1406250000,-93605.3828125000,,,
0.3759999995,2,204790.8437500000,195286.3281250000,202237.0625000000,188140.1250000000,187273.1406250000,165136.4687500000,170597.8437500000,-93608.4140625000,,,
0.3799999994,2,204787.4687500000,195287.5312500000,202231.0312500000,188126.8906250000,187265.8437500000,165124.2187500000,170582.9062500000,-93606.6093750000,,,
0.3839999994,3,204808.4687500000,195310.7968750000,202245.2343750000,188142.7968750000,187276.1250000000,165129.6093750000,170589.4062500000,-93593.3125000000,,,
0.3879999993,3,204840.8906250000,195337.7187500000,202279.1093750000,188205.6406250000,187305.8906250000,165151.6250000000,170619.2500000000,-93572.6562500000,,,
0.3919999993,3,204839.5000000000,195327.7968750000,202280.7187500000,188213.1875000000,187314.5000000000,165159.3437500000,170626.1250000000,-93573.0312500000,,,
0.3959999993,3,204807.8437500000,195295.6562500000,202252.0000000000,188157.0156250000,187290.3906250000,165144.1875000000,170609.1718750000,-93593.8750000000,,,
0.3999999992,3,204791.8125000000,195296.1718750000,202229.8437500000,188124.2187500000,187266.1718750000,165127.1093750000,170589.7968750000,-93601.2500000000,,,
0.4039999992,3,204809.2187500000,195314.7812500000,202246.1718750000,188128.4531250000,187280.2031250000,165136.5781250000,170599.8437500000,-93587.7578125000,,,
0.4079999994,3,204824.9375000000,195314.4375000000,202263.5625000000,188154.2031250000,187298.1718750000,165143.2031250000,170608.7343750000,-93585.7421875000,,,
0.4119999993,3,204832.7656250000,195310.1250000000,202276.7500000000,188171.2343750000,187313.9687500000,165147.0937500000,170626.1718750000,-93581.2421875000,,,
0.4159999993,3,204832.6562500000,195313.9531250000,202280.4062500000,188154.6875000000,187320.4843750000,165154.1250000000,170634.0937500000,-93568.4453125000,,,
0.4199999992,3,204817.2656250000,195306.4218750000,202255.3593750000,188149.0000000000,187296.7968750000,165145.8906250000,170612.5156250000,-93574.0546875000,,,
0.4239999992,3,204844.8125000000,195338.7968750000,202281.5312500000,188182.4687500000,187316.9218750000,165163.5312500000,170632.5625000000,-93551.0390625000,,,
0.4279999994,3,204874.0156250000,195371.9687500000,202308.1406250000,188205.7031250000,187344.8125000000,165196.2500000000,170658.0625000000,-93526.1484375000,,,
0.4319999993,3,204870.7812500000,195350.4843750000,202312.7812500000,188207.9843750000,187351.7343750000,165196.1562500000,170667.7187500000,-93535.9375000000,,,
0.4359999993,3,204864.9062500000,195338.9062500000,202309.1562500000,188217.3437500000,187350.0000000000,165192.0781250000,170668.7968750000,-93538.2187500000,,,
0.4399999992,3,204855.2187500000,195347.9062500000,202294.8906250000,188196.7656250000,187334.4687500000,165189.9843750000,170655.0937500000,-93538.3515625000,,,
0.4439999992,3,204841.7031250000,195345.5468750000,202277.4218750000,188174.1250000000,187314.8281250000,165174.9062500000,170633.8125000000,-93551.9765625000,,,
0.4479999992,3,204869.0312500000,195365.0781250000,202307.3281250000,188197.8437500000,187343.3125000000,165197.3593750000,170663.7812500000,-93532.2109375000,,,
0.4519999993,3,204887.9062500000,195377.0625000000,202331.2812500000,188216.0000000000,187367.7812500000,165219.7500000000,170681.0468750000,-93513.7265625000,,,
0.4559999993,3,204870.2031250000,195358.4531250000,202313.1875000000,188203.4375000000,187352.2187500000,165214.4687500000,170669.2187500000,-93522.2578125000,,,
0.4599999993,3,204847.9218750000,195337.5625000000,202283.8125000000,188183.7500000000,187321.9843750000,165194.5156250000,170644.5468750000,-93539.3437500000,,,
0.4639999992,3,204846.3437500000,195342.2031250000,202279.4375000000,188190.1406250000,187313.0625000000,165184.5625000000,170635.8593750000,-93544.3359375000,,,
0.4679999992,3,204867.9843750000,195359.7968750000,202302.3906250000,188213.0156250000,187335.4843750000,165201.7031250000,170656.2656250000,-93533.6562500000,,,
0.4719999994,3,204872.0000000000,195356.5468750000,202313.9531250000,188206.5781250000,187351.9531250000,165218.7812500000,170674.3437500000,-93532.6406250000,,,
0.4759999993,3,204870.2656250000,195359.7968750000,202315.1406250000,188201.9687500000,187356.5625000000,165229.2500000000,170684.4062500000,-93525.9296875000,,,
0.4799999993,3,204857.3593750000,195362.5625000000,202296.6250000000,188183.3281250000,187336.1250000000,165217.9218750000,170664.5000000000,-93531.4609375000,,,
0.4839999992,3,204847.1406250000,195355.3750000000,202283.3281250000,188172.7656250000,187318.7656250000,165202.4843750000,170648.0937500000,-93547.3125000000,,,
0.4879999992,3,204877.2968750000,195378.9687500000,202318.1406250000,188191.7968750000,187352.9375000000,165232.7031250000,170684.1093750000,-93526.3359375000,,,
0.4919999992,3,204897.9687500000,195386.9687500000,202347.1875000000,188217.4531250000,187385.5312500000,165260.5781250000,170719.4375000000,-93507.0781250000,,,
0.4959999993,3,204882.0625000000,195368.6250000000,202333.2968750000,188212.1406250000,187376.3593750000,165255.4218750000,170713.1093750000,-93515.7109375000,,,
0.4999999993,3,204866.1875000000,195364.5937500000,202305.8906250000,188197.3593750000,187349.7500000000,165248.6718750000,170693.0156250000,-93520.4843750000,,,
0.5039999993,3,204853.5000000000,195354.0000000000,202289.0468750000,188187.0312500000,187331.0312500000,165233.2968750000,170678.9375000000,-93539.2890625000,,,
0.5079999992,3,204876.3281250000,195373.4218750000,202314.6562500000,188209.9375000000,187355.8437500000,165252.6406250000,170699.6718750000,-93525.4531250000,,,
0.5119999992,4,204890.5156250000,195389.5625000000,202333.0312500000,188214.0468750000,187377.6250000000,165282.4843750000,170719.7031250000,-93507.5625000000,,,
0.5159999991,4,204889.7031250000,195378.5468750000,202343.2187500000,188227.0156250000,187391.8125000000,165286.4843750000,170749.5625000000,-93504.8750000000,,,
0.5199999991,4,204880.0468750000,195369.4687500000,202332.2187500000,188229.7031250000,187380.3750000000,165274.6093750000,170745.7187500000,-93510.3750000000,,,
0.5239999990,4,204876.5156250000,195378.5156250000,202319.3437500000,188232.4375000000,187365.3593750000,165272.6718750000,170728.4218750000,-93512.8984375000,,,
0.5279999990,4,204891.8281250000,195390.9375000000,202338.2343750000,188214.8906250000,187385.4843750000,165295.9062500000,170752.3437500000,-93502.1406250000,,,
0.5319999990,4,204931.0625000000,195427.8906250000,202390.8906250000,188205.3750000000,187438.4843750000,165343.6406250000,170809.6875000000,-93461.0234375000,,,
0.5359999991,4,204928.4687500000,195433.5781250000,202381.9843750000,188229.4843750000,187437.4531250000,165360.7812500000,170810.5468750000,-93449.4609375000,,,
0.5399999991,4,204898.6093750000,195406.1718750000,202342.8125000000,188216.1875000000,187397.0156250000,165329.4062500000,170776.1093750000,-93475.5625000000,,,
0.5439999991,4,204907.2031250000,195406.6250000000,202349.9218750000,188224.9843750000,187396.4687500000,165319.9531250000,170776.8281250000,-93479.6406250000,,,
0.5479999990,4,204922.4531250000,195420.3593750000,202367.3125000000,188242.7656250000,187410.6562500000,165337.1875000000,170791.9062500000,-93476.1250000000,,,
0.5519999990,4,204935.6093750000,195423.5781250000,202387.6718750000,188255.5625000000,187431.3906250000,165361.2343750000,170823.2343750000,-93464.3750000000,,,
0.5559999992,4,204929.7500000000,195418.5937500000,202383.9375000000,188223.8593750000,187432.5781250000,165361.1093750000,170828.7031250000,-93461.7500000000,,,
0.5599999991,4,204919.0781250000,195421.1093750000,202372.7187500000,188199.5312500000,187420.4843750000,165355.2343750000,170818.4843750000,-93462.4140625000,,,
0.5639999991,4,204931.2343750000,195446.2968750000,202379.3750000000,188197.4687500000,187424.5625000000,165369.1562500000,170819.5156250000,-93449.7578125000,,,
0.5679999990,4,204946.6250000000,195457.0312500000,202396.0000000000,188233.0312500000,187444.2500000000,165384.7343750000,170833.3750000000,-93442.0625000000,,,
0.5719999990,4,204943.2812500000,195444.2343750000,202389.0312500000,188267.8750000000,187444.2187500000,165385.2500000000,170832.0312500000,-93447.5546875000,,,
0.5759999990,4,204922.4062500000,195421.4843750000,202369.8593750000,188237.9375000000,187428.8750000000,165375.7031250000,170827.7968750000,-93457.0546875000,,,
0.5799999991,4,204907.9687500000,195412.5312500000,202352.3125000000,188215.4375000000,187408.6250000000,165357.1093750000,170808.3437500000,-93465.6640625000,,,
0.5839999991,4,204913.3750000000,195423.0468750000,202354.1406250000,188217.9062500000,187406.3437500000,165355.8437500000,170800.8750000000,-93463.6250000000,,,
0.5879999991,4,204938.0781250000,195440.6562500000,202378.7656250000,188234.0781250000,187429.7812500000,165375.2343750000,170823.2031250000,-93451.0468750000,,,
0.5919999990,4,204937.8906250000,195436.0781250000,202382.2968750000,188253.3593750000,187437.0312500000,165379.2968750000,170822.8906250000,-93452.3046875000,,,
0.5959999990,4,204926.0468750000,195428.0000000000,202375.5156250000,188247.2656250000,187432.9531250000,165377.4062500000,170817.3906250000,-93452.8437500000,,,
0.5999999992,4,204918.0937500000,195431.2187500000,202370.1250000000,188227.3750000000,187426.2500000000,165379.1562500000,170817.6875000000,-93450.0000000000,,,
0.6039999991,4,204905.7968750000,195430.1250000000,202348.5000000000,188219.5312500000,187401.2187500000,165362.0937500000,170803.3906250000,-93464.9375000000,,,
0.6079999991,4,204912.2343750000,195426.5312500000,202355.1562500000,188221.6562500000,187407.6875000000,165357.8906250000,170812.3281250000,-93470.3593750000,,,
0.6119999990,4,204927.9531250000,195438.0625000000,202374.1406250000,188234.0781250000,187427.4843750000,165382.7187500000,170828.3125000000,-93453.2968750000,,,
0.6159999990,4,204917.7656250000,195416.5468750000,202370.9062500000,188235.5000000000,187424.5625000000,165375.5625000000,170833.2968750000,-93459.8984375000,,,
0.6199999989,4,204909.5625000000,195416.9218750000,202364.0937500000,188222.0000000000,187410.3437500000,165353.4062500000,170821.9531250000,-93465.5859375000,,,
0.6239999991,4,204895.5625000000,195413.3906250000,202339.1093750000,188212.4062500000,187380.4062500000,165333.8750000000,170783.5625000000,-93483.9531250000,,,
0.6279999991,4,204912.2343750000,195429.8750000000,202353.8125000000,188251.9062500000,187393.1250000000,165342.5781250000,170785.6562500000,-93477.0859375000,,,
0.6319999991,4,204914.7031250000,195421.1093750000,202362.7812500000,188250.0312500000,187407.2812500000,165345.8437500000,170799.3593750000,-93476.6093750000,,,
0.6359999990,4,204906.3437500000,195412.0468750000,202357.2968750000,188230.3125000000,187402.0468750000,165348.1250000000,170795.3125000000,-93478.6718750000,,,
0.6399999990,5,204904.3281250000,195420.1406250000,202351.7031250000,188218.0937500000,187390.6250000000,165338.1718750000,170778.0625000000,-93478.2421875000,,,
0.6439999989,5,204903.9531250000,195424.3281250000,202349.7656250000,188214.1406250000,187383.6562500000,165317.7343750000,170766.5312500000,-93487.8984375000,,,
0.6479999989,5,204916.1250000000,195428.9375000000,202362.9375000000,188255.2656250000,187397.0156250000,165320.8125000000,170776.8593750000,-93486.5546875000,,,
0.6519999988,5,204929.7031250000,195434.7031250000,202380.0000000000,188288.7656250000,187418.9218750000,165334.9843750000,170794.7500000000,-93473.5468750000,,,
0.6559999988,5,204914.3906250000,195420.4687500000,202369.2968750000,188262.2187500000,187410.8281250000,165328.9218750000,170790.2968750000,-93479.0468750000,,,
0.6599999988,5,204881.4687500000,195398.7343750000,202336.4687500000,188194.7812500000,187374.7968750000,165300.9218750000,170757.7031250000,-93505.4140625000,,,
0.6639999989,5,204852.6406250000,195379.4843750000,202301.1562500000,188164.5781250000,187335.0468750000,165266.6875000000,170719.5625000000,-93536.4765625000,,,
0.6679999989,5,204868.1718750000,195388.3906250000,202317.1250000000,188204.6562500000,187349.1875000000,165270.5312500000,170731.6406250000,-93531.5078125000,,,
0.6719999989,5,204884.8281250000,195394.7656250000,202336.8593750000,188231.2656250000,187372.7968750000,165291.3750000000,170750.9218750000,-93515.1250000000,,,
0.6759999988,5,204879.0156250000,195389.1562500000,202336.8125000000,188211.2812500000,187373.5937500000,165295.2500000000,170754.7343750000,-93512.6015625000,,,
0.6799999988,5,204894.8125000000,195411.3750000000,202351.2187500000,188221.8125000000,187384.8281250000,165302.6406250000,170771.4687500000,-93490.7968750000,,,
0.6839999990,5,204865.8906250000,195385.8125000000,202313.5000000000,188221.6562500000,187346.6875000000,165268.7031250000,170731.7187500000,-93523.5703125000,,,
0.6879999989,5,204866.1562500000,195380.6875000000,202311.2968750000,188223.9687500000,187343.7656250000,165264.7656250000,170719.8906250000,-93534.5937500000,,,
0.6919999989,5,204864.5468750000,195372.1562500000,202310.7656250000,188217.1250000000,187345.5156250000,165266.9531250000,170714.7968750000,-93541.2734375000,,,
0.6959999988,5,204872.2031250000,195374.9687500000,202325.2968750000,188219.7187500000,187361.3125000000,165278.7031250000,170737.5625000000,-93524.9921875000,,,
0.6999999988,5,204864.9062500000,195370.7968750000,202316.5312500000,188205.2656250000,187349.5937500000,165264.1406250000,170726.5156250000,-93529.8750000000,,,
0.7039999987,5,204871.2031250000,195378.3593750000,202319.2343750000,188202.3437500000,187347.2500000000,165257.2031250000,170721.3906250000,-93530.6250000000,,,
0.7079999989,5,204890.0625000000,195390.9843750000,202338.8750000000,188224.0781250000,187364.9843750000,165265.2500000000,170735.8750000000,-93522.6093750000,,,
0.7119999989,5,204909.2968750000,195398.7968750000,202365.4531250000,188244.6406250000,187396.1562500000,165286.5468750000,170764.5781250000,-93505.2812500000,,,
0.7159999989,5,204899.8437500000,195387.4218750000,202359.7968750000,188236.6718750000,187395.9375000000,165284.4531250000,170761.3281250000,-93503.3515625000,,,
0.7199999988,5,204886.1406250000,195384.8750000000,202340.2656250000,188222.6562500000,187374.6093750000,165267.9062500000,170737.3281250000,-93508.2031250000,,,
0.7239999988,5,204885.5468750000,195394.6406250000,202335.3125000000,188222.4687500000,187364.1562500000,165260.5156250000,170730.9375000000,-93512.1171875000,,,
0.7279999990,5,204916.2656250000,195419.7968750000,202368.5156250000,188260.9531250000,187394.8125000000,165288.9062500000,170767.6562500000,-93492.9375000000,,,
0.7319999989,5,204921.6093750000,195421.0312500000,202375.7500000000,188274.0468750000,187406.4062500000,165302.3593750000,170779.4062500000,-93488.1640625000,,,
0.7359999989,5,204915.0781250000,195422.3750000000,202372.5156250000,188260.1718750000,187404.8125000000,165308.3437500000,170775.3906250000,-93482.3750000000,,,
0.7399999988,5,204898.4218750000,195415.2812500000,202353.3125000000,188241.5625000000,187380.7031250000,165288.0937500000,170749.9062500000,-93492.4296875000,,,
0.7439999988,5,204885.3437500000,195399.4375000000,202332.7656250000,188234.7968750000,187355.5937500000,165258.2500000000,170719.2968750000,-93514.9609375000,,,
0.7479999987,5,204896.1718750000,195399.7031250000,202340.6250000000,188254.6406250000,187364.2812500000,165262.2656250000,170723.7812500000,-93515.8984375000,,,
0.7519999989,5,204895.0000000000,195394.2812500000,202344.4843750000,188259.4218750000,187370.7031250000,165271.0156250000,170739.3437500000,-93515.3359375000,,,
0.7559999989,5,204865.5781250000,195368.1875000000,202321.8125000000,188227.7656250000,187350.4687500000,165255.6875000000,170726.2187500000,-93531.6171875000,,,
0.7599999988,5,204857.7968750000,195367.5156250000,202314.9843750000,188218.0625000000,187341.7500000000,165250.0312500000,170722.8906250000,-93530.6250000000,,,
0.7639999988,5,204844.9687500000,195363.2500000000,202297.5468750000,188208.8125000000,187319.8750000000,165228.0156250000,170703.9062500000,-93548.3281250000,,,
0.7679999988,6,204871.6093750000,195380.1250000000,202326.0781250000,188239.8906250000,187345.9687500000,165248.9843750000,170732.6093750000,-93534.3828125000,,,
0.7719999987,6,204889.9218750000,195386.7500000000,202348.3906250000,188265.1875000000,187370.3750000000,165271.0937500000,170759.2968750000,-93520.5156250000,,,
0.7759999987,6,204873.0781250000,195369.9375000000,202332.0312500000,188245.5312500000,187357.1250000000,165267.9062500000,170749.7968750000,-93528.6171875000,,,
0.7799999986,6,204840.1718750000,195343.5468750000,202296.2812500000,188205.0312500000,187318.6093750000,165236.7812500000,170711.0937500000,-93555.3828125000,,,
0.7839999986,6,204835.4687500000,195341.0781250000,202286.9687500000,188198.7500000000,187306.3281250000,165223.4531250000,170696.3750000000,-93565.4140625000,,,
0.7879999985,6,204861.0156250000,195359.9843750000,202310.6093750000,188234.5625000000,187329.8750000000,165244.9062500000,170716.7031250000,-93549.9921875000,,,
0.7919999987,6,204882.2031250000,195374.7812500000,202335.5156250000,188262.3437500000,187361.5468750000,165272.8125000000,170749.0781250000,-93529.8203125000,,,
0.7959999987,6,204886.1093750000,195377.2031250000,202346.3125000000,188266.3125000000,187378.6875000000,165291.2343750000,170771.1250000000,-93516.3046875000,,,
0.7999999986,6,204887.9687500000,195387.6093750000,202345.7656250000,188256.0625000000,187379.0625000000,165296.0156250000,170778.1718750000,-93506.8906250000,,,
0.8039999986,6,204879.6250000000,195391.7656250000,202329.7343750000,188234.3125000000,187357.7968750000,165285.1406250000,170759.3125000000,-93518.1796875000,,,
0.8079999986,6,204881.6093750000,195388.4687500000,202334.6406250000,188254.8281250000,187358.9843750000,165287.6406250000,170761.4375000000,-93524.8593750000,,,
0.8119999988,6,204903.2500000000,195399.2812500000,202361.6718750000,188276.3750000000,187389.2812500000,165314.5625000000,170796.3281250000,-93506.6171875000,,,
0.8159999987,6,204891.6093750000,195383.6875000000,202353.0625000000,188252.2656250000,187387.2500000000,165311.5156250000,170799.3593750000,-93509.5703125000,,,
0.8199999987,6,204880.4062500000,195376.0781250000,202340.6406250000,188235.8125000000,187375.6875000000,165287.9687500000,170784.6406250000,-93514.4765625000,,,
0.8239999986,6,204885.9843750000,195389.2500000000,202338.4531250000,188233.3281250000,187371.3437500000,165285.2812500000,170766.9843750000,-93508.8750000000,,,
0.8279999986,6,204918.4843750000,195417.0000000000,202370.3593750000,188267.6562500000,187403.5781250000,165323.2031250000,170796.6875000000,-93482.4296875000,,,
0.8319999985,6,204926.4375000000,195415.2812500000,202383.8906250000,188258.3281250000,187424.3437500000,165341.6250000000,170823.5625000000,-93472.2343750000,,,
0.8359999987,6,204919.6718750000,195406.0156250000,202386.0312500000,188246.0625000000,187431.3437500000,165350.4531250000,170837.4531250000,-93467.7265625000,,,
0.8399999987,6,204910.7968750000,195405.4218750000,202375.4062500000,188232.3593750000,187419.9375000000,165352.2031250000,170834.3750000000,-93466.4687500000,,,
0.8439999986,6,204921.0156250000,195422.7656250000,202378.1406250000,188237.8906250000,187418.7968750000,165361.0312500000,170834.8750000000,-93458.0703125000,,,
0.8479999986,6,204948.3750000000,195445.1718750000,202404.8906250000,188265.2656250000,187442.2343750000,165378.4531250000,170858.2968750000,-93443.4531250000,,,
0.8519999986,6,204959.6406250000,195443.0156250000,202425.9062500000,188287.6093750000,187464.2031250000,165392.6250000000,170885.3281250000,-93438.3828125000,,,
0.8559999987,6,204942.6250000000,195423.6250000000,202413.2812500000,188281.5468750000,187455.8125000000,165390.1250000000,170881.6250000000,-93446.3281250000,,,
0.8599999987,6,204920.0937500000,195415.7500000000,202382.5468750000,188248.1562500000,187424.8593750000,165369.8437500000,170855.3750000000,-93460.7031250000,,,
0.8639999987,6,204919.6093750000,195418.9062500000,202380.9062500000,188240.9687500000,187420.4218750000,165361.0468750000,170846.3593750000,-93466.7343750000,,,
0.8679999986,6,204925.6250000000,195418.6406250000,202384.3906250000,188243.7031250000,187427.3750000000,165369.5312500000,170843.5468750000,-93468.9921875000,,,
0.8719999986,6,204941.9375000000,195427.4687500000,202401.3125000000,188261.3750000000,187446.8125000000,165389.0468750000,170863.3437500000,-93453.8359375000,,,
0.8759999985,6,204927.1250000000,195409.8906250000,202389.2812500000,188257.2500000000,187438.2343750000,165383.9843750000,170872.0468750000,-93457.9375000000,,,
0.8799999987,6,204903.7968750000,195398.3593750000,202362.1250000000,188223.2187500000,187413.0000000000,165371.5156250000,170856.4375000000,-93470.1406250000,,,
0.8839999987,6,204892.2656250000,195395.2500000000,202343.9375000000,188214.6250000000,187390.8437500000,165350.7031250000,170824.7187500000,-93485.2968750000,,,
0.8879999986,6,204911.2812500000,195404.6718750000,202362.1250000000,188233.1093750000,187405.8125000000,165361.8593750000,170826.7187500000,-93480.8984375000,,,
0.8919999986,6,204933.4375000000,195423.3906250000,202387.9375000000,188249.2343750000,187433.3593750000,165389.4843750000,170847.5625000000,-93456.8906250000,,,
0.8959999986,7,204914.7656250000,195405.4218750000,202375.7343750000,188223.7968750000,187425.0937500000,165384.3125000000,170827.9531250000,-93463.7890625000,33029,0.8986762513,0.0000000000
0.8999999985,7,204900.7812500000,195401.0156250000,202354.9687500000,188202.1562500000,187403.5781250000,165365.2031250000,170818.4843750000,-93468.2656250000,,,
0.9039999985,7,204898.8593750000,195399.3281250000,202347.3750000000,188221.1718750000,187390.9218750000,165352.2812500000,170830.1250000000,-93475.4765625000,,,
0.9079999984,7,204917.7187500000,195416.0625000000,202363.3437500000,188249.6562500000,187404.8437500000,165368.1562500000,170840.0312500000,-93465.0156250000,,,
0.9119999984,7,204944.5312500000,195429.8281250000,202397.5937500000,188269.6093750000,187441.5937500000,165394.0468750000,170864.8593750000,-93440.6953125000,,,
0.9159999983,7,204937.1093750000,195421.0312500000,202396.5468750000,188265.8281250000,187445.7968750000,165392.0000000000,170868.4843750000,-93434.0703125000,,,
0.9199999985,7,204917.8750000000,195406.7031250000,202372.6406250000,188257.2031250000,187423.5156250000,165370.3281250000,170851.6718750000,-93448.0937500000,,,
0.9239999985,7,204911.1718750000,195408.5625000000,202357.9687500000,188246.1718750000,187404.6093750000,165347.6875000000,170830.4531250000,-93461.4531250000,,,
0.9279999984,7,204912.8593750000,195405.0937500000,202358.9375000000,188237.4531250000,187404.4687500000,165337.3125000000,170822.2656250000,-93466.9218750000,,,
0.9319999984,7,204920.4687500000,195407.2656250000,202373.4687500000,188239.9218750000,187422.5781250000,165352.9218750000,170835.7656250000,-93451.7656250000,,,
0.9359999984,7,204925.0156250000,195411.3437500000,202386.3437500000,188241.2031250000,187437.0312500000,165365.2656250000,170851.2968750000,-93436.3750000000,,,
0.9399999985,7,204930.1093750000,195426.6875000000,202395.7343750000,188235.7968750000,187442.2656250000,165361.6718750000,170858.0000000000,-93434.3593750000,,,
0.9439999985,7,204933.2500000000,195444.0937500000,202386.5625000000,188225.4687500000,187428.1562500000,165347.3125000000,170841.3750000000,-93446.2968750000,,,
0.9479999985,7,204922.2968750000,195413.1406250000,202373.5000000000,188256.6093750000,187413.9687500000,165320.2343750000,170824.6562500000,-93480.1171875000,,,
0.9519999984,7,204942.7031250000,195418.9687500000,202399.3281250000,188284.2031250000,187441.9843750000,165339.4531250000,170845.0781250000,-93464.6953125000,,,
0.9559999984,7,204929.0000000000,195397.8750000000,202393.7812500000,188253.0156250000,187440.3281250000,165329.8906250000,170832.6250000000,-93472.7421875000,,,
0.9599999983,7,204904.1718750000,195387.0937500000,202363.9218750000,188221.8750000000,187409.7031250000,165302.6406250000,170804.3593750000,-93493.3671875000,,,
0.9639999985,7,204883.2187500000,195378.4062500000,202336.3281250000,188207.7656250000,187376.5468750000,165280.8750000000,170785.3437500000,-93517.6171875000,,,
0.9679999985,7,204896.6093750000,195391.0625000000,202348.3750000000,188217.1250000000,187384.7500000000,165289.4375000000,170800.8437500000,-93512.9218750000,,,
0.9719999984,7,204902.5312500000,195387.5312500000,202360.0625000000,188222.0781250000,187400.2500000000,165301.1562500000,170815.9375000000,-93505.8984375000,,,
0.9759999984,7,204889.6562500000,195374.7812500000,202349.8750000000,188217.5000000000,187395.7968750000,165297.5312500000,170809.2968750000,-93508.1484375000,,,
0.9799999984,7,204862.9375000000,195363.2500000000,202319.4843750000,188175.9843750000,187365.4375000000,165268.8437500000,170773.2343750000,-93535.0234375000,,,
0.9839999985,7,204845.6406250000,195352.3125000000,202296.7343750000,188162.9218750000,187339.1250000000,165245.0000000000,170738.7500000000,-93562.6015625000,,,
0.9879999985,7,204849.9843750000,195354.4531250000,202291.9062500000,188162.7500000000,187335.5937500000,165241.1562500000,170733.8437500000,-93568.2812500000,,,
0.9919999985,7,204860.2812500000,195343.6718750000,202303.3906250000,188190.9218750000,187349.1406250000,165242.2500000000,170752.3750000000,-93565.4921875000,,,
0.9959999984,7,204868.5468750000,195334.9062500000,202319.6406250000,188211.3281250000,187365.7656250000,165251.7812500000,170771.6250000000,-93553.3437500000,,,
0.9999999984,7,204864.8437500000,195338.5000000000,202313.8281250000,188205.4062500000,187359.1093750000,165250.7656250000,170760.2812500000,-93548.2734375000,,,
1.0039999983,7,204865.7031250000,195347.5625000000,202311.3281250000,188204.5781250000,187353.6718750000,165248.0000000000,170754.9687500000,-93544.9765625000,,,
1.0079999985,7,204886.2031250000,195367.3906250000,202330.1562500000,188213.4687500000,187371.1250000000,165265.0781250000,170771.2031250000,-93528.2890625000,,,
1.0119999985,7,204903.6562500000,195383.3906250000,202354.1718750000,188192.5312500000,187394.3593750000,165284.1562500000,170789.1250000000,-93513.6171875000,,,
1.0159999984,7,204915.2500000000,195394.9062500000,202373.8593750000,188202.4843750000,187415.1093750000,165300.0000000000,170807.8906250000,-93496.1093750000,,,
1.0199999984,7,204872.4843750000,195343.4062500000,202336.7343750000,188203.2500000000,187383.2812500000,165257.5156250000,170757.7968750000,-93535.1328125000,,,
1.0239999983,8,204858.5156250000,195341.3593750000,202308.3281250000,188200.6250000000,187355.8906250000,165236.8593750000,170707.5468750000,-93549.2421875000,,,
1.0279999983,8,204875.8125000000,195352.5000000000,202315.6718750000,188199.0468750000,187356.9375000000,165253.0156250000,170753.9843750000,-93542.5078125000,,,
1.0319999983,8,204881.2031250000,195345.0156250000,202325.5781250000,188188.1250000000,187362.4375000000,165265.3437500000,170777.2343750000,-93543.9296875000,,,
1.0359999982,8,204870.0468750000,195336.2656250000,202323.8593750000,188182.9531250000,187362.2968750000,165263.6406250000,170775.0937500000,-93543.8750000000,,,
1.0399999982,8,204874.2031250000,195356.4062500000,202326.7812500000,188191.7031250000,187365.3906250000,165271.8437500000,170771.6250000000,-93526.6015625000,,,
1.0439999981,8,204870.3750000000,195359.3593750000,202317.9531250000,188191.4062500000,187355.3906250000,165257.5937500000,170756.7187500000,-93535.1875000000,,,
1.0479999983,8,204884.6718750000,195369.9531250000,202330.1250000000,188207.2031250000,187367.4218750000,165261.7500000000,170771.2343750000,-93533.8984375000,,,
1.0519999983,8,204898.7812500000,195376.6406250000,202350.3750000000,188223.0000000000,187389.5000000000,165278.7656250000,170792.5781250000,-93524.2968750000,,,
1.0559999982,8,204893.7812500000,195376.0937500000,202355.4531250000,188206.5000000000,187396.6875000000,165286.9375000000,170798.8281250000,-93518.1562500000,,,
1.0599999982,8,204864.9218750000,195366.3437500000,202313.9375000000,188187.5156250000,187360.2656250000,165273.9062500000,170762.1406250000,-93530.6796875000,,,
1.0639999982,8,204854.2500000000,195357.3281250000,202295.4218750000,188204.4843750000,187337.2500000000,165247.2187500000,170739.9218750000,-93549.3750000000,,,
1.0679999983,8,204866.0781250000,195353.8593750000,202306.7656250000,188236.6718750000,187344.4375000000,165244.0000000000,170745.6093750000,-93553.8281250000,,,
1.0719999983,8,204864.4218750000,195346.8125000000,202309.8593750000,188216.4218750000,187349.8593750000,165250.1406250000,170745.3125000000,-93554.4140625000,,,
1.0759999983,8,204849.2656250000,195322.5312500000,202304.0937500000,188204.6250000000,187349.5625000000,165245.2812500000,170746.2031250000,-93561.8750000000,,,
1.0799999982,8,204840.9687500000,195315.7500000000,202294.5937500000,188197.1093750000,187340.7343750000,165233.9687500000,170743.4375000000,-93566.9140625000,,,
1.0839999982,8,204844.4375000000,195327.9843750000,202293.9218750000,188195.0156250000,187336.3906250000,165228.9531250000,170740.2968750000,-93564.7734375000,,,
1.0879999981,8,204853.0156250000,195337.9843750000,202300.0937500000,188205.4218750000,187341.5937500000,165236.3593750000,170743.0468750000,-93560.5859375000,,,
1.0919999983,8,204867.0781250000,195346.0000000000,202321.5468750000,188211.4375000000,187364.9062500000,165260.1406250000,170766.6718750000,-93544.2812500000,,,
1.0959999983,8,204871.0625000000,195340.9062500000,202332.2500000000,188222.9375000000,187378.2968750000,165267.2343750000,170778.7343750000,-93535.8046875000,,,
1.0999999982,8,204850.6562500000,195324.1250000000,202308.9687500000,188194.6406250000,187355.3593750000,165245.1250000000,170756.1875000000,-93552.2187500000,,,
1.1039999982,8,204860.6093750000,195339.5625000000,202313.2343750000,188187.7812500000,187354.0468750000,165240.5937500000,170752.8906250000,-93547.2578125000,,,
1.1079999981,8,204877.4218750000,195357.0781250000,202322.3750000000,188213.6875000000,187362.4687500000,165253.2343750000,170755.9687500000,-93537.8437500000,,,
1.1119999983,8,204890.0000000000,195360.3906250000,202337.0312500000,188232.5156250000,187378.1562500000,165263.8281250000,170771.6093750000,-93530.7890625000,,,
1.1159999983,8,204889.1718750000,195357.7343750000,202341.4531250000,188227.0156250000,187385.2031250000,165271.8906250000,170780.3281250000,-93527.0625000000,,,
1.1199999982,8,204876.7500000000,195351.5937500000,202328.0468750000,188212.0781250000,187373.8125000000,165263.3593750000,170767.9843750000,-93534.5703125000,,,
1.1239999982,8,204871.5781250000,195355.1875000000,202318.1718750000,188201.8125000000,187360.6718750000,165247.7812500000,170744.7343750000,-93543.2031250000,,,
1.1279999982,8,204890.0781250000,195372.2656250000,202331.7968750000,188222.5156250000,187369.2812500000,165257.4375000000,170762.0000000000,-93533.6328125000,,,
1.1319999981,8,204905.3437500000,195379.6718750000,202353.3281250000,188228.5468750000,187391.8281250000,165279.7031250000,170789.8437500000,-93521.1015625000,,,
1.1359999983,8,204875.0937500000,195348.3750000000,202331.3125000000,188215.9375000000,187376.2031250000,165271.6875000000,170766.9687500000,-93540.0703125000,,,
1.1399999983,8,204842.5000000000,195325.9687500000,202294.3437500000,188186.7343750000,187341.0312500000,165262.5312500000,170741.2968750000,-93559.5937500000,,,
1.1439999982,8,204854.7812500000,195349.5000000000,202301.1093750000,188191.3281250000,187342.0312500000,165269.8593750000,170748.3750000000,-93548.4375000000,,,
1.1479999982,8,204879.7812500000,195374.1093750000,202326.9062500000,188213.2812500000,187363.2187500000,165279.1562500000,170764.0937500000,-93534.5703125000,,,
1.1519999981,9,204895.0781250000,195379.2343750000,202341.4531250000,188247.1875000000,187381.7187500000,165294.0468750000,170780.1093750000,-93521.2421875000,,,
1.1559999981,9,204896.7656250000,195373.8437500000,202347.4062500000,188257.5468750000,187391.1718750000,165298.0468750000,170792.0468750000,-93513.5703125000,,,
1.1599999981,9,204898.1093750000,195381.0937500000,202346.6250000000,188239.8125000000,187391.7031250000,165304.0000000000,170792.8437500000,-93504.7968750000,,,
1.1639999980,9,204879.7812500000,195368.0000000000,202325.9218750000,188195.6406250000,187368.9531250000,165280.0156250000,170765.1093750000,-93526.1484375000,,,
1.1679999980,9,204900.6250000000,195385.7500000000,202344.5625000000,188224.3125000000,187384.8906250000,165296.2500000000,170772.4375000000,-93513.4609375000,,,
1.1719999979,9,204927.9062500000,195402.0156250000,202374.7656250000,188252.5000000000,187418.8437500000,165331.9531250000,170806.9062500000,-93487.7656250000,,,
1.1759999981,9,204928.3906250000,195397.2343750000,202382.9687500000,188257.2500000000,187431.8750000000,165346.2187500000,170826.6093750000,-93477.9765625000,,,
1.1799999981,9,204929.4062500000,195410.6406250000,202383.5000000000,188254.6406250000,187433.9687500000,165352.7968750000,170829.8906250000,-93466.0625000000,,,
1.1839999980,9,204925.5156250000,195419.4531250000,202374.4218750000,188253.0312500000,187422.2968750000,165342.6250000000,170818.0625000000,-93471.6718750000,,,
1.1879999980,9,204935.2500000000,195421.0312500000,202383.5000000000,188261.8125000000,187427.9843750000,165335.4375000000,170822.8593750000,-93477.4375000000,,,
1.1919999979,9,204947.6718750000,195424.1406250000,202395.2500000000,188271.7656250000,187441.3281250000,165347.2968750000,170837.5625000000,-93470.0859375000,,,
1.1959999981,9,204933.7031250000,195406.4375000000,202385.9531250000,188264.9687500000,187435.0156250000,165342.4687500000,170832.2968750000,-93478.2968750000,,,
1.1999999981,9,204913.3906250000,195392.4062500000,202363.2500000000,188243.1406250000,187412.0000000000,165323.0156250000,170810.0156250000,-93491.9453125000,,,
1.2039999980,9,204899.8437500000,195392.8906250000,202339.3593750000,188205.6406250000,187384.0625000000,165303.8437500000,170781.3437500000,-93505.6015625000,,,
1.2079999980,9,204930.5312500000,195416.2812500000,202368.0625000000,188233.3750000000,187409.9687500000,165326.5000000000,170807.9687500000,-93486.5546875000,,,
1.2119999980,9,204939.2812500000,195409.9218750000,202383.8593750000,188248.0156250000,187425.7968750000,165337.9062500000,170825.7656250000,-93486.6640625000,,,
1.2159999979,9,204934.9375000000,195398.3906250000,202392.5156250000,188240.0312500000,187435.3437500000,165346.5156250000,170836.9218750000,-93487.3906250000,,,
1.2199999981,9,204909.2031250000,195379.9375000000,202362.9687500000,188228.7031250000,187409.5312500000,165324.5468750000,170810.9531250000,-93504.6328125000,,,
1.2239999981,9,204896.6093750000,195376.3750000000,202341.1875000000,188229.0937500000,187386.0625000000,165303.3906250000,170785.0156250000,-93519.6562500000,,,
1.2279999980,9,204904.5625000000,195387.9375000000,202343.8906250000,188244.2343750000,187384.9375000000,165298.5781250000,170779.2968750000,-93519.3906250000,,,
1.2319999980,9,204924.4687500000,195401.7656250000,202367.2343750000,188256.0625000000,187409.8593750000,165317.4687500000,170806.0781250000,-93500.2656250000,,,
1.2359999979,9,204925.9218750000,195398.8125000000,202379.2187500000,188243.7343750000,187425.7187500000,165329.4062500000,170827.7500000000,-93488.4375000000,,,
1.2399999981,9,204912.9375000000,195397.5937500000,202365.3437500000,188232.8906250000,187414.7656250000,165327.2031250000,170819.1562500000,-93490.4453125000,,,
1.2439999981,9,204908.4062500000,195401.8281250000,202353.0625000000,188226.7500000000,187399.5625000000,165312.7187500000,170805.3750000000,-93499.3750000000,,,
1.2479999980,9,204922.7500000000,195405.0156250000,202367.4687500000,188268.4843750000,187410.5000000000,165312.0000000000,170815.8125000000,-93502.0078125000,,,
1.2519999980,9,204938.9218750000,195418.3750000000,202380.1562500000,188288.0468750000,187425.5468750000,165334.9531250000,170825.9687500000,-93487.5781250000,,,
1.2559999980,9,204931.9531250000,195402.2187500000,202380.2656250000,188268.9375000000,187430.1093750000,165337.3750000000,170833.1093750000,-93486.1562500000,,,
1.2599999979,9,204921.2187500000,195395.6250000000,202369.4218750000,188246.1406250000,187419.8906250000,165327.2500000000,170823.1562500000,-93489.1328125000,,,
1.2639999981,9,204934.5000000000,195417.7031250000,202373.3750000000,188262.3437500000,187418.4218750000,165333.9375000000,170818.1718750000,-93477.5156250000,,,
1.2679999981,9,204951.5625000000,195428.8281250000,202388.1718750000,188280.1250000000,187428.7968750000,165339.4062500000,170827.7187500000,-93471.8359375000,,,
1.2719999980,9,204974.5000000000,195440.5781250000,202418.1093750000,188292.0937500000,187458.3750000000,165360.5625000000,170854.3437500000,-93455.1718750000,,,
1.2759999980,9,204966.0781250000,195430.4218750000,202416.0625000000,188283.3437500000,187461.7031250000,165368.5312500000,170852.7656250000,-93453.3281250000,,,
1.2799999979,10,204953.2812500000,195427.1718750000,202398.0937500000,188281.0625000000,187445.6875000000,165357.2500000000,170829.0625000000,-93457.6171875000,,,
1.2839999979,10,204946.0625000000,195422.1562500000,202382.7343750000,188292.6875000000,187426.4687500000,165333.5625000000,170820.7656250000,-93472.3671875000,,,
1.2879999978,10,204932.4375000000,195397.4218750000,202367.0625000000,188272.5625000000,187409.3437500000,165312.6875000000,170816.5000000000,-93500.7968750000,,,
1.2919999978,10,204928.6875000000,195387.1250000000,202368.6250000000,188237.2656250000,187412.9687500000,165316.7343750000,170820.7500000000,-93505.4375000000,,,
1.2959999978,10,204920.8281250000,195379.2187500000,202367.9531250000,188222.5156250000,187416.1875000000,165322.2968750000,170828.9531250000,-93503.5390625000,,,
1.2999999977,10,204902.0000000000,195373.7187500000,202347.4375000000,188202.6875000000,187395.1562500000,165308.7500000000,170807.6250000000,-93513.7812500000,,,
1.3039999979,10,204895.5781250000,195378.4062500000,202333.2968750000,188212.0468750000,187376.3906250000,165296.0156250000,170785.5000000000,-93523.7890625000,,,
1.3079999979,10,204898.7812500000,195378.8437500000,202334.5625000000,188227.8281250000,187374.4062500000,165288.2031250000,170779.4375000000,-93531.0859375000,,,
1.3119999978,10,204930.0781250000,195398.7656250000,202374.4687500000,188281.1406250000,187413.5937500000,165314.5625000000,170806.2812500000,-93505.6562500000,,,
1.3159999978,10,204934.3906250000,195397.4843750000,202387.7656250000,188278.3125000000,187430.4531250000,165328.0312500000,170820.0937500000,-93494.3359375000,,,
1.3199999977,10,204894.3437500000,195362.6093750000,202343.9375000000,188212.4062500000,187391.5156250000,165300.1718750000,170793.9531250000,-93524.1875000000,,,
1.3239999979,10,204878.2031250000,195359.7656250000,202320.7500000000,188186.7343750000,187368.9062500000,165284.1250000000,170779.8593750000,-93536.0156250000,,,
1.3279999979,10,204907.5781250000,195390.2343750000,202350.2500000000,188221.7343750000,187396.8281250000,165305.8593750000,170809.3437500000,-93512.7109375000,,,
1.3319999978,10,204930.2656250000,195405.0937500000,202378.6250000000,188247.8125000000,187427.9843750000,165332.7343750000,170838.6093750000,-93492.9687500000,,,
1.3359999978,10,204920.6875000000,195395.9531250000,202373.8593750000,188243.3750000000,187428.5468750000,165338.1250000000,170840.1875000000,-93491.7109375000,,,
1.3399999978,10,204912.4531250000,195397.6093750000,202363.3437500000,188231.7343750000,187418.6875000000,165333.5000000000,170830.4843750000,-93490.0468750000,,,
1.3439999977,10,204902.1093750000,195390.7187500000,202348.0468750000,188220.7656250000,187400.5000000000,165312.6718750000,170814.4062500000,-93505.5234375000,,,
1.3479999979,10,204910.4218750000,195393.1562500000,202354.5937500000,188222.3750000000,187403.3125000000,165308.2968750000,170818.2187500000,-93512.8437500000,,,
1.3519999979,10,204924.4375000000,195391.5468750000,202377.5312500000,188233.6406250000,187424.3125000000,165323.7187500000,170838.9218750000,-93507.1875000000,,,
1.3559999978,10,204898.2187500000,195366.3437500000,202348.9843750000,188224.1562500000,187402.1562500000,165322.7812500000,170814.3281250000,-93522.6328125000,,,
1.3599999978,10,204892.2031250000,195364.7812500000,202343.2187500000,188217.6093750000,187397.0937500000,165314.1093750000,170807.8906250000,-93522.4453125000,,,
1.3639999977,10,204889.5468750000,195372.8593750000,202334.8750000000,188217.6875000000,187384.8593750000,165300.5625000000,170795.1875000000,-93527.1640625000,,,
1.3679999979,10,204914.9843750000,195401.8437500000,202357.2500000000,188247.5156250000,187403.2656250000,165316.6406250000,170815.6718750000,-93509.3281250000,,,
1.3719999979,10,204939.2500000000,195410.2187500000,202391.6562500000,188280.1875000000,187437.5156250000,165341.7968750000,170846.2968750000,-93492.3281250000,,,
1.3759999978,10,204938.4687500000,195395.6875000000,202400.5468750000,188273.6875000000,187450.3906250000,165347.0312500000,170856.1718750000,-93490.7187500000,,,
1.3799999978,10,204906.4687500000,195369.1250000000,202361.4531250000,188241.9062500000,187413.3750000000,165321.2500000000,170827.6406250000,-93516.8671875000,,,
1.3839999977,10,204882.4218750000,195358.9687500000,202323.6875000000,188224.2656250000,187372.6875000000,165296.4843750000,170792.9062500000,-93541.5703125000,,,
1.3879999977,10,204888.6875000000,195370.6250000000,202324.1718750000,188234.7500000000,187368.9062500000,165295.5468750000,170785.2031250000,-93544.9765625000,,,
1.3919999979,10,204896.8750000000,195375.1406250000,202335.3125000000,188237.0000000000,187381.5312500000,165308.2968750000,170792.8437500000,-93539.1796875000,,,
1.3959999979,10,204894.7031250000,195371.8593750000,202343.2812500000,188214.2500000000,187392.5000000000,165314.7343750000,170803.0937500000,-93533.6562500000,,,
1.3999999978,10,204890.2968750000,195372.6093750000,202343.7031250000,188200.3281250000,187394.4687500000,165316.0781250000,170803.3906250000,-93529.5000000000,,,
1.4039999978,10,204880.5312500000,195363.5468750000,202327.7187500000,188226.5625000000,187376.8750000000,165295.8281250000,170785.2812500000,-93542.4296875000,,,
1.4079999977,11,204907.4062500000,195391.9843750000,202348.3125000000,188247.8906250000,187395.7187500000,165318.1406250000,170800.6875000000,-93520.7031250000,,,
1.4119999977,11,204928.0156250000,195406.8437500000,202372.4062500000,188239.5781250000,187421.6875000000,165339.1718750000,170827.9375000000,-93501.7890625000,,,
1.4159999976,11,204904.7500000000,195378.7031250000,202356.3125000000,188219.1562500000,187409.1562500000,165325.9687500000,170819.5937500000,-93516.3593750000,,,
1.4199999976,11,204890.5937500000,195371.1718750000,202342.7656250000,188208.8593750000,187395.5312500000,165316.6093750000,170806.8750000000,-93520.8906250000,,,
1.4239999976,11,204889.6250000000,195383.1562500000,202329.0312500000,188209.6875000000,187379.3906250000,165312.9531250000,170787.1875000000,-93521.6406250000,,,
1.4279999975,11,204892.4218750000,195386.9375000000,202326.0000000000,188199.3906250000,187376.0156250000,165312.6718750000,170784.8281250000,-93526.4687500000,,,
1.4319999977,11,204913.9843750000,195394.4218750000,202352.7656250000,188232.2812500000,187403.6562500000,165326.3750000000,170811.2968750000,-93515.2265625000,,,
1.4359999977,11,204911.4843750000,195382.9687500000,202357.2500000000,188227.9843750000,187410.8750000000,165328.6562500000,170820.4687500000,-93517.6718750000,,,
1.4399999976,11,204910.5000000000,195384.7187500000,202359.1875000000,188221.0625000000,187412.1093750000,165331.7343750000,170824.1250000000,-93513.8593750000,,,
1.4439999976,11,204898.5625000000,195381.6250000000,202342.5000000000,188209.0781250000,187391.3750000000,165314.1875000000,170800.5156250000,-93527.7812500000,,,
1.4479999975,11,204916.3125000000,195400.9687500000,202356.9062500000,188231.4218750000,187402.1093750000,165323.2812500000,170810.5781250000,-93516.5468750000,,,
1.4519999977,11,204944.8906250000,195424.8125000000,202387.2031250000,188264.3593750000,187432.9531250000,165352.3125000000,170841.5312500000,-93490.3359375000,,,
1.4559999977,11,204931.5000000000,195408.3906250000,202379.7812500000,188251.0781250000,187427.9843750000,165353.8593750000,170839.0937500000,-93494.0937500000,,,
1.4599999976,11,204928.5156250000,195407.3281250000,202376.4531250000,188247.5625000000,187422.7656250000,165355.9531250000,170829.0000000000,-93490.6093750000,,,
1.4639999976,11,204917.0625000000,195401.4531250000,202355.8593750000,188240.5468750000,187401.3593750000,165338.7968750000,170804.3281250000,-93505.0078125000,,,
1.4679999975,11,204923.4531250000,195403.9218750000,202358.0468750000,188250.9687500000,187402.2968750000,165338.0312500000,170803.8437500000,-93508.8203125000,,,
1.4719999975,11,204930.1875000000,195398.9843750000,202369.5937500000,188271.2500000000,187415.9687500000,165345.2812500000,170820.0937500000,-93509.3828125000,,,
1.4759999977,11,204919.0781250000,195384.8125000000,202367.1718750000,188259.3125000000,187418.1250000000,165347.5625000000,170831.8125000000,-93513.5390625000,,,
1.4799999977,11,204912.9687500000,195389.2656250000,202362.3125000000,188237.2968750000,187416.1875000000,165351.3437500000,170837.0468750000,-93506.7812500000,,,
1.4839999976,11,204892.6562500000,195383.1562500000,202332.3593750000,188221.8437500000,187386.5468750000,165327.3593750000,170805.8593750000,-93525.4765625000,,,
1.4879999976,11,204914.3593750000,195409.5468750000,202350.2500000000,188250.4843750000,187400.6250000000,165343.0312500000,170816.6093750000,-93508.5000000000,,,
1.4919999975,11,204943.2812500000,195428.0000000000,202383.2343750000,188280.8281250000,187435.0468750000,165372.3437500000,170846.3593750000,-93481.8359375000,,,
1.4959999977,11,204923.1562500000,195397.6406250000,202372.8281250000,188260.0937500000,187428.0468750000,165365.7500000000,170838.7656250000,-93495.0312500000,,,
1.4999999977,11,204908.0312500000,195389.2500000000,202359.0000000000,188237.7968750000,187413.5937500000,165354.1562500000,170828.6875000000,-93503.1875000000,,,
1.5039999976,11,204884.7812500000,195380.6562500000,202324.6562500000,188208.7031250000,187378.9531250000,165330.1562500000,170792.3437500000,-93524.9687500000,,,
1.5079999976,11,204885.6875000000,195379.3437500000,202327.1875000000,188209.8593750000,187378.0000000000,165325.3750000000,170784.6875000000,-93534.2500000000,,,
1.5119999975,11,204909.0781250000,195395.7343750000,202356.8750000000,188247.4062500000,187406.1250000000,165346.4531250000,170813.7343750000,-93516.8906250000,,,
1.5159999975,11,204924.4375000000,195410.5156250000,202377.8281250000,188268.9218750000,187430.4062500000,165370.5468750000,170847.1406250000,-93492.8359375000,,,
1.5199999977,11,204906.2812500000,195399.0000000000,202358.6093750000,188265.1562500000,187413.5937500000,165356.7656250000,170840.2187500000,-93504.7187500000,,,
1.5239999976,11,204873.2187500000,195374.1718750000,202320.6093750000,188218.2968750000,187373.1093750000,165318.4531250000,170800.2968750000,-93538.9375000000,,,
1.5279999976,11,204886.7343750000,195381.5000000000,202333.0312500000,188227.0937500000,187380.3281250000,165323.0937500000,170805.5312500000,-93536.5546875000,,,
1.5319999976,11,204907.0625000000,195394.9531250000,202354.2968750000,188245.3750000000,187402.9687500000,165345.6562500000,170827.9843750000,-93520.5156250000,,,
1.5359999975,12,204903.4687500000,195388.5156250000,202358.4218750000,188234.3437500000,187410.8750000000,165352.4218750000,170834.4218750000,-93514.2109375000,,,
1.5399999975,12,204895.7968750000,195388.8750000000,202350.2812500000,188221.2031250000,187404.6562500000,165349.7812500000,170828.6562500000,-93511.8515625000,,,
1.5439999974,12,204882.4687500000,195389.5468750000,202325.6562500000,188215.2187500000,187379.3593750000,165333.0781250000,170803.3906250000,-93523.8671875000,,,
1.5479999974,12,204893.4687500000,195397.1093750000,202333.4843750000,188232.2031250000,187384.7343750000,165333.6875000000,170805.9375000000,-93521.6953125000,,,
1.5519999973,12,204919.3750000000,195408.4531250000,202365.7031250000,188259.2812500000,187417.8750000000,165357.7812500000,170837.7187500000,-93501.6015625000,,,
1.5559999973,12,204910.7187500000,195395.5468750000,202364.8125000000,188252.9843750000,187421.2343750000,165360.8593750000,170845.2656250000,-93503.5859375000,,,
1.5599999975,12,204901.1562500000,195392.4062500000,202354.8906250000,188242.5000000000,187412.8437500000,165357.6406250000,170837.9843750000,-93505.3046875000,,,
1.5639999975,12,204894.1406250000,195395.3593750000,202339.0312500000,188226.1562500000,187393.7968750000,165340.7968750000,170813.8437500000,-93514.7500000000,,,
1.5679999974,12,204900.9531250000,195399.7343750000,202341.6718750000,188230.7812500000,187392.7968750000,165336.7812500000,170812.7187500000,-93519.5468750000,,,
1.5719999974,12,204918.2031250000,195406.3593750000,202363.7968750000,188252.7187500000,187415.5468750000,165351.0781250000,170835.3906250000,-93508.5546875000,,,
1.5759999973,12,204900.6250000000,195383.8593750000,202355.6875000000,188232.5937500000,187411.8125000000,165347.4218750000,170835.8750000000,-93516.8671875000,,,
1.5799999975,12,204897.2500000000,195394.0937500000,202348.7656250000,188225.0937500000,187407.9218750000,165354.0000000000,170836.1718750000,-93505.8125000000,,,
1.5839999975,12,204894.7500000000,195392.9531250000,202345.4687500000,188226.8593750000,187400.4218750000,165340.0000000000,170830.0468750000,-93512.1171875000,,,
1.5879999974,12,204901.5156250000,195390.9843750000,202351.7187500000,188233.8906250000,187404.3125000000,165339.8125000000,170838.3437500000,-93515.7656250000,,,
1.5919999974,12,204922.9218750000,195403.3593750000,202374.2500000000,188262.7968750000,187427.7812500000,165359.9218750000,170862.9375000000,-93502.5937500000,,,
1.5959999973,12,204922.5625000000,195396.6406250000,202381.5156250000,188261.7500000000,187437.1562500000,165365.9062500000,170871.8125000000,-93498.4921875000,,,
1.5999999973,12,204906.2343750000,195388.1250000000,202363.9218750000,188232.6250000000,187421.5468750000,165359.4375000000,170856.2812500000,-93504.5781250000,,,
1.6039999975,12,204913.7656250000,195407.9062500000,202365.0781250000,188219.1093750000,187419.2187500000,165356.2187500000,170850.8906250000,-93499.7031250000,,,
1.6079999974,12,204909.2343750000,195399.3906250000,202356.2812500000,188222.5468750000,187409.1406250000,165336.9062500000,170839.1093750000,-93519.5468750000,,,
1.6119999974,12,204919.8125000000,195396.7500000000,202369.5625000000,188247.4375000000,187424.5000000000,165351.1562500000,170852.6875000000,-93515.5546875000,,,
1.6159999974,12,204935.5468750000,195411.3750000000,202390.3437500000,188267.7031250000,187449.0781250000,165378.5468750000,170878.1093750000,-93489.1093750000,,,
1.6199999973,12,204936.1875000000,195417.5625000000,202391.4218750000,188265.1093750000,187449.6406250000,165376.2031250000,170874.1406250000,-93482.1328125000,,,
1.6239999975,12,204907.2500000000,195389.4375000000,202357.4375000000,188232.0156250000,187413.9062500000,165335.1406250000,170832.1406250000,-93515.3125000000,,,
1.6279999975,12,204914.5468750000,195399.8125000000,202357.4687500000,188237.0312500000,187408.4687500000,165336.3437500000,170833.8281250000,-93516.6250000000,,,
1.6319999974,12,204939.3281250000,195416.2343750000,202384.7343750000,188276.4531250000,187431.4218750000,165360.9687500000,170864.9531250000,-93499.0000000000,,,
1.6359999974,12,204943.0937500000,195420.0625000000,202394.7187500000,188269.3437500000,187447.0000000000,165382.7812500000,170881.9218750000,-93484.0390625000,,,
1.6399999973,12,204913.5312500000,195392.5468750000,202370.4687500000,188232.5937500000,187426.1875000000,165363.3906250000,170859.3125000000,-93502.9687500000,,,
1.6439999973,12,204900.8750000000,195385.9218750000,202355.6875000000,188212.8906250000,187408.7656250000,165347.8593750000,170839.5468750000,-93513.4843750000,,,
1.6479999975,12,204911.8906250000,195392.0000000000,202361.7812500000,188217.4531250000,187412.4843750000,165349.9531250000,170849.5468750000,-93512.7109375000,,,
1.6519999974,12,204940.1093750000,195414.6250000000,202387.4218750000,188256.5312500000,187440.2500000000,165378.4375000000,170877.5781250000,-93487.9218750000,,,
1.6559999974,12,204944.7500000000,195412.9062500000,202397.8906250000,188264.2187500000,187454.0156250000,165391.0937500000,170889.7031250000,-93479.3437500000,,,
1.6599999974,12,204920.0156250000,195392.5468750000,202375.3593750000,188234.1875000000,187431.0468750000,165371.8281250000,170870.0468750000,-93498.0625000000,,,
1.6639999973,13,204903.9843750000,195389.5156250000,202352.9062500000,188214.3593750000,187406.0781250000,165352.9218750000,170846.8437500000,-93512.2031250000,,,
1.6679999973,13,204908.0312500000,195395.1406250000,202353.9531250000,188221.7656250000,187404.3906250000,165346.9687500000,170842.3281250000,-93516.3281250000,,,
1.6719999972,13,204934.6406250000,195409.5000000000,202385.2500000000,188254.1093750000,187435.0156250000,165371.0312500000,170872.5937500000,-93495.1640625000,,,
1.6759999972,13,204947.3750000000,195416.8906250000,202404.4531250000,188265.4062500000,187458.0625000000,165393.3750000000,170896.8593750000,-93475.9921875000,,,
1.6799999971,13,204930.5312500000,195407.5937500000,202390.7968750000,188241.0468750000,187444.4375000000,165382.4218750000,170886.2187500000,-93485.2734375000,,,
1.6839999971,13,204904.4062500000,195390.7500000000,202360.9843750000,188222.7812500000,187409.8906250000,165351.9531250000,170850.8593750000,-93511.2578125000,,,
1.6879999973,13,204915.2500000000,195397.1250000000,202366.9062500000,188237.0781250000,187414.9218750000,165352.4218750000,170854.7031250000,-93509.9765625000,,,
1.6919999972,13,204944.5312500000,195418.5625000000,202396.2500000000,188255.5312500000,187447.2968750000,165383.5000000000,170882.3281250000,-93484.4140625000,,,
1.6959999972,13,204938.3906250000,195414.3281250000,202393.2968750000,188249.0625000000,187447.1718750000,165392.4843750000,170881.5000000000,-93481.5390625000,,,
1.6999999972,13,204920.1562500000,195409.5000000000,202372.7187500000,188230.9843750000,187426.2968750000,165384.0312500000,170862.9843750000,-93487.1718750000,,,
1.7039999971,13,204924.6250000000,195425.7187500000,202369.6718750000,188243.9687500000,187421.2343750000,165383.5000000000,170856.0156250000,-93482.0234375000,,,
1.7079999973,13,204927.7656250000,195422.6718750000,202368.0781250000,188253.2187500000,187418.4218750000,165373.2500000000,170851.7500000000,-93493.8828125000,,,
1.7119999973,13,204948.5625000000,195429.4531250000,202395.1718750000,188268.8125000000,187446.1562500000,165390.7968750000,170877.7656250000,-93482.6953125000,,,
1.7159999972,13,204925.5468750000,195398.2500000000,202383.1093750000,188242.5000000000,187438.2343750000,165381.6250000000,170866.5000000000,-93500.5859375000,,,
1.7199999972,13,204912.2968750000,195391.6093750000,202372.0468750000,188229.7031250000,187428.0781250000,165374.0625000000,170857.0312500000,-93505.9218750000,,,
1.7239999971,13,204914.8750000000,195410.5625000000,202363.2812500000,188232.2187500000,187416.8281250000,165370.9218750000,170851.2187500000,-93500.5859375000,,,
1.7279999971,13,204912.0312500000,195410.2656250000,202352.2656250000,188214.1718750000,187405.5625000000,165358.9843750000,170838.0937500000,-93509.6796875000,,,
1.7319999973,13,204932.4843750000,195417.0781250000,202377.0625000000,188238.4531250000,187432.3437500000,165383.1250000000,170865.9375000000,-93494.6015625000,,,
1.7359999972,13,204924.9062500000,195404.8593750000,202375.0625000000,188240.3281250000,187431.8750000000,165384.7968750000,170869.9062500000,-93496.6718750000,,,
1.7399999972,13,204924.3593750000,195411.2968750000,202376.0312500000,188238.8437500000,187431.2031250000,165384.8750000000,170869.7812500000,-93490.0156250000,,,
1.7439999972,13,204929.0312500000,195429.1093750000,202373.8750000000,188241.8593750000,187427.0000000000,165387.7968750000,170863.0156250000,-93483.6328125000,,,
1.7479999971,13,204925.7812500000,195421.2656250000,202368.7812500000,188239.6562500000,187421.5312500000,165372.9375000000,170857.9375000000,-93496.8828125000,,,
1.7519999973,13,204939.6562500000,195418.7812500000,202388.9843750000,188255.5937500000,187442.8437500000,165388.0625000000,170879.2343750000,-93490.5234375000,,,
1.7559999973,13,204942.1406250000,195412.3125000000,202396.5468750000,188270.8281250000,187455.7812500000,165398.9531250000,170895.2031250000,-93484.4140625000,,,
1.7599999972,13,204913.2812500000,195390.5312500000,202368.2968750000,188213.7968750000,187429.7343750000,165381.4843750000,170872.5312500000,-93505.0078125000,,,
1.7639999972,13,204911.8906250000,195402.6093750000,202362.0000000000,188199.8750000000,187419.8906250000,165381.7656250000,170861.1875000000,-93503.8593750000,,,
1.7679999971,13,204932.0156250000,195424.4687500000,202380.2031250000,188224.7343750000,187433.4687500000,165393.3750000000,170877.2343750000,-93494.1484375000,,,
1.7719999971,13,204957.2500000000,195447.8750000000,202405.0781250000,188267.5781250000,187461.2968750000,165420.6562500000,170904.1875000000,-93471.0781250000,,,
1.7759999973,13,204954.0000000000,195437.8750000000,202406.7968750000,188285.4375000000,187469.4375000000,165427.7812500000,170908.0156250000,-93466.9218750000,,,
1.7799999972,13,204920.2343750000,195404.6875000000,202372.2500000000,188249.1562500000,187437.3281250000,165392.2968750000,170867.0312500000,-93497.1796875000,,,
1.7839999972,13,204892.3437500000,195386.4531250000,202337.7187500000,188211.5468750000,187401.7343750000,165358.4218750000,170832.4375000000,-93524.5390625000,,,
1.7879999971,13,204907.7812500000,195397.8281250000,202348.3125000000,188227.9062500000,187411.5468750000,165364.7187500000,170843.1406250000,-93516.1406250000,,,
1.7919999971,14,204938.0781250000,195414.0781250000,202381.3906250000,188250.4843750000,187445.5625000000,165393.2187500000,170876.0156250000,-93490.9843750000,,,
1.7959999971,14,204950.5468750000,195423.4375000000,202400.6718750000,188257.4843750000,187465.0781250000,165413.2812500000,170897.4218750000,-93473.2812500000,,,
1.7999999970,14,204933.2500000000,195418.6875000000,202384.1250000000,188230.0468750000,187448.1875000000,165406.1406250000,170882.7812500000,-93480.4687500000,,,
1.8039999970,14,204927.3750000000,195424.4843750000,202375.5156250000,188224.2031250000,187435.3593750000,165394.5468750000,170872.4843750000,-93485.5625000000,,,
1.8079999969,14,204944.5625000000,195440.6875000000,202388.1250000000,188249.3593750000,187443.7812500000,165401.8750000000,170876.2968750000,-93478.2968750000,,,
1.8119999969,14,204949.7968750000,195434.7031250000,202392.7656250000,188264.9531250000,187449.7656250000,165404.7187500000,170881.3125000000,-93480.6796875000,,,
1.8159999971,14,204935.2031250000,195409.6250000000,202384.7343750000,188245.7500000000,187444.5937500000,165396.3281250000,170878.2968750000,-93492.5937500000,,,
1.8199999970,14,204940.8593750000,195420.7031250000,202396.1875000000,188235.7968750000,187455.6406250000,165406.7343750000,170891.1562500000,-93477.0078125000,,,
1.8239999970,14,204939.7812500000,195433.6406250000,202393.5937500000,188218.5156250000,187450.0625000000,165399.7343750000,170880.0468750000,-93475.9375000000,,,
1.8279999970,14,204950.5937500000,195446.5156250000,202398.4218750000,188245.3906250000,187455.3437500000,165403.2187500000,170875.2656250000,-93470.5703125000,,,
1.8319999969,14,204973.1250000000,195455.1718750000,202419.4531250000,188286.8593750000,187475.5781250000,165415.8437500000,170898.1562500000,-93459.6562500000,,,
1.8359999971,14,204962.9843750000,195438.1093750000,202411.5625000000,188290.3437500000,187469.8906250000,165413.8125000000,170906.5937500000,-93465.1796875000,,,
1.8399999971,14,204956.0156250000,195441.8125000000,202404.8593750000,188273.3437500000,187464.1250000000,165418.7656250000,170907.8281250000,-93460.3515625000,,,
1.8439999970,14,204946.7812500000,195441.8437500000,202391.9843750000,188257.7656250000,187448.0468750000,165404.6406250000,170893.9062500000,-93471.3203125000,,,
1.8479999970,14,204945.6875000000,195438.8906250000,202387.4218750000,188265.1562500000,187441.0000000000,165393.3437500000,170884.5000000000,-93484.1953125000,,,
1.8519999969,14,204956.3593750000,195444.8437500000,202401.8750000000,188270.9531250000,187455.8125000000,165402.1406250000,170897.4062500000,-93480.4140625000,,,
1.8559999969,14,204964.0000000000,195452.0312500000,202417.0312500000,188279.1093750000,187472.6562500000,165418.3906250000,170915.8281250000,-93466.8984375000,,,
1.8599999971,14,204953.6875000000,195445.3281250000,202412.9062500000,188255.4062500000,187469.7500000000,165419.9843750000,170914.2500000000,-93469.4687500000,,,
1.8639999970,14,204938.8750000000,195433.6406250000,202393.4375000000,188238.5000000000,187449.3906250000,165399.5625000000,170890.3750000000,-93487.1484375000,,,
1.8679999970,14,204944.1250000000,195437.9531250000,202394.1093750000,188259.5000000000,187446.6875000000,165395.4687500000,170888.4687500000,-93491.7109375000,,,
1.8719999969,14,204955.3750000000,195437.8437500000,202407.2500000000,188280.0156250000,187459.0312500000,165402.7656250000,170902.4687500000,-93487.2265625000,,,
1.8759999969,14,204958.6406250000,195434.9218750000,202414.5625000000,188282.2500000000,187470.5781250000,165413.0000000000,170920.3281250000,-93476.3906250000,,,
1.8799999971,14,204948.2968750000,195434.1718750000,202401.8281250000,188269.5000000000,187461.0625000000,165408.7968750000,170911.8593750000,-93475.0781250000,,,
1.8839999971,14,204932.1718750000,195431.5156250000,202381.6250000000,188247.5156250000,187437.0312500000,165391.6250000000,170889.4375000000,-93488.3281250000,,,
1.8879999970,14,204937.6406250000,195444.9531250000,202382.5937500000,188248.5312500000,187432.3593750000,165390.8281250000,170880.7500000000,-93487.9765625000,,,
1.8919999970,14,204941.9531250000,195441.3281250000,202387.6093750000,188260.7343750000,187438.5781250000,165393.5625000000,170885.0156250000,-93488.8359375000,,,
1.8959999969,14,204947.1093750000,195442.7812500000,202397.9843750000,188258.0468750000,187453.7656250000,165415.9375000000,170906.4687500000,-93473.9218750000,,,
1.8999999969,14,204933.7500000000,195422.5312500000,202386.8593750000,188257.3281250000,187447.0312500000,165409.3281250000,170905.3125000000,-93482.1015625000,,,
1.9039999971,14,204918.5937500000,195407.1875000000,202364.3281250000,188236.2187500000,187423.0625000000,165382.0312500000,170880.0468750000,-93503.4843750000,,,
1.9079999970,14,204926.8906250000,195416.8750000000,202367.8437500000,188234.9375000000,187421.9843750000,165376.3750000000,170876.7812500000,-93505.7656250000,,,
1.9119999970,14,204966.9531250000,195446.2656250000,202412.5000000000,188278.9687500000,187465.8593750000,165412.7656250000,170917.7812500000,-93473.0937500000,,,
1.9159999969,14,204958.3750000000,195438.2812500000,202409.3437500000,188271.8750000000,187466.0781250000,165417.2968750000,170914.9687500000,-93473.9765625000,,,
1.9199999969,15,204941.1250000000,195427.6875000000,202391.6875000000,188250.9687500000,187449.7656250000,165408.6406250000,170900.9687500000,-93481.7031250000,,,
1.9239999969,15,204928.6875000000,195426.0156250000,202373.9843750000,188224.7187500000,187429.0156250000,165394.7187500000,170884.4687500000,-93493.1250000000,,,
1.9279999968,15,204925.8437500000,195426.9218750000,202370.4218750000,188225.7343750000,187421.1718750000,165386.1250000000,170881.4375000000,-93500.4765625000,,,
1.9319999968,15,204935.5000000000,195430.6250000000,202382.3593750000,188248.0000000000,187435.2343750000,165398.0937500000,170896.1093750000,-93495.4062500000,,,
1.9359999967,15,204925.1406250000,195410.7812500000,202379.6250000000,188235.6875000000,187437.7343750000,165393.1875000000,170898.0937500000,-93505.0625000000,,,
1.9399999967,15,204899.0156250000,195384.6250000000,202353.0156250000,188207.2187500000,187414.3906250000,165374.6718750000,170875.4531250000,-93524.8593750000,,,
1.9439999969,15,204891.9375000000,195390.3437500000,202336.5625000000,188199.0781250000,187398.4062500000,165365.5781250000,170858.9843750000,-93528.5078125000,,,
1.9479999968,15,204920.2812500000,195418.4062500000,202360.5781250000,188221.1718750000,187420.7187500000,165386.3125000000,170880.1562500000,-93505.5468750000,,,
1.9519999968,15,204954.5468750000,195435.7812500000,202399.3593750000,188263.8437500000,187458.1718750000,165413.9375000000,170912.4531250000,-93482.2421875000,,,
1.9559999967,15,204960.7343750000,195432.2343750000,202416.0937500000,188271.6250000000,187475.8750000000,165428.5625000000,170928.7500000000,-93474.8359375000,,,
1.9599999967,15,204945.7656250000,195428.0000000000,202398.8750000000,188252.0468750000,187461.8593750000,165426.5781250000,170914.2500000000,-93478.3515625000,,,
1.9639999969,15,204916.7968750000,195409.2343750000,202363.3437500000,188225.3281250000,187423.6250000000,165390.3750000000,170875.8593750000,-93509.4609375000,,,
1.9679999969,15,204914.7031250000,195408.5312500000,202358.6093750000,188227.2968750000,187413.6406250000,165374.4687500000,170862.8593750000,-93520.6718750000,,,
1.9719999968,15,204937.7187500000,195420.2187500000,202381.3906250000,188247.2500000000,187438.3906250000,165399.3281250000,170887.8281250000,-93501.9296875000,,,
1.9759999968,15,204944.0468750000,195424.1718750000,202393.1093750000,188250.4843750000,187454.5156250000,165419.0468750000,170908.5312500000,-93483.6328125000,,,
1.9799999967,15,204944.5625000000,195429.2343750000,202394.9531250000,188252.5781250000,187457.1250000000,165425.3906250000,170913.2812500000,-93470.5468750000,,,
1.9839999967,15,204948.0468750000,195444.7343750000,202391.1250000000,188244.7968750000,187450.2812500000,165426.7187500000,170906.6562500000,-93462.9531250000,,,
1.9879999969,15,204952.1562500000,195455.5000000000,202391.3593750000,188249.3593750000,187448.2343750000,165423.6250000000,170903.3281250000,-93465.1250000000,,,
1.9919999968,15,204967.7343750000,195462.0937500000,202411.2656250000,188275.2968750000,187469.7500000000,165434.3281250000,170919.1875000000,-93456.6484375000,,,
1.9959999968,15,204964.4687500000,195450.6093750000,202412.0781250000,188258.7031250000,187474.5781250000,165440.6875000000,170923.9218750000,-93457.9921875000,,,
1.9999999967,15,204936.6250000000,195423.0625000000,202386.6250000000,188228.5468750000,187451.1093750000,165421.0468750000,170909.0468750000,-93477.4609375000,,,
2.0039999967,15,204920.8750000000,195418.5937500000,202366.6875000000,188218.1718750000,187430.3281250000,165405.1250000000,170889.8437500000,-93489.0546875000,,,
2.0079999969,15,204928.2031250000,195426.9531250000,202369.7812500000,188232.1250000000,187431.1250000000,165403.8906250000,170889.7031250000,-93490.8515625000,,,
2.0119999968,15,204955.5625000000,195442.7500000000,202398.6875000000,188263.0937500000,187459.2656250000,165424.7812500000,170916.6093750000,-93476.0703125000,,,
2.0159999968,15,204957.9687500000,195438.2968750000,202407.3281250000,188265.8906250000,187470.3437500000,165433.4687500000,170926.7187500000,-93470.8906250000,,,
2.0199999968,15,204942.0937500000,195427.3281250000,202391.8437500000,188254.7812500000,187458.0625000000,165424.7031250000,170913.5156250000,-93478.2421875000,,,
2.0239999967,15,204918.8593750000,195414.3750000000,202363.1562500000,188230.6093750000,187428.3125000000,165396.8593750000,170881.9531250000,-93500.6640625000,,,
2.0279999967,15,204932.8437500000,195428.9687500000,202374.6875000000,188254.1875000000,187434.9843750000,165396.3750000000,170888.2343750000,-93495.5703125000,,,
2.0319999969,15,204956.1562500000,195443.1093750000,202398.4218750000,188290.6406250000,187457.7968750000,165412.6562500000,170907.8906250000,-93478.8046875000,,,
2.0359999968,15,204949.6875000000,195431.8437500000,202399.1718750000,188275.4375000000,187462.2187500000,165420.5937500000,170908.7500000000,-93477.6796875000,,,
2.0399999968,15,204937.1250000000,195424.6562500000,202390.7187500000,188243.5625000000,187454.5937500000,165418.9062500000,170906.2031250000,-93480.4140625000,,,
2.0439999967,15,204932.0937500000,195430.4375000000,202385.3906250000,188231.8437500000,187444.5156250000,165409.1406250000,170902.7187500000,-93486.3125000000,,,
2.0479999967,16,204945.6406250000,195449.0312500000,202390.3750000000,188249.8750000000,187446.0937500000,165416.0625000000,170898.9062500000,-93481.4843750000,,,
2.0519999966,16,204949.0468750000,195448.1406250000,202387.9531250000,188280.9062500000,187445.2031250000,165418.3750000000,170893.0000000000,-93484.4140625000,,,
2.0559999966,16,204938.5781250000,195428.0312500000,202383.0312500000,188259.7968750000,187443.2812500000,165414.4062500000,170891.4687500000,-93491.9218750000,,,
2.0599999966,16,204912.7500000000,195396.6406250000,202361.7812500000,188219.5937500000,187423.1406250000,165396.0000000000,170876.6718750000,-93513.0078125000,,,
2.0639999965,16,204905.2968750000,195395.8906250000,202348.1093750000,188213.2656250000,187407.4218750000,165386.2656250000,170862.2343750000,-93519.8984375000,,,
2.0679999965,16,204919.5625000000,195412.3125000000,202357.5781250000,188233.5312500000,187413.8281250000,165391.9531250000,170867.2812500000,-93512.5468750000,,,
2.0719999967,16,204942.7031250000,195426.7343750000,202382.9687500000,188248.0781250000,187440.8906250000,165415.5312500000,170893.7812500000,-93493.5312500000,,,
2.0759999966,16,204934.8281250000,195419.4531250000,202378.8906250000,188233.2656250000,187440.5156250000,165419.7968750000,170892.0625000000,-93492.1328125000,,,
2.0799999966,16,204911.2187500000,195402.9531250000,202356.9843750000,188217.3906250000,187419.0312500000,165402.9531250000,170873.5781250000,-93505.4687500000,,,
2.0839999965,16,204902.1250000000,195405.6562500000,202344.1875000000,188212.5625000000,187403.5312500000,165388.3281250000,170861.2656250000,-93511.3984375000,,,
2.0879999965,16,204915.7343750000,195422.9375000000,202353.1406250000,188228.0625000000,187407.9218750000,165390.3125000000,170867.7656250000,-93506.8906250000,,,
2.0919999967,16,204924.4375000000,195423.5468750000,202365.1562500000,188241.1875000000,187418.0625000000,165394.3906250000,170881.4375000000,-93506.6171875000,,,
2.0959999966,16,204924.8437500000,195417.2500000000,202372.2656250000,188240.6406250000,187427.1093750000,165405.3125000000,170891.8281250000,-93501.7109375000,,,
2.0999999966,16,204914.8906250000,195409.9218750000,202364.3593750000,188229.8437500000,187421.6875000000,165404.2343750000,170885.7031250000,-93501.0390625000,,,
2.1039999966,16,204903.4375000000,195408.6406250000,202346.5468750000,188211.4062500000,187402.4218750000,165393.0781250000,170871.0625000000,-93510.3203125000,,,
2.1079999965,16,204901.9218750000,195412.2500000000,202335.7656250000,188205.8281250000,187388.4218750000,165383.2031250000,170854.2187500000,-93521.1015625000,,,
2.1119999965,16,204916.9062500000,195418.0312500000,202349.4687500000,188225.2812500000,187403.4218750000,165390.2031250000,170865.7968750000,-93515.2812500000,,,
2.1159999967,16,204936.9687500000,195425.0468750000,202380.6406250000,188244.7187500000,187438.2031250000,165414.7187500000,170898.9218750000,-93493.9296875000,,,
2.1199999966,16,204938.6562500000,195430.3281250000,202386.2656250000,188239.5000000000,187448.1875000000,165425.5312500000,170904.5937500000,-93482.4843750000,,,
2.1239999966,16,204928.0625000000,195430.7187500000,202370.9218750000,188217.7187500000,187432.7343750000,165409.6250000000,170887.3906250000,-93491.5703125000,,,
2.1279999965,16,204934.2812500000,195433.5312500000,202374.7968750000,188234.2031250000,187432.7968750000,165402.0937500000,170873.9843750000,-93496.8593750000,,,
2.1319999965,16,204960.2812500000,195447.1562500000,202401.1250000000,188269.7187500000,187456.5625000000,165423.5468750000,170901.0156250000,-93479.3437500000,,,
2.1359999967,16,204949.2031250000,195432.9843750000,202393.8281250000,188263.9531250000,187453.0156250000,165424.7031250000,170909.1718750000,-93481.8125000000,,,
2.1399999966,16,204945.5781250000,195434.6875000000,202394.2656250000,188265.3281250000,187456.6406250000,165433.4375000000,170914.9687500000,-93471.8046875000,,,
2.1439999966,16,204935.8906250000,195441.9687500000,202379.3281250000,188241.4531250000,187440.5468750000,165422.9531250000,170897.5312500000,-93474.4843750000,,,
2.1479999966,16,204947.6406250000,195460.3437500000,202384.7656250000,188239.0625000000,187441.0781250000,165425.1093750000,170896.5468750000,-93468.2656250000,,,
2.1519999965,16,204969.2343750000,195474.5312500000,202411.8125000000,188260.4687500000,187465.8906250000,165444.2812500000,170920.3125000000,-93452.4375000000,,,
2.1559999965,16,204972.6718750000,195466.4843750000,202429.4218750000,188245.3125000000,187486.4375000000,165453.2187500000,170935.0781250000,-93447.9062500000,,,
2.1599999967,16,204959.1562500000,195451.6562500000,202412.5625000000,188250.2500000000,187475.9531250000,165447.0468750000,170917.7812500000,-93453.5937500000,,,
2.1639999966,16,204943.0000000000,195443.2968750000,202386.0000000000,188245.0468750000,187449.9375000000,165428.3281250000,170894.5781250000,-93467.2734375000,,,
2.1679999966,16,204953.0625000000,195456.0312500000,202383.4843750000,188252.7656250000,187444.7500000000,165427.5781250000,170902.9843750000,-93466.2500000000,,,
2.1719999965,16,204979.9687500000,195472.0781250000,202412.0937500000,188285.4062500000,187473.0312500000,165444.5781250000,170934.6093750000,-93450.2421875000,,,
2.1759999965,17,204984.6406250000,195472.9531250000,202423.5000000000,188297.7968750000,187488.2031250000,165455.5468750000,170945.3593750000,-93440.8281250000,,,
2.1799999964,17,204960.2031250000,195449.2656250000,202405.9531250000,188270.6406250000,187473.2968750000,165440.1250000000,170929.7812500000,-93455.6875000000,,,
2.1839999964,17,204957.4843750000,195458.9843750000,202402.9062500000,188249.7656250000,187465.6562500000,165434.0937500000,170917.3281250000,-93456.3828125000,,,
2.1879999964,17,204957.6250000000,195466.3906250000,202399.4062500000,188234.2031250000,187458.8437500000,165430.7656250000,170914.7500000000,-93463.1718750000,,,
2.1919999963,17,204958.2187500000,195460.7812500000,202397.8593750000,188249.7968750000,187457.8125000000,165435.9375000000,170917.8593750000,-93468.0234375000,,,
2.1959999963,17,204950.1718750000,195436.7187500000,202400.0000000000,188262.7500000000,187463.1250000000,165429.6093750000,170925.2187500000,-93475.5625000000,,,
2.1999999965,17,204951.8906250000,195441.9218750000,202408.5312500000,188262.9843750000,187475.0312500000,165439.8281250000,170938.5937500000,-93462.7109375000,,,
2.2039999964,17,204933.2656250000,195435.7812500000,202381.7968750000,188249.6875000000,187448.1093750000,165423.0625000000,170913.1406250000,-93477.4140625000,,,
2.2079999964,17,204947.7812500000,195449.5468750000,202388.9218750000,188269.7187500000,187452.3125000000,165426.4375000000,170917.2812500000,-93474.0859375000,,,
2.2119999963,17,204960.3125000000,195452.6718750000,202401.2656250000,188273.2031250000,187464.0625000000,165432.6093750000,170927.6250000000,-93475.1015625000,,,
2.2159999963,17,204943.2968750000,195426.9531250000,202392.1406250000,188254.5156250000,187458.0625000000,165423.5000000000,170921.9375000000,-93491.9218750000,,,
2.2199999965,17,204928.3281250000,195412.3437500000,202385.5468750000,188227.0937500000,187450.3906250000,165410.8906250000,170914.1718750000,-93499.2421875000,,,
2.2239999964,17,204935.3906250000,195432.0312500000,202388.5156250000,188228.3125000000,187449.1250000000,165409.8750000000,170910.4843750000,-93488.8359375000,,,
2.2279999964,17,204956.5468750000,195458.4687500000,202398.3906250000,188250.3593750000,187456.3750000000,165416.6562500000,170914.2968750000,-93473.4140625000,,,
2.2319999964,17,204967.5468750000,195461.7187500000,202403.6562500000,188270.6406250000,187462.7812500000,165428.1875000000,170931.4687500000,-93466.3906250000,,,
2.2359999963,17,204964.4687500000,195453.7031250000,202406.6562500000,188272.9687500000,187467.8437500000,165434.3281250000,170942.6718750000,-93462.6875000000,,,
2.2399999963,17,204958.2187500000,195451.2343750000,202404.7500000000,188267.9218750000,187467.3437500000,165436.9375000000,170945.6250000000,-93457.8828125000,,,
2.2439999965,17,204945.7968750000,195447.6093750000,202390.0312500000,188254.2187500000,187451.1718750000,165424.6250000000,170930.2500000000,-93467.8125000000,,,
2.2479999964,17,204954.1562500000,195464.4843750000,202399.3125000000,188252.9531250000,187455.6250000000,165429.4531250000,170931.8437500000,-93464.3750000000,,,
2.2519999964,17,204976.4843750000,195489.8750000000,202421.4531250000,188273.1875000000,187478.6093750000,165456.0781250000,170948.6250000000,-93444.5781250000,,,
2.2559999963,17,204957.5625000000,195458.5781250000,202407.1406250000,188286.9375000000,187469.7500000000,165442.2500000000,170940.1250000000,-93462.2812500000,,,
2.2599999963,17,204935.8750000000,195433.9531250000,202390.7500000000,188270.6875000000,187456.3125000000,165428.0468750000,170928.7343750000,-93477.8125000000,,,
2.2639999965,17,204924.4218750000,195427.9687500000,202377.0937500000,188245.9531250000,187441.0000000000,165414.2656250000,170919.5312500000,-93489.9140625000,,,
2.2679999964,17,204924.2031250000,195427.7031250000,202370.7968750000,188231.1562500000,187433.2812500000,165401.3125000000,170913.8906250000,-93499.9921875000,,,
2.2719999964,17,204941.3125000000,195439.9375000000,202385.1093750000,188251.0468750000,187447.5937500000,165415.9843750000,170927.8437500000,-93489.9140625000,,,
2.2759999963,17,204944.5312500000,195434.6562500000,202394.3125000000,188264.1718750000,187458.7031250000,165429.0937500000,170939.8281250000,-93482.2656250000,,,
2.2799999963,17,204946.0156250000,195439.1406250000,202400.7500000000,188255.5312500000,187464.3125000000,165437.2343750000,170941.0937500000,-93470.3281250000,,,
2.2839999963,17,204933.1406250000,195441.0937500000,202382.7343750000,188234.3750000000,187443.8125000000,165418.9062500000,170917.1718750000,-93480.1718750000,,,
2.2879999964,17,204942.4687500000,195454.7187500000,202387.8750000000,188229.2968750000,187444.2656250000,165414.4843750000,170916.3125000000,-93479.3984375000,,,
2.2919999964,17,204957.6562500000,195463.0625000000,202399.2031250000,188249.1718750000,187456.6562500000,165424.7031250000,170929.7812500000,-93470.1953125000,,,
2.2959999964,17,204955.8281250000,195452.0937500000,202398.0937500000,188269.2187500000,187460.1562500000,165432.7500000000,170934.1406250000,-93468.0000000000,,,
2.2999999963,17,204931.6093750000,195429.9531250000,202373.8750000000,188256.3593750000,187440.8906250000,165419.7187500000,170919.9375000000,-93482.7500000000,,,
2.3039999963,18,204920.9843750000,195428.3750000000,202361.3281250000,188238.0781250000,187423.7812500000,165403.4531250000,170906.6875000000,-93493.0468750000,,,
2.3079999962,18,204927.5000000000,195440.6093750000,202364.0625000000,188225.7031250000,187421.1562500000,165404.8281250000,170905.1718750000,-93493.0781250000,,,
2.3119999962,18,204959.7187500000,195463.7343750000,202403.1093750000,188264.0937500000,187457.9531250000,165437.5781250000,170941.8437500000,-93466.6015625000,,,
2.3159999961,18,204972.4531250000,195466.2812500000,202423.7187500000,188282.8906250000,187481.6406250000,165453.1875000000,170961.5312500000,-93452.2500000000,,,
2.3199999961,18,204948.7187500000,195448.0937500000,202402.6875000000,188265.2187500000,187465.3281250000,165435.2968750000,170946.0000000000,-93467.0078125000,,,
2.3239999961,18,204940.9062500000,195450.0781250000,202392.6250000000,188247.9375000000,187455.5156250000,165424.9375000000,170936.1093750000,-93471.9140625000,,,
2.3279999963,18,204935.7031250000,195443.8281250000,202385.9218750000,188231.0468750000,187447.5937500000,165415.0468750000,170929.0781250000,-93484.1718750000,,,
2.3319999962,18,204952.6093750000,195457.1093750000,202402.5000000000,188254.4843750000,187461.9218750000,165427.3906250000,170938.7343750000,-93477.0625000000,,,
2.3359999962,18,204958.3281250000,195459.5156250000,202412.4531250000,188256.7343750000,187471.9062500000,165437.6875000000,170945.6562500000,-93469.7421875000,,,
2.3399999961,18,204948.9531250000,195453.0781250000,202406.8750000000,188238.5312500000,187465.2500000000,165434.9531250000,170945.2031250000,-93470.1953125000,,,
2.3439999961,18,204933.4531250000,195445.6250000000,202380.9843750000,188220.7968750000,187438.5000000000,165418.7500000000,170917.0312500000,-93481.4609375000,,,
2.3479999963,18,204935.6093750000,195448.8125000000,202373.3437500000,188237.5625000000,187429.5781250000,165410.1875000000,170901.8281250000,-93485.6171875000,,,
2.3519999962,18,204965.1406250000,195467.9062500000,202404.6406250000,188287.6406250000,187461.8906250000,165436.2656250000,170932.9687500000,-93463.7578125000,,,
2.3559999962,18,204965.2968750000,195455.0156250000,202414.2500000000,188276.6406250000,187476.5937500000,165441.7812500000,170949.2187500000,-93464.1328125000,,,
2.3599999961,18,204930.8281250000,195423.9218750000,202384.4687500000,188234.1562500000,187450.3125000000,165417.2500000000,170929.6718750000,-93490.3906250000,,,
2.3639999961,18,204921.8437500000,195423.6562500000,202373.2812500000,188227.5781250000,187436.7343750000,165407.7968750000,170918.9843750000,-93497.0703125000,,,
2.3679999961,18,204938.7656250000,195442.1875000000,202383.4062500000,188252.3906250000,187442.6093750000,165412.1406250000,170922.2968750000,-93488.7578125000,,,
2.3719999962,18,204961.0000000000,195455.1718750000,202402.7187500000,188273.9843750000,187460.2812500000,165427.0312500000,170936.7812500000,-93478.3203125000,,,
2.3759999962,18,204960.2500000000,195447.3125000000,202406.4062500000,188260.9531250000,187466.6093750000,165430.9218750000,170941.2812500000,-93478.3515625000,,,
2.3799999962,18,204955.1562500000,195449.1718750000,202406.5000000000,188239.8906250000,187469.8281250000,165437.7031250000,170947.7500000000,-93468.8046875000,,,
2.3839999961,18,204942.0156250000,195449.0781250000,202389.6250000000,188232.0312500000,187450.8125000000,165421.5937500000,170927.1250000000,-93475.7734375000,,,
2.3879999961,18,204941.7968750000,195452.4843750000,202385.9531250000,188244.6406250000,187442.9843750000,165408.6093750000,170916.9062500000,-93484.0078125000,,,
2.3919999963,18,204966.8437500000,195462.4687500000,202416.5000000000,188271.0625000000,187471.0937500000,165423.9531250000,170945.6875000000,-93473.8203125000,,,
2.3959999962,18,204960.2500000000,195451.7187500000,202416.6093750000,188259.9062500000,187473.3125000000,165428.4843750000,170944.8437500000,-93476.9296875000,,,
2.3999999962,18,204933.8593750000,195428.8125000000,202388.8125000000,188233.0781250000,187451.7812500000,165418.9843750000,170923.8125000000,-93490.9296875000,,,
2.4039999961,18,204925.7031250000,195428.4062500000,202372.0781250000,188221.1718750000,187434.5156250000,165405.8125000000,170910.7812500000,-93495.8906250000,,,
2.4079999961,18,204931.3437500000,195440.3593750000,202368.2500000000,188236.8437500000,187426.9687500000,165399.5156250000,170905.3906250000,-93497.3437500000,,,
2.4119999961,18,204944.0000000000,195448.0625000000,202378.5468750000,188250.9218750000,187436.6250000000,165411.6875000000,170917.6718750000,-93490.2578125000,,,
2.4159999962,18,204947.5156250000,195448.2031250000,202389.6250000000,188245.3750000000,187451.5625000000,165430.5156250000,170933.1562500000,-93479.3984375000,,,
2.4199999962,18,204942.8125000000,195441.7343750000,202395.1250000000,188231.9218750000,187457.3125000000,165429.6562500000,170938.3593750000,-93478.4062500000,,,
2.4239999962,18,204925.4375000000,195422.2656250000,202378.4843750000,188224.2656250000,187439.7968750000,165405.6250000000,170917.6718750000,-93499.1640625000,,,
2.4279999961,18,204922.1093750000,195423.4218750000,202371.3281250000,188233.1093750000,187431.5625000000,165395.4687500000,170905.0937500000,-93508.5546875000,,,
2.4319999961,19,204955.0468750000,195446.4062500000,202405.3750000000,188278.3593750000,187466.5937500000,165425.0000000000,170936.4062500000,-93484.4921875000,,,
2.4359999960,19,204966.7187500000,195446.9062500000,202424.3593750000,188302.2812500000,187488.9531250000,165437.9531250000,170959.5781250000,-93473.6328125000,,,
2.4399999960,19,204953.2031250000,195437.9062500000,202416.5781250000,188269.3437500000,187483.3750000000,165434.3281250000,170956.1875000000,-93476.2812500000,,,
2.4439999959,19,204925.8437500000,195424.5937500000,202383.2656250000,188223.3437500000,187449.4687500000,165412.7187500000,170921.7343750000,-93498.3593750000,,,
2.4479999959,19,204932.4062500000,195436.6093750000,202380.9375000000,188232.0625000000,187443.5781250000,165412.0156250000,170914.2187500000,-93497.2343750000,,,
2.4519999959,19,204959.9375000000,195458.3125000000,202410.0312500000,188268.3281250000,187470.2656250000,165436.4687500000,170936.6406250000,-93474.1093750000,,,
2.4559999960,19,204975.2187500000,195466.3593750000,202431.6562500000,188290.5937500000,187493.4843750000,165457.3437500000,170957.9375000000,-93456.6250000000,,,
2.4599999960,19,204949.8125000000,195440.7656250000,202409.5000000000,188253.2500000000,187475.5000000000,165442.4375000000,170939.7187500000,-93474.0078125000,,,
2.4639999960,19,204924.3125000000,195415.3906250000,202382.8593750000,188206.4218750000,187449.0000000000,165413.7031250000,170909.6093750000,-93501.0937500000,,,
2.4679999959,19,204923.7812500000,195427.1093750000,202368.6406250000,188221.3593750000,187433.4843750000,165412.0937500000,170897.1250000000,-93503.6171875000,,,
2.4719999959,19,204942.2812500000,195440.4218750000,202383.2656250000,188253.6093750000,187446.5468750000,165424.5625000000,170918.6718750000,-93493.7968750000,,,
2.4759999961,19,204942.4687500000,195430.4375000000,202392.9218750000,188254.6406250000,187459.9687500000,165431.5625000000,170935.7031250000,-93489.9375000000,,,
2.4799999960,19,204936.4062500000,195427.4062500000,202392.2187500000,188242.9218750000,187460.8281250000,165437.3281250000,170936.8750000000,-93486.8515625000,,,
2.4839999960,19,204931.2656250000,195438.0000000000,202381.7656250000,188224.1718750000,187448.4062500000,165431.8125000000,170923.7656250000,-93488.9140625000,,,
2.4879999959,19,204928.6562500000,195441.2812500000,202372.7031250000,188220.3437500000,187436.2187500000,165419.7343750000,170910.8593750000,-93499.5937500000,,,
2.4919999959,19,204942.4218750000,195452.6718750000,202386.4531250000,188235.3906250000,187447.9218750000,165428.4531250000,170919.1250000000,-93494.4140625000,,,
2.4959999959,19,204963.3437500000,195465.8281250000,202411.5937500000,188258.7187500000,187473.6718750000,165448.5468750000,170939.5937500000,-93471.1640625000,,,
2.4999999960,19,204969.1875000000,195458.7343750000,202423.9531250000,188271.0625000000,187488.6406250000,165456.8125000000,170959.6250000000,-93459.6796875000,,,
2.5039999960,19,204952.5000000000,195447.0156250000,202401.9843750000,188257.5468750000,187466.2968750000,165437.8437500000,170934.4218750000,-93473.6796875000,,,
2.5079999960,19,204950.7812500000,195451.5000000000,202395.0937500000,188246.2812500000,187456.4687500000,165430.5156250000,170915.0468750000,-93479.9843750000,,,
2.5119999959,19,204985.9218750000,195481.3437500000,202432.3437500000,188281.8437500000,187491.9687500000,165461.1250000000,170945.8750000000,-93451.6640625000,,,
2.5159999959,19,205000.4843750000,195485.9843750000,202452.6562500000,188305.0000000000,187515.1406250000,165478.0156250000,170973.2031250000,-93435.4609375000,,,
2.5199999961,19,204985.5937500000,195468.1250000000,202441.5468750000,188293.4843750000,187506.7968750000,165465.1406250000,170967.1875000000,-93442.9140625000,,,
2.5239999960,19,204976.4843750000,195466.9218750000,202427.2500000000,188268.7031250000,187492.1562500000,165454.7187500000,170951.4218750000,-93447.2109375000,,,
2.5279999960,19,204978.4687500000,195481.3437500000,202419.0468750000,188258.9375000000,187482.9531250000,165457.5625000000,170939.7031250000,-93445.4921875000,,,
2.5319999959,19,204997.9062500000,195498.1093750000,202439.9218750000,188278.1406250000,187502.8281250000,165474.0312500000,170958.0937500000,-93432.5625000000,,,
2.5359999959,19,205005.7968750000,195490.6875000000,202454.2031250000,188305.1875000000,187518.8593750000,165479.6875000000,170973.5000000000,-93428.9687500000,,,
2.5399999958,19,204989.7343750000,195472.7968750000,202443.5312500000,188275.7343750000,187512.2656250000,165475.6562500000,170967.5937500000,-93437.0156250000,,,
2.5439999960,19,204958.4843750000,195446.0000000000,202408.5937500000,188238.6875000000,187476.8281250000,165445.5937500000,170935.2187500000,-93468.3437500000,,,
2.5479999960,19,204954.8906250000,195443.3125000000,202400.0781250000,188239.0937500000,187466.3437500000,165432.7968750000,170922.5312500000,-93479.7734375000,,,
2.5519999960,19,204973.5312500000,195462.1250000000,202415.7187500000,188259.7500000000,187482.0937500000,165445.4687500000,170933.4687500000,-93467.7265625000,,,
2.5559999959,19,204962.7812500000,195445.9687500000,202406.8750000000,188253.8437500000,187478.7656250000,165446.7812500000,170932.2656250000,-93474.1953125000,,,
2.5599999959,20,204952.0781250000,195437.7656250000,202398.7500000000,188235.8125000000,187475.0625000000,165452.7343750000,170931.9218750000,-93469.8750000000,,,
2.5639999958,20,204951.9375000000,195451.8750000000,202390.6406250000,188235.4218750000,187466.1562500000,165454.0156250000,170920.5937500000,-93463.4921875000,,,
2.5679999958,20,204960.0937500000,195469.4218750000,202394.7968750000,188243.5937500000,187465.4687500000,165454.6562500000,170921.8906250000,-93459.0937500000,,,
2.5719999957,20,204980.0468750000,195488.7031250000,202415.5625000000,188272.7500000000,187484.1093750000,165472.7968750000,170941.4375000000,-93446.0000000000,,,
2.5759999957,20,204961.1093750000,195450.7968750000,202402.9843750000,188267.6093750000,187474.6093750000,165459.2500000000,170937.9843750000,-93467.5390625000,,,
2.5799999957,20,204949.2031250000,195436.8593750000,202396.5468750000,188252.8750000000,187469.1562500000,165455.3906250000,170937.4218750000,-93472.1015625000,,,
2.5839999958,20,204953.9531250000,195449.9375000000,202400.8281250000,188247.6406250000,187471.0156250000,165456.5937500000,170938.1718750000,-93466.3593750000,,,
2.5879999958,20,204950.8593750000,195450.9375000000,202390.5625000000,188237.6718750000,187458.9375000000,165445.7812500000,170921.5937500000,-93479.7968750000,,,
2.5919999958,20,204963.3593750000,195458.5000000000,202403.8906250000,188256.2343750000,187471.0937500000,165454.0468750000,170931.6562500000,-93476.5234375000,,,
2.5959999957,20,204969.9843750000,195458.6875000000,202416.8437500000,188260.3281250000,187484.5312500000,165463.8125000000,170942.4375000000,-93467.2421875000,,,
2.5999999957,20,204964.0625000000,195443.2656250000,202419.1875000000,188250.1875000000,187489.6250000000,165457.0468750000,170946.4062500000,-93470.4921875000,,,
2.6039999959,20,204959.5000000000,195443.6406250000,202414.9218750000,188245.9531250000,187483.9375000000,165443.7500000000,170942.5156250000,-93474.2734375000,,,
2.6079999958,20,204955.2343750000,195447.2812500000,202403.8593750000,188261.7500000000,187469.0781250000,165433.3906250000,170928.0625000000,-93480.7890625000,,,
2.6119999958,20,204962.9843750000,195454.6406250000,202406.9218750000,188270.1250000000,187471.5000000000,165440.6093750000,170931.7343750000,-93478.3203125000,,,
2.6159999957,20,204972.5625000000,195460.2500000000,202421.3593750000,188283.2187500000,187487.2187500000,165459.5625000000,170948.8437500000,-93466.5781250000,,,
2.6199999957,20,204964.0312500000,195450.9687500000,202418.0468750000,188261.7500000000,187485.7343750000,165464.9375000000,170950.6093750000,-93465.2890625000,,,
2.6239999956,20,204950.9687500000,195447.1562500000,202399.6875000000,188242.7968750000,187466.9687500000,165454.2031250000,170933.2031250000,-93474.4843750000,,,
2.6279999958,20,204947.4843750000,195449.2187500000,202386.4062500000,188229.8906250000,187453.6562500000,165446.6875000000,170920.9218750000,-93484.8125000000,,,
2.6319999958,20,204957.1718750000,195455.3281250000,202395.0468750000,188243.0000000000,187464.4687500000,165457.2343750000,170928.6250000000,-93482.4296875000,,,
2.6359999957,20,204963.6093750000,195451.3593750000,202410.1718750000,188261.2187500000,187483.0312500000,165464.5000000000,170943.3437500000,-93476.4218750000,,,
2.6399999957,20,204938.5468750000,195427.5468750000,202390.0000000000,188239.2812500000,187465.7500000000,165449.6406250000,170926.5312500000,-93494.3125000000,,,
2.6439999957,20,204932.9531250000,195432.2968750000,202383.2343750000,188225.4062500000,187456.6406250000,165444.1718750000,170916.5468750000,-93493.6640625000,,,
2.6479999959,20,204951.2187500000,195456.4843750000,202398.5625000000,188240.2968750000,187468.6875000000,165451.8750000000,170927.0312500000,-93478.6484375000,,,
2.6519999958,20,204982.3281250000,195484.8906250000,202430.3125000000,188279.5156250000,187498.7500000000,165477.9687500000,170955.2031250000,-93453.7031250000,,,
2.6559999958,20,204980.2812500000,195476.8750000000,202430.6562500000,188292.0625000000,187501.4375000000,165481.0468750000,170957.1562500000,-93453.3750000000,,,
2.6599999957,20,204963.5312500000,195462.3281250000,202417.1718750000,188281.6562500000,187490.4062500000,165478.2031250000,170952.4687500000,-93458.4218750000,,,
2.6639999957,20,204947.5156250000,195457.5312500000,202391.1562500000,188255.9062500000,187460.6562500000,165466.7343750000,170927.6250000000,-93470.0625000000,,,
2.6679999956,20,204937.9375000000,195454.3750000000,202371.7031250000,188223.9687500000,187434.2187500000,165447.0781250000,170899.1406250000,-93486.3125000000,,,
2.6719999958,20,204937.0781250000,195446.3281250000,202375.2187500000,188235.3125000000,187435.4218750000,165441.6562500000,170899.5000000000,-93496.6718750000,,,
2.6759999958,20,204950.6562500000,195446.5312500000,202398.9531250000,188264.1718750000,187465.4687500000,165458.6875000000,170929.1875000000,-93482.8046875000,,,
2.6799999957,20,204941.1250000000,195434.3125000000,202394.7656250000,188229.6250000000,187467.8750000000,165455.2500000000,170929.5312500000,-93486.7734375000,,,
2.6839999957,20,204918.6718750000,195419.4531250000,202371.9687500000,188196.2343750000,187446.4375000000,165431.8281250000,170908.4531250000,-93508.7109375000,,,
2.6879999957,21,204927.9531250000,195432.7812500000,202377.3593750000,188205.3750000000,187449.5312500000,165427.0312500000,170909.1406250000,-93508.8984375000,,,
2.6919999956,21,204953.8906250000,195452.7031250000,202405.6406250000,188228.9843750000,187474.0781250000,165446.8750000000,170929.5000000000,-93494.3593750000,,,
2.6959999956,21,204990.6093750000,195484.2187500000,202451.9843750000,188255.9843750000,187520.0468750000,165489.6875000000,170977.3906250000,-93454.9062500000,,,
2.6999999955,21,204964.0625000000,195453.1875000000,202429.9687500000,188241.2968750000,187503.8906250000,165467.3437500000,170949.8593750000,-93474.2968750000,,,
2.7039999955,21,204929.5156250000,195425.9843750000,202388.9062500000,188201.9687500000,187463.3125000000,165433.2812500000,170910.2968750000,-93503.2656250000,,,
2.7079999954,21,204935.9843750000,195447.6093750000,202385.1406250000,188210.2031250000,187455.0781250000,165441.3906250000,170909.2812500000,-93496.5078125000,,,
2.7119999956,21,204954.4062500000,195463.0000000000,202398.8281250000,188246.0312500000,187465.8125000000,165452.9687500000,170917.7031250000,-93486.7421875000,,,
2.7159999956,21,204951.4062500000,195452.2968750000,202397.7187500000,188250.9687500000,187467.9531250000,165456.6250000000,170917.3750000000,-93487.9218750000,,,
2.7199999955,21,204944.8906250000,195446.0468750000,202394.9062500000,188250.1718750000,187468.2968750000,165455.8750000000,170919.8437500000,-93483.0156250000,,,
2.7239999955,21,204940.5312500000,195452.0937500000,202385.0625000000,188247.0312500000,187455.1093750000,165447.4218750000,170911.4843750000,-93484.8906250000,,,
2.7279999955,21,204930.4843750000,195448.5156250000,202366.7500000000,188221.8750000000,187430.7343750000,165428.8281250000,170887.2343750000,-93503.7265625000,,,
2.7319999957,21,204958.4062500000,195461.5781250000,202397.0468750000,188244.5937500000,187460.2343750000,165451.9843750000,170913.0156250000,-93485.6171875000,,,
2.7359999956,21,204966.9843750000,195454.9062500000,202414.0625000000,188260.0625000000,187483.2500000000,165466.6562500000,170933.9375000000,-93477.9765625000,,,
2.7399999956,21,204968.2187500000,195456.0781250000,202421.7343750000,188261.9218750000,187496.3281250000,165475.0937500000,170940.6875000000,-93468.0468750000,,,
2.7439999955,21,204971.3593750000,195473.8750000000,202420.7968750000,188260.7656250000,187493.2812500000,165473.2968750000,170931.5156250000,-93459.7343750000,,,
2.7479999955,21,204990.0312500000,195499.0468750000,202434.2031250000,188265.2187500000,187502.6093750000,165479.6562500000,170940.9062500000,-93444.4453125000,,,
2.7519999954,21,205004.2656250000,195508.8750000000,202447.6406250000,188282.7500000000,187517.5468750000,165493.4531250000,170954.0468750000,-93435.1953125000,,,
2.7559999956,21,205001.3437500000,195498.0156250000,202449.0000000000,188267.9531250000,187524.6093750000,165502.5625000000,170963.1093750000,-93434.6015625000,,,
2.7599999956,21,204969.7812500000,195465.1250000000,202421.7500000000,188238.9531250000,187501.6718750000,165489.5781250000,170949.3750000000,-93455.5546875000,,,
2.7639999955,21,204939.0937500000,195444.9218750000,202389.1718750000,188213.0781250000,187467.3437500000,165461.1250000000,170919.5312500000,-93481.5390625000,,,
2.7679999955,21,204940.0000000000,195449.6718750000,202385.0625000000,188202.7187500000,187457.5781250000,165449.7187500000,170898.1562500000,-93490.5234375000,,,
2.7719999955,21,204964.0000000000,195466.5468750000,202406.4687500000,188234.7968750000,187476.6718750000,165465.3906250000,170917.5468750000,-93478.4609375000,,,
2.7759999956,21,204972.0468750000,195471.8906250000,202417.0625000000,188250.8125000000,187485.4687500000,165483.0156250000,170945.0625000000,-93466.1171875000,,,
2.7799999956,21,204962.2656250000,195458.7656250000,202413.3281250000,188246.2031250000,187484.3906250000,165476.4687500000,170945.7656250000,-93470.5156250000,,,
2.7839999956,21,204952.9375000000,195457.7812500000,202404.6406250000,188229.6250000000,187476.3750000000,165466.7343750000,170928.7031250000,-93478.2421875000,,,
2.7879999955,21,204966.0156250000,195476.0937500000,202416.7187500000,188239.5156250000,187482.9687500000,165470.7812500000,170932.6250000000,-93471.4296875000,,,
2.7919999955,21,204988.7031250000,195490.8437500000,202434.7968750000,188264.6562500000,187501.5625000000,165483.8437500000,170941.3125000000,-93459.9765625000,,,
2.7959999954,21,204992.4375000000,195482.1250000000,202443.5312500000,188275.6718750000,187513.4531250000,165491.8906250000,170951.8437500000,-93458.5312500000,,,
2.7999999956,21,204983.8593750000,195474.2500000000,202441.5781250000,188270.3593750000,187515.7187500000,165493.4687500000,170960.1093750000,-93455.3125000000,,,
2.8039999956,21,204970.3125000000,195471.5937500000,202421.6718750000,188245.9062500000,187497.1718750000,165479.7968750000,170942.4843750000,-93462.2265625000,,,
2.8079999955,21,204963.5468750000,195476.7343750000,202406.6562500000,188234.9843750000,187480.6718750000,165470.0781250000,170925.4843750000,-93472.2890625000,,,
2.8119999955,21,204963.1718750000,195466.9687500000,202407.1406250000,188253.7968750000,187480.2187500000,165465.5781250000,170925.0781250000,-93482.4531250000,,,
2.8159999955,22,204974.5468750000,195473.9531250000,202423.5000000000,188257.8906250000,187498.9375000000,165485.1093750000,170942.6250000000,-93468.0234375000,,,
2.8199999954,22,204966.9062500000,195467.0000000000,202423.2031250000,188234.0781250000,187500.0156250000,165491.5468750000,170944.0156250000,-93466.2265625000,,,
2.8239999954,22,204972.9062500000,195479.5312500000,202428.4687500000,188249.0937500000,187503.2031250000,165493.0937500000,170946.5312500000,-93454.5859375000,,,
2.8279999953,22,204961.6406250000,195471.6718750000,202406.6562500000,188251.7968750000,187482.6562500000,165465.5468750000,170915.3750000000,-93472.0703125000,,,
2.8319999953,22,204966.6406250000,195474.1093750000,202408.5937500000,188251.1093750000,187484.3906250000,165470.2187500000,170910.7343750000,-93473.8984375000,,,
2.8359999952,22,204982.1093750000,195485.4218750000,202429.3125000000,188251.5625000000,187505.4218750000,165494.9687500000,170938.0312500000,-93456.2734375000,,,
2.8399999954,22,204960.8750000000,195454.9531250000,202419.2031250000,188218.4062500000,187498.6718750000,165486.3125000000,170945.8750000000,-93470.9218750000,,,
2.8439999954,22,204950.7500000000,195449.2968750000,202409.5000000000,188217.7187500000,187486.2812500000,165476.5781250000,170930.8750000000,-93478.1328125000,,,
2.8479999953,22,204953.8750000000,195462.3125000000,202403.9531250000,188226.1875000000,187477.5312500000,165474.3437500000,170918.9843750000,-93481.6250000000,,,
2.8519999953,22,204968.2968750000,195470.1875000000,202416.9843750000,188252.0468750000,187487.7500000000,165480.2031250000,170933.6093750000,-93479.8515625000,,,
2.8559999953,22,204971.5468750000,195460.8593750000,202425.1093750000,188253.8750000000,187500.8437500000,165483.3593750000,170931.6562500000,-93481.0625000000,,,
2.8599999954,22,204963.6875000000,195450.1250000000,202423.0937500000,188240.4375000000,187501.1875000000,165481.0000000000,170918.1406250000,-93484.7031250000,,,
2.8639999954,22,204965.7968750000,195462.0937500000,202419.9375000000,188244.2656250000,187492.5000000000,165483.6093750000,170924.4375000000,-93477.0390625000,,,
2.8679999954,22,204970.3437500000,195474.9062500000,202415.1562500000,188255.4843750000,187482.0312500000,165477.9218750000,170927.7656250000,-93475.8828125000,,,
2.8719999953,22,204986.9062500000,195485.5312500000,202428.5937500000,188275.5625000000,187490.4062500000,165489.3906250000,170945.2031250000,-93466.6015625000,,,
2.8759999953,22,204980.8593750000,195469.5781250000,202431.9531250000,188254.8906250000,187492.4375000000,165489.0156250000,170946.0312500000,-93473.8437500000,,,
2.8799999952,22,204970.7343750000,195460.6406250000,202429.9687500000,188245.6093750000,187493.8906250000,165493.7656250000,170944.7187500000,-93471.6406250000,,,
2.8839999954,22,204951.1562500000,195446.8281250000,202405.2812500000,188241.6875000000,187472.1718750000,165472.9531250000,170918.9375000000,-93486.6953125000,,,
2.8879999954,22,204956.1250000000,195457.7968750000,202404.6406250000,188246.1250000000,187472.0312500000,165470.2187500000,170911.7031250000,-93483.3359375000,,,
2.8919999953,22,204984.1250000000,195484.1093750000,202430.6562500000,188278.2500000000,187497.5468750000,165498.1718750000,170939.9375000000,-93461.9062500000,,,
2.8959999953,22,204987.3906250000,195479.9843750000,202439.4375000000,188274.5000000000,187508.5156250000,165508.7031250000,170960.2500000000,-93457.7812500000,,,
2.8999999953,22,204987.7656250000,195478.7031250000,202442.5937500000,188268.1406250000,187515.1562500000,165516.7031250000,170966.0937500000,-93451.1015625000,,,
2.9039999954,22,204970.2500000000,195469.7343750000,202418.9375000000,188252.7500000000,187492.2343750000,165495.8125000000,170943.9062500000,-93462.6328125000,,,
2.9079999954,22,204967.2500000000,195474.2968750000,202408.3437500000,188241.3437500000,187478.1406250000,165482.4218750000,170935.1718750000,-93468.5625000000,,,
2.9119999954,22,204980.8593750000,195482.2968750000,202421.6718750000,188256.6093750000,187488.2031250000,165489.4218750000,170946.8125000000,-93464.8281250000,,,
2.9159999953,22,204987.6875000000,195482.6093750000,202432.6718750000,188264.2968750000,187502.6875000000,165508.4062500000,170962.9218750000,-93454.5859375000,,,
2.9199999953,22,204970.0468750000,195470.9218750000,202413.5781250000,188243.2968750000,187489.0625000000,165510.8281250000,170952.7812500000,-93455.5000000000,,,
2.9239999952,22,204963.4218750000,195470.3750000000,202403.8906250000,188243.2968750000,187477.9531250000,165499.5312500000,170941.3125000000,-93458.4218750000,,,
2.9279999954,22,204950.9218750000,195456.7031250000,202388.1406250000,188239.5156250000,187458.5468750000,165477.9218750000,170918.6406250000,-93479.7968750000,,,
2.9319999954,22,204962.4531250000,195461.6875000000,202397.3437500000,188259.6093750000,187467.2031250000,165480.1718750000,170923.5468750000,-93480.4140625000,,,
2.9359999953,22,204964.5781250000,195456.5625000000,202407.9687500000,188264.4687500000,187479.4843750000,165488.0468750000,170934.0156250000,-93479.3671875000,,,
2.9399999953,22,204967.8125000000,195460.3437500000,202420.2343750000,188258.9375000000,187495.3750000000,165504.1718750000,170948.3281250000,-93466.6015625000,,,
2.9439999952,23,204954.7031250000,195461.2343750000,202402.4218750000,188232.2812500000,187476.2187500000,165490.7968750000,170929.5625000000,-93474.4843750000,,,
