Time:250Hz,Epoch,Channel 1,Channel 2,Channel 3,Channel 4,Channel 5,Channel 6,Channel 7,Channel 8,Event Id,Event Date,Event Duration
0.0000000000,0,159889.0781250000,142320.1718750000,171840.7812500000,165369.5781250000,128741.6250000000,-40427.3867187500,82799.9921875000,149146.1093750000,,,
0.0040000000,0,160072.1875000000,142489.0156250000,172004.6093750000,165555.2500000000,128926.6406250000,-40176.6523437500,82976.1328125000,149353.4843750000,,,
0.0079999999,0,158924.5468750000,142153.3906250000,170852.2343750000,164485.0937500000,127769.6171875000,-41099.4414062500,81926.4531250000,151174.2343750000,,,
0.0119999999,0,158019.3593750000,141761.8281250000,169964.8281250000,163631.2343750000,126862.3906250000,-41934.9492187500,81107.9453125000,152078.4062500000,,,
0.0159999998,0,158609.7968750000,141861.9531250000,170572.8593750000,164166.7500000000,127465.3203125000,-41526.3671875000,81670.0000000000,150838.2031250000,,,
0.0199999998,0,159872.9843750000,142302.8437500000,171831.0312500000,165337.4531250000,128742.5937500000,-40439.9648437500,82841.8359375000,149148.5156250000,,,
0.0240000000,0,160087.2656250000,142496.6406250000,172025.1875000000,165553.4531250000,128954.7031250000,-40164.0468750000,83036.0000000000,149361.6250000000,,,
0.0279999999,0,158963.5468750000,142180.6406250000,170895.0156250000,164504.9375000000,127817.2812500000,-41080.1015625000,82004.0703125000,151187.9375000000,,,
0.0319999999,0,158053.7812500000,141791.6250000000,170003.6093750000,163642.2968750000,126901.2031250000,-41927.0078125000,81170.7343750000,152103.9062500000,,,
0.0359999998,0,158614.5937500000,141879.6562500000,170579.4843750000,164159.2031250000,127471.8437500000,-41533.6367187500,81694.1718750000,150869.7500000000,,,
0.0399999998,0,159866.1406250000,142314.4843750000,171825.7187500000,165336.4062500000,128739.4765625000,-40451.3906250000,82847.8125000000,149170.3750000000,,,
0.0440000000,0,160082.8906250000,142499.0312500000,172023.3125000000,165557.5468750000,128956.3593750000,-40171.0195312500,83039.2734375000,149355.0781250000,,,
0.0480000000,0,158963.2343750000,142182.0156250000,170897.0781250000,164511.1718750000,127822.4843750000,-41075.8632812500,81996.9921875000,151176.0000000000,,,
0.0519999999,0,158041.0000000000,141791.9375000000,169987.5937500000,163634.6406250000,126890.0390625000,-41931.5703125000,81143.4609375000,152110.0000000000,,,
0.0559999999,0,158594.5156250000,141872.1718750000,170559.3593750000,164146.1718750000,127453.6015625000,-41552.1171875000,81666.7578125000,150884.1718750000,,,
0.0599999998,0,159855.7656250000,142310.9218750000,171816.7343750000,165329.1406250000,128730.6015625000,-40459.6796875000,82835.4531250000,149184.2968750000,,,
0.0639999998,0,160084.0781250000,142500.0937500000,172026.3125000000,165546.2343750000,128960.1171875000,-40165.2539062500,83042.0625000000,149352.2343750000,,,
0.0680000000,0,158962.9843750000,142180.0000000000,170895.0468750000,164511.3750000000,127822.7812500000,-41063.7929687500,81998.1953125000,151161.1875000000,,,
0.0719999999,0,158047.6875000000,141797.5937500000,169993.0156250000,163647.3906250000,126898.0312500000,-41908.9843750000,81156.3906250000,152117.1093750000,,,
0.0759999999,0,158600.1406250000,141880.4531250000,170566.4375000000,164155.8281250000,127465.1328125000,-41540.6640625000,81679.5234375000,150910.0625000000,,,
0.0799999998,0,159864.2187500000,142319.5312500000,171828.4687500000,165332.2968750000,128748.8125000000,-40452.9492187500,82854.0625000000,149207.0937500000,,,
0.0839999998,0,160086.4375000000,142499.0781250000,172028.6718750000,165560.3593750000,128969.5625000000,-40161.2304687500,83045.0390625000,149352.7656250000,,,
0.0880000000,0,158971.0625000000,142181.7500000000,170905.7343750000,164525.9531250000,127837.2343750000,-41066.0742187500,81999.1406250000,151158.1093750000,,,
0.0919999999,0,158058.0156250000,141805.8906250000,170007.8437500000,163652.2187500000,126913.2734375000,-41910.7539062500,81155.1250000000,152128.9687500000,,,
0.0959999999,0,158608.2656250000,141896.4062500000,170574.8125000000,164135.7656250000,127470.7968750000,-41531.2226562500,81675.2578125000,150943.7968750000,,,
0.0999999999,0,159877.9531250000,142338.9531250000,171839.1250000000,165331.0937500000,128753.0546875000,-40442.0312500000,82849.2343750000,149237.1406250000,,,
0.1039999998,0,160114.5156250000,142523.9687500000,172056.8593750000,165574.1250000000,128989.8671875000,-40151.8984375000,83058.7968750000,149367.0625000000,,,
0.1079999998,0,159011.6406250000,142213.0000000000,170943.6093750000,164553.9687500000,127868.6718750000,-41039.3046875000,82028.9375000000,151168.5468750000,,,
0.1120000000,0,158084.5625000000,141823.4062500000,170028.3906250000,163672.2500000000,126929.6328125000,-41898.1757812500,81171.4843750000,152140.9218750000,,,
0.1159999999,0,158605.7187500000,141895.0156250000,170566.6875000000,164150.5937500000,127460.7656250000,-41548.3359375000,81659.3515625000,150958.0468750000,,,
0.1199999999,0,159865.5000000000,142329.4218750000,171825.1718750000,165327.4687500000,128739.6640625000,-40461.6914062500,82827.0781250000,149239.9843750000,,,
0.1239999998,0,160119.7968750000,142526.1406250000,172059.9531250000,165576.8125000000,128995.4453125000,-40148.7031250000,83052.3593750000,149357.7500000000,,,
0.1279999998,1,159016.0468750000,142209.7031250000,170949.2187500000,164546.7343750000,127877.0937500000,-41040.9414062500,82025.8281250000,151143.8906250000,,,
0.1319999998,1,158072.5468750000,141814.0156250000,170020.9687500000,163659.5312500000,126922.7109375000,-41912.5000000000,81155.0156250000,152123.8125000000,,,
0.1359999997,1,158590.5156250000,141887.0781250000,170556.0156250000,164146.3593750000,127448.1015625000,-41561.8281250000,81642.6171875000,150955.8437500000,,,
0.1399999997,1,159852.7656250000,142322.0781250000,171814.3125000000,165324.4375000000,128725.1015625000,-40479.1796875000,82807.5312500000,149236.1718750000,,,
0.1439999996,1,160114.6250000000,142519.2187500000,172055.6875000000,165575.2812500000,128985.1718750000,-40157.3398437500,83034.9531250000,149335.1718750000,,,
0.1479999996,1,159023.7968750000,142216.1875000000,170960.3750000000,164554.1562500000,127884.4453125000,-41032.9218750000,82028.6406250000,151129.1093750000,,,
0.1519999998,1,158069.6562500000,141821.1250000000,170021.4375000000,163656.6406250000,126922.7656250000,-41910.4882812500,81153.2734375000,152132.2656250000,,,
0.1559999997,1,158569.7031250000,141881.8437500000,170537.7187500000,164118.9218750000,127431.4765625000,-41576.3125000000,81624.0000000000,150966.5156250000,,,
0.1599999997,1,159836.0468750000,142319.5312500000,171801.7031250000,165307.5937500000,128715.6093750000,-40483.9804687500,82797.7656250000,149240.1406250000,,,
0.1639999996,1,160113.0468750000,142523.1718750000,172061.9687500000,165577.7500000000,128995.5468750000,-40150.5000000000,83045.9765625000,149327.8281250000,,,
0.1679999996,1,159032.4375000000,142223.6406250000,170974.9687500000,164571.7812500000,127900.7812500000,-41019.8593750000,82042.2968750000,151116.4218750000,,,
0.1719999998,1,158068.0937500000,141818.0937500000,170023.3437500000,163669.5468750000,126925.7421875000,-41906.7304687500,81156.4140625000,152123.5468750000,,,
0.1759999997,1,158565.6250000000,141879.6250000000,170538.2031250000,164120.4687500000,127431.3906250000,-41577.4648437500,81626.7421875000,150976.9062500000,,,
0.1799999997,1,159834.7343750000,142312.1250000000,171804.3281250000,165308.4843750000,128717.0546875000,-40491.5429687500,82800.8515625000,149241.8593750000,,,
0.1839999997,1,160113.1718750000,142508.6875000000,172062.4218750000,165582.6875000000,128995.7890625000,-40161.0429687500,83043.3515625000,149304.8437500000,,,
0.1879999996,1,159007.7343750000,142193.2500000000,170947.6875000000,164556.3281250000,127876.9609375000,-41043.1953125000,82013.7031250000,151073.3750000000,,,
0.1919999996,1,158041.5781250000,141793.0156250000,169997.3593750000,163646.6718750000,126901.7109375000,-41928.9140625000,81123.6093750000,152096.1250000000,,,
0.1959999998,1,158532.7343750000,141858.2656250000,170505.0156250000,164093.7656250000,127397.4609375000,-41609.7304687500,81578.6718750000,150969.9843750000,,,
0.1999999997,1,159799.7343750000,142293.4375000000,171763.5937500000,165279.7031250000,128675.0781250000,-40523.2773437500,82742.5625000000,149232.0937500000,,,
0.2039999997,1,160096.9531250000,142496.9531250000,172043.1875000000,165585.0156250000,128973.3671875000,-40181.1328125000,83004.5078125000,149282.2031250000,,,
0.2079999996,1,159032.2500000000,142209.2656250000,170972.8437500000,164585.9687500000,127894.6406250000,-41037.6679687500,82010.6406250000,151068.7343750000,,,
0.2119999996,1,158076.5468750000,141827.2656250000,170032.9218750000,163692.9531250000,126926.7890625000,-41920.6250000000,81126.5859375000,152123.7812500000,,,
0.2159999998,1,158541.3750000000,141877.5781250000,170512.9375000000,164088.9375000000,127398.1875000000,-41623.3046875000,81554.9062500000,151004.3593750000,,,
0.2199999997,1,159797.4531250000,142295.0781250000,171766.4375000000,165251.2656250000,128672.2109375000,-40539.5546875000,82714.8828125000,149246.1562500000,,,
0.2239999997,1,160116.0468750000,142514.6093750000,172066.8906250000,165564.6093750000,128994.9843750000,-40163.7265625000,83009.8437500000,149291.2343750000,,,
0.2279999997,1,159054.6406250000,142227.7968750000,170997.3906250000,164579.0312500000,127920.0625000000,-41017.5273437500,82025.2343750000,151072.2187500000,,,
0.2319999996,1,158076.9218750000,141833.0625000000,170033.9218750000,163657.0156250000,126933.9765625000,-41911.1328125000,81123.9062500000,152134.5468750000,,,
0.2359999996,1,158529.8437500000,141876.3281250000,170502.6093750000,164072.8593750000,127395.0468750000,-41620.9960937500,81548.6875000000,151025.0156250000,,,
0.2399999998,1,159799.5781250000,142303.4375000000,171770.0781250000,165259.4218750000,128682.3203125000,-40537.5976562500,82722.7421875000,149272.9218750000,,,
0.2439999997,1,160125.7343750000,142517.2343750000,172076.0156250000,165569.1875000000,129009.3359375000,-40167.5078125000,83011.0000000000,149291.7187500000,,,
0.2479999997,1,159064.1093750000,142229.8125000000,171005.5468750000,164583.0000000000,127931.0312500000,-41017.3632812500,82018.1796875000,151063.5937500000,,,
0.2519999996,1,158086.0625000000,141836.2187500000,170041.9687500000,163658.2500000000,126941.7578125000,-41912.9531250000,81114.4140625000,152135.4843750000,,,
0.2559999996,2,158545.6406250000,141889.3593750000,170516.6093750000,164074.1250000000,127407.2265625000,-41616.6796875000,81542.6796875000,151053.5312500000,,,
0.2599999995,2,159804.9062500000,142311.0625000000,171770.1093750000,165254.3593750000,128678.9687500000,-40540.2812500000,82702.5234375000,149295.6406250000,,,
0.2639999995,2,160140.7812500000,142528.6093750000,172088.0625000000,165593.4687500000,129017.5937500000,-40164.3945312500,83009.8984375000,149297.7812500000,,,
0.2679999995,2,159094.0937500000,142251.7187500000,171034.6562500000,164617.0625000000,127958.9062500000,-40992.6367187500,82040.7421875000,151068.1406250000,,,
0.2719999994,2,158105.4531250000,141853.8437500000,170059.9531250000,163686.3281250000,126960.3984375000,-41896.4335937500,81126.3984375000,152153.6406250000,,,
0.2759999994,2,158533.0312500000,141883.3281250000,170501.3750000000,164077.4531250000,127393.8984375000,-41632.4218750000,81521.5703125000,151066.5312500000,,,
0.2799999996,2,159772.6093750000,142285.3906250000,171738.0312500000,165233.6406250000,128648.4453125000,-40580.4062500000,82659.6015625000,149285.0156250000,,,
0.2839999995,2,160115.4218750000,142507.6875000000,172061.6406250000,165561.0156250000,128991.4453125000,-40195.9101562500,82963.4453125000,149268.9531250000,,,
0.2879999995,2,159078.2968750000,142235.8437500000,171016.5937500000,164599.7656250000,127936.3984375000,-41021.1210937500,81994.3359375000,151032.8437500000,,,
0.2919999994,2,158075.9375000000,141828.2343750000,170027.4218750000,163659.2500000000,126922.8984375000,-41938.8906250000,81068.6796875000,152121.1562500000,,,
0.2959999994,2,158511.4062500000,141869.8281250000,170481.3906250000,164074.5312500000,127365.3593750000,-41666.5390625000,81476.9921875000,151062.5937500000,,,
0.2999999996,2,159769.2343750000,142286.3593750000,171738.1406250000,165231.9843750000,128640.3437500000,-40598.2148437500,82634.9531250000,149291.0781250000,,,
0.3039999995,2,160126.2343750000,142512.2968750000,172076.6093750000,165572.0000000000,128997.9375000000,-40199.8007812500,82948.2656250000,149262.1875000000,,,
0.3079999995,2,159107.3437500000,142252.7656250000,171048.0000000000,164623.5312500000,127963.5937500000,-41009.8281250000,81998.1718750000,151028.1093750000,,,
0.3119999995,2,158101.2968750000,141852.0000000000,170055.5625000000,163668.3125000000,126948.6250000000,-41927.8398437500,81069.5390625000,152140.9843750000,,,
0.3159999994,2,158508.8125000000,141880.1562500000,170475.4375000000,164053.7500000000,127359.9921875000,-41672.3867187500,81443.4375000000,151091.3437500000,,,
0.3199999994,2,159760.5156250000,142283.0781250000,171727.2500000000,165230.2343750000,128630.9843750000,-40613.6132812500,82602.9062500000,149308.2500000000,,,
0.3239999996,2,160117.3281250000,142501.5781250000,172066.4687500000,165568.5156250000,128989.6718750000,-40221.8203125000,82922.5937500000,149253.0625000000,,,
0.3279999995,2,159092.8125000000,142232.9531250000,171033.5781250000,164611.7031250000,127949.4609375000,-41029.3828125000,81967.4062500000,150999.0000000000,,,
0.3319999995,2,158082.8437500000,141828.3437500000,170038.8593750000,163660.0781250000,126928.6953125000,-41950.4257812500,81034.1875000000,152116.6250000000,,,
0.3359999994,2,158505.7500000000,141871.7031250000,170481.7968750000,164048.9375000000,127362.1640625000,-41690.6250000000,81434.6406250000,151096.3906250000,,,
0.3399999994,2,159752.9843750000,142283.2187500000,171725.0781250000,165219.2500000000,128625.3515625000,-40626.3789062500,82579.0078125000,149320.9531250000,,,
0.3439999996,2,160125.3281250000,142512.8593750000,172076.9531250000,165582.0468750000,128998.3125000000,-40215.8671875000,82908.8593750000,149259.0312500000,,,
0.3479999995,2,159108.2343750000,142246.1250000000,171050.3906250000,164628.3281250000,127965.5781250000,-41028.9804687500,81961.7187500000,150997.9531250000,,,
0.3519999995,2,158084.5468750000,141836.4062500000,170036.0625000000,163665.4375000000,126927.1093750000,-41957.8281250000,81011.3906250000,152129.7968750000,,,
0.3559999994,2,158470.8906250000,141853.0468750000,170439.5781250000,164018.6875000000,127319.8125000000,-41726.8085937500,81370.8828125000,151105.6250000000,,,
0.3599999994,2,159735.9531250000,142276.4218750000,171704.2656250000,165198.1093750000,128603.1718750000,-40649.2578125000,82535.1796875000,149329.5468750000,,,
0.3639999994,2,160115.6406250000,142501.7031250000,172064.3437500000,165568.4375000000,128984.6093750000,-40234.2656250000,82871.3906250000,149239.2343750000,,,
0.3679999996,2,159102.3906250000,142233.5468750000,171044.3125000000,164620.8437500000,127957.4843750000,-41038.3125000000,81930.0156250000,150965.3593750000,,,
0.3719999995,2,158077.5937500000,141825.2031250000,170031.2343750000,163653.7187500000,126919.4375000000,-41970.6484375000,80982.8984375000,152111.6875000000,,,
0.3759999995,2,158458.8125000000,141842.5000000000,170429.0625000000,164003.0000000000,127303.8515625000,-41745.8007812500,81334.2734375000,151102.3750000000,,,
0.3799999994,2,159735.7656250000,142273.4843750000,171707.3125000000,165199.6406250000,128595.8203125000,-40664.5468750000,82509.3437500000,149322.1875000000,,,
0.3839999994,3,160127.6093750000,142511.7968750000,172077.8437500000,165570.7500000000,128987.5312500000,-40234.9375000000,82855.8046875000,149222.9531250000,,,
0.3879999993,3,159111.0000000000,142241.4218750000,171051.1250000000,164630.2343750000,127955.4687500000,-41038.8750000000,81903.7578125000,150943.9687500000,,,
0.3919999993,3,158069.6250000000,141822.6562500000,170022.2500000000,163643.4218750000,126904.4687500000,-41982.7460937500,80943.2890625000,152099.2656250000,,,
0.3959999993,3,158444.6875000000,141841.9843750000,170416.0312500000,163980.6250000000,127289.1796875000,-41763.9062500000,81297.5234375000,151111.8125000000,,,
0.3999999992,3,159728.2187500000,142275.9531250000,171699.3281250000,165194.8906250000,128589.1406250000,-40678.9765625000,82481.5859375000,149334.8437500000,,,
0.4039999992,3,160136.9375000000,142521.6093750000,172090.5000000000,165585.9062500000,129002.2031250000,-40238.4765625000,82846.9296875000,149227.5625000000,,,
0.4079999994,3,159109.2812500000,142238.2656250000,171056.1875000000,164622.9375000000,127962.5000000000,-41052.8789062500,81889.8359375000,150932.2187500000,,,
0.4119999993,3,158061.7656250000,141818.0937500000,170019.5625000000,163629.9843750000,126900.7968750000,-41998.0351562500,80920.2421875000,152098.7656250000,,,
0.4159999993,3,158425.4687500000,141829.0156250000,170400.0625000000,163958.1250000000,127269.6796875000,-41793.6757812500,81258.3906250000,151118.1406250000,,,
0.4199999992,3,159705.7812500000,142256.2031250000,171681.1406250000,165164.4218750000,128566.6875000000,-40721.6250000000,82439.3437500000,149329.1875000000,,,
0.4239999992,3,160126.1250000000,142505.0937500000,172079.0000000000,165562.6406250000,128985.7343750000,-40267.9023437500,82806.1093750000,149203.5000000000,,,
0.4279999994,3,159110.7500000000,142229.7656250000,171051.7343750000,164615.5312500000,127952.6562500000,-41069.7226562500,81851.5390625000,150905.1718750000,,,
0.4319999993,3,158062.5781250000,141812.1093750000,170017.5625000000,163625.3750000000,126892.8046875000,-42024.6953125000,80883.6093750000,152088.6250000000,,,
0.4359999993,3,158431.6718750000,141836.0156250000,170406.3437500000,163966.3281250000,127269.0937500000,-41815.1601562500,81228.9140625000,151138.3750000000,,,
0.4399999992,3,159706.3437500000,142263.0781250000,171680.5312500000,165163.8593750000,128557.7031250000,-40735.7070312500,82400.1562500000,149351.5625000000,,,
0.4439999992,3,160147.1875000000,142520.1562500000,172099.4843750000,165591.1250000000,128995.2265625000,-40271.4140625000,82788.7031250000,149212.1406250000,,,
0.4479999992,3,159142.0781250000,142245.9843750000,171081.3750000000,164663.5937500000,127974.7578125000,-41069.7500000000,81848.5859375000,150907.1875000000,,,
0.4519999993,3,158071.0781250000,141810.5781250000,170021.4375000000,163638.2656250000,126891.0625000000,-42039.5000000000,80855.3906250000,152091.5781250000,,,
0.4559999993,3,158419.1718750000,141819.8906250000,170387.5156250000,163945.2187500000,127242.6171875000,-41851.0507812500,81174.6015625000,151145.6406250000,,,
0.4599999993,3,159719.5937500000,142267.1718750000,171687.6875000000,165164.0937500000,128555.6640625000,-40750.9687500000,82372.3437500000,149367.2812500000,,,
0.4639999992,3,160174.0000000000,142532.5468750000,172121.8750000000,165600.4062500000,129009.2265625000,-40271.7929687500,82777.6718750000,149214.1562500000,,,
0.4679999992,3,159178.5625000000,142267.5468750000,171116.8906250000,164675.9062500000,127998.8125000000,-41063.5273437500,81844.5078125000,150907.8281250000,,,
0.4719999994,3,158100.4375000000,141833.5937500000,170050.1406250000,163658.8437500000,126906.6484375000,-42042.0781250000,80840.5312500000,152106.5156250000,,,
0.4759999993,3,158424.5937500000,141830.4843750000,170390.8593750000,163946.7500000000,127234.4375000000,-41874.9492187500,81139.5468750000,151165.8593750000,,,
0.4799999993,3,159713.6562500000,142268.5625000000,171680.9531250000,165146.9843750000,128540.8906250000,-40785.2460937500,82331.2500000000,149378.9687500000,,,
0.4839999992,3,160164.3593750000,142528.7500000000,172109.8125000000,165584.5312500000,128991.2578125000,-40305.0781250000,82731.9453125000,149204.7343750000,,,
0.4879999992,3,159163.2500000000,142259.2343750000,171097.5156250000,164653.7031250000,127974.3281250000,-41096.2500000000,81788.9296875000,150883.5000000000,,,
0.4919999992,3,158078.8281250000,141822.6718750000,170026.7031250000,163637.8906250000,126880.3828125000,-42076.5429687500,80784.0937500000,152091.0312500000,,,
0.4959999993,3,158401.7343750000,141826.8593750000,170366.5937500000,163925.3750000000,127208.0468750000,-41908.3398437500,81074.5546875000,151179.2656250000,,,
0.4999999993,3,159703.6562500000,142270.3906250000,171669.7187500000,165140.2187500000,128526.2734375000,-40809.3046875000,82280.0156250000,149392.9531250000,,,
0.5039999993,3,160158.0156250000,142524.7812500000,172107.0156250000,165583.0625000000,128987.0703125000,-40320.9843750000,82707.6718750000,149195.5937500000,,,
0.5079999992,3,159170.2500000000,142258.9687500000,171108.3906250000,164663.0312500000,127984.5703125000,-41104.9140625000,81783.0859375000,150866.3125000000,,,
0.5119999992,4,158101.0312500000,141835.2656250000,170048.9687500000,163658.4375000000,126899.7812500000,-42083.0351562500,80780.5859375000,152095.3750000000,,,
0.5159999991,4,158421.6875000000,141839.8125000000,170388.1250000000,163928.6250000000,127228.2421875000,-41902.9765625000,81090.5156250000,151199.6093750000,,,
0.5199999991,4,159709.5312500000,142274.4687500000,171676.3125000000,165122.2500000000,128532.4375000000,-40805.5781250000,82282.9453125000,149409.0937500000,,,
0.5239999990,4,160175.9687500000,142539.3125000000,172120.4531250000,165574.9843750000,128996.0625000000,-40324.5781250000,82689.5078125000,149204.7031250000,,,
0.5279999990,4,159208.6562500000,142290.3281250000,171143.6875000000,164676.2343750000,128013.1093750000,-41079.9414062500,81788.7734375000,150883.3125000000,,,
0.5319999990,4,158135.6875000000,141865.6250000000,170082.4843750000,163658.4687500000,126925.9296875000,-42053.4765625000,80794.5312500000,152130.5156250000,,,
0.5359999991,4,158443.6093750000,141862.0000000000,170405.8281250000,163926.2500000000,127236.3437500000,-41896.8359375000,81078.8437500000,151245.8906250000,,,
0.5399999991,4,159739.1093750000,142306.1406250000,171696.7812500000,165144.3906250000,128544.7812500000,-40801.8515625000,82268.2421875000,149456.8593750000,,,
0.5439999991,4,160231.0000000000,142585.3437500000,172168.6406250000,165610.6562500000,129040.3984375000,-40288.9023437500,82710.1875000000,149240.6250000000,,,
0.5479999990,4,159243.4687500000,142310.9687500000,171177.2031250000,164706.1406250000,128046.1562500000,-41062.5859375000,81794.9375000000,150890.0781250000,,,
0.5519999990,4,158136.1718750000,141863.3906250000,170081.8437500000,163664.7968750000,126924.2421875000,-42067.9335937500,80761.6171875000,152130.8906250000,,,
0.5559999992,4,158433.5156250000,141857.7343750000,170398.8593750000,163929.3906250000,127225.6640625000,-41921.5117187500,81036.4921875000,151254.9687500000,,,
0.5599999991,4,159721.9687500000,142290.3437500000,171692.8906250000,165131.5156250000,128532.5468750000,-40834.2773437500,82227.2578125000,149449.2812500000,,,
0.5639999991,4,160220.8125000000,142564.7656250000,172174.9687500000,165603.4375000000,129034.0625000000,-40321.7617187500,82671.7812500000,149210.6406250000,,,
0.5679999990,4,159261.9218750000,142319.3906250000,171202.2812500000,164720.0781250000,128056.1093750000,-41074.6562500000,81768.5234375000,150876.1875000000,,,
0.5719999990,4,158152.5312500000,141877.7187500000,170100.0625000000,163679.5000000000,126929.3125000000,-42078.5273437500,80733.0781250000,152135.3437500000,,,
0.5759999990,4,158439.8750000000,141873.2187500000,170402.0468750000,163923.0625000000,127217.5390625000,-41935.8867187500,80998.2734375000,151282.1093750000,,,
0.5799999991,4,159715.7187500000,142297.4843750000,171677.7031250000,165123.9375000000,128510.6093750000,-40857.6406250000,82177.2109375000,149471.2968750000,,,
0.5839999991,4,160213.0625000000,142564.3593750000,172156.0312500000,165605.7812500000,129011.6953125000,-40345.0703125000,82620.5234375000,149204.0156250000,,,
0.5879999991,4,159266.9375000000,142324.2812500000,171200.1718750000,164725.0468750000,128052.4609375000,-41088.4687500000,81730.1640625000,150866.7343750000,,,
0.5919999990,4,158165.8593750000,141893.1875000000,170113.2500000000,163683.7812500000,126939.9062500000,-42086.6015625000,80706.3125000000,152148.1093750000,,,
0.5959999990,4,158437.2500000000,141875.1718750000,170402.3125000000,163919.8750000000,127215.4218750000,-41961.3437500000,80955.6250000000,151298.1250000000,,,
0.5999999992,4,159706.2812500000,142291.2656250000,171670.7343750000,165106.0312500000,128500.6562500000,-40893.1796875000,82127.2968750000,149474.9218750000,,,
0.6039999991,4,160211.7968750000,142556.5000000000,172154.2500000000,165598.4218750000,129006.7343750000,-40379.6953125000,82578.6015625000,149189.5000000000,,,
0.6079999991,4,159268.3593750000,142314.9687500000,171198.8750000000,164716.5781250000,128047.6875000000,-41122.0781250000,81690.7109375000,150840.1562500000,,,
0.6119999990,4,158162.6406250000,141884.6093750000,170106.8125000000,163669.7656250000,126928.5625000000,-42122.5429687500,80663.8515625000,152133.7343750000,,,
0.6159999990,4,158417.4218750000,141861.0156250000,170379.6875000000,163889.6718750000,127185.0312500000,-42010.2929687500,80898.0390625000,151298.6562500000,,,
0.6199999989,4,159671.6093750000,142264.5781250000,171629.7031250000,165062.2812500000,128447.3359375000,-40958.4375000000,82044.4921875000,149462.0468750000,,,
0.6239999991,4,160192.3593750000,142539.8437500000,172126.3593750000,165564.3906250000,128964.2187500000,-40443.6679687500,82501.6484375000,149167.0781250000,,,
0.6279999991,4,159277.4843750000,142320.2031250000,171200.4843750000,164721.2656250000,128033.0625000000,-41180.2812500000,81639.3203125000,150827.6406250000,,,
0.6319999991,4,158178.7968750000,141895.4687500000,170115.4062500000,163691.4062500000,126921.5859375000,-42179.5390625000,80619.9218750000,152142.8281250000,,,
0.6359999990,4,158429.7343750000,141870.2031250000,170387.5625000000,163910.1718750000,127178.6484375000,-42071.5000000000,80853.3515625000,151323.5156250000,,,
0.6399999990,5,159683.0000000000,142273.1250000000,171643.2656250000,165083.2031250000,128448.4296875000,-41016.9882812500,82004.2343750000,149481.9218750000,,,
0.6439999989,5,160219.3906250000,142556.6406250000,172161.7968750000,165605.6718750000,128987.9609375000,-40470.4882812500,82484.3203125000,149170.7500000000,,,
0.6479999989,5,159297.5625000000,142331.7031250000,171228.8750000000,164752.4843750000,128049.4531250000,-41187.3632812500,81619.8437500000,150815.0781250000,,,
0.6519999988,5,158188.6406250000,141904.8125000000,170130.5781250000,163711.4375000000,126925.0703125000,-42183.7500000000,80588.0781250000,152138.8281250000,,,
0.6559999988,5,158417.4218750000,141870.6093750000,170373.8906250000,163911.5781250000,127153.1640625000,-42096.3359375000,80793.3203125000,151331.1406250000,,,
0.6599999988,5,159672.2500000000,142271.9531250000,171630.2031250000,165084.5156250000,128422.6015625000,-41049.3085937500,81950.8828125000,149485.8125000000,,,
0.6639999989,5,160205.5468750000,142546.0156250000,172146.9062500000,165598.0312500000,128957.4375000000,-40511.6875000000,82426.4687500000,149150.4218750000,,,
0.6679999989,5,159303.6875000000,142329.3750000000,171232.1093750000,164762.4375000000,128038.3515625000,-41214.4531250000,81573.2812500000,150795.5312500000,,,
0.6719999989,5,158189.5156250000,141903.4687500000,170127.2812500000,163700.3125000000,126913.2734375000,-42213.0390625000,80539.3203125000,152137.2812500000,,,
0.6759999988,5,158401.7968750000,141857.6093750000,170359.1406250000,163890.2968750000,127133.1562500000,-42138.4218750000,80735.0390625000,151339.1250000000,,,
0.6799999988,5,159655.2656250000,142257.8125000000,171614.0312500000,165055.0625000000,128403.4531250000,-41084.0976562500,81890.2968750000,149491.6250000000,,,
0.6839999990,5,160212.0468750000,142547.8437500000,172150.5000000000,165590.2968750000,128961.2734375000,-40521.9609375000,82387.9765625000,149147.5000000000,,,
0.6879999989,5,159313.7656250000,142334.6406250000,171238.2500000000,164759.9687500000,128044.4375000000,-41221.9921875000,81535.8125000000,150783.8125000000,,,
0.6919999989,5,158209.0468750000,141919.2656250000,170145.0937500000,163721.5312500000,126924.0000000000,-42213.0390625000,80506.5156250000,152146.1250000000,,,
0.6959999988,5,158415.4218750000,141875.5781250000,170372.2187500000,163896.7500000000,127136.6171875000,-42137.2695312500,80701.7265625000,151368.1875000000,,,
0.6999999988,5,159653.3906250000,142264.4687500000,171611.4843750000,165044.3593750000,128388.8359375000,-41095.4179687500,81840.3515625000,149510.9062500000,,,
0.7039999987,5,160215.3437500000,142548.1406250000,172154.2500000000,165576.8281250000,128952.7656250000,-40535.8828125000,82345.6796875000,149149.4531250000,,,
0.7079999989,5,159314.6562500000,142324.2187500000,171239.9687500000,164743.7343750000,128035.3203125000,-41246.6132812500,81492.3359375000,150767.8281250000,,,
0.7119999989,5,158201.7031250000,141901.6718750000,170135.1718750000,163695.5625000000,126905.7343750000,-42249.1445312500,80455.8515625000,152130.2968750000,,,
0.7159999989,5,158396.3750000000,141852.4218750000,170348.9218750000,163873.0625000000,127105.7734375000,-42184.5546875000,80636.8984375000,151363.6718750000,,,
0.7199999988,5,159642.5000000000,142250.5781250000,171597.5156250000,165026.4687500000,128368.9609375000,-41129.7773437500,81785.5546875000,149519.3125000000,,,
0.7239999988,5,160207.3281250000,142536.8906250000,172142.4062500000,165555.5156250000,128936.4375000000,-40561.2031250000,82294.1250000000,149139.0781250000,,,
0.7279999990,5,159330.5625000000,142328.8125000000,171255.6093750000,164750.6406250000,128043.5234375000,-41249.2148437500,81467.0937500000,150751.6406250000,,,
0.7319999989,5,158212.5312500000,141908.7187500000,170149.2031250000,163707.2500000000,126909.1406250000,-42253.4882812500,80424.8437500000,152130.8125000000,,,
0.7359999989,5,158386.7656250000,141854.0312500000,170343.3906250000,163863.0937500000,127087.9609375000,-42204.3242187500,80587.4609375000,151378.1562500000,,,
0.7399999988,5,159631.5312500000,142249.5000000000,171589.8906250000,165016.0468750000,128346.7500000000,-41160.9179687500,81730.2187500000,149523.4062500000,,,
0.7439999988,5,160211.7500000000,142540.7656250000,172147.6250000000,165560.4218750000,128925.4062500000,-40591.5117187500,82244.9375000000,149130.4062500000,,,
0.7479999987,5,159345.5468750000,142336.6250000000,171267.7343750000,164763.4531250000,128041.1406250000,-41268.0976562500,81427.2109375000,150734.3281250000,,,
0.7519999989,5,158230.2656250000,141922.3437500000,170164.6250000000,163717.3437500000,126908.7890625000,-42265.8007812500,80385.3828125000,152127.2500000000,,,
0.7559999989,5,158392.0312500000,141860.2031250000,170349.3906250000,163863.0312500000,127078.4921875000,-42227.0937500000,80548.3281250000,151390.9843750000,,,
0.7599999988,5,159614.9531250000,142239.8906250000,171577.4687500000,165007.9062500000,128323.2578125000,-41196.6992187500,81692.1562500000,149532.5312500000,,,
0.7639999988,5,160211.2031250000,142535.6406250000,172154.0625000000,165577.7812500000,128921.1484375000,-40603.7968750000,82227.8203125000,149123.0937500000,,,
0.7679999988,6,159365.4531250000,142346.7500000000,171295.5156250000,164790.3593750000,128059.2968750000,-41251.0664062500,81431.5312500000,150728.7187500000,,,
0.7719999987,6,158239.3281250000,141926.3750000000,170180.3125000000,163729.1093750000,126918.9296875000,-42254.1328125000,80385.7109375000,152128.8593750000,,,
0.7759999987,6,158408.0468750000,141874.0156250000,170367.1250000000,163875.4375000000,127090.3750000000,-42214.2460937500,80538.5703125000,151420.2656250000,,,
0.7799999986,6,159635.8750000000,142253.7343750000,171596.1718750000,165013.7812500000,128334.1718750000,-41191.1992187500,81668.1562500000,149564.2343750000,,,
0.7839999986,6,160224.9375000000,142539.9843750000,172167.4218750000,165569.4843750000,128925.3281250000,-40616.9375000000,82196.2500000000,149131.0000000000,,,
0.7879999985,6,159378.4375000000,142349.0937500000,171309.2031250000,164778.4218750000,128063.2421875000,-41277.1093750000,81398.5390625000,150722.2500000000,,,
0.7919999987,6,158236.3750000000,141918.6562500000,170177.8125000000,163710.3906250000,126909.4843750000,-42290.8242187500,80343.0078125000,152123.6718750000,,,
0.7959999987,6,158384.9218750000,141853.0625000000,170341.1875000000,163844.6406250000,127059.2343750000,-42268.1054687500,80482.2656250000,151419.9218750000,,,
0.7999999986,6,159617.4218750000,142234.0156250000,171572.3750000000,164996.0000000000,128302.6796875000,-41241.2773437500,81617.1640625000,149560.9687500000,,,
0.8039999986,6,160227.0937500000,142530.8125000000,172161.6093750000,165578.3125000000,128910.2265625000,-40644.6171875000,82158.1953125000,149115.0468750000,,,
0.8079999986,6,159382.1875000000,142336.7031250000,171306.1093750000,164789.5000000000,128048.9687500000,-41302.8320312500,81355.0078125000,150689.2812500000,,,
0.8119999988,6,158237.4531250000,141908.4843750000,170175.4375000000,163712.7343750000,126890.2578125000,-42329.3945312500,80288.2109375000,152102.8437500000,,,
0.8159999987,6,158376.7187500000,141837.4843750000,170334.4062500000,163835.8906250000,127030.9921875000,-42321.1054687500,80416.9843750000,151412.7343750000,,,
0.8199999987,6,159615.7031250000,142228.7187500000,171576.6093750000,164997.6875000000,128285.1640625000,-41291.4335937500,81561.5078125000,149564.6875000000,,,
0.8239999986,6,160244.0156250000,142540.4687500000,172187.4687500000,165599.8437500000,128917.6875000000,-40675.5703125000,82130.7500000000,149115.7187500000,,,
0.8279999986,6,159396.4843750000,142344.0000000000,171324.6562500000,164814.3593750000,128054.4687500000,-41333.3828125000,81333.4140625000,150676.5781250000,,,
0.8319999985,6,158225.2187500000,141894.6406250000,170161.0781250000,163704.0312500000,126866.7031250000,-42375.4765625000,80248.9140625000,152078.6406250000,,,
0.8359999987,6,158366.5468750000,141837.0781250000,170318.1718750000,163831.9218750000,127007.0937500000,-42355.8164062500,80380.8281250000,151417.6406250000,,,
0.8399999987,6,159615.2500000000,142237.8593750000,171568.1718750000,164996.1875000000,128270.0390625000,-41315.6250000000,81533.8046875000,149583.9218750000,,,
0.8439999986,6,160238.5468750000,142538.9375000000,172172.2031250000,165585.7656250000,128896.6796875000,-40707.7578125000,82093.2265625000,149113.8125000000,,,
0.8479999986,6,159405.8750000000,142350.0312500000,171327.0156250000,164814.6250000000,128050.9062500000,-41355.0820312500,81306.9140625000,150673.1093750000,,,
0.8519999986,6,158266.8281250000,141930.9062500000,170197.6875000000,163734.2187500000,126894.8203125000,-42395.2695312500,80246.2890625000,152109.0625000000,,,
0.8559999987,6,158389.7500000000,141864.9843750000,170337.8906250000,163824.3593750000,127018.4375000000,-42416.5390625000,80359.3671875000,151459.8281250000,,,
0.8599999987,6,159619.6562500000,142250.7343750000,171568.8437500000,164974.2031250000,128261.2109375000,-41409.6132812500,81495.5546875000,149612.8125000000,,,
0.8639999987,6,160255.4062500000,142556.3125000000,172185.0468750000,165581.3437500000,128897.3281250000,-40804.1289062500,82067.6406250000,149126.1718750000,,,
0.8679999986,6,159420.3281250000,142357.0781250000,171337.4218750000,164812.2656250000,128047.8437500000,-41461.6992187500,81280.3593750000,150659.2500000000,,,
0.8719999986,6,158252.2656250000,141917.1406250000,170180.1718750000,163712.9218750000,126866.3828125000,-42512.7226562500,80196.7734375000,152090.6406250000,,,
0.8759999985,6,158356.7343750000,141837.6718750000,170302.0000000000,163798.8750000000,126971.0703125000,-42536.5156250000,80290.2734375000,151448.6718750000,,,
0.8799999987,6,159597.8906250000,142228.8437500000,171545.0781250000,164959.9218750000,128224.3906250000,-41505.3125000000,81434.1328125000,149609.5156250000,,,
0.8839999987,6,160256.0625000000,142549.5312500000,172184.5312500000,165584.7968750000,128884.6640625000,-40861.1796875000,82030.3046875000,149119.9531250000,,,
0.8879999986,6,159438.4843750000,142365.3437500000,171351.9843750000,164826.4062500000,128047.4921875000,-41490.3476562500,81257.0234375000,150658.7656250000,,,
0.8919999986,6,158261.4531250000,141918.0000000000,170184.6093750000,163714.0468750000,126852.7031250000,-42539.7617187500,80164.6406250000,152097.5000000000,,,
0.8959999986,7,158343.6718750000,141825.2812500000,170286.4531250000,163778.1406250000,126935.7968750000,-42576.8828125000,80246.7968750000,151460.9375000000,,,
0.8999999985,7,159583.6562500000,142218.0937500000,171531.8437500000,164945.2812500000,128191.6953125000,-41549.3007812500,81401.2500000000,149619.9218750000,,,
0.9039999985,7,160241.2031250000,142533.2968750000,172173.4375000000,165577.1562500000,128852.8828125000,-40915.4414062500,81997.6328125000,149106.6718750000,,,
0.9079999984,7,159427.5781250000,142350.0312500000,171347.2656250000,164824.8750000000,128022.7421875000,-41544.7929687500,81228.7812500000,150630.4843750000,,,
0.9119999984,7,158247.8281250000,141901.7812500000,170178.7031250000,163711.6250000000,126827.7578125000,-42594.7460937500,80133.9843750000,152072.9062500000,,,
0.9159999983,7,158331.3593750000,141813.4062500000,170281.3750000000,163776.0000000000,126910.5625000000,-42625.2968750000,80216.3281250000,151457.9062500000,,,
0.9199999985,7,159565.4218750000,142198.1562500000,171516.3750000000,164928.7031250000,128153.8437500000,-41600.6367187500,81358.5468750000,149610.7187500000,,,
0.9239999985,7,160239.5625000000,142520.8125000000,172170.5156250000,165573.9062500000,128829.1953125000,-40944.7578125000,81972.1562500000,149084.2187500000,,,
0.9279999984,7,159429.2656250000,142338.2343750000,171346.9375000000,164822.7343750000,128002.8359375000,-41569.6054687500,81208.5312500000,150598.7031250000,,,
0.9319999984,7,158258.4843750000,141902.9843750000,170184.5156250000,163720.5000000000,126813.1718750000,-42619.9335937500,80115.2890625000,152061.3906250000,,,
0.9359999984,7,158332.2343750000,141813.7968750000,170275.3125000000,163775.3281250000,126886.3437500000,-42664.3476562500,80185.9609375000,151463.6406250000,,,
0.9399999985,7,159545.9687500000,142186.9843750000,171493.9843750000,164910.3906250000,128116.9921875000,-41658.6562500000,81313.5625000000,149610.1250000000,,,
0.9439999985,7,160222.5781250000,142509.4531250000,172153.8750000000,165551.0000000000,128797.8203125000,-41005.1093750000,81926.5546875000,149070.8437500000,,,
0.9479999985,7,159433.5781250000,142341.7343750000,171349.8593750000,164822.1406250000,127991.3593750000,-41608.4179687500,81181.1718750000,150586.6093750000,,,
0.9519999984,7,158250.8593750000,141897.8281250000,170174.6250000000,163710.7656250000,126790.5078125000,-42659.9218750000,80079.0781250000,152055.0156250000,,,
0.9559999984,7,158317.8906250000,141805.4062500000,170260.1406250000,163755.1250000000,126858.0937500000,-42705.0390625000,80146.4296875000,151476.5625000000,,,
0.9599999983,7,159537.5156250000,142185.3125000000,171479.5781250000,164893.6718750000,128089.0937500000,-41689.8203125000,81277.2187500000,149632.5781250000,,,
0.9639999985,7,160223.0156250000,142510.6718750000,172143.1718750000,165543.9531250000,128772.7421875000,-41027.0742187500,81899.6250000000,149074.6562500000,,,
0.9679999985,7,159447.2656250000,142345.3593750000,171351.0468750000,164829.5468750000,127976.8203125000,-41625.8789062500,81164.0312500000,150577.2031250000,,,
0.9719999984,7,158263.9531250000,141904.7812500000,170175.9687500000,163711.0937500000,126773.9843750000,-42684.6523437500,80060.7578125000,152059.1406250000,,,
0.9759999984,7,158325.2343750000,141815.1718750000,170256.9375000000,163762.8593750000,126832.5859375000,-42740.4960937500,80119.5781250000,151497.5625000000,,,
0.9799999984,7,159543.6093750000,142192.3125000000,171480.0000000000,164881.1250000000,128064.1796875000,-41733.6757812500,81250.7734375000,149647.3281250000,,,
0.9839999985,7,160242.2656250000,142523.6406250000,172160.7812500000,165541.1562500000,128763.8359375000,-41060.4414062500,81883.3203125000,149077.4062500000,,,
0.9879999985,7,159460.6406250000,142351.7187500000,171367.9062500000,164823.0000000000,127967.1640625000,-41668.4453125000,81145.1250000000,150567.7343750000,,,
0.9919999985,7,158284.7656250000,141918.6562500000,170203.2500000000,163717.6093750000,126774.2265625000,-42724.6992187500,80053.5703125000,152067.5937500000,,,
0.9959999984,7,158315.4531250000,141802.7031250000,170254.5625000000,163742.1562500000,126805.5546875000,-42807.0429687500,80088.0390625000,151503.7343750000,,,
0.9999999984,7,159510.9687500000,142156.5937500000,171456.9843750000,164861.3281250000,128016.3281250000,-41814.4375000000,81200.8281250000,149632.0937500000,,,
1.0039999983,7,160225.4218750000,142492.2656250000,172155.3593750000,165540.2812500000,128735.7812500000,-41117.7617187500,81854.9687500000,149041.6562500000,,,
1.0079999985,7,159458.8437500000,142330.2656250000,171375.9375000000,164830.8281250000,127956.3515625000,-41694.6484375000,81131.2578125000,150528.5156250000,,,
1.0119999985,7,158278.1093750000,141896.7343750000,170206.9687500000,163711.7656250000,126760.8125000000,-42747.0156250000,80033.6406250000,152039.0000000000,,,
1.0159999984,7,158312.6562500000,141798.0625000000,170257.8281250000,163726.8281250000,126793.6718750000,-42819.7812500000,80068.8593750000,151504.0000000000,,,
1.0199999984,7,159505.3125000000,142158.8906250000,171448.6718750000,164840.6718750000,127998.4687500000,-41822.3242187500,81177.3593750000,149642.6875000000,,,
1.0239999983,8,160216.3593750000,142488.9687500000,172140.5312500000,165519.0937500000,128712.0703125000,-41129.2929687500,81827.1015625000,149037.4687500000,,,
1.0279999983,8,159474.1406250000,142340.8281250000,171384.2500000000,164838.3437500000,127953.4843750000,-41687.8906250000,81125.5390625000,150520.3125000000,,,
1.0319999983,8,158293.2500000000,141911.4375000000,170210.8125000000,163734.4218750000,126753.3828125000,-42737.1171875000,80024.2265625000,152039.9687500000,,,
1.0359999982,8,158305.1718750000,141800.5781250000,170240.4687500000,163719.1875000000,126765.5859375000,-42826.4609375000,80037.9062500000,151515.0781250000,,,
1.0399999982,8,159506.8281250000,142165.7656250000,171447.7656250000,164840.3593750000,127984.1406250000,-41831.5234375000,81157.5703125000,149658.3750000000,,,
1.0439999981,8,160205.6250000000,142476.9843750000,172129.8750000000,165508.9218750000,128688.2500000000,-41163.9765625000,81797.2187500000,149016.2031250000,,,
1.0479999983,8,159456.6250000000,142319.2343750000,171363.4375000000,164815.3906250000,127920.4921875000,-41735.5000000000,81086.4375000000,150481.0156250000,,,
1.0519999983,8,158296.5937500000,141909.8750000000,170210.1406250000,163727.0468750000,126741.4218750000,-42759.6484375000,80010.3359375000,152031.8125000000,,,
1.0559999982,8,158313.0156250000,141805.7812500000,170243.2968750000,163736.0312500000,126757.5390625000,-42841.1054687500,80033.4531250000,151535.6562500000,,,
1.0599999982,8,159495.9375000000,142156.5625000000,171429.7968750000,164837.1562500000,127955.2812500000,-41858.9335937500,81137.1328125000,149673.7812500000,,,
1.0639999982,8,160211.1250000000,142475.5000000000,172127.5937500000,165507.5781250000,128674.3046875000,-41176.7148437500,81790.8671875000,149019.4531250000,,,
1.0679999983,8,159477.2187500000,142325.6250000000,171381.4843750000,164832.7031250000,127924.0859375000,-41741.6171875000,81096.6250000000,150473.6093750000,,,
1.0719999983,8,158311.0000000000,141918.1406250000,170226.1250000000,163736.7031250000,126741.1250000000,-42777.1093750000,80011.0859375000,152038.8906250000,,,
1.0759999983,8,158310.2968750000,141807.7187500000,170243.1250000000,163706.3125000000,126741.2343750000,-42880.6679687500,80013.7656250000,151555.1562500000,,,
1.0799999982,8,159479.0000000000,142138.4062500000,171419.9687500000,164797.5156250000,127930.2578125000,-41911.1054687500,81107.7343750000,149672.8906250000,,,
1.0839999982,8,160207.1406250000,142463.6250000000,172131.6250000000,165497.3125000000,128663.3593750000,-41207.4804687500,81779.6484375000,149005.0156250000,,,
1.0879999981,8,159483.1718750000,142323.2812500000,171390.9062500000,164838.6718750000,127918.7500000000,-41752.1835937500,81091.9375000000,150459.5000000000,,,
1.0919999983,8,158319.7656250000,141916.7656250000,170235.8906250000,163745.1562500000,126736.5625000000,-42783.5468750000,80008.3203125000,152031.7812500000,,,
1.0959999983,8,158316.8750000000,141805.4843750000,170252.8437500000,163729.9531250000,126734.5546875000,-42890.5937500000,80005.1562500000,151564.0625000000,,,
1.0999999982,8,159469.2343750000,142135.6875000000,171409.6250000000,164803.7656250000,127904.3437500000,-41935.4843750000,81071.1484375000,149685.3593750000,,,
1.1039999982,8,160197.3906250000,142458.8125000000,172120.4843750000,165492.5000000000,128640.5625000000,-41239.8281250000,81741.1640625000,148996.0000000000,,,
1.1079999981,8,159496.8593750000,142329.8593750000,171404.3593750000,164845.2031250000,127925.3984375000,-41771.5742187500,81079.4609375000,150441.5625000000,,,
1.1119999983,8,158326.2812500000,141919.7968750000,170239.8593750000,163742.4687500000,126738.5000000000,-42813.3476562500,79987.4531250000,152020.8125000000,,,
1.1159999983,8,158303.3750000000,141800.7187500000,170234.8906250000,163702.7812500000,126722.1328125000,-42934.1796875000,79977.3671875000,151565.7031250000,,,
1.1199999982,8,159467.7500000000,142134.4531250000,171404.1250000000,164785.2031250000,127909.2265625000,-41971.2929687500,81065.9140625000,149687.0781250000,,,
1.1239999982,8,160214.6406250000,142462.1718750000,172134.0937500000,165494.1406250000,128668.1093750000,-41263.5390625000,81752.1875000000,148985.0312500000,,,
1.1279999982,8,159519.3281250000,142337.3750000000,171425.7343750000,164858.0625000000,127964.4843750000,-41782.3867187500,81093.5937500000,150422.0312500000,,,
1.1319999981,8,158339.4062500000,141922.1875000000,170255.7812500000,163750.5781250000,126773.9296875000,-42827.2382812500,79999.7343750000,152007.0625000000,,,
1.1359999983,8,158306.8437500000,141800.0468750000,170242.0312500000,163710.0781250000,126746.0312500000,-42961.3242187500,79974.8437500000,151572.7500000000,,,
1.1399999983,8,159473.3906250000,142140.0156250000,171411.3593750000,164802.1093750000,127930.9531250000,-42000.8242187500,81061.1953125000,149706.0156250000,,,
1.1439999982,8,160225.6406250000,142475.4531250000,172143.2031250000,165507.6875000000,128688.8125000000,-41276.3046875000,81748.5937500000,148996.8593750000,,,
1.1479999982,8,159528.6406250000,142343.7500000000,171431.2968750000,164852.1093750000,127982.0468750000,-41790.2187500000,81092.7109375000,150419.2187500000,,,
1.1519999981,9,158341.8437500000,141926.7968750000,170251.2031250000,163739.5468750000,126782.0546875000,-42834.8320312500,79991.0234375000,152011.7500000000,,,
1.1559999981,9,158308.0781250000,141808.1718750000,170235.0000000000,163700.3125000000,126749.1718750000,-42970.0390625000,79966.1562500000,151594.7187500000,,,
1.1599999981,9,159462.7343750000,142141.0781250000,171394.5468750000,164772.5000000000,127920.9531250000,-42012.3046875000,81043.7109375000,149727.1718750000,,,
1.1639999980,9,160217.7500000000,142471.0468750000,172130.5937500000,165490.7343750000,128681.7031250000,-41290.5742187500,81736.2812500000,148997.6406250000,,,
1.1679999980,9,159542.7187500000,142348.2656250000,171440.7031250000,164874.1718750000,127991.4921875000,-41793.6484375000,81098.7968750000,150406.1250000000,,,
1.1719999979,9,158367.0625000000,141942.8125000000,170273.5781250000,163767.1562500000,126797.3437500000,-42830.6718750000,80005.6953125000,152005.6093750000,,,
1.1759999981,9,158308.9062500000,141812.6406250000,170230.6093750000,163700.3906250000,126735.6562500000,-42989.9960937500,79956.2343750000,151594.5000000000,,,
1.1799999981,9,159448.9218750000,142133.5156250000,171373.0156250000,164766.4062500000,127888.4921875000,-42049.0234375000,81013.3203125000,149726.0312500000,,,
1.1839999980,9,160216.1250000000,142466.8593750000,172126.2343750000,165496.5625000000,128662.1250000000,-41316.9140625000,81717.0234375000,148983.2968750000,,,
1.1879999980,9,159548.5156250000,142347.0312500000,171447.2500000000,164882.8125000000,127981.2734375000,-41812.4531250000,81089.3359375000,150377.9687500000,,,
1.1919999979,9,158360.6250000000,141934.5000000000,170267.7187500000,163754.5156250000,126777.3125000000,-42859.4804687500,79986.8359375000,151984.6093750000,,,
1.1959999981,9,158290.2656250000,141793.0937500000,170215.3906250000,163678.0468750000,126708.8593750000,-43022.7460937500,79927.3750000000,151587.0156250000,,,
1.1999999981,9,159447.9843750000,142127.4062500000,171376.5000000000,164759.7031250000,127882.0859375000,-42071.6328125000,81003.6093750000,149733.9062500000,,,
1.2039999980,9,160219.6562500000,142460.1562500000,172129.2656250000,165485.9687500000,128659.1718750000,-41341.4296875000,81712.8671875000,148974.4218750000,,,
1.2079999980,9,159562.1093750000,142347.5000000000,171458.0312500000,164877.3906250000,127990.2578125000,-41824.7382812500,81098.2890625000,150363.4843750000,33029,1.2091939631,0.0000000000
1.2119999980,9,158380.9218750000,141942.0312500000,170285.3125000000,163767.7343750000,126794.4453125000,-42860.0976562500,80004.6171875000,151980.4687500000,,,
1.2159999979,9,158296.3750000000,141799.0000000000,170219.2500000000,163674.6718750000,126710.0156250000,-43042.1914062500,79930.2421875000,151595.2031250000,,,
1.2199999981,9,159433.7187500000,142121.6406250000,171363.1093750000,164735.5625000000,127865.0234375000,-42101.4609375000,80992.6953125000,149738.4375000000,,,
1.2239999981,9,160216.7031250000,142460.9375000000,172129.8437500000,165478.0468750000,128655.3671875000,-41357.7929687500,81713.1640625000,148969.9843750000,,,
1.2279999980,9,159555.5781250000,142343.4062500000,171452.4531250000,164873.4531250000,127980.4921875000,-41840.9648437500,81091.4218750000,150337.3750000000,,,
1.2319999980,9,158362.4687500000,141929.0781250000,170267.0000000000,163751.0781250000,126771.3281250000,-42883.0546875000,79987.1562500000,151949.8437500000,,,
1.2359999979,9,158278.4062500000,141790.9531250000,170198.8437500000,163662.8906250000,126685.8437500000,-43059.4648437500,79915.1171875000,151590.1406250000,,,
1.2399999981,9,159422.4531250000,142119.5468750000,171343.7968750000,164736.0156250000,127843.0312500000,-42121.7929687500,80980.5937500000,149742.9687500000,,,
1.2439999981,9,160212.9218750000,142458.8437500000,172115.6093750000,165481.5625000000,128639.3281250000,-41369.4570312500,81708.2500000000,148957.9531250000,,,
1.2479999980,9,159576.4375000000,142357.1562500000,171462.2968750000,164887.0468750000,127987.2812500000,-41837.6914062500,81104.8906250000,150323.5625000000,,,
1.2519999980,9,158378.5312500000,141942.1718750000,170272.3437500000,163766.7812500000,126773.1796875000,-42900.7578125000,79991.0781250000,151944.2656250000,,,
1.2559999980,9,158270.2500000000,141789.7968750000,170180.9062500000,163653.5625000000,126662.9375000000,-43093.9335937500,79894.4062500000,151594.6093750000,,,
1.2599999979,9,159407.7500000000,142110.6093750000,171325.4062500000,164710.7031250000,127816.9062500000,-42152.3671875000,80960.0468750000,149744.8281250000,,,
1.2639999981,9,160208.5000000000,142454.7968750000,172111.1875000000,165472.5000000000,128626.5078125000,-41393.0898437500,81702.4296875000,148948.2031250000,,,
1.2679999981,9,159575.6562500000,142347.8281250000,171465.6250000000,164895.7187500000,127981.0312500000,-41854.8320312500,81108.2656250000,150296.3125000000,,,
1.2719999980,9,158369.5000000000,141927.6562500000,170266.0312500000,163759.8593750000,126756.5468750000,-42909.1523437500,79987.3203125000,151924.9531250000,,,
1.2759999980,9,158258.7968750000,141780.7500000000,170171.6250000000,163635.7812500000,126641.5625000000,-43101.9765625000,79884.9375000000,151597.2968750000,,,
1.2799999979,10,159394.0156250000,142102.3281250000,171308.7656250000,164684.6562500000,127787.9375000000,-42171.4375000000,80938.6171875000,149749.3281250000,,,
1.2839999979,10,160201.5312500000,142447.3437500000,172099.8906250000,165457.6718750000,128602.6875000000,-41408.7812500000,81681.1875000000,148935.5312500000,,,
1.2879999978,10,159581.7812500000,142348.7656250000,171468.4218750000,164887.5000000000,127973.1484375000,-41857.7265625000,81100.7578125000,150277.0781250000,,,
1.2919999978,10,158378.8593750000,141933.2343750000,170276.2812500000,163753.8125000000,126757.1406250000,-42911.5664062500,79988.6640625000,151917.4687500000,,,
1.2959999978,10,158257.9375000000,141778.9062500000,170175.8281250000,163626.3125000000,126638.2656250000,-43113.0273437500,79886.9218750000,151601.3750000000,,,
1.2999999977,10,159403.5625000000,142105.7031250000,171329.1562500000,164705.8437500000,127802.7968750000,-42166.9062500000,80959.0000000000,149758.5312500000,,,
1.3039999979,10,160225.5000000000,142455.5781250000,172136.9531250000,165492.8281250000,128634.9765625000,-41387.8046875000,81719.1171875000,148928.3125000000,,,
1.3079999979,10,159598.6406250000,142346.8437500000,171496.3125000000,164909.9062500000,127996.5312500000,-41849.8437500000,81126.4296875000,150249.7187500000,,,
1.3119999978,10,158383.8437500000,141922.2968750000,170286.2343750000,163763.8437500000,126764.4609375000,-42916.3164062500,79999.2031250000,151890.8906250000,,,
1.3159999978,10,158250.9687500000,141768.7343750000,170166.7656250000,163628.0468750000,126627.2109375000,-43126.5468750000,79878.1250000000,151591.3125000000,,,
1.3199999977,10,159381.7031250000,142090.6875000000,171299.0000000000,164685.5625000000,127769.5390625000,-42191.8789062500,80931.9921875000,149748.0937500000,,,
1.3239999979,10,160207.1406250000,142440.9062500000,172105.7656250000,165470.5468750000,128599.5781250000,-41415.7539062500,81694.0078125000,148905.2187500000,,,
1.3279999979,10,159591.1562500000,142338.9843750000,171473.1093750000,164904.4843750000,127969.5781250000,-41865.6953125000,81116.3125000000,150221.6406250000,,,
1.3319999978,10,158380.9843750000,141922.0625000000,170270.9375000000,163774.9531250000,126742.0625000000,-42928.6523437500,79994.1562500000,151878.7343750000,,,
1.3359999978,10,158244.7968750000,141765.3125000000,170152.1406250000,163632.5781250000,126603.4453125000,-43146.8515625000,79871.0468750000,151597.7812500000,,,
1.3399999978,10,159367.2812500000,142080.0312500000,171280.7343750000,164665.7500000000,127743.4687500000,-42227.2031250000,80921.6953125000,149754.9687500000,,,
1.3439999977,10,160203.6406250000,142433.6406250000,172103.0312500000,165460.8906250000,128590.2109375000,-41434.5273437500,81697.8984375000,148895.5625000000,,,
1.3479999979,10,159603.0937500000,142335.5937500000,171489.6562500000,164916.6093750000,127978.6406250000,-41860.2773437500,81134.8750000000,150194.8437500000,,,
1.3519999979,10,158388.0312500000,141917.9843750000,170281.1562500000,163777.9062500000,126747.1093750000,-42921.0078125000,80007.1171875000,151861.0312500000,,,
1.3559999978,10,158224.9531250000,141753.2343750000,170134.0468750000,163610.9687500000,126581.5625000000,-43159.5664062500,79859.1875000000,151596.8437500000,,,
1.3599999978,10,159345.5781250000,142072.8437500000,171260.2968750000,164658.4687500000,127717.6640625000,-42233.5039062500,80911.3125000000,149765.0781250000,,,
1.3639999977,10,160190.9531250000,142429.8281250000,172089.5156250000,165460.8906250000,128571.4687500000,-41429.2460937500,81699.9609375000,148892.7500000000,,,
1.3679999979,10,159593.9062500000,142331.5000000000,171476.5468750000,164917.0156250000,127960.9375000000,-41855.1015625000,81141.7656250000,150177.0937500000,,,
1.3719999979,10,158376.0468750000,141911.1718750000,170266.7656250000,163773.0000000000,126727.1484375000,-42920.1523437500,80005.9843750000,151845.3125000000,,,
1.3759999978,10,158213.0156250000,141744.6875000000,170122.1093750000,163606.8281250000,126562.7343750000,-43163.4023437500,79857.0468750000,151598.8281250000,,,
1.3799999978,10,159341.2656250000,142065.0937500000,171255.6093750000,164641.6093750000,127704.7109375000,-42236.7500000000,80910.0234375000,149771.9218750000,,,
1.3839999977,10,160206.7031250000,142427.4687500000,172106.6250000000,165462.5000000000,128578.7890625000,-41429.9414062500,81713.3984375000,148883.8906250000,,,
1.3879999977,10,159629.1406250000,142343.3281250000,171515.4375000000,164937.6093750000,127990.9531250000,-41838.4687500000,81174.8906250000,150166.4375000000,,,
1.3919999979,10,158410.2968750000,141925.7812500000,170302.5937500000,163793.6562500000,126756.0390625000,-42907.2226562500,80044.9609375000,151843.2187500000,,,
1.3959999979,10,158240.5312500000,141764.0000000000,170152.5781250000,163617.7500000000,126587.7812500000,-43145.4843750000,79898.0000000000,151616.6875000000,,,
1.3999999978,10,159340.8906250000,142069.3125000000,171255.7656250000,164640.5312500000,127702.2968750000,-42240.9609375000,80928.1875000000,149781.2500000000,,,
1.4039999978,10,160204.7187500000,142430.5156250000,172100.6406250000,165463.9375000000,128570.3906250000,-41435.4687500000,81725.1250000000,148876.4843750000,,,
1.4079999977,11,159645.5312500000,142353.8437500000,171523.0312500000,164957.0625000000,127993.6406250000,-41837.3437500000,81192.6250000000,150149.0937500000,,,
1.4119999977,11,158420.8281250000,141932.4687500000,170300.5000000000,163786.8593750000,126748.9843750000,-42904.9414062500,80052.8203125000,151830.4531250000,,,
1.4159999976,11,158230.7812500000,141757.5312500000,170126.4062500000,163604.1718750000,126556.3750000000,-43166.0820312500,79880.5703125000,151613.7343750000,,,
1.4199999976,11,159337.1250000000,142068.1562500000,171241.2031250000,164634.8906250000,127680.9218750000,-42255.9023437500,80922.2031250000,149789.3750000000,,,
1.4239999976,11,160200.9375000000,142426.2343750000,172090.3906250000,165457.3125000000,128554.3828125000,-41446.0078125000,81722.9218750000,148869.0312500000,,,
1.4279999975,11,159624.8281250000,142332.0312500000,171497.8593750000,164938.3906250000,127964.8046875000,-41857.4335937500,81176.4531250000,150111.2500000000,,,
1.4319999977,11,158401.7343750000,141911.9218750000,170279.9062500000,163792.5468750000,126725.0312500000,-42921.0078125000,80037.1015625000,151801.0937500000,,,
1.4359999977,11,158213.2812500000,141742.8281250000,170108.9843750000,163603.1875000000,126536.6640625000,-43175.0156250000,79872.4140625000,151607.9687500000,,,
1.4399999976,11,159328.7656250000,142062.8906250000,171232.0000000000,164627.3125000000,127668.8984375000,-42261.2929687500,80917.5625000000,149798.5781250000,,,
1.4439999976,11,160207.9062500000,142426.1250000000,172096.6093750000,165465.3437500000,128558.0312500000,-41445.5273437500,81735.8515625000,148868.6093750000,,,
1.4479999975,11,159659.8281250000,142348.9843750000,171533.4062500000,164962.6093750000,127999.4062500000,-41832.9726562500,81226.6328125000,150109.8750000000,,,
1.4519999977,11,158438.3750000000,141934.7187500000,170316.8437500000,163810.0625000000,126759.0468750000,-42900.4921875000,80086.8593750000,151810.6718750000,,,
1.4559999977,11,158230.4531250000,141758.0625000000,170127.1562500000,163601.6875000000,126547.5000000000,-43169.3828125000,79897.3593750000,151629.2187500000,,,
1.4599999976,11,159323.8281250000,142061.3437500000,171229.1093750000,164624.0312500000,127658.7890625000,-42263.9492187500,80923.9218750000,149809.6093750000,,,
1.4639999976,11,160214.8593750000,142434.4375000000,172103.5312500000,165466.0000000000,128557.4609375000,-41427.7968750000,81742.1250000000,148871.0937500000,,,
1.4679999975,11,159670.5625000000,142356.8125000000,171542.9218750000,164961.7031250000,128000.5000000000,-41812.5859375000,81225.8281250000,150095.4375000000,,,
1.4719999975,11,158428.6406250000,141927.1718750000,170308.0156250000,163802.4687500000,126745.8984375000,-42898.1054687500,80074.9765625000,151786.3125000000,,,
1.4759999977,11,158204.9375000000,141740.2500000000,170103.9531250000,163582.9062500000,126524.5078125000,-43188.8007812500,79879.2500000000,151615.7812500000,,,
1.4799999977,11,159300.3125000000,142045.4062500000,171205.6093750000,164605.7343750000,127636.5546875000,-42290.5820312500,80908.4453125000,149804.2031250000,,,
1.4839999976,11,160192.7500000000,142412.4218750000,172082.7031250000,165450.2812500000,128538.5312500000,-41456.3359375000,81732.8515625000,148844.4687500000,,,
1.4879999976,11,159681.9062500000,142357.1406250000,171556.8750000000,164972.6093750000,128016.3828125000,-41810.1171875000,81251.7968750000,150072.2656250000,,,
1.4919999975,11,158463.9375000000,141948.3125000000,170344.2812500000,163835.4062500000,126779.5859375000,-42882.7890625000,80114.3203125000,151790.8906250000,,,
1.4959999977,11,158208.8906250000,141740.3281250000,170105.3437500000,163576.3125000000,126521.6953125000,-43194.7812500000,79878.2890625000,151623.7656250000,,,
1.4999999977,11,159284.9062500000,142030.4218750000,171187.5312500000,164581.9218750000,127614.3984375000,-42307.0781250000,80887.7343750000,149803.6718750000,,,
1.5039999976,11,160180.8281250000,142394.8437500000,172068.2343750000,165432.6875000000,128520.3437500000,-41465.6953125000,81724.3437500000,148822.8906250000,,,
1.5079999976,11,159663.4531250000,142331.5000000000,171536.4062500000,164953.7031250000,127994.3359375000,-41823.7968750000,81245.0859375000,150028.9531250000,,,
1.5119999975,11,158459.9375000000,141937.3125000000,170339.1562500000,163830.6562500000,126775.1328125000,-42872.2187500000,80132.8593750000,151767.4218750000,,,
1.5159999975,11,158230.5625000000,141760.5625000000,170127.5781250000,163606.3750000000,126545.1875000000,-43159.0820312500,79928.5000000000,151649.8593750000,,,
1.5199999977,11,159301.7187500000,142053.0468750000,171203.0625000000,164598.5468750000,127630.9765625000,-42281.3281250000,80927.4843750000,149844.4218750000,,,
1.5239999976,11,160198.5468750000,142413.7343750000,172081.5937500000,165450.8750000000,128533.5937500000,-41448.9335937500,81750.8750000000,148848.7500000000,,,
1.5279999976,11,159683.8281250000,142346.2968750000,171550.9531250000,164978.2500000000,128004.9296875000,-41815.7265625000,81258.9531250000,150031.0468750000,,,
1.5319999976,11,158448.5937500000,141927.7343750000,170320.7031250000,163814.6718750000,126752.3906250000,-42894.3476562500,80110.0312500000,151749.7031250000,,,
1.5359999975,12,158195.5000000000,141736.8281250000,170085.8125000000,163563.4687500000,126499.2421875000,-43195.8007812500,79886.8671875000,151634.3281250000,,,
1.5399999975,12,159271.3593750000,142033.5312500000,171170.4218750000,164568.3593750000,127593.3750000000,-42317.1093750000,80899.1093750000,149833.3593750000,,,
1.5439999974,12,160181.3906250000,142398.1718750000,172064.6250000000,165426.9062500000,128512.4296875000,-41473.7148437500,81744.8125000000,148824.8750000000,,,
1.5479999974,12,159688.9843750000,142345.3125000000,171553.7656250000,164979.1093750000,128006.5937500000,-41812.1289062500,81276.1484375000,150007.7656250000,,,
1.5519999973,12,158469.7031250000,141941.7968750000,170339.3437500000,163835.5937500000,126769.1796875000,-42872.7304687500,80143.3203125000,151744.4687500000,,,
1.5559999973,12,158209.0781250000,141745.7500000000,170096.7031250000,163574.2968750000,126507.8281250000,-43194.9960937500,79911.8984375000,151644.8281250000,,,
1.5599999975,12,159272.6250000000,142027.5156250000,171169.6718750000,164556.1718750000,127588.6796875000,-42330.7109375000,80906.9687500000,149837.9843750000,,,
1.5639999975,12,160199.1406250000,142401.4687500000,172082.5312500000,165435.2968750000,128523.9609375000,-41472.6171875000,81764.0937500000,148822.0156250000,,,
1.5679999974,12,159714.6250000000,142352.0468750000,171582.7812500000,164991.3906250000,128027.5703125000,-41808.1875000000,81305.3046875000,149993.7031250000,,,
1.5719999974,12,158491.5625000000,141948.7968750000,170365.3906250000,163843.7812500000,126789.4609375000,-42866.9101562500,80171.2109375000,151734.9687500000,,,
1.5759999973,12,158198.0312500000,141736.5781250000,170090.9687500000,163559.5000000000,126498.1171875000,-43206.5312500000,79912.4843750000,151641.0937500000,,,
1.5799999975,12,159246.3437500000,142015.3437500000,171146.4375000000,164531.7187500000,127562.6875000000,-42349.9921875000,80896.8828125000,149838.9687500000,,,
1.5839999975,12,160173.2031250000,142387.0625000000,172058.8750000000,165416.2187500000,128497.8671875000,-41491.3398437500,81757.1250000000,148805.3281250000,,,
1.5879999974,12,159698.5000000000,142338.6875000000,171566.3906250000,164983.3125000000,128011.2343750000,-41815.2695312500,81308.4921875000,149956.1562500000,,,
1.5919999974,12,158479.1250000000,141938.8750000000,170348.1875000000,163839.2968750000,126774.0390625000,-42869.5390625000,80174.2968750000,151707.2968750000,,,
1.5959999973,12,158189.3125000000,141734.4062500000,170074.0937500000,163549.9687500000,126481.8906250000,-43206.4765625000,79912.7812500000,151643.2187500000,,,
1.5999999973,12,159241.0625000000,142014.9375000000,171133.7500000000,164521.3281250000,127550.2109375000,-42347.2851562500,80898.2812500000,149852.6718750000,,,
1.6039999975,12,160179.5312500000,142391.2031250000,172061.2656250000,165406.7343750000,128503.2265625000,-41476.0507812500,81775.9531250000,148805.9687500000,,,
1.6079999974,12,159717.6562500000,142351.0468750000,171585.0625000000,164988.5000000000,128032.9609375000,-41777.7460937500,81345.2656250000,149946.3125000000,,,
1.6119999974,12,158478.8437500000,141934.6875000000,170352.7968750000,163831.3906250000,126778.9687500000,-42848.6718750000,80196.5625000000,151689.0781250000,,,
1.6159999974,12,158187.0781250000,141734.6718750000,170077.7187500000,163541.6093750000,126482.6406250000,-43197.0898437500,79927.6953125000,151645.4687500000,,,
1.6199999973,12,159242.8750000000,142022.5781250000,171140.5937500000,164515.5312500000,127552.1171875000,-42336.6367187500,80915.2812500000,149869.6250000000,,,
1.6239999975,12,160170.4062500000,142384.6250000000,172052.5937500000,165402.6875000000,128490.0312500000,-41478.8125000000,81772.6796875000,148798.4843750000,,,
1.6279999975,12,159717.3281250000,142344.7968750000,171582.3906250000,164999.2968750000,128025.7187500000,-41776.7265625000,81344.4375000000,149923.6718750000,,,
1.6319999974,12,158489.9218750000,141940.7968750000,170359.8125000000,163847.9062500000,126779.9375000000,-42830.6992187500,80208.4375000000,151677.8437500000,,,
1.6359999974,12,158185.4687500000,141731.4531250000,170074.1562500000,163549.7500000000,126472.9843750000,-43184.0546875000,79937.7265625000,151644.0468750000,,,
1.6399999973,12,159214.5468750000,141992.2500000000,171108.6250000000,164503.9843750000,127512.6328125000,-42364.9335937500,80894.5468750000,149854.0468750000,,,
1.6439999973,12,160162.3125000000,142367.2812500000,172039.4375000000,165397.9843750000,128466.2187500000,-41490.5625000000,81765.8671875000,148781.8593750000,,,
1.6479999975,12,159721.1093750000,142333.4218750000,171582.2968750000,164997.3437500000,128015.5781250000,-41783.3515625000,81351.9453125000,149894.9843750000,,,
1.6519999974,12,158498.7812500000,141934.9843750000,170366.8281250000,163851.4843750000,126779.6718750000,-42834.8554687500,80224.5312500000,151653.9375000000,,,
1.6559999974,12,158169.6250000000,141716.5781250000,170055.3750000000,163523.9531250000,126450.1875000000,-43206.2890625000,79931.2109375000,151630.2656250000,,,
1.6599999974,12,159190.8906250000,141980.0156250000,171083.0937500000,164478.7656250000,127485.7890625000,-42375.8242187500,80884.7890625000,149852.5781250000,,,
1.6639999973,13,160150.7187500000,142363.3281250000,172026.1875000000,165385.5937500000,128454.6015625000,-41486.6171875000,81773.6171875000,148773.3906250000,,,
1.6679999973,13,159727.3437500000,142340.3437500000,171583.7968750000,165001.9531250000,128019.5234375000,-41757.8710937500,81372.7343750000,149879.0937500000,,,
1.6719999972,13,158502.0468750000,141939.5156250000,170362.5625000000,163844.1562500000,126776.7421875000,-42813.2109375000,80239.2578125000,151640.7500000000,,,
1.6759999972,13,158172.2500000000,141725.9843750000,170052.2343750000,163522.1562500000,126444.1484375000,-43186.4140625000,79943.8906250000,151643.5312500000,,,
1.6799999971,13,159194.4375000000,141995.3125000000,171085.3906250000,164475.0312500000,127482.4921875000,-42347.5000000000,80907.2656250000,149877.1406250000,,,
1.6839999971,13,160158.7968750000,142377.7968750000,172037.1718750000,165383.7656250000,128459.1328125000,-41449.8710937500,81807.3828125000,148778.6093750000,,,
1.6879999973,13,159736.5937500000,142347.2968750000,171598.9062500000,165004.9062500000,128028.3437500000,-41723.0546875000,81407.7890625000,149859.7343750000,,,
1.6919999972,13,158510.5625000000,141946.6562500000,170378.0937500000,163849.6875000000,126786.8046875000,-42783.9765625000,80270.2656250000,151631.3125000000,,,
1.6959999972,13,158182.7031250000,141734.0312500000,170067.5312500000,163515.0156250000,126457.6718750000,-43159.0546875000,79974.7656250000,151654.3750000000,,,
1.6999999972,13,159202.9687500000,141998.9843750000,171096.5312500000,164468.0312500000,127496.4609375000,-42323.1445312500,80940.9531250000,149890.7187500000,,,
1.7039999971,13,160168.4218750000,142374.6562500000,172051.0156250000,165389.1093750000,128474.5859375000,-41427.1796875000,81842.5000000000,148772.4375000000,,,
1.7079999973,13,159766.7187500000,142361.8593750000,171631.1718750000,165029.5625000000,128062.1171875000,-41671.7968750000,81467.2265625000,149850.2968750000,,,
1.7119999973,13,158543.6875000000,141970.0625000000,170407.0156250000,163887.9062500000,126819.7421875000,-42712.9492187500,80334.9375000000,151635.3750000000,,,
1.7159999972,13,158206.3906250000,141761.7187500000,170082.2812500000,163554.5000000000,126475.4296875000,-43087.1718750000,80029.5937500000,151683.9843750000,,,
1.7199999972,13,159222.9531250000,142029.7656250000,171103.7500000000,164493.9687500000,127503.4062500000,-42262.0195312500,80977.2968750000,149934.9375000000,,,
1.7239999971,13,160181.7812500000,142400.3437500000,172046.7343750000,165392.1093750000,128471.7109375000,-41377.0507812500,81864.9453125000,148801.8125000000,,,
1.7279999971,13,159775.1406250000,142378.4843750000,171621.6718750000,165025.7968750000,128055.6484375000,-41624.9648437500,81493.2421875000,149861.2343750000,,,
1.7319999973,13,158562.1093750000,141994.2656250000,170413.6093750000,163886.2968750000,126827.5468750000,-42655.8203125000,80375.7812500000,151654.0468750000,,,
1.7359999972,13,158213.0781250000,141779.7656250000,170085.3125000000,163547.0000000000,126481.2500000000,-43038.4375000000,80076.6875000000,151711.1250000000,,,
1.7399999972,13,159228.6875000000,142045.0937500000,171112.5156250000,164493.3281250000,127515.8046875000,-42214.4335937500,81041.0000000000,149961.8125000000,,,
1.7439999972,13,160216.1718750000,142432.5937500000,172086.9531250000,165407.5000000000,128515.8125000000,-41309.0273437500,81957.8281250000,148828.3906250000,,,
1.7479999971,13,159829.5781250000,142418.5625000000,171682.2968750000,165041.8750000000,128120.4218750000,-41540.4218750000,81593.7187500000,149878.6093750000,,,
1.7519999973,13,158594.7031250000,142014.8281250000,170451.2968750000,163881.1093750000,126871.6718750000,-42600.2968750000,80452.3593750000,151664.2187500000,,,
1.7559999973,13,158211.8437500000,141770.0781250000,170090.7031250000,163520.5000000000,126490.4218750000,-43025.2656250000,80112.3125000000,151715.1250000000,,,
1.7599999972,13,159211.1718750000,142027.8750000000,171099.5781250000,164451.1718750000,127505.7968750000,-42216.0195312500,81051.4296875000,149968.6562500000,,,
1.7639999972,13,160206.4843750000,142423.2031250000,172081.1406250000,165382.0312500000,128513.0468750000,-41282.9296875000,81979.7187500000,148825.6406250000,,,
1.7679999971,13,159842.8125000000,142425.0000000000,171696.0781250000,165047.3125000000,128137.8046875000,-41494.9609375000,81635.6718750000,149871.0781250000,,,
1.7719999971,13,158596.1250000000,142017.0625000000,170447.4531250000,163886.8281250000,126870.6484375000,-42566.1523437500,80468.2109375000,151656.2500000000,,,
1.7759999973,13,158211.5625000000,141782.2031250000,170081.4218750000,163519.9062500000,126483.7109375000,-42981.8437500000,80122.7968750000,151735.9687500000,,,
1.7799999972,13,159215.1718750000,142046.1562500000,171097.8125000000,164454.6250000000,127506.1718750000,-42170.7695312500,81076.7265625000,150008.7812500000,,,
1.7839999972,13,160205.6562500000,142429.0937500000,172078.3281250000,165392.4062500000,128511.7343750000,-41255.0898437500,82008.2031250000,148840.4375000000,,,
1.7879999971,13,159827.4375000000,142412.2812500000,171683.6093750000,165052.7656250000,128124.9296875000,-41482.4882812500,81654.7187500000,149846.9375000000,,,
1.7919999971,14,158595.7656250000,142013.9218750000,170453.8906250000,163895.3281250000,126874.5625000000,-42533.9921875000,80506.3281250000,151640.7500000000,,,
1.7959999971,14,158217.0468750000,141788.0000000000,170092.6562500000,163527.6875000000,126493.4531250000,-42946.1132812500,80163.4843750000,151747.9218750000,,,
1.7999999970,14,159205.7812500000,142035.8593750000,171091.7812500000,164456.8281250000,127497.3984375000,-42155.3203125000,81091.3437500000,150010.5000000000,,,
1.8039999970,14,160202.6250000000,142415.1250000000,172076.7968750000,165403.1093750000,128505.8828125000,-41251.7109375000,82016.8437500000,148821.3750000000,,,
1.8079999969,14,159834.0937500000,142399.2500000000,171691.3125000000,165063.9687500000,128127.4296875000,-41474.8710937500,81667.1328125000,149812.4375000000,,,
1.8119999969,14,158602.8281250000,142002.5781250000,170462.6406250000,163910.0625000000,126878.3984375000,-42525.9453125000,80520.3046875000,151610.5781250000,,,
1.8159999971,14,158214.6250000000,141777.0312500000,170091.3125000000,163535.0781250000,126484.3593750000,-42953.4648437500,80159.2734375000,151736.8750000000,,,
1.8199999970,14,159194.6562500000,142024.3750000000,171078.3125000000,164432.6562500000,127476.0000000000,-42170.9570312500,81067.9531250000,150010.7187500000,,,
1.8239999970,14,160207.4062500000,142416.6250000000,172076.9062500000,165386.4531250000,128498.7265625000,-41243.9843750000,82004.6875000000,148823.2968750000,,,
1.8279999970,14,159854.2656250000,142408.6562500000,171704.8750000000,165069.0156250000,128134.3203125000,-41461.4335937500,81662.9218750000,149801.6093750000,,,
1.8319999969,14,158627.3593750000,142015.9531250000,170480.0000000000,163920.1718750000,126889.0781250000,-42520.4492187500,80518.4531250000,151603.8125000000,,,
1.8359999971,14,158210.4218750000,141772.0625000000,170080.3125000000,163516.2343750000,126469.0937500000,-42970.8437500000,80138.1171875000,151733.2343750000,,,
1.8399999971,14,159167.9062500000,142004.9687500000,171048.6718750000,164411.0937500000,127444.5625000000,-42198.8789062500,81035.3906250000,150005.1875000000,,,
1.8439999970,14,160170.6562500000,142384.7031250000,172038.5937500000,165361.8593750000,128458.8671875000,-41285.0781250000,81961.2343750000,148794.5156250000,,,
1.8479999970,14,159829.9843750000,142384.3281250000,171680.1718750000,165052.5468750000,128111.0390625000,-41485.3828125000,81640.5234375000,149761.6406250000,,,
1.8519999969,14,158602.9843750000,141990.6406250000,170456.7187500000,163913.4687500000,126868.7187500000,-42537.2109375000,80503.5390625000,151563.4687500000,,,
1.8559999969,14,158172.7500000000,141738.8281250000,170044.8906250000,163502.3593750000,126433.5859375000,-42999.7343750000,80109.4921875000,151702.6250000000,,,
1.8599999971,14,159141.5468750000,141981.3593750000,171026.4375000000,164407.0781250000,127418.3828125000,-42225.8632812500,81020.0468750000,149990.3281250000,,,
1.8639999970,14,160152.3281250000,142364.2187500000,172024.3281250000,165355.7343750000,128441.1406250000,-41301.3828125000,81958.5000000000,148767.6093750000,,,
1.8679999970,14,159818.0781250000,142360.2968750000,171670.5781250000,165056.4843750000,128098.1328125000,-41498.4726562500,81637.3046875000,149716.7656250000,,,
1.8719999969,14,158587.5625000000,141965.3437500000,170441.3437500000,163909.1718750000,126849.1406250000,-42555.7460937500,80486.3984375000,151525.3906250000,,,
1.8759999969,14,158159.7968750000,141722.3437500000,170030.8906250000,163494.1250000000,126415.4531250000,-43016.1757812500,80091.0156250000,151692.0625000000,,,
1.8799999971,14,159122.7968750000,141963.9218750000,171003.5312500000,164386.0468750000,127391.8046875000,-42243.9140625000,80990.4140625000,149990.9218750000,,,
1.8839999971,14,160145.5000000000,142352.4375000000,172013.4062500000,165328.2812500000,128427.3750000000,-41309.8320312500,81938.9765625000,148760.8906250000,,,
1.8879999970,14,159827.4375000000,142359.9218750000,171676.3750000000,165032.8281250000,128101.6250000000,-41482.4335937500,81637.3359375000,149698.8281250000,,,
1.8919999970,14,158599.5312500000,141966.3437500000,170452.2812500000,163890.9062500000,126857.3437500000,-42536.9726562500,80496.9375000000,151506.9375000000,,,
1.8959999969,14,158157.8125000000,141713.8906250000,170027.9062500000,163467.8125000000,126411.0000000000,-43013.0078125000,80093.2109375000,151683.8281250000,,,
1.8999999969,14,159098.8906250000,141942.5000000000,170978.2656250000,164337.3906250000,127364.9296875000,-42263.9492187500,80972.5781250000,149978.6093750000,,,
1.9039999971,14,160136.2968750000,142341.6406250000,172003.8593750000,165315.4218750000,128413.3750000000,-41319.8906250000,81936.6171875000,148742.5625000000,,,
1.9079999970,14,159828.9218750000,142352.8750000000,171679.9687500000,165036.3437500000,128099.0781250000,-41495.7656250000,81644.9218750000,149667.2031250000,,,
1.9119999970,14,158592.7343750000,141957.5468750000,170446.7968750000,163885.1406250000,126847.1250000000,-42559.3398437500,80495.4921875000,151476.3750000000,,,
1.9159999969,14,158131.3125000000,141701.3593750000,170002.9062500000,163451.7187500000,126380.9062500000,-43049.0585937500,80071.8125000000,151669.5312500000,,,
1.9199999969,15,159082.2968750000,141942.1406250000,170963.1718750000,164345.5625000000,127344.9453125000,-42288.2226562500,80959.8359375000,149983.7500000000,,,
1.9239999969,15,160124.9218750000,142342.7656250000,171993.3281250000,165326.6406250000,128401.0390625000,-41344.5664062500,81927.5781250000,148734.2187500000,,,
1.9279999968,15,159826.6562500000,142356.6875000000,171675.5156250000,165042.4062500000,128095.0781250000,-41508.3984375000,81647.7656250000,149642.7343750000,,,
1.9319999968,15,158603.8906250000,141971.0312500000,170452.6093750000,163903.7500000000,126850.8046875000,-42559.3671875000,80507.7500000000,151468.0156250000,,,
1.9359999967,15,158140.0000000000,141717.0781250000,170005.9218750000,163465.2187500000,126379.2187500000,-43048.9492187500,80076.9609375000,151688.2968750000,,,
1.9399999967,15,159066.3593750000,141937.0000000000,170942.0312500000,164325.7656250000,127317.2109375000,-42314.0507812500,80937.7343750000,149994.9375000000,,,
1.9439999969,15,160124.3125000000,142339.1093750000,171986.4062500000,165321.5625000000,128383.4140625000,-41354.5468750000,81912.5546875000,148727.7031250000,,,
1.9479999968,15,159842.7343750000,142359.2343750000,171684.7031250000,165072.1718750000,128090.8437500000,-41502.2812500000,81638.4375000000,149623.5312500000,,,
1.9519999968,15,158617.3593750000,141973.0781250000,170463.4531250000,163928.3281250000,126849.1640625000,-42543.7031250000,80503.4609375000,151451.9687500000,,,
1.9559999967,15,158159.6406250000,141728.6718750000,170025.7656250000,163494.9531250000,126389.7031250000,-43021.9960937500,80094.5546875000,151699.8906250000,,,
1.9599999967,15,159086.8593750000,141951.5312500000,170965.7500000000,164368.2031250000,127335.5546875000,-42279.6679687500,80971.6640625000,150019.2187500000,,,
1.9639999969,15,160122.1562500000,142333.3125000000,171992.8437500000,165346.2500000000,128388.4609375000,-41332.9531250000,81937.0468750000,148724.9218750000,,,
1.9679999969,15,159831.9687500000,142342.2812500000,171686.0781250000,165092.3437500000,128092.7421875000,-41484.6601562500,81661.6875000000,149593.5000000000,,,
1.9719999968,15,158612.8593750000,141962.6718750000,170467.6250000000,163958.3593750000,126856.1640625000,-42518.0898437500,80530.0625000000,151428.1250000000,,,
1.9759999968,15,158132.3906250000,141704.9843750000,170001.8125000000,163497.6406250000,126369.4531250000,-43013.8671875000,80089.2968750000,151679.4531250000,,,
1.9799999967,15,159055.1562500000,141929.7343750000,170933.9375000000,164351.4687500000,127307.0156250000,-42276.9023437500,80955.3281250000,150007.7656250000,,,
1.9839999967,15,160115.0000000000,142333.2656250000,171980.2343750000,165347.6875000000,128377.8671875000,-41311.6562500000,81940.2656250000,148716.7343750000,,,
1.9879999969,15,159860.4375000000,142368.4062500000,171703.3437500000,165124.9375000000,128109.7265625000,-41438.8750000000,81691.7031250000,149590.3281250000,,,
1.9919999968,15,158624.7343750000,141978.2968750000,170466.2031250000,163977.8906250000,126853.2187500000,-42490.5937500000,80535.5078125000,151419.9687500000,,,
1.9959999968,15,158118.8437500000,141707.0000000000,169977.5156250000,163491.8750000000,126341.1015625000,-43012.1523437500,80071.1406250000,151681.5937500000,,,
1.9999999967,15,159034.3125000000,141926.1250000000,170904.3281250000,164324.7343750000,127272.3906250000,-42284.1171875000,80935.0234375000,150018.4375000000,,,
2.0039999967,15,160103.9687500000,142328.6562500000,171964.4375000000,165330.9531250000,128358.3671875000,-41310.5039062500,81932.4843750000,148715.3906250000,,,
2.0079999969,15,159850.0468750000,142355.5468750000,171694.7968750000,165115.2812500000,128101.4921875000,-41433.2421875000,81694.9765625000,149566.5156250000,,,
2.0119999968,15,158621.7812500000,141969.9843750000,170467.9218750000,163965.2812500000,126857.5312500000,-42471.3359375000,80557.4218750000,151406.9843750000,,,
2.0159999968,15,158114.8281250000,141704.3437500000,169978.0468750000,163478.1875000000,126345.5546875000,-42986.7500000000,80094.7656250000,151694.9843750000,,,
2.0199999968,15,159032.3281250000,141926.0468750000,170909.8437500000,164321.9375000000,127282.3125000000,-42252.8437500000,80962.0859375000,150040.7500000000,,,
2.0239999967,15,160111.3281250000,142330.3437500000,171979.9687500000,165336.4531250000,128378.8593750000,-41269.8164062500,81970.4921875000,148723.2343750000,,,
2.0279999967,15,159879.8281250000,142372.6875000000,171731.9375000000,165135.8281250000,128140.7031250000,-41378.9804687500,81747.2500000000,149564.0937500000,,,
2.0319999969,15,158635.6562500000,141973.4687500000,170488.4218750000,163964.8281250000,126875.7421875000,-42448.4570312500,80583.2812500000,151391.0312500000,,,
2.0359999968,15,158115.9687500000,141700.0000000000,169986.5781250000,163464.2968750000,126350.4609375000,-42983.9882812500,80105.0156250000,151689.5312500000,,,
2.0399999968,15,159019.6875000000,141918.4687500000,170898.7968750000,164300.9687500000,127265.1796875000,-42266.6835937500,80945.0859375000,150046.8437500000,,,
2.0439999967,15,160102.9062500000,142325.3593750000,171968.8906250000,165328.3750000000,128356.9687500000,-41286.5507812500,81941.9765625000,148720.3281250000,,,
2.0479999967,16,159887.5781250000,142375.5937500000,171732.5000000000,165137.7812500000,128132.5781250000,-41371.6601562500,81733.8671875000,149551.3281250000,,,
2.0519999966,16,158674.5937500000,142003.8593750000,170517.8750000000,163999.9687500000,126902.3281250000,-42403.9882812500,80613.6718750000,151402.7812500000,,,
2.0559999966,16,158139.3125000000,141727.7500000000,169999.6718750000,163490.2656250000,126362.0781250000,-42944.6406250000,80127.1171875000,151719.8125000000,,,
2.0599999966,16,159020.5312500000,141925.3281250000,170892.1718750000,164306.4531250000,127259.1406250000,-42241.8203125000,80957.6640625000,150071.2812500000,,,
2.0639999965,16,160105.0000000000,142326.0468750000,171965.5312500000,165324.7031250000,128357.6640625000,-41255.0351562500,81966.3906250000,148726.0625000000,,,
2.0679999965,16,159895.9687500000,142374.5156250000,171739.0468750000,165140.5781250000,128143.1953125000,-41340.6796875000,81769.1093750000,149533.0468750000,,,
2.0719999967,16,158677.5781250000,141999.6250000000,170523.8437500000,163998.2812500000,126910.5625000000,-42372.5234375000,80640.2734375000,151376.6093750000,,,
2.0759999966,16,158136.2031250000,141725.4531250000,169999.9843750000,163479.7031250000,126366.7968750000,-42917.7382812500,80145.0312500000,151712.5781250000,,,
2.0799999966,16,159028.4843750000,141938.3125000000,170901.7500000000,164309.5468750000,127273.5156250000,-42209.3671875000,80981.0234375000,150087.7500000000,,,
2.0839999965,16,160113.0937500000,142339.8593750000,171970.8281250000,165332.2187500000,128369.8984375000,-41224.1093750000,81982.5859375000,148736.0156250000,,,
2.0879999965,16,159904.1718750000,142385.2968750000,171739.4062500000,165126.4375000000,128151.6171875000,-41303.6367187500,81779.0859375000,149525.6875000000,,,
2.0919999967,16,158682.2656250000,142007.6406250000,170514.5156250000,163986.2812500000,126909.1093750000,-42339.5078125000,80639.6875000000,151372.4375000000,,,
2.0959999966,16,158135.5781250000,141734.1875000000,169984.2968750000,163463.2031250000,126356.4453125000,-42890.4335937500,80135.9921875000,151730.0937500000,,,
2.0999999966,16,159034.4687500000,141954.6718750000,170895.7656250000,164291.6875000000,127271.5078125000,-42175.0859375000,80982.5000000000,150125.0781250000,,,
2.1039999966,16,160121.4687500000,142349.4687500000,171973.1562500000,165314.6562500000,128375.2109375000,-41190.6093750000,81996.7265625000,148754.6562500000,,,
2.1079999965,16,159925.6875000000,142395.4062500000,171763.4375000000,165150.1718750000,128177.6406250000,-41262.6250000000,81811.4375000000,149521.4062500000,,,
2.1119999965,16,158709.9218750000,142019.4531250000,170551.1250000000,164017.4843750000,126945.6718750000,-42291.2539062500,80678.8203125000,151367.8906250000,,,
2.1159999967,16,158135.7968750000,141727.6562500000,169992.3125000000,163465.3125000000,126366.7968750000,-42862.1367187500,80157.5625000000,151732.0781250000,,,
2.1199999966,16,159008.6406250000,141928.2031250000,170882.0312500000,164277.4687500000,127259.2187500000,-42174.0937500000,80988.3437500000,150119.8593750000,,,
2.1239999966,16,160111.1875000000,142334.5312500000,171976.9375000000,165316.8750000000,128379.1484375000,-41179.3164062500,82015.1484375000,148744.5468750000,,,
2.1279999965,16,159934.5468750000,142390.6093750000,171784.7343750000,165165.7031250000,128197.2421875000,-41237.1171875000,81847.5156250000,149498.9218750000,,,
2.1319999965,16,158714.5156250000,142015.3125000000,170566.3906250000,164020.6250000000,126960.9296875000,-42267.6484375000,80713.9531250000,151349.6718750000,,,
2.1359999967,16,158128.2656250000,141716.6562500000,169998.2500000000,163458.9062500000,126369.0781250000,-42856.4218750000,80172.3671875000,151723.7343750000,,,
2.1399999966,16,159016.2343750000,141934.2656250000,170895.8906250000,164284.9218750000,127267.6406250000,-42157.2500000000,81002.4531250000,150136.0312500000,,,
2.1439999966,16,160115.1093750000,142336.4531250000,171980.0156250000,165310.7031250000,128378.1015625000,-41166.8437500000,82016.6796875000,148745.2968750000,,,
2.1479999966,16,159944.6562500000,142396.1093750000,171790.3906250000,165152.1406250000,128202.6640625000,-41211.0195312500,81857.6250000000,149484.5937500000,,,
2.1519999965,16,158734.5468750000,142036.4843750000,170577.9531250000,164020.2656250000,126974.7968750000,-42222.3476562500,80735.7343750000,151350.9531250000,,,
2.1559999965,16,158142.5000000000,141739.7968750000,170002.7968750000,163471.9687500000,126376.3984375000,-42813.3476562500,80192.5859375000,151745.9687500000,,,
2.1599999967,16,158998.8750000000,141937.1875000000,170871.9218750000,164261.6875000000,127249.8593750000,-42135.7109375000,81003.7421875000,150156.1406250000,,,
2.1639999966,16,160104.0781250000,142337.5000000000,171966.7500000000,165297.0468750000,128369.6015625000,-41140.1835937500,82033.2812500000,148755.0937500000,,,
2.1679999966,16,159940.5781250000,142397.2343750000,171782.7968750000,165161.6562500000,128199.4687500000,-41184.4921875000,81874.0156250000,149478.7031250000,,,
2.1719999965,16,158724.5156250000,142025.8593750000,170564.1406250000,164023.4062500000,126963.9921875000,-42206.7656250000,80741.9843750000,151328.8906250000,,,
2.1759999965,17,158140.4843750000,141739.4218750000,169996.2656250000,163468.0625000000,126373.3437500000,-42785.8515625000,80206.0781250000,151748.1406250000,,,
2.1799999964,17,158991.0156250000,141936.1093750000,170858.5312500000,164259.9843750000,127237.8671875000,-42113.2070312500,81004.9531250000,150168.4062500000,,,
2.1839999964,17,160098.5625000000,142337.1875000000,171954.8593750000,165301.4218750000,128359.2734375000,-41110.4375000000,82033.4687500000,148755.3125000000,,,
2.1879999964,17,159944.5156250000,142396.6718750000,171781.5937500000,165173.6250000000,128198.1015625000,-41145.0117187500,81885.1171875000,149457.5156250000,,,
2.1919999963,17,158727.2031250000,142021.9218750000,170564.6718750000,164038.8906250000,126963.7734375000,-42166.5859375000,80756.5234375000,151303.1562500000,,,
2.1959999963,17,158119.8593750000,141718.7187500000,169978.1562500000,163462.8593750000,126353.6796875000,-42771.6367187500,80202.7812500000,151729.4687500000,,,
2.1999999965,17,158953.4687500000,141901.3750000000,170826.9375000000,164237.7500000000,127204.4765625000,-42124.6875000000,80988.4843750000,150154.6718750000,,,
2.2039999964,17,160070.0937500000,142306.0468750000,171933.9687500000,165283.6093750000,128337.1718750000,-41120.1210937500,82025.0468750000,148737.1250000000,,,
2.2079999964,17,159934.9687500000,142375.8125000000,171780.5156250000,165167.7187500000,128198.3203125000,-41137.5273437500,81892.7578125000,149428.3281250000,,,
2.2119999963,17,158713.2187500000,142001.3750000000,170556.8906250000,164026.2812500000,126959.3750000000,-42160.4414062500,80754.9921875000,151276.1875000000,,,
2.2159999963,17,158114.1562500000,141712.1718750000,169979.1718750000,163455.4687500000,126357.5468750000,-42751.9218750000,80211.8984375000,151728.6406250000,,,
2.2199999965,17,158957.8906250000,141905.6093750000,170839.6718750000,164234.5312500000,127220.0078125000,-42094.3007812500,81009.9375000000,150170.0312500000,,,
2.2239999964,17,160076.7500000000,142307.0937500000,171951.0312500000,165282.3750000000,128356.7578125000,-41092.9492187500,82051.4921875000,148731.5625000000,,,
2.2279999964,17,159953.6406250000,142380.9062500000,171807.0156250000,165181.4531250000,128224.6328125000,-41108.9609375000,81924.0078125000,149405.5312500000,,,
2.2319999964,17,158738.0000000000,142008.7968750000,170587.1562500000,164038.6406250000,126985.1562500000,-42133.7812500000,80781.1484375000,151254.2968750000,,,
2.2359999963,17,158118.7656250000,141713.6718750000,169982.5781250000,163435.2500000000,126355.1015625000,-42740.8437500000,80208.8671875000,151724.5156250000,,,
2.2399999963,17,158945.4218750000,141906.7187500000,170818.6718750000,164201.7812500000,127194.7656250000,-42085.3671875000,80988.7500000000,150183.9843750000,,,
2.2439999965,17,160076.9375000000,142322.2187500000,171939.1718750000,165284.6093750000,128340.8203125000,-41075.3828125000,82039.6406250000,148749.1093750000,,,
2.2479999964,17,159959.9687500000,142395.5781250000,171801.9531250000,165168.7031250000,128220.6328125000,-41075.4882812500,81926.9296875000,149405.7968750000,,,
2.2519999964,17,158738.8125000000,142019.4687500000,170578.7500000000,164020.1562500000,126985.1250000000,-42095.4257812500,80795.4453125000,151251.6093750000,,,
2.2559999963,17,158107.8750000000,141718.0000000000,169965.4687500000,163419.5000000000,126347.9140625000,-42713.9414062500,80216.8593750000,151734.8125000000,,,
2.2599999963,17,158941.4843750000,141913.6875000000,170812.8281250000,164200.0000000000,127196.3515625000,-42060.7460937500,81004.7343750000,150203.5312500000,,,
2.2639999965,17,160072.8281250000,142321.9531250000,171932.5468750000,165270.2656250000,128341.8125000000,-41045.6367187500,82051.6015625000,148754.2343750000,,,
2.2679999964,17,159974.9062500000,142402.3593750000,171818.3906250000,165199.5781250000,128238.8750000000,-41036.0859375000,81954.5312500000,149394.6562500000,,,
2.2719999964,17,158764.7500000000,142028.7500000000,170608.1562500000,164073.4531250000,127011.7109375000,-42053.1796875000,80830.4687500000,151235.6250000000,,,
2.2759999963,17,158125.2031250000,141720.1718750000,169987.4531250000,163464.9375000000,126368.4296875000,-42688.0078125000,80246.2578125000,151730.2500000000,,,
2.2799999963,17,158938.6875000000,141903.9843750000,170812.1093750000,164210.6250000000,127194.2890625000,-42050.2578125000,81005.0546875000,150206.7343750000,,,
2.2839999963,17,160081.5468750000,142316.4218750000,171942.5781250000,165280.3750000000,128349.4062500000,-41027.1015625000,82062.0859375000,148749.6406250000,,,
2.2879999964,17,159987.1875000000,142397.3906250000,171830.7500000000,165200.8750000000,128251.0781250000,-41018.5468750000,81972.0468750000,149373.3437500000,,,
2.2919999964,17,158781.3281250000,142032.7031250000,170624.3437500000,164078.8281250000,127028.7890625000,-42024.5078125000,80856.6250000000,151221.6562500000,,,
2.2959999964,17,158125.8750000000,141722.6562500000,169982.1562500000,163461.3750000000,126365.9140625000,-42665.4765625000,80255.7578125000,151738.7343750000,,,
2.2999999963,17,158921.4687500000,141897.5468750000,170787.4531250000,164198.8281250000,127173.3125000000,-42048.9687500000,81001.5703125000,150221.9843750000,,,
2.3039999963,18,160061.8125000000,142305.9843750000,171920.0000000000,165267.0156250000,128329.9843750000,-41017.3125000000,82060.3750000000,148752.0937500000,,,
2.3079999962,18,159982.6250000000,142396.7187500000,171826.9218750000,165200.1406250000,128249.6796875000,-40986.2500000000,81982.6171875000,149363.2031250000,,,
2.3119999962,18,158786.4531250000,142037.1250000000,170630.6250000000,164090.8437500000,127037.8281250000,-42024.0234375000,80873.3593750000,151205.9062500000,,,
2.3159999961,18,158130.9218750000,141733.0156250000,169990.6250000000,163458.3125000000,126376.3984375000,-42653.6992187500,80271.9296875000,151743.1562500000,,,
2.3199999961,18,158904.6562500000,141888.6093750000,170777.6093750000,164173.9062500000,127164.0312500000,-42061.9257812500,80996.3125000000,150224.2187500000,,,
2.3239999961,18,160045.7187500000,142294.1875000000,171911.4062500000,165252.0781250000,128319.6328125000,-41045.5820312500,82055.6015625000,148739.8906250000,,,
2.3279999963,18,159975.3437500000,142386.2343750000,171821.0781250000,165198.1875000000,128241.8750000000,-41001.1367187500,81981.1640625000,149328.5000000000,,,
2.3319999962,18,158775.4843750000,142021.0781250000,170617.5312500000,164079.5781250000,127021.7656250000,-42005.3828125000,80861.5625000000,151167.6875000000,,,
2.3359999962,18,158110.2031250000,141712.1406250000,169968.0625000000,163445.6093750000,126349.1171875000,-42650.5351562500,80252.3984375000,151719.7968750000,,,
2.3399999961,18,158888.2656250000,141881.6406250000,170760.0781250000,164157.7031250000,127142.2500000000,-42046.9062500000,80988.1328125000,150227.9531250000,,,
2.3439999961,18,160049.5312500000,142300.9687500000,171911.3593750000,165249.0156250000,128319.6875000000,-41014.9257812500,82069.2500000000,148742.7031250000,,,
2.3479999963,18,160004.5156250000,142403.9687500000,171844.7031250000,165217.8281250000,128269.1562500000,-40957.1484375000,82020.7031250000,149319.9687500000,,,
2.3519999962,18,158815.6093750000,142046.8593750000,170653.0000000000,164106.2812500000,127062.9921875000,-41949.2734375000,80917.3203125000,151166.3906250000,,,
2.3559999962,18,158141.6093750000,141737.2187500000,169994.4843750000,163470.0625000000,126379.9140625000,-42602.7109375000,80297.5937500000,151737.6875000000,,,
2.3599999961,18,158910.6406250000,141903.4218750000,170777.2343750000,164180.9531250000,127161.9140625000,-42007.3164062500,81023.8828125000,150260.7500000000,,,
2.3639999961,18,160070.9843750000,142319.6093750000,171931.3593750000,165277.3906250000,128338.4375000000,-40975.4687500000,82103.4453125000,148766.9687500000,,,
2.3679999961,18,160029.7031250000,142418.5000000000,171871.9062500000,165245.1250000000,128294.8515625000,-40914.2343750000,82064.3671875000,149320.6875000000,,,
2.3719999962,18,158832.5468750000,142055.6093750000,170671.7500000000,164137.6406250000,127082.1718750000,-41906.1171875000,80957.7734375000,151163.0468750000,,,
2.3759999962,18,158145.5937500000,141736.5000000000,170001.0000000000,163479.3437500000,126388.4453125000,-42578.4921875000,80332.1406250000,151743.8750000000,,,
2.3799999962,18,158896.9062500000,141886.7500000000,170768.2500000000,164171.5937500000,127156.4140625000,-42006.3242187500,81041.1562500000,150256.9375000000,,,
2.3839999961,18,160054.6562500000,142296.2812500000,171919.5937500000,165258.7812500000,128333.3359375000,-40976.3281250000,82118.6328125000,148744.9062500000,,,
2.3879999961,18,160014.9531250000,142396.4375000000,171860.4531250000,165231.6406250000,128290.9296875000,-40909.6757812500,82075.5000000000,149283.5156250000,,,
2.3919999963,18,158826.1718750000,142043.7500000000,170669.7656250000,164122.0000000000,127086.7812500000,-41894.0976562500,80974.6171875000,151135.5312500000,,,
2.3959999962,18,158137.5156250000,141734.3593750000,169996.5312500000,163462.9531250000,126389.0078125000,-42560.8164062500,80339.1953125000,151746.9375000000,,,
2.3999999962,18,158884.1406250000,141889.5000000000,170756.3750000000,164154.5468750000,127146.4062500000,-41993.1250000000,81034.1328125000,150277.2968750000,,,
2.4039999961,18,160034.3750000000,142293.7812500000,171899.3906250000,165238.8750000000,128312.6875000000,-40969.1132812500,82099.8281250000,148748.0937500000,,,
2.4079999961,18,160016.0312500000,142404.2343750000,171858.8437500000,165235.8437500000,128288.2812500000,-40882.6914062500,82073.6796875000,149275.8750000000,,,
2.4119999961,18,158817.4531250000,142041.3906250000,170653.4062500000,164115.6718750000,127067.6875000000,-41879.7500000000,80953.7968750000,151117.1718750000,,,
2.4159999962,18,158095.0000000000,141703.0468750000,169947.0156250000,163431.3437500000,126335.8984375000,-42585.4648437500,80289.9531250000,151715.2656250000,,,
2.4199999962,18,158827.6406250000,141844.3281250000,170694.8437500000,164108.5625000000,127084.9609375000,-42025.3945312500,80983.5703125000,150244.0468750000,,,
2.4239999962,18,160011.3125000000,142272.0000000000,171873.3750000000,165224.6875000000,128290.5546875000,-40967.6914062500,82089.9843750000,148725.4218750000,,,
2.4279999961,18,160006.2343750000,142382.9687500000,171853.7343750000,165234.2343750000,128290.1250000000,-40875.4492187500,82088.2421875000,149232.6875000000,,,
2.4319999961,19,158832.1562500000,142034.7343750000,170681.1406250000,164146.1250000000,127102.8984375000,-41841.9023437500,81004.6562500000,151082.5312500000,,,
2.4359999960,19,158113.6406250000,141706.8593750000,169981.4531250000,163469.4843750000,126378.2734375000,-42528.6835937500,80347.3828125000,151712.9531250000,,,
2.4399999960,19,158855.2656250000,141863.0937500000,170735.2656250000,164161.7500000000,127130.8203125000,-41965.9296875000,81042.6640625000,150271.0156250000,,,
2.4439999959,19,160011.4375000000,142266.2968750000,171881.3750000000,165240.5625000000,128301.4453125000,-40941.9687500000,82113.5859375000,148721.2343750000,,,
2.4479999959,19,160008.0937500000,142376.5312500000,171857.5312500000,165245.0937500000,128291.2578125000,-40848.2773437500,82101.1406250000,149210.3906250000,,,
2.4519999959,19,158843.5000000000,142038.8437500000,170686.3125000000,164154.7031250000,127105.5859375000,-41820.1523437500,81017.9062500000,151065.4062500000,,,
2.4559999960,19,158123.1093750000,141719.1718750000,169978.7500000000,163469.3437500000,126375.4609375000,-42515.0859375000,80357.5703125000,151720.9687500000,,,
2.4599999960,19,158849.5937500000,141867.3593750000,170717.7656250000,164140.5937500000,127113.7890625000,-41963.3281250000,81039.9531250000,150284.2968750000,,,
2.4639999960,19,160029.4062500000,142286.2656250000,171888.4531250000,165239.6875000000,128310.5703125000,-40914.8789062500,82135.4218750000,148734.2812500000,,,
2.4679999959,19,160054.9687500000,142415.7187500000,171895.3125000000,165276.4843750000,128334.4140625000,-40802.3320312500,82154.0078125000,149219.7031250000,,,
2.4719999959,19,158882.9843750000,142076.3125000000,170723.5468750000,164179.8593750000,127148.3359375000,-41770.0742187500,81070.2578125000,151075.2500000000,,,
2.4759999961,19,158125.9062500000,141728.5000000000,169987.5156250000,163459.2343750000,126388.7343750000,-42491.5625000000,80383.1562500000,151723.9531250000,,,
2.4799999960,19,158842.8593750000,141871.5468750000,170722.7343750000,164122.4062500000,127124.6250000000,-41946.0000000000,81066.8046875000,150289.5781250000,,,
2.4839999960,19,160020.2968750000,142288.1562500000,171893.9218750000,165229.9218750000,128322.3125000000,-40894.8671875000,82165.1640625000,148726.8750000000,,,
2.4879999959,19,160046.0625000000,142412.2500000000,171900.2031250000,165265.6406250000,128344.8750000000,-40769.2343750000,82187.2109375000,149188.8281250000,,,
2.4919999959,19,158890.8593750000,142083.1562500000,170742.4218750000,164183.2187500000,127171.0546875000,-41724.5546875000,81117.8984375000,151054.8125000000,,,
2.4959999959,19,158129.6250000000,141742.0000000000,169989.6562500000,163466.0937500000,126394.2656250000,-42444.4062500000,80410.7031250000,151733.6562500000,,,
2.4999999960,19,158831.0312500000,141873.1875000000,170702.7500000000,164111.8593750000,127107.3281250000,-41918.8828125000,81076.5625000000,150304.1718750000,,,
2.5039999960,19,160027.1562500000,142299.1250000000,171893.0937500000,165235.4375000000,128323.9765625000,-40854.0742187500,82197.8593750000,148737.0468750000,,,
2.5079999960,19,160068.8437500000,142433.6562500000,171916.4531250000,165286.0781250000,128367.1328125000,-40716.7695312500,82235.2265625000,149191.2500000000,,,
2.5119999959,19,158900.3281250000,142095.4375000000,170745.7812500000,164196.7656250000,127186.6640625000,-41679.4414062500,81155.0156250000,151056.3750000000,,,
2.5159999959,19,158127.7187500000,141747.2031250000,169991.6250000000,163465.3125000000,126409.7656250000,-42406.7773437500,80452.5781250000,151755.6718750000,,,
2.5199999961,19,158814.5000000000,141871.7968750000,170692.9375000000,164087.0781250000,127109.2578125000,-41886.7226562500,81102.2031250000,150338.7500000000,,,
2.5239999960,19,160011.3906250000,142295.1718750000,171884.5000000000,165213.6093750000,128325.6406250000,-40821.1875000000,82224.0390625000,148758.7343750000,,,
2.5279999960,19,160053.5000000000,142420.2031250000,171909.6718750000,165273.3906250000,128371.9375000000,-40673.1289062500,82273.1250000000,149187.2187500000,,,
2.5319999959,19,158883.7343750000,142077.0937500000,170737.7343750000,164185.7656250000,127189.8359375000,-41633.6835937500,81193.6718750000,151046.7656250000,,,
2.5359999959,19,158122.3906250000,141742.3750000000,169995.5000000000,163448.2656250000,126424.0859375000,-42357.1015625000,80503.4062500000,151769.9218750000,,,
2.5399999958,19,158825.9531250000,141884.0156250000,170715.1406250000,164093.4062500000,127142.9765625000,-41824.7656250000,81181.0625000000,150382.3906250000,,,
2.5439999960,19,160038.4531250000,142316.9843750000,171919.2343750000,165226.9375000000,128371.4531250000,-40746.2734375000,82313.0625000000,148804.4375000000,,,
2.5479999960,19,160091.1250000000,142447.0937500000,171948.2031250000,165276.7031250000,128418.4218750000,-40604.5742187500,82352.7890625000,149218.7343750000,,,
2.5519999960,19,158941.8593750000,142122.5468750000,170793.1406250000,164195.8437500000,127250.0781250000,-41549.3281250000,81283.5000000000,151089.0156250000,,,
2.5559999959,19,158182.7031250000,141795.2343750000,170049.9062500000,163467.7343750000,126482.8828125000,-42274.9453125000,80585.9375000000,151837.7031250000,,,
2.5599999959,20,158872.1718750000,141930.1250000000,170752.6718750000,164096.3125000000,127184.5468750000,-41765.4882812500,81233.9531250000,150454.9375000000,,,
2.5639999958,20,160060.3281250000,142340.2656250000,171931.1250000000,165206.9531250000,128388.9375000000,-40715.1875000000,82339.7812500000,148845.7031250000,,,
2.5679999958,20,160124.8906250000,142472.8437500000,171975.6562500000,165284.4218750000,128449.6093750000,-40564.4492187500,82391.6015625000,149236.0625000000,,,
2.5719999957,20,158971.5000000000,142142.6406250000,170817.8750000000,164214.4375000000,127278.3984375000,-41513.6289062500,81317.3437500000,151091.1875000000,,,
2.5759999957,20,158193.7656250000,141806.0000000000,170057.9687500000,163475.4062500000,126495.7031250000,-42244.0468750000,80607.2890625000,151845.0781250000,,,
2.5799999957,20,158859.8281250000,141929.0000000000,170740.5468750000,164090.4687500000,127177.3359375000,-41744.0820312500,81238.3281250000,150468.5468750000,,,
2.5839999958,20,160041.0312500000,142334.2812500000,171913.7187500000,165204.4843750000,128375.7187500000,-40701.2382812500,82334.2265625000,148850.2031250000,,,
2.5879999958,20,160095.7656250000,142455.1250000000,171946.4687500000,165281.2500000000,128423.5156250000,-40555.8632812500,82370.4062500000,149214.9531250000,,,
2.5919999958,20,158944.6093750000,142124.3281250000,170791.4218750000,164230.7187500000,127252.5937500000,-41504.6953125000,81295.7265625000,151067.5000000000,,,
2.5959999957,20,158147.8437500000,141772.3125000000,170010.5468750000,163472.8281250000,126446.1640625000,-42262.8476562500,80555.8437500000,151825.9531250000,,,
2.5999999957,20,158816.8593750000,141898.3750000000,170693.0156250000,164082.2343750000,127125.6484375000,-41770.0195312500,81180.8750000000,150463.5312500000,,,
2.6039999959,20,160022.5156250000,142317.7812500000,171889.6250000000,165206.9843750000,128346.4843750000,-40712.0742187500,82297.1875000000,148845.4843750000,,,
2.6079999958,20,160113.1250000000,142459.4687500000,171960.4062500000,165303.3281250000,128434.4609375000,-40533.3085937500,82372.2578125000,149207.3593750000,,,
2.6119999958,20,158950.9218750000,142120.8281250000,170794.4531250000,164226.7500000000,127255.7109375000,-41494.5039062500,81288.2421875000,151052.4375000000,,,
2.6159999957,20,158141.5156250000,141763.2968750000,170005.3437500000,163474.6250000000,126441.0703125000,-42267.3007812500,80544.9531250000,151824.6875000000,,,
2.6199999957,20,158789.4531250000,141875.2187500000,170670.3437500000,164061.0312500000,127103.4140625000,-41793.7031250000,81157.5703125000,150464.2187500000,,,
2.6239999956,20,160000.9218750000,142298.5312500000,171876.5937500000,165194.6250000000,128331.9687500000,-40729.9140625000,82283.7187500000,148837.3593750000,,,
2.6279999958,20,160102.5781250000,142443.8593750000,171957.4843750000,165292.1250000000,128430.3828125000,-40549.6953125000,82369.1484375000,149177.7343750000,,,
2.6319999958,20,158948.9687500000,142102.4531250000,170802.7187500000,164222.6406250000,127262.2265625000,-41507.7539062500,81295.9453125000,151014.5000000000,,,
2.6359999957,20,158146.7656250000,141757.0781250000,170016.4531250000,163464.2812500000,126448.6328125000,-42271.0039062500,80557.4531250000,151815.4843750000,,,
2.6399999957,20,158783.0156250000,141867.7187500000,170665.2812500000,164050.8750000000,127090.6171875000,-41809.0468750000,81150.7031250000,150471.1093750000,,,
2.6439999957,20,159997.0156250000,142292.7968750000,171870.7500000000,165187.7500000000,128317.2734375000,-40743.0546875000,82273.4453125000,148839.0937500000,,,
2.6479999959,20,160110.9687500000,142444.5156250000,171963.5781250000,165303.3906250000,128429.3906250000,-40548.3007812500,82367.6718750000,149169.2187500000,,,
2.6519999958,20,158962.1093750000,142111.5312500000,170807.3281250000,164232.8906250000,127263.6718750000,-41496.5937500000,81292.0234375000,151010.8906250000,,,
2.6559999958,20,158132.2500000000,141746.1250000000,169991.2500000000,163451.2343750000,126423.4687500000,-42293.5351562500,80522.6093750000,151810.0781250000,,,
2.6599999957,20,158768.9843750000,141856.6406250000,170643.3906250000,164036.6093750000,127071.9218750000,-41823.4765625000,81123.2656250000,150479.3437500000,,,
2.6639999957,20,159981.2031250000,142273.1875000000,171849.7500000000,165180.8593750000,128300.8281250000,-40759.1210937500,82250.4843750000,148830.1875000000,,,
2.6679999956,20,160098.6093750000,142422.0156250000,171944.9843750000,165316.6093750000,128419.0390625000,-40556.5351562500,82356.4062500000,149136.9843750000,,,
2.6719999958,20,158945.4531250000,142086.7968750000,170786.5937500000,164251.7656250000,127253.1328125000,-41501.1835937500,81288.3281250000,150973.4062500000,,,
2.6759999958,20,158109.4375000000,141725.8750000000,169967.7968750000,163465.8593750000,126411.4843750000,-42289.1093750000,80519.6875000000,151797.7656250000,,,
2.6799999957,20,158732.9687500000,141828.3593750000,170607.0000000000,164040.9218750000,127046.5781250000,-41837.4765625000,81104.7265625000,150471.2968750000,,,
2.6839999957,20,159954.2031250000,142251.8281250000,171820.7968750000,165188.5000000000,128281.2500000000,-40762.6093750000,82237.5312500000,148820.5312500000,,,
2.6879999957,21,160096.8750000000,142416.6250000000,171941.6406250000,165337.6562500000,128417.5625000000,-40550.0976562500,82358.7656250000,149122.8750000000,,,
2.6919999956,21,158969.5937500000,142101.9531250000,170808.0625000000,164281.4062500000,127269.9531250000,-41476.0507812500,81305.7890625000,150970.4687500000,,,
2.6959999956,21,158131.0781250000,141741.5625000000,169985.3906250000,163478.2187500000,126418.3515625000,-42269.3671875000,80526.4453125000,151811.1406250000,,,
2.6999999955,21,158743.8750000000,141840.3750000000,170615.6406250000,164041.4843750000,127041.0781250000,-41829.2968750000,81097.6171875000,150501.6875000000,,,
2.7039999955,21,159960.3125000000,142256.4218750000,171822.7343750000,165183.1093750000,128271.2187500000,-40766.1757812500,82222.0312500000,148840.9218750000,,,
2.7079999954,21,160125.7031250000,142432.9687500000,171965.6718750000,165349.4687500000,128432.4765625000,-40525.9570312500,82368.9609375000,149131.5468750000,,,
2.7119999956,21,158991.9531250000,142105.8437500000,170829.5468750000,164296.1406250000,127283.0390625000,-41456.4414062500,81319.4375000000,150960.9375000000,,,
2.7159999956,21,158137.9687500000,141739.7187500000,169993.1718750000,163487.7187500000,126420.5468750000,-42265.2343750000,80535.3750000000,151812.0625000000,,,
2.7199999955,21,158733.4531250000,141832.5468750000,170606.2500000000,164041.3750000000,127027.9062500000,-41836.0546875000,81097.6171875000,150514.7031250000,,,
2.7239999955,21,159959.6250000000,142257.6562500000,171826.6562500000,165187.6250000000,128270.0156250000,-40756.5742187500,82238.6562500000,148851.2812500000,,,
2.7279999955,21,160115.8906250000,142421.8281250000,171962.6875000000,165350.4375000000,128425.2343750000,-40524.9375000000,82376.6015625000,149108.5312500000,,,
2.7319999957,21,158972.6250000000,142091.2031250000,170815.4062500000,164288.6250000000,127268.2578125000,-41457.8125000000,81313.3515625000,150927.1406250000,,,
2.7359999956,21,158105.0625000000,141720.5937500000,169962.6562500000,163470.7656250000,126391.0703125000,-42278.0039062500,80511.7734375000,151793.6250000000,,,
2.7399999956,21,158696.9687500000,141819.4375000000,170565.1250000000,164008.4062500000,126991.3203125000,-41845.6601562500,81067.5781250000,150520.7343750000,,,
2.7439999955,21,159932.4531250000,142248.9062500000,171792.6718750000,165158.9531250000,128244.5078125000,-40757.0820312500,82219.8046875000,148858.3593750000,,,
2.7479999955,21,160112.9062500000,142425.8750000000,171954.3281250000,165344.9531250000,128427.3750000000,-40507.0468750000,82384.1406250000,149110.6718750000,,,
2.7519999954,21,159008.2343750000,142119.9687500000,170844.6875000000,164315.8750000000,127308.8671875000,-41413.2851562500,81356.4531250000,150945.6562500000,,,
2.7559999956,21,158134.2656250000,141745.1406250000,169984.4531250000,163485.2500000000,126425.0312500000,-42233.1015625000,80548.8125000000,151825.0156250000,,,
2.7599999956,21,158708.7656250000,141829.1093750000,170573.2500000000,164015.3906250000,127009.8046875000,-41826.1328125000,81092.0156250000,150548.6875000000,,,
2.7639999955,21,159929.5781250000,142241.6718750000,171789.9062500000,165155.2656250000,128246.8671875000,-40759.5507812500,82223.1015625000,148855.2656250000,,,
2.7679999955,21,160109.9218750000,142412.1250000000,171951.0312500000,165341.1250000000,128425.5000000000,-40509.6210937500,82381.7265625000,149075.7968750000,,,
2.7719999955,21,159000.6718750000,142106.3281250000,170836.7343750000,164316.2500000000,127303.0234375000,-41404.8632812500,81357.6093750000,150908.2343750000,,,
2.7759999956,21,158117.9062500000,141732.3906250000,169969.4843750000,163474.7031250000,126412.5546875000,-42225.1093750000,80546.2421875000,151806.9375000000,,,
2.7799999956,21,158681.4375000000,141814.0937500000,170549.8593750000,163990.9843750000,126987.6484375000,-41828.1171875000,81077.6093750000,150552.0937500000,,,
2.7839999956,21,159909.3750000000,142231.6093750000,171774.0781250000,165140.3125000000,128232.2187500000,-40748.7421875000,82220.9843750000,148866.2187500000,,,
2.7879999955,21,160127.2031250000,142424.4531250000,171973.4687500000,165358.6406250000,128449.3437500000,-40471.3750000000,82418.7187500000,149086.3437500000,,,
2.7919999955,21,159013.0156250000,142109.5156250000,170855.2343750000,164327.6562500000,127321.4453125000,-41391.2929687500,81379.7890625000,150907.8281250000,,,
2.7959999954,21,158125.2500000000,141738.2187500000,169984.5625000000,163485.3906250000,126425.7812500000,-42222.7226562500,80557.5546875000,151828.6562500000,,,
2.7999999956,21,158693.6718750000,141827.4843750000,170568.2343750000,164003.5312500000,127005.2187500000,-41815.6992187500,81098.9609375000,150589.8593750000,,,
2.8039999956,21,159931.3437500000,142255.6406250000,171800.0156250000,165158.4375000000,128258.6093750000,-40726.1328125000,82253.4609375000,148899.8750000000,,,
2.8079999955,21,160129.0000000000,142430.8437500000,171976.8593750000,165363.7343750000,128454.8671875000,-40455.5234375000,82432.6875000000,149086.9375000000,,,
2.8119999955,21,159008.7812500000,142108.3125000000,170849.5781250000,164329.0781250000,127319.6484375000,-41372.5429687500,81390.3046875000,150893.9687500000,,,
2.8159999955,22,158113.2343750000,141729.8437500000,169966.8593750000,163485.6250000000,126410.7343750000,-42208.8281250000,80557.8828125000,151822.1250000000,,,
2.8199999954,22,158667.6250000000,141813.7968750000,170532.2187500000,163997.4687500000,126968.1250000000,-41816.1015625000,81074.1796875000,150598.3593750000,,,
2.8239999954,22,159905.2031250000,142236.1718750000,171763.4531250000,165149.0000000000,128220.4218750000,-40738.3867187500,82228.4921875000,148897.7343750000,,,
2.8279999953,22,160122.0312500000,142421.1093750000,171960.0625000000,165356.4843750000,128437.4062500000,-40454.6914062500,82423.3281250000,149075.5312500000,,,
2.8319999953,22,159017.1718750000,142108.2031250000,170848.9843750000,164327.8125000000,127318.4453125000,-41361.7343750000,81391.0000000000,150883.1562500000,,,
2.8359999952,22,158110.1875000000,141726.1250000000,169959.4843750000,163464.5156250000,126406.7109375000,-42209.4453125000,80555.7031250000,151826.1875000000,,,
2.8399999954,22,158640.1562500000,141791.4062500000,170507.0312500000,163947.4531250000,126948.7812500000,-41839.2734375000,81056.9296875000,150599.8281250000,,,
2.8439999954,22,159903.0781250000,142230.4843750000,171768.6406250000,165121.9531250000,128232.1640625000,-40731.6015625000,82235.0078125000,148900.9843750000,,,
2.8479999953,22,160143.4531250000,142426.2031250000,171990.9843750000,165362.5781250000,128474.4531250000,-40426.4726562500,82454.1718750000,149062.4531250000,,,
2.8519999953,22,159048.5468750000,142121.7656250000,170890.7812500000,164347.0937500000,127365.3828125000,-41317.4492187500,81433.1875000000,150869.8281250000,,,
2.8559999953,22,158134.8281250000,141739.0468750000,169994.3750000000,163481.7031250000,126443.8828125000,-42168.2226562500,80594.2265625000,151825.2343750000,,,
2.8599999954,22,158666.5000000000,141815.0625000000,170542.5937500000,163968.3125000000,126985.6328125000,-41791.1289062500,81101.9687500000,150627.2656250000,,,
2.8639999954,22,159891.4843750000,142224.7968750000,171761.9843750000,165115.1406250000,128226.0000000000,-40714.8398437500,82242.7890625000,148902.3437500000,,,
2.8679999954,22,160121.0937500000,142407.4531250000,171970.9531250000,165344.6406250000,128454.6015625000,-40413.0117187500,82447.7890625000,149036.4218750000,,,
2.8719999953,22,159036.7968750000,142114.9375000000,170879.2656250000,164344.7031250000,127353.1250000000,-41293.2031250000,81432.7109375000,150850.5625000000,,,
2.8759999953,22,158109.3281250000,141728.3125000000,169966.5625000000,163472.9062500000,126416.7109375000,-42162.6132812500,80574.4843750000,151822.6562500000,,,
2.8799999952,22,158618.4531250000,141789.5468750000,170493.5468750000,163936.3906250000,126937.2187500000,-41809.2070312500,81059.2109375000,150631.7812500000,,,
2.8839999954,22,159854.0781250000,142204.2812500000,171726.6093750000,165094.5000000000,128188.0468750000,-40734.4179687500,82206.9843750000,148901.0781250000,,,
2.8879999954,22,160111.7031250000,142398.4375000000,171963.5000000000,165344.5000000000,128442.8515625000,-40423.4453125000,82434.0312500000,149016.1562500000,,,
2.8919999953,22,159044.9375000000,142110.5937500000,170888.8906250000,164353.2656250000,127359.2968750000,-41295.7265625000,81438.7421875000,150822.3281250000,,,
2.8959999953,22,158111.9218750000,141723.1406250000,169969.1875000000,163465.1250000000,126415.5859375000,-42162.1601562500,80577.2187500000,151809.3750000000,,,
2.8999999953,22,158625.9218750000,141795.0312500000,170497.5625000000,163939.1875000000,126937.3281250000,-41803.4140625000,81066.0781250000,150645.5156250000,,,
2.9039999954,22,159882.9687500000,142228.7656250000,171749.0000000000,165117.7187500000,128208.5078125000,-40702.5820312500,82235.5781250000,148928.5468750000,,,
2.9079999954,22,160147.2187500000,142425.5000000000,171992.4687500000,165379.6093750000,128471.5000000000,-40378.3554687500,82470.2968750000,149031.4687500000,,,
2.9119999954,22,159067.5468750000,142127.8281250000,170906.1718750000,164376.7343750000,127376.2500000000,-41256.2421875000,81463.8750000000,150826.0312500000,,,
2.9159999953,22,158132.5781250000,141744.2812500000,169984.7187500000,163502.8906250000,126431.4140625000,-42123.2929687500,80600.6875000000,151835.0781250000,,,
2.9199999953,22,158638.4375000000,141812.7812500000,170508.0312500000,163970.4062500000,126949.2109375000,-41773.6953125000,81082.8437500000,150683.2031250000,,,
2.9239999952,22,159884.3281250000,142232.5000000000,171752.8593750000,165109.0625000000,128216.4218750000,-40689.4101562500,82248.7968750000,148949.5781250000,,,
2.9279999954,22,160160.3281250000,142428.4843750000,172010.5156250000,165377.5468750000,128493.6562500000,-40366.2304687500,82497.4921875000,149026.5625000000,,,
2.9319999954,22,159092.5468750000,142138.0781250000,170936.7812500000,164388.7812500000,127410.5234375000,-41231.8085937500,81500.0312500000,150819.6718750000,,,
2.9359999953,22,158155.6406250000,141760.8281250000,170014.4218750000,163504.9843750000,126462.2578125000,-42092.3125000000,80636.8984375000,151848.2656250000,,,
2.9399999953,22,158640.3750000000,141819.7812500000,170513.8906250000,163947.9843750000,126953.7734375000,-41760.0429687500,81096.0390625000,150707.4687500000,,,
2.9439999952,23,159891.2812500000,142240.5468750000,171761.6093750000,165120.1406250000,128221.9765625000,-40675.1953125000,82264.9140625000,148965.3281250000,,,
2.9479999952,23,160176.2656250000,142443.0781250000,172028.5625000000,165400.7812500000,128511.8437500000,-40339.3281250000,82525.7109375000,149035.3281250000,,,
2.9519999952,23,159096.7500000000,142143.3906250000,170941.9843750000,164386.8750000000,127421.3593750000,-41210.2148437500,81521.3046875000,150817.4687500000,,,
2.9559999951,23,158141.3437500000,141752.2500000000,170000.9843750000,163490.3750000000,126458.5000000000,-42088.8007812500,80641.2968750000,151849.2343750000,,,
2.9599999951,23,158608.7968750000,141805.3281250000,170483.4218750000,163916.2187500000,126934.7578125000,-41764.7109375000,81083.9140625000,150723.8125000000,,,
