Time:250Hz,Epoch,Channel 1,Channel 2,Channel 3,Channel 4,Channel 5,Channel 6,Channel 7,Channel 8,Event Id,Event Date,Event Duration
0.0000000000,0,150267.2343750000,150387.3437500000,176281.1250000000,169122.9843750000,159133.8750000000,160042.8281250000,64859.8203125000,177558.4062500000,,,
0.0040000000,0,150270.2656250000,150388.3125000000,176284.0000000000,169110.1562500000,159135.9062500000,160044.9062500000,64862.0468750000,177560.2031250000,,,
0.0079999999,0,150267.0312500000,150386.2031250000,176278.1250000000,169102.1406250000,159129.9375000000,160039.3593750000,64861.5898437500,177552.2343750000,,,
0.0119999999,0,150255.0625000000,150373.3281250000,176262.5468750000,169106.8906250000,159116.4687500000,160026.8125000000,64849.6796875000,177536.4062500000,,,
0.0159999998,0,150259.8437500000,150375.7968750000,176269.4062500000,169112.0625000000,159124.2656250000,160023.4062500000,64856.7070312500,177539.1406250000,,,
0.0199999998,0,150260.9843750000,150379.7656250000,176272.6250000000,169116.9687500000,159128.8906250000,160023.9062500000,64857.9960937500,177547.6718750000,,,
0.0240000000,0,150265.0156250000,150386.4687500000,176276.0937500000,169124.8125000000,159132.3750000000,160029.2968750000,64856.9492187500,177553.2187500000,,,
0.0279999999,0,150258.9843750000,150379.3906250000,176269.3906250000,169110.6406250000,159124.2500000000,160019.5156250000,64848.2304687500,177541.7187500000,,,
0.0319999999,0,150253.7187500000,150378.7187500000,176264.3125000000,169104.0468750000,159118.1250000000,160017.0156250000,64848.0195312500,177539.8593750000,,,
0.0359999998,0,150256.0000000000,150382.6093750000,176268.2500000000,169103.8125000000,159122.1250000000,160020.1875000000,64855.3671875000,177553.0312500000,,,
0.0399999998,0,150259.2968750000,150390.7812500000,176270.5312500000,169099.2500000000,159126.6250000000,160024.6093750000,64857.8867187500,177560.2500000000,,,
0.0440000000,0,150261.6562500000,150393.6562500000,176272.2812500000,169105.7187500000,159128.1093750000,160027.9062500000,64860.8671875000,177560.5937500000,,,
0.0480000000,0,150258.9843750000,150385.0625000000,176272.5937500000,169103.8593750000,159124.0000000000,160017.6875000000,64858.7460937500,177546.7343750000,,,
0.0519999999,0,150268.9843750000,150391.7187500000,176283.9531250000,169105.8125000000,159132.4531250000,160025.7343750000,64869.7695312500,177551.4843750000,,,
0.0559999999,0,150263.6406250000,150387.0781250000,176276.8125000000,169095.3593750000,159127.7343750000,160032.0156250000,64865.3984375000,177553.4375000000,,,
0.0599999998,0,150268.5781250000,150391.7187500000,176278.7968750000,169097.0937500000,159132.7500000000,160038.5312500000,64864.0039062500,177559.3437500000,,,
0.0639999998,0,150267.1093750000,150386.7343750000,176274.5625000000,169098.1718750000,159130.6562500000,160031.9062500000,64867.4648437500,177554.5625000000,,,
0.0680000000,0,150270.4062500000,150387.2656250000,176277.5625000000,169103.8906250000,159133.1562500000,160032.4375000000,64870.4687500000,177549.6562500000,,,
0.0719999999,0,150271.1875000000,150387.2500000000,176276.6250000000,169113.2812500000,159133.4375000000,160034.5312500000,64869.4492187500,177546.8593750000,,,
0.0759999999,0,150279.8750000000,150400.6875000000,176285.9531250000,169110.8906250000,159143.7968750000,160047.4843750000,64881.7070312500,177560.9531250000,,,
0.0799999998,0,150271.6718750000,150390.2500000000,176279.0312500000,169102.7343750000,159138.1875000000,160036.2031250000,64873.5000000000,177561.5625000000,,,
0.0839999998,0,150267.9843750000,150378.4687500000,176279.2812500000,169099.3750000000,159137.3906250000,160023.5156250000,64869.5273437500,177552.0156250000,,,
0.0880000000,0,150273.2187500000,150382.9218750000,176282.8281250000,169106.2500000000,159140.6093750000,160028.0625000000,64870.1992187500,177551.5625000000,,,
0.0919999999,0,150275.3125000000,150385.5468750000,176286.4218750000,169098.5781250000,159141.3906250000,160028.2031250000,64870.6562500000,177553.2187500000,,,
0.0959999999,0,150278.2343750000,150385.2031250000,176291.8593750000,169101.6562500000,159144.4218750000,160027.0156250000,64872.6132812500,177558.5937500000,,,
0.0999999999,0,150269.0937500000,150378.0468750000,176281.2656250000,169101.3125000000,159137.2187500000,160023.9375000000,64864.5664062500,177556.3125000000,,,
0.1039999998,0,150267.6093750000,150378.0625000000,176277.3437500000,169104.0000000000,159135.9687500000,160026.4062500000,64863.1718750000,177553.7656250000,,,
0.1079999998,0,150271.4843750000,150378.5000000000,176280.3281250000,169100.5312500000,159137.8750000000,160032.6562500000,64873.3359375000,177546.9531250000,,,
0.1120000000,0,150270.8593750000,150375.0937500000,176276.2500000000,169099.7343750000,159134.5781250000,160032.2500000000,64878.4062500000,177540.2187500000,,,
0.1159999999,0,150270.8593750000,150374.9531250000,176273.3593750000,169109.6562500000,159132.7500000000,160031.9531250000,64877.6289062500,177539.6718750000,,,
0.1199999999,0,150274.4218750000,150385.3437500000,176276.5781250000,169112.7187500000,159137.8750000000,160039.0312500000,64876.6914062500,177552.9062500000,,,
0.1239999998,0,150269.1406250000,150387.4843750000,176271.4687500000,169107.3750000000,159131.9687500000,160038.8750000000,64868.8593750000,177557.9218750000,,,
0.1279999998,1,150267.4531250000,150389.3593750000,176270.0468750000,169102.8906250000,159129.1562500000,160035.3906250000,64868.0546875000,177557.4531250000,,,
0.1319999998,1,150268.5625000000,150390.0000000000,176273.6406250000,169098.7031250000,159131.4843750000,160032.5156250000,64872.1562500000,177557.8125000000,,,
0.1359999997,1,150265.5000000000,150387.7500000000,176273.7343750000,169099.2187500000,159129.9531250000,160031.2343750000,64872.1289062500,177560.2500000000,,,
0.1399999997,1,150274.1093750000,150396.1250000000,176285.2812500000,169118.1562500000,159138.8125000000,160039.2031250000,64876.7187500000,177569.6718750000,,,
0.1439999996,1,150272.0937500000,150393.2812500000,176280.8281250000,169115.2031250000,159134.9218750000,160039.4687500000,64871.2187500000,177568.9375000000,,,
0.1479999996,1,150270.0312500000,150388.7187500000,176278.6875000000,169102.0156250000,159133.0156250000,160038.0781250000,64871.0859375000,177562.7656250000,,,
0.1519999998,1,150265.0625000000,150383.5625000000,176271.0156250000,169101.8437500000,159126.1718750000,160035.5781250000,64869.4492187500,177557.1718750000,,,
0.1559999997,1,150267.0468750000,150384.1093750000,176271.6562500000,169112.8125000000,159127.6250000000,160035.8437500000,64871.5390625000,177560.8125000000,,,
0.1599999997,1,150264.5781250000,150381.9843750000,176269.5937500000,169110.1562500000,159125.5312500000,160032.3593750000,64870.5234375000,177563.7343750000,,,
0.1639999996,1,150267.4843750000,150385.2343750000,176272.2187500000,169106.2812500000,159127.5468750000,160037.2187500000,64871.7539062500,177566.2656250000,,,
0.1679999996,1,150276.7031250000,150396.2812500000,176281.4843750000,169113.8593750000,159135.2343750000,160048.1250000000,64878.4609375000,177569.3437500000,,,
0.1719999998,1,150276.5937500000,150392.3125000000,176283.8125000000,169118.9687500000,159136.5000000000,160043.7812500000,64880.5781250000,177564.2968750000,,,
0.1759999997,1,150280.6562500000,150394.3750000000,176294.2812500000,169111.3125000000,159144.7031250000,160048.4531250000,64889.4296875000,177568.4531250000,,,
0.1799999997,1,150273.7031250000,150392.3125000000,176282.1718750000,169091.3593750000,159136.6562500000,160051.1093750000,64881.8125000000,177570.8906250000,,,
0.1839999997,1,150267.3750000000,150379.8593750000,176273.9375000000,169104.5781250000,159130.2187500000,160041.3437500000,64878.8632812500,177559.9843750000,,,
0.1879999996,1,150262.2031250000,150372.8437500000,176268.6093750000,169102.8750000000,159124.8125000000,160033.2500000000,64876.6914062500,177548.5781250000,,,
0.1919999996,1,150256.3281250000,150366.9687500000,176262.9218750000,169092.3750000000,159118.6718750000,160028.4218750000,64869.6093750000,177539.7343750000,,,
0.1959999998,1,150254.0937500000,150361.0625000000,176264.4218750000,169087.0468750000,159120.0000000000,160029.4375000000,64869.0742187500,177534.1250000000,,,
0.1999999997,1,150258.9062500000,150364.2031250000,176271.7968750000,169080.3906250000,159126.8750000000,160037.4218750000,64879.3710937500,177534.9843750000,,,
0.2039999997,1,150258.6250000000,150362.3281250000,176268.7343750000,169086.7968750000,159123.5781250000,160035.9062500000,64879.2929687500,177530.7656250000,,,
0.2079999996,1,150261.5468750000,150368.3281250000,176267.6406250000,169085.4375000000,159119.3593750000,160039.4375000000,64877.3085937500,177528.6875000000,,,
0.2119999996,1,150268.6406250000,150377.7500000000,176271.0468750000,169091.7343750000,159121.2187500000,160045.2343750000,64880.5546875000,177535.4062500000,,,
0.2159999998,1,150282.7968750000,150396.8750000000,176283.0312500000,169100.7187500000,159134.2031250000,160054.0000000000,64890.2890625000,177557.2968750000,,,
0.2199999997,1,150285.6406250000,150398.1093750000,176288.9375000000,169093.0468750000,159142.8281250000,160054.6250000000,64897.3710937500,177568.0625000000,,,
0.2239999997,1,150272.7343750000,150386.2500000000,176276.6250000000,169094.5468750000,159132.8593750000,160043.5781250000,64890.1289062500,177560.5468750000,,,
0.2279999997,1,150276.1718750000,150391.2656250000,176281.7187500000,169098.9843750000,159136.1562500000,160039.2343750000,64893.1328125000,177558.6875000000,,,
0.2319999996,1,150280.2031250000,150396.6250000000,176287.5625000000,169104.4531250000,159141.2031250000,160043.3281250000,64898.4179687500,177562.6093750000,,,
0.2359999996,1,150270.1406250000,150382.6250000000,176280.8593750000,169101.9062500000,159136.1875000000,160041.2187500000,64893.2382812500,177556.0937500000,,,
0.2399999998,1,150259.3281250000,150372.0937500000,176274.0781250000,169102.5156250000,159131.1093750000,160037.8281250000,64887.4453125000,177552.3906250000,,,
0.2439999997,1,150255.5156250000,150367.2812500000,176274.4843750000,169096.2968750000,159130.7656250000,160034.4843750000,64889.4843750000,177548.9843750000,,,
0.2479999997,1,150259.5156250000,150375.4062500000,176277.5312500000,169101.6406250000,159132.5312500000,160041.3437500000,64892.1132812500,177552.8437500000,,,
0.2519999996,1,150256.1093750000,150375.1250000000,176269.4062500000,169089.5156250000,159126.3125000000,160040.5625000000,64886.7773437500,177556.2500000000,,,
0.2559999996,2,150255.1093750000,150369.9687500000,176268.9843750000,169088.0937500000,159125.9843750000,160034.5000000000,64886.6132812500,177558.3437500000,,,
0.2599999995,2,150260.9375000000,150376.9687500000,176274.0156250000,169095.1718750000,159129.1562500000,160037.2187500000,64889.4843750000,177570.8750000000,,,
0.2639999995,2,150260.7031250000,150377.1562500000,176271.3906250000,169098.1718750000,159125.9062500000,160035.2500000000,64884.7656250000,177572.8281250000,,,
0.2679999995,2,150267.2187500000,150386.7343750000,176275.4687500000,169090.3437500000,159127.8125000000,160037.8281250000,64887.9023437500,177576.5781250000,,,
0.2719999994,2,150262.5468750000,150378.3593750000,176268.6562500000,169097.5000000000,159120.7500000000,160029.7031250000,64883.9335937500,177566.3125000000,,,
0.2759999994,2,150257.6406250000,150373.7968750000,176264.6875000000,169100.1562500000,159117.5312500000,160023.7187500000,64881.0351562500,177560.1718750000,,,
0.2799999996,2,150258.1250000000,150378.4375000000,176265.7031250000,169096.7500000000,159120.8906250000,160026.9687500000,64882.0000000000,177564.3750000000,,,
0.2839999995,2,150252.2812500000,150370.2656250000,176259.4531250000,169089.3437500000,159117.2500000000,160024.5781250000,64878.5937500000,177556.9531250000,,,
0.2879999995,2,150246.5625000000,150358.8437500000,176259.6250000000,169080.7343750000,159116.8906250000,160016.6406250000,64878.3281250000,177537.5781250000,,,
0.2919999994,2,150246.2656250000,150356.0000000000,176260.2343750000,169077.5156250000,159119.4375000000,160020.7500000000,64883.1015625000,177525.7500000000,,,
0.2959999994,2,150245.7812500000,150350.3281250000,176260.1093750000,169074.2500000000,159121.9062500000,160026.2187500000,64887.5000000000,177520.7968750000,,,
0.2999999996,2,150255.0625000000,150354.1718750000,176269.0625000000,169088.5937500000,159132.4218750000,160033.1093750000,64895.1992187500,177527.7656250000,,,
0.3039999995,2,150263.2968750000,150363.2343750000,176277.8906250000,169085.7500000000,159141.6562500000,160036.2812500000,64904.7460937500,177532.7031250000,,,
0.3079999995,2,150274.5625000000,150381.6562500000,176290.2968750000,169081.2500000000,159150.7656250000,160048.4843750000,64915.3125000000,177541.5781250000,,,
0.3119999995,2,150275.9062500000,150386.5156250000,176287.4687500000,169094.6093750000,159145.2187500000,160047.8906250000,64910.9687500000,177544.5312500000,,,
0.3159999994,2,150275.6875000000,150381.6406250000,176292.3125000000,169099.7812500000,159145.2187500000,160040.6250000000,64909.8945312500,177548.8750000000,,,
0.3199999994,2,150270.1562500000,150383.5468750000,176283.0625000000,169092.4843750000,159134.4687500000,160036.4375000000,64896.6992187500,177556.6093750000,,,
0.3239999996,2,150268.2031250000,150389.0156250000,176274.2031250000,169096.7187500000,159127.1093750000,160041.6093750000,64890.9882812500,177564.3593750000,,,
0.3279999995,2,150267.9843750000,150396.2031250000,176270.7968750000,169098.8125000000,159125.3125000000,160049.3437500000,64898.7109375000,177567.0312500000,,,
0.3319999995,2,150265.4687500000,150390.8593750000,176270.4062500000,169098.6562500000,159126.3906250000,160047.7343750000,64900.2421875000,177563.6562500000,,,
0.3359999994,2,150272.4687500000,150393.4375000000,176277.9687500000,169107.5937500000,159137.0625000000,160052.8593750000,64906.5976562500,177568.1093750000,,,
0.3399999994,2,150273.0312500000,150392.7968750000,176280.0781250000,169098.8750000000,159141.3593750000,160055.0312500000,64908.6875000000,177575.8125000000,,,
0.3439999996,2,150268.1562500000,150393.3281250000,176275.8437500000,169081.9531250000,159136.4687500000,160056.2656250000,64904.5039062500,177578.6562500000,,,
0.3479999995,2,150271.9687500000,150396.3125000000,176283.1093750000,169081.6562500000,159141.0156250000,160056.4687500000,64910.2968750000,177578.5468750000,,,
0.3519999995,2,150267.9375000000,150389.5468750000,176275.4218750000,169094.5312500000,159133.5781250000,160048.3750000000,64903.9960937500,177573.0468750000,,,
0.3559999994,2,150279.5000000000,150403.0937500000,176283.5781250000,169102.4375000000,159140.2343750000,160057.7812500000,64909.1171875000,177590.0781250000,,,
0.3599999994,2,150268.3125000000,150385.0156250000,176275.2031250000,169094.1250000000,159131.8125000000,160045.3906250000,64898.4414062500,177584.2812500000,,,
0.3639999994,2,150251.8437500000,150367.8281250000,176258.2500000000,169085.9375000000,159115.5000000000,160030.7500000000,64882.6445312500,177568.8281250000,,,
0.3679999996,2,150249.1875000000,150365.8125000000,176255.1093750000,169083.7500000000,159113.4375000000,160033.7343750000,64883.4492187500,177561.8125000000,,,
0.3719999995,2,150259.2500000000,150378.1250000000,176263.5156250000,169082.4531250000,159122.7968750000,160050.1406250000,64893.6171875000,177566.3437500000,,,
0.3759999995,2,150270.0000000000,150385.7187500000,176278.8281250000,169073.0625000000,159137.8437500000,160058.6250000000,64907.4023437500,177573.2343750000,,,
0.3799999994,2,150269.0625000000,150382.2812500000,176281.0781250000,169075.5937500000,159140.5781250000,160060.5156250000,64908.8789062500,177576.2343750000,,,
0.3839999994,3,150266.2500000000,150376.8281250000,176277.8906250000,169088.5156250000,159137.4375000000,160060.3906250000,64906.0078125000,177570.9531250000,,,
0.3879999993,3,150266.0937500000,150373.2343750000,176275.2812500000,169093.7968750000,159133.0468750000,160055.7500000000,64900.7773437500,177558.5937500000,,,
0.3919999993,3,150274.2187500000,150377.7968750000,176281.0781250000,169097.8593750000,159136.7187500000,160057.0312500000,64904.1289062500,177552.9218750000,,,
0.3959999993,3,150268.3125000000,150369.8125000000,176273.1406250000,169100.1562500000,159129.4531250000,160051.5625000000,64897.2109375000,177548.7656250000,,,
0.3999999992,3,150272.2343750000,150375.8750000000,176277.0468750000,169095.4375000000,159133.5468750000,160053.6093750000,64898.7929687500,177552.7968750000,,,
0.4039999992,3,150277.9375000000,150378.8281250000,176284.4062500000,169095.0156250000,159140.2031250000,160054.6250000000,64905.7656250000,177555.1875000000,,,
0.4079999994,3,150286.1250000000,150389.8437500000,176293.0468750000,169090.5312500000,159147.5781250000,160064.5468750000,64913.8945312500,177559.8281250000,,,
0.4119999993,3,150285.2187500000,150393.4375000000,176289.5312500000,169087.9843750000,159144.5468750000,160065.2500000000,64911.7734375000,177558.0781250000,,,
0.4159999993,3,150277.6406250000,150384.1562500000,176284.6718750000,169093.6093750000,159141.0937500000,160053.8125000000,64904.7734375000,177553.5468750000,,,
0.4199999992,3,150284.7343750000,150392.7968750000,176293.1250000000,169106.2500000000,159150.2656250000,160059.0000000000,64913.3281250000,177563.0468750000,,,
0.4239999992,3,150280.1718750000,150391.6093750000,176287.4375000000,169103.6250000000,159144.7656250000,160055.1875000000,64912.5234375000,177566.7656250000,,,
0.4279999994,3,150282.5625000000,150395.5781250000,176285.0937500000,169100.9687500000,159141.6718750000,160053.8906250000,64910.2187500000,177566.5781250000,,,
0.4319999993,3,150291.0781250000,150402.6406250000,176294.5156250000,169107.7031250000,159149.8593750000,160058.6250000000,64920.4921875000,177572.1875000000,,,
0.4359999993,3,150287.1093750000,150400.3906250000,176291.3437500000,169105.2500000000,159148.5156250000,160056.4218750000,64920.1953125000,177576.9531250000,,,
0.4399999992,3,150287.1718750000,150403.2343750000,176290.8437500000,169104.5625000000,159150.2812500000,160058.2968750000,64922.4218750000,177584.5000000000,,,
0.4439999992,3,150277.5937500000,150393.5468750000,176282.1250000000,169090.7500000000,159141.2812500000,160049.5781250000,64915.9570312500,177580.2343750000,,,
0.4479999992,3,150286.5312500000,150400.1406250000,176295.7500000000,169090.5312500000,159151.0625000000,160052.9843750000,64926.0429687500,177580.5781250000,,,
0.4519999993,3,150289.7968750000,150399.9062500000,176300.5468750000,169101.5468750000,159155.5937500000,160053.7656250000,64931.1679687500,177577.9062500000,,,
0.4559999993,3,150280.0625000000,150397.0625000000,176286.2343750000,169104.6718750000,159144.6250000000,160051.8281250000,64919.4179687500,177581.7812500000,,,
0.4599999993,3,150271.9375000000,150389.0468750000,176277.4218750000,169105.6875000000,159138.5156250000,160045.0937500000,64911.9609375000,177582.3437500000,,,
0.4639999992,3,150272.7656250000,150386.8125000000,176280.8593750000,169096.7031250000,159143.4531250000,160047.7500000000,64918.3984375000,177582.6250000000,,,
0.4679999992,3,150272.9843750000,150386.3281250000,176280.1875000000,169093.7968750000,159142.2187500000,160051.4375000000,64918.3437500000,177578.4062500000,,,
0.4719999994,3,150282.0156250000,150396.7343750000,176287.6250000000,169105.0156250000,159147.6562500000,160056.3906250000,64923.1992187500,177580.0937500000,,,
0.4759999993,3,150295.4375000000,150405.5312500000,176305.0625000000,169106.2812500000,159164.6093750000,160066.3125000000,64936.8515625000,177593.8593750000,,,
0.4799999993,3,150274.6093750000,150376.2968750000,176286.1718750000,169092.7031250000,159149.2500000000,160050.5468750000,64919.1250000000,177578.4062500000,,,
0.4839999992,3,150266.5156250000,150363.1562500000,176278.2031250000,169071.7500000000,159143.7187500000,160044.2187500000,64915.4492187500,177564.8906250000,,,
0.4879999992,3,150268.3125000000,150364.7187500000,176279.2031250000,169063.2031250000,159144.7968750000,160046.4687500000,64917.8906250000,177559.6562500000,,,
0.4919999992,3,150271.9687500000,150368.7812500000,176281.9062500000,169072.5312500000,159146.7187500000,160047.5625000000,64922.9570312500,177561.5937500000,,,
0.4959999993,3,150270.8593750000,150367.9375000000,176282.7187500000,169075.0312500000,159144.8906250000,160038.1250000000,64920.7343750000,177562.9531250000,,,
0.4999999993,3,150266.8906250000,150369.1406250000,176273.4843750000,169080.2812500000,159137.5156250000,160034.7812500000,64912.9257812500,177567.1093750000,,,
0.5039999993,3,150268.8437500000,150377.0000000000,176272.8750000000,169080.7187500000,159138.8593750000,160040.2968750000,64917.3242187500,177570.4375000000,,,
0.5079999992,3,150274.8593750000,150386.4062500000,176279.4218750000,169080.8281250000,159145.3593750000,160049.7187500000,64926.1250000000,177573.9531250000,,,
0.5119999992,4,150279.7187500000,150397.7812500000,176283.6250000000,169083.1250000000,159149.0312500000,160054.7500000000,64929.6914062500,177578.3593750000,,,
0.5159999991,4,150274.7500000000,150393.3281250000,176273.9687500000,169089.7031250000,159141.6718750000,160050.5156250000,64920.7343750000,177579.1093750000,,,
0.5199999991,4,150269.7812500000,150388.1250000000,176270.3281250000,169087.9218750000,159138.5468750000,160045.8593750000,64915.3398437500,177578.9375000000,,,
0.5239999990,4,150270.5937500000,150389.7031250000,176275.7187500000,169079.6718750000,159143.0156250000,160052.4843750000,64919.1250000000,177579.6406250000,,,
0.5279999990,4,150279.2031250000,150402.3125000000,176283.3906250000,169087.5781250000,159148.6562500000,160066.4218750000,64925.1328125000,177584.6875000000,,,
0.5319999990,4,150277.6406250000,150402.0468750000,176280.9375000000,169082.3281250000,159146.0312500000,160067.3906250000,64924.7304687500,177582.3281250000,,,
0.5359999991,4,150272.3593750000,150399.0781250000,176276.4062500000,169086.1562500000,159140.1250000000,160061.0000000000,64921.2968750000,177582.8906250000,,,
0.5399999991,4,150269.1250000000,150390.6250000000,176277.7187500000,169088.5781250000,159139.9062500000,160058.6718750000,64927.4375000000,177582.1875000000,,,
0.5439999991,4,150259.3281250000,150379.6250000000,176265.5781250000,169084.4375000000,159127.0312500000,160048.1250000000,64916.7617187500,177572.3437500000,,,
0.5479999990,4,150261.8750000000,150384.0468750000,176268.3593750000,169085.4843750000,159126.6875000000,160055.6406250000,64918.0507812500,177569.8281250000,,,
0.5519999990,4,150262.8437500000,150385.5312500000,176266.2500000000,169080.2031250000,159126.0156250000,160058.6250000000,64919.6601562500,177568.5156250000,,,
0.5559999992,4,150261.3593750000,150378.2812500000,176263.3437500000,169072.7187500000,159125.8593750000,160057.4687500000,64915.2070312500,177568.0625000000,,,
0.5599999991,4,150267.3281250000,150380.1875000000,176268.5468750000,169078.9687500000,159133.8750000000,160063.7656250000,64922.6640625000,177576.8593750000,,,
0.5639999991,4,150277.1093750000,150388.6562500000,176279.4687500000,169087.3593750000,159145.8906250000,160069.2343750000,64935.4843750000,177586.7031250000,,,
0.5679999990,4,150277.4843750000,150389.7968750000,176280.2656250000,169082.2187500000,159147.3125000000,160070.6406250000,64937.9804687500,177584.6875000000,,,
0.5719999990,4,150278.3750000000,150393.8437500000,176281.4531250000,169088.9218750000,159146.0312500000,160070.6875000000,64936.8789062500,177584.3437500000,,,
0.5759999990,4,150276.2187500000,150386.0625000000,176282.0625000000,169086.6406250000,159145.5156250000,160067.0468750000,64935.6445312500,177584.9062500000,,,
0.5799999991,4,150264.8593750000,150366.8906250000,176278.7656250000,169088.2500000000,159141.4062500000,160052.8281250000,64929.3945312500,177574.1718750000,,,
0.5839999991,4,150267.5156250000,150374.9843750000,176280.8125000000,169093.3750000000,159143.2656250000,160054.9687500000,64930.4687500000,177576.0156250000,,,
0.5879999991,4,150263.8593750000,150374.8281250000,176273.5937500000,169089.2656250000,159135.2187500000,160051.9375000000,64923.5468750000,177572.8593750000,,,
0.5919999990,4,150256.0625000000,150365.3750000000,176267.8593750000,169081.1406250000,159124.9687500000,160046.1250000000,64913.6523437500,177561.2187500000,,,
0.5959999990,4,150253.1875000000,150360.9531250000,176265.8125000000,169082.2343750000,159120.5625000000,160046.8906250000,64911.8281250000,177557.4375000000,,,
0.5999999992,4,150248.8906250000,150356.7500000000,176260.7500000000,169082.2343750000,159114.9843750000,160040.4843750000,64907.0000000000,177556.9218750000,,,
0.6039999991,4,150252.7500000000,150364.4687500000,176261.2500000000,169082.8125000000,159116.9531250000,160040.5625000000,64909.1718750000,177562.4531250000,,,
0.6079999991,4,150255.5781250000,150371.2500000000,176259.2656250000,169080.3437500000,159116.8437500000,160043.3906250000,64911.1562500000,177564.9218750000,,,
0.6119999990,4,150263.7343750000,150383.7812500000,176265.7812500000,169087.4218750000,159124.4843750000,160053.9531250000,64919.6875000000,177573.9218750000,,,
0.6159999990,4,150271.6718750000,150392.6093750000,176275.6250000000,169093.7500000000,159134.7656250000,160059.2656250000,64928.4023437500,177585.9531250000,,,
0.6199999989,4,150272.1562500000,150394.5937500000,176276.9218750000,169097.2343750000,159138.0312500000,160062.3281250000,64928.8320312500,177596.5625000000,,,
0.6239999991,4,150270.3281250000,150394.1875000000,176276.4687500000,169089.8125000000,159136.7187500000,160064.3593750000,64924.1914062500,177595.4687500000,,,
0.6279999991,4,150260.2656250000,150383.0000000000,176268.0156250000,169072.4531250000,159126.8437500000,160057.2500000000,64914.6718750000,177579.9687500000,,,
0.6319999991,4,150262.0312500000,150383.1406250000,176267.9062500000,169083.2343750000,159126.4687500000,160056.1250000000,64916.5195312500,177572.7812500000,,,
0.6359999990,4,150254.5312500000,150371.1250000000,176259.9218750000,169086.3750000000,159118.6875000000,160044.7187500000,64910.4609375000,177559.7656250000,,,
0.6399999990,5,150250.9531250000,150368.1406250000,176259.0625000000,169078.9687500000,159118.5781250000,160045.8750000000,64912.7929687500,177560.7656250000,,,
0.6439999989,5,150258.6875000000,150377.5312500000,176263.1406250000,169104.8281250000,159122.7500000000,160057.9687500000,64921.0546875000,177567.6718750000,,,
0.6479999989,5,150266.9687500000,150389.1406250000,176265.7031250000,169112.2343750000,159125.2968750000,160071.5937500000,64927.4648437500,177572.7968750000,,,
0.6519999988,5,150260.7500000000,150380.4531250000,176261.6250000000,169081.5468750000,159122.4218750000,160068.8593750000,64930.4960937500,177565.1093750000,,,
0.6559999988,5,150268.2656250000,150389.5156250000,176273.2968750000,169068.2187500000,159131.7500000000,160074.4218750000,64938.7578125000,177576.8593750000,,,
0.6599999988,5,150247.5781250000,150363.1250000000,176252.8281250000,169065.3906250000,159115.2656250000,160061.8125000000,64925.1054687500,177564.2187500000,,,
0.6639999989,5,150241.7656250000,150359.2343750000,176246.7187500000,169066.6875000000,159111.3437500000,160062.6093750000,64920.5195312500,177560.1093750000,,,
0.6679999989,5,150251.5000000000,150366.6406250000,176259.8906250000,169071.5625000000,159122.0468750000,160069.5312500000,64927.1171875000,177561.7031250000,,,
0.6719999989,5,150264.2968750000,150376.9218750000,176273.6250000000,169073.9062500000,159132.7812500000,160075.8125000000,64935.8593750000,177562.8281250000,,,
0.6759999988,5,150257.9531250000,150365.3593750000,176269.2968750000,169082.1406250000,159127.5937500000,160061.8593750000,64931.3007812500,177555.6875000000,33029,0.6788878338,0.0000000000
0.6799999988,5,150257.8593750000,150365.4843750000,176270.4531250000,169085.5625000000,159128.7968750000,160060.9843750000,64931.7812500000,177559.5781250000,,,
0.6839999990,5,150269.5937500000,150381.3906250000,176278.5781250000,169082.9375000000,159137.0312500000,160072.7500000000,64939.6406250000,177575.3750000000,,,
0.6879999989,5,150265.7656250000,150378.0156250000,176269.2812500000,169085.1718750000,159128.7812500000,160068.2187500000,64937.6054687500,177571.7343750000,,,
0.6919999989,5,150261.6406250000,150372.7812500000,176265.7343750000,169089.5312500000,159124.9687500000,160060.3125000000,64938.1132812500,177565.5312500000,,,
0.6959999988,5,150258.4687500000,150370.2656250000,176264.8750000000,169082.6250000000,159124.7343750000,160056.3593750000,64937.7382812500,177564.5625000000,,,
0.6999999988,5,150256.0625000000,150370.8593750000,176260.1875000000,169076.4687500000,159122.3125000000,160054.2500000000,64931.8085937500,177571.4062500000,,,
0.7039999987,5,150252.2187500000,150367.3906250000,176258.3281250000,169073.0625000000,159120.5625000000,160050.4687500000,64928.5390625000,177570.6562500000,,,
0.7079999989,5,150255.9218750000,150371.9218750000,176262.5468750000,169078.5937500000,159123.9218750000,160050.3281250000,64934.1718750000,177570.3125000000,,,
0.7119999989,5,150260.7500000000,150379.8593750000,176265.2187500000,169077.6875000000,159126.6250000000,160055.1250000000,64939.4257812500,177573.1562500000,,,
0.7159999989,5,150263.9218750000,150385.3437500000,176266.1093750000,169082.4062500000,159127.5937500000,160057.2500000000,64939.6132812500,177582.0781250000,,,
0.7199999988,5,150259.9687500000,150380.5937500000,176261.3437500000,169084.0156250000,159122.0156250000,160049.2656250000,64934.4648437500,177586.3750000000,,,
0.7239999988,5,150257.2343750000,150380.7187500000,176259.5156250000,169079.9375000000,159118.1093750000,160051.7500000000,64930.8984375000,177585.4687500000,,,
0.7279999990,5,150255.1093750000,150371.0625000000,176260.8750000000,169079.6875000000,159118.6093750000,160048.1875000000,64934.8945312500,177571.7343750000,,,
0.7319999989,5,150255.7812500000,150366.9687500000,176263.6718750000,169077.7343750000,159120.9531250000,160044.1406250000,64939.8828125000,177563.8437500000,,,
0.7359999989,5,150255.9218750000,150362.3437500000,176266.6250000000,169080.6875000000,159124.2656250000,160041.7187500000,64942.8593750000,177562.9375000000,,,
0.7399999988,5,150254.9843750000,150365.7656250000,176263.0781250000,169079.9375000000,159122.6875000000,160044.3437500000,64941.1171875000,177568.7812500000,,,
0.7439999988,5,150251.8906250000,150365.8437500000,176256.5156250000,169080.3437500000,159116.9531250000,160041.3750000000,64931.8085937500,177571.1406250000,,,
0.7479999987,5,150259.4843750000,150374.6093750000,176262.5625000000,169088.2500000000,159122.5312500000,160046.7968750000,64936.5312500000,177572.1250000000,,,
0.7519999989,5,150257.4843750000,150366.0781250000,176262.5937500000,169092.4687500000,159120.4375000000,160040.5937500000,64934.3320312500,177557.2968750000,,,
0.7559999989,5,150254.4531250000,150362.2500000000,176260.3906250000,169085.2656250000,159117.8593750000,160036.9687500000,64929.2070312500,177552.5000000000,,,
0.7599999988,5,150251.4687500000,150360.3125000000,176258.9218750000,169067.3593750000,159118.0000000000,160039.8125000000,64929.1562500000,177555.6406250000,,,
0.7639999988,5,150252.6718750000,150361.1718750000,176261.0937500000,169070.8750000000,159120.0312500000,160044.4375000000,64930.4140625000,177558.5312500000,,,
0.7679999988,6,150252.6250000000,150359.6406250000,176260.3437500000,169069.0156250000,159117.6250000000,160040.5468750000,64928.0000000000,177552.0625000000,,,
0.7719999987,6,150257.2343750000,150363.0156250000,176265.8750000000,169074.7031250000,159121.5625000000,160045.7500000000,64934.6796875000,177550.4375000000,,,
0.7759999987,6,150262.6562500000,150370.1250000000,176272.5937500000,169083.0156250000,159129.4687500000,160052.4218750000,64942.5117187500,177558.8593750000,,,
0.7799999986,6,150259.0625000000,150366.7500000000,176271.1875000000,169080.2500000000,159130.4375000000,160048.1250000000,64941.6796875000,177563.8906250000,,,
0.7839999986,6,150255.5937500000,150366.1093750000,176268.4687500000,169079.4218750000,159128.4531250000,160048.3437500000,64939.1328125000,177563.3593750000,,,
0.7879999985,6,150253.1093750000,150365.0312500000,176265.1718750000,169079.5937500000,159125.0468750000,160047.3750000000,64938.1132812500,177557.1875000000,,,
0.7919999987,6,150252.7500000000,150368.6250000000,176263.9843750000,169074.5156250000,159124.0781250000,160052.6406250000,64941.5195312500,177558.2656250000,,,
0.7959999987,6,150253.7187500000,150373.2343750000,176262.9531250000,169075.4531250000,159124.6406250000,160059.9375000000,64943.2890625000,177566.2812500000,,,
0.7999999986,6,150255.2031250000,150375.4375000000,176262.1875000000,169074.0937500000,159126.1562500000,160065.0625000000,64941.6015625000,177575.7187500000,,,
0.8039999986,6,150254.4531250000,150375.4687500000,176258.4687500000,169071.5625000000,159123.7343750000,160064.7656250000,64938.4609375000,177576.6875000000,,,
0.8079999986,6,150256.1406250000,150378.7187500000,176256.8593750000,169068.6718750000,159121.5937500000,160063.9062500000,64938.0312500000,177575.2968750000,,,
0.8119999988,6,150263.7343750000,150382.2812500000,176264.5625000000,169071.4375000000,159127.0000000000,160063.5468750000,64941.6796875000,177575.2500000000,,,
0.8159999987,6,150270.8593750000,150387.4375000000,176276.2031250000,169078.7812500000,159137.4218750000,160067.4687500000,64949.1640625000,177583.1250000000,,,
0.8199999987,6,150268.5312500000,150386.3593750000,176274.3750000000,169075.8281250000,159137.0312500000,160061.6718750000,64946.7226562500,177586.9687500000,,,
0.8239999986,6,150251.0625000000,150367.7968750000,176256.3437500000,169061.8906250000,159120.0000000000,160043.8437500000,64930.2812500000,177571.7812500000,,,
0.8279999986,6,150249.6406250000,150369.9687500000,176255.7812500000,169073.2812500000,159118.0781250000,160048.9843750000,64931.8632812500,177568.0625000000,,,
0.8319999985,6,150251.4687500000,150374.4531250000,176258.0156250000,169081.5937500000,159118.6875000000,160051.6250000000,64934.3867187500,177568.9062500000,,,
0.8359999987,6,150253.3750000000,150373.0000000000,176262.4843750000,169084.4218750000,159122.8437500000,160051.8125000000,64936.9335937500,177569.2656250000,,,
0.8399999987,6,150254.8281250000,150370.3750000000,176264.5000000000,169097.3125000000,159124.8281250000,160051.0781250000,64935.7265625000,177571.3593750000,,,
0.8439999986,6,150257.9375000000,150374.2343750000,176267.9375000000,169081.7031250000,159127.7812500000,160052.5625000000,64935.5117187500,177573.5781250000,,,
0.8479999986,6,150252.5156250000,150365.7656250000,176260.7187500000,169068.4843750000,159120.5156250000,160044.4531250000,64926.2578125000,177562.0156250000,,,
0.8519999986,6,150251.9531250000,150365.8593750000,176254.5312500000,169063.7031250000,159115.9062500000,160040.3593750000,64921.8593750000,177555.9843750000,,,
0.8559999987,6,150253.9062500000,150368.8437500000,176256.4218750000,169074.5937500000,159118.0468750000,160042.1250000000,64920.6250000000,177561.6406250000,,,
0.8599999987,6,150252.7343750000,150368.2500000000,176256.6718750000,169085.9687500000,159118.0156250000,160046.8437500000,64920.3320312500,177566.8437500000,,,
0.8639999987,6,150227.9687500000,150344.1406250000,176229.8125000000,169064.1875000000,159091.4687500000,160023.1875000000,64894.5273437500,177547.6718750000,,,
0.8679999986,6,150224.9218750000,150339.3437500000,176228.5625000000,169063.8750000000,159088.4062500000,160012.5312500000,64892.5156250000,177536.9375000000,,,
0.8719999986,6,150229.2812500000,150345.0468750000,176235.9687500000,169060.6250000000,159093.9375000000,160016.4062500000,64899.9726562500,177538.6093750000,,,
0.8759999985,6,150241.3593750000,150360.6875000000,176249.6093750000,169076.0000000000,159106.4375000000,160029.1406250000,64910.7539062500,177551.8750000000,,,
0.8799999987,6,150248.3593750000,150364.5000000000,176257.4687500000,169085.0781250000,159115.1562500000,160031.4218750000,64918.9335937500,177562.9531250000,,,
0.8839999987,6,150250.0000000000,150362.5937500000,176257.5312500000,169087.9218750000,159116.7343750000,160028.2812500000,64919.8750000000,177566.7656250000,,,
0.8879999986,6,150257.8281250000,150369.9218750000,176261.7187500000,169088.5781250000,159122.2656250000,160032.4375000000,64923.9257812500,177569.7187500000,,,
0.8919999986,6,150264.3125000000,150377.6406250000,176264.3125000000,169089.8593750000,159125.0468750000,160034.7968750000,64921.8046875000,177574.1406250000,,,
0.8959999986,7,150267.9687500000,150379.8125000000,176268.7343750000,169089.8906250000,159129.7968750000,160045.9531250000,64924.1406250000,177580.8281250000,,,
0.8999999985,7,150266.0937500000,150381.3750000000,176268.1718750000,169080.3437500000,159129.2656250000,160050.6718750000,64923.7617187500,177585.8593750000,,,
0.9039999985,7,150260.7500000000,150374.2656250000,176265.5000000000,169080.2500000000,159125.2343750000,160043.9531250000,64918.6679687500,177581.2031250000,,,
0.9079999984,7,150272.6875000000,150392.2656250000,176281.3750000000,169073.8437500000,159137.5781250000,160052.0000000000,64931.2187500000,177588.2812500000,,,
0.9119999984,7,150266.8593750000,150383.3281250000,176278.5625000000,169075.5625000000,159133.9843750000,160047.6250000000,64932.1328125000,177579.5312500000,,,
0.9159999983,7,150253.7812500000,150367.7187500000,176265.7656250000,169084.3593750000,159122.2343750000,160038.7500000000,64922.6914062500,177564.0781250000,,,
0.9199999985,7,150242.9687500000,150359.0468750000,176253.8281250000,169074.3906250000,159113.5156250000,160030.9687500000,64912.9804687500,177558.8750000000,,,
0.9239999985,7,150236.2343750000,150351.0625000000,176244.5937500000,169063.0937500000,159107.5000000000,160023.2343750000,64905.8984375000,177548.2812500000,,,
0.9279999984,7,150248.9531250000,150363.6875000000,176257.4531250000,169067.3281250000,159118.3750000000,160028.2812500000,64914.1328125000,177550.3750000000,,,
0.9319999984,7,150259.0000000000,150372.7812500000,176267.1250000000,169073.8125000000,159125.2968750000,160032.1718750000,64916.6835937500,177550.9218750000,,,
0.9359999984,7,150260.7968750000,150373.3437500000,176270.2343750000,169077.6562500000,159125.7656250000,160037.8906250000,64914.9375000000,177551.9062500000,,,
0.9399999985,7,150257.6093750000,150373.9375000000,176268.1250000000,169074.3593750000,159124.8906250000,160045.4687500000,64915.1250000000,177558.8750000000,,,
0.9439999985,7,150254.4531250000,150371.3906250000,176264.8281250000,169067.1093750000,159122.6406250000,160044.2968750000,64914.2148437500,177562.0937500000,,,
0.9479999985,7,150258.2031250000,150374.9531250000,176267.7968750000,169068.5625000000,159124.3281250000,160043.3906250000,64916.7109375000,177563.3125000000,,,
0.9519999984,7,150254.0937500000,150374.4687500000,176262.5625000000,169065.0781250000,159118.2656250000,160044.2968750000,64912.7109375000,177560.7031250000,,,
0.9559999984,7,150253.5937500000,150380.2343750000,176261.7656250000,169062.2343750000,159117.5625000000,160047.5156250000,64910.7812500000,177564.5156250000,,,
0.9599999983,7,150259.2968750000,150380.8593750000,176273.0000000000,169066.6250000000,159127.6718750000,160047.4687500000,64911.4804687500,177572.2968750000,,,
0.9639999985,7,150261.0937500000,150377.4531250000,176275.3437500000,169080.2343750000,159132.9375000000,160041.6406250000,64907.0546875000,177574.5000000000,,,
0.9679999985,7,150264.2031250000,150383.2500000000,176276.2968750000,169083.4687500000,159134.4687500000,160043.1406250000,64922.6093750000,177575.0000000000,,,
0.9719999984,7,150263.8125000000,150385.6875000000,176273.4531250000,169079.2656250000,159131.7031250000,160049.8750000000,64923.7890625000,177575.8906250000,,,
0.9759999984,7,150252.8437500000,150373.4843750000,176259.7343750000,169072.2343750000,159120.5625000000,160042.4218750000,64911.3437500000,177572.2656250000,,,
0.9799999984,7,150252.5156250000,150372.7656250000,176258.5937500000,169072.5000000000,159120.0937500000,160038.2031250000,64906.2734375000,177577.6250000000,,,
0.9839999985,7,150249.6718750000,150373.3437500000,176254.4218750000,169074.0312500000,159115.5312500000,160034.7812500000,64897.6914062500,177583.2031250000,,,
0.9879999985,7,150248.3281250000,150373.1875000000,176253.1875000000,169065.2031250000,159112.8437500000,160035.2812500000,64896.8593750000,177579.6718750000,,,
0.9919999985,7,150253.9843750000,150383.5937500000,176255.7812500000,169069.8437500000,159114.1093750000,160042.8281250000,64899.4609375000,177582.8281250000,,,
0.9959999984,7,150252.5468750000,150376.7031250000,176255.5937500000,169074.5156250000,159112.0937500000,160036.2812500000,64895.4140625000,177579.1875000000,,,
0.9999999984,7,150248.4062500000,150367.7656250000,176252.1562500000,169079.4531250000,159110.6406250000,160029.1718750000,64889.7265625000,177576.5000000000,,,
1.0039999983,7,150240.2031250000,150359.7187500000,176243.6562500000,169072.2968750000,159103.8125000000,160024.7656250000,64885.7851562500,177566.9062500000,,,
1.0079999985,7,150238.7500000000,150359.6718750000,176243.0156250000,169066.3437500000,159102.2031250000,160028.2812500000,64886.3750000000,177560.2187500000,,,
1.0119999985,7,150244.2343750000,150364.9531250000,176248.1875000000,169070.3125000000,159106.4687500000,160029.4062500000,64888.2773437500,177556.2812500000,,,
1.0159999984,7,150246.5312500000,150367.0468750000,176251.9531250000,169065.4218750000,159109.9531250000,160023.1875000000,64888.0898437500,177555.9843750000,,,
1.0199999984,7,150246.6406250000,150363.2031250000,176256.8281250000,169069.3906250000,159113.6250000000,160015.8906250000,64886.3476562500,177552.9531250000,,,
1.0239999983,8,150248.7031250000,150365.7031250000,176254.4375000000,169088.5937500000,159113.0312500000,160017.9843750000,64882.0546875000,177552.8125000000,,,
1.0279999983,8,150252.0625000000,150371.3593750000,176254.1250000000,169090.5625000000,159111.6406250000,160019.9375000000,64878.3789062500,177550.2656250000,,,
1.0319999983,8,150246.1093750000,150365.3281250000,176248.0625000000,169070.5468750000,159104.7968750000,160011.5000000000,64873.0976562500,177537.6093750000,,,
1.0359999982,8,150238.7031250000,150357.9218750000,176241.2187500000,169056.9687500000,159097.7656250000,160004.4687500000,64863.3593750000,177532.1093750000,,,
1.0399999982,8,150245.5468750000,150366.5937500000,176246.7656250000,169064.7812500000,159103.9062500000,160008.4843750000,64865.4531250000,177544.1250000000,,,
1.0439999981,8,150251.5000000000,150375.1406250000,176251.2031250000,169067.0000000000,159110.0312500000,160018.1406250000,64874.0078125000,177554.5156250000,,,
1.0479999983,8,150255.7812500000,150383.4531250000,176253.8593750000,169067.6562500000,159113.2968750000,160027.8281250000,64879.6132812500,177561.4843750000,,,
1.0519999983,8,150265.2812500000,150391.0312500000,176267.4531250000,169074.0312500000,159126.5781250000,160035.9843750000,64892.7304687500,177566.9531250000,,,
1.0559999982,8,150261.8281250000,150382.5781250000,176269.9531250000,169083.1875000000,159129.1875000000,160027.4531250000,64894.5273437500,177566.0937500000,,,
1.0599999982,8,150252.6250000000,150371.5000000000,176261.2812500000,169086.4843750000,159122.5312500000,160017.8281250000,64883.0195312500,177563.6562500000,,,
1.0639999982,8,150253.1875000000,150370.9843750000,176258.3906250000,169074.2500000000,159119.4375000000,160018.5000000000,64873.3125000000,177567.0156250000,,,
1.0679999983,8,150253.3750000000,150367.2812500000,176260.0000000000,169069.3750000000,159118.6875000000,160011.9531250000,64870.4140625000,177561.9062500000,,,
1.0719999983,8,150257.2031250000,150375.9531250000,176264.9062500000,169069.7500000000,159121.7031250000,160011.9687500000,64868.2148437500,177566.3437500000,,,
1.0759999983,8,150251.9843750000,150373.2187500000,176262.1875000000,169063.6562500000,159119.0625000000,160012.2500000000,64862.1523437500,177567.3906250000,,,
1.0799999982,8,150246.3437500000,150363.9375000000,176259.2187500000,169066.7343750000,159116.8750000000,160009.1875000000,64858.8007812500,177565.4062500000,,,
1.0839999982,8,150244.1250000000,150363.5312500000,176256.1562500000,169064.9375000000,159113.7812500000,160010.7656250000,64855.9570312500,177567.2031250000,,,
1.0879999981,8,150246.6406250000,150364.8437500000,176259.5625000000,169070.3906250000,159114.5156250000,160013.7968750000,64856.9765625000,177564.8906250000,,,
1.0919999983,8,150247.4687500000,150366.2968750000,176259.2656250000,169082.7031250000,159113.4062500000,160016.7500000000,64856.7890625000,177565.6406250000,,,
1.0959999983,8,150244.5156250000,150363.3125000000,176257.6562500000,169080.3593750000,159109.9531250000,160013.9843750000,64852.6328125000,177572.8593750000,,,
1.0999999982,8,150244.3125000000,150363.0781250000,176255.2968750000,169073.2812500000,159108.0937500000,160012.1406250000,64848.5000000000,177578.5625000000,,,
1.1039999982,8,150241.6562500000,150359.6093750000,176250.2656250000,169075.6406250000,159103.0781250000,160006.5781250000,64837.8515625000,177568.8593750000,,,
1.1079999981,8,150252.3750000000,150371.0625000000,176259.0781250000,169076.2656250000,159109.4375000000,160009.1562500000,64837.6640625000,177562.8750000000,,,
1.1119999983,8,150249.4375000000,150366.7968750000,176254.2343750000,169073.2500000000,159104.3906250000,160001.2187500000,64830.4492187500,177549.0937500000,,,
1.1159999983,8,150243.8437500000,150362.1562500000,176249.0312500000,169077.3125000000,159099.1718750000,159995.4843750000,64826.9609375000,177541.2812500000,,,
1.1199999982,8,150245.8437500000,150363.6718750000,176253.7500000000,169086.6875000000,159103.0000000000,159998.8125000000,64831.1718750000,177547.2656250000,,,
1.1239999982,8,150242.4375000000,150363.5000000000,176250.7656250000,169074.6718750000,159101.9218750000,160000.6093750000,64827.4179687500,177551.0000000000,,,
1.1279999982,8,150247.4218750000,150371.7968750000,176254.2500000000,169059.0625000000,159107.3125000000,160009.3437500000,64832.0312500000,177552.5000000000,,,
1.1319999981,8,150258.6562500000,150376.8125000000,176268.3593750000,169083.2031250000,159119.2031250000,160016.9843750000,64843.1367187500,177550.4375000000,,,
1.1359999983,8,150261.1250000000,150378.0468750000,176274.2343750000,169090.1562500000,159125.0468750000,160022.4375000000,64846.1953125000,177555.5781250000,,,
1.1399999983,8,150245.2656250000,150363.2031250000,176254.7656250000,169071.9375000000,159110.1875000000,160015.6250000000,64830.2890625000,177551.0781250000,,,
1.1439999982,8,150246.2187500000,150366.0000000000,176252.5312500000,169064.0000000000,159111.3125000000,160020.7968750000,64830.9843750000,177552.9531250000,,,
1.1479999982,8,150252.7812500000,150374.1250000000,176257.3906250000,169070.4062500000,159116.5156250000,160022.9218750000,64833.7226562500,177555.9062500000,,,
1.1519999981,9,150265.2812500000,150387.5312500000,176270.8593750000,169074.8437500000,159126.4687500000,160031.5625000000,64840.2929687500,177562.6875000000,,,
1.1559999981,9,150265.6250000000,150385.8750000000,176277.0781250000,169069.9531250000,159129.8750000000,160028.0156250000,64841.3671875000,177563.6875000000,,,
1.1599999981,9,150255.0312500000,150377.6406250000,176260.6718750000,169071.0000000000,159115.0937500000,160019.6406250000,64822.5898437500,177560.1093750000,,,
1.1639999980,9,150257.7500000000,150377.1093750000,176264.4218750000,169081.1093750000,159116.7812500000,160020.6406250000,64822.4023437500,177562.0156250000,,,
1.1679999980,9,150269.5937500000,150389.9531250000,176275.2500000000,169089.6406250000,159124.1875000000,160030.5625000000,64828.6250000000,177570.3281250000,,,
1.1719999979,9,150272.8125000000,150392.2656250000,176278.6562500000,169091.4218750000,159125.6718750000,160028.6875000000,64826.6132812500,177569.2031250000,,,
1.1759999981,9,150270.6718750000,150388.6875000000,176276.2500000000,169091.5000000000,159124.3750000000,160027.8281250000,64820.9257812500,177567.0312500000,,,
1.1799999981,9,150267.2968750000,150381.4687500000,176272.3593750000,169096.4375000000,159122.0468750000,160021.5468750000,64816.4218750000,177564.8906250000,,,
1.1839999980,9,150267.8281250000,150382.1250000000,176272.0312500000,169098.7656250000,159122.3125000000,160020.5781250000,64813.5507812500,177566.1718750000,,,
1.1879999980,9,150271.3437500000,150387.5312500000,176274.2031250000,169092.8593750000,159124.1562500000,160023.4843750000,64812.3984375000,177567.8437500000,,,
1.1919999979,9,150277.0625000000,150394.5625000000,176279.4375000000,169093.6093750000,159127.9531250000,160027.2343750000,64814.2773437500,177570.1250000000,,,
1.1959999981,9,150269.3281250000,150386.0625000000,176272.2031250000,169097.5781250000,159120.3593750000,160016.9375000000,64804.9687500000,177566.9531250000,,,
1.1999999981,9,150262.5000000000,150380.7187500000,176266.2656250000,169094.6562500000,159115.0468750000,160006.9843750000,64795.0156250000,177568.3437500000,,,
1.2039999980,9,150263.0312500000,150383.3281250000,176266.0781250000,169092.1093750000,159114.2656250000,160003.3125000000,64791.1289062500,177571.3281250000,,,
1.2079999980,9,150269.3593750000,150389.2343750000,176271.2343750000,169091.6562500000,159117.2968750000,160006.2656250000,64795.2578125000,177571.5937500000,,,
1.2119999980,9,150279.9531250000,150398.7812500000,176279.5156250000,169095.0937500000,159125.3906250000,160014.5000000000,64802.0429687500,177573.5000000000,,,
1.2159999979,9,150274.5156250000,150392.9218750000,176271.7656250000,169097.6093750000,159121.5156250000,160013.7656250000,64797.1914062500,177569.5000000000,,,
1.2199999981,9,150273.0937500000,150387.4062500000,176271.7968750000,169092.6718750000,159124.2500000000,160012.2968750000,64796.2500000000,177570.6875000000,,,
1.2239999981,9,150278.3437500000,150388.7656250000,176277.4218750000,169094.4218750000,159132.2031250000,160011.3906250000,64797.5390625000,177573.8281250000,,,
1.2279999980,9,150285.8750000000,150402.3906250000,176282.1250000000,169098.7343750000,159138.4375000000,160021.1718750000,64799.3632812500,177581.8125000000,,,
1.2319999980,9,150289.4531250000,150407.6562500000,176285.8281250000,169112.8750000000,159140.3906250000,160024.3593750000,64798.4765625000,177581.6875000000,,,
1.2359999979,9,150286.9843750000,150402.2343750000,176286.3906250000,169111.0000000000,159139.4531250000,160020.5781250000,64796.9218750000,177574.4062500000,,,
1.2399999981,9,150283.4218750000,150400.7343750000,176284.2968750000,169097.2343750000,159135.4843750000,160015.0625000000,64787.9882812500,177573.4687500000,,,
1.2439999981,9,150274.8281250000,150396.2031250000,176275.9062500000,169092.9375000000,159126.7968750000,160006.0156250000,64776.5117187500,177569.3125000000,,,
1.2479999980,9,150276.5468750000,150397.4843750000,176280.3281250000,169077.9218750000,159129.6562500000,160001.4687500000,64779.0585937500,177562.2031250000,,,
1.2519999980,9,150275.0468750000,150395.2656250000,176278.5000000000,169079.9062500000,159124.7812500000,159995.3750000000,64773.5859375000,177553.5468750000,,,
1.2559999980,9,150278.7812500000,150396.7343750000,176280.0312500000,169086.0312500000,159123.8437500000,159993.1718750000,64768.6796875000,177551.6718750000,,,
1.2599999979,9,150283.0937500000,150396.1718750000,176283.8593750000,169084.8906250000,159127.5937500000,159993.2031250000,64766.7187500000,177556.2187500000,,,
1.2639999981,9,150288.2343750000,150395.5000000000,176291.7031250000,169085.6250000000,159135.7812500000,159992.9843750000,64770.6640625000,177557.7500000000,,,
1.2679999981,9,150290.4687500000,150391.9687500000,176293.3125000000,169093.3437500000,159138.9218750000,159991.3281250000,64769.9101562500,177553.2968750000,,,
1.2719999980,9,150290.8750000000,150394.4062500000,176289.2656250000,169095.7812500000,159138.1875000000,159995.1250000000,64765.2734375000,177550.3281250000,,,
1.2759999980,9,150294.7343750000,150401.8281250000,176291.1406250000,169096.8125000000,159143.0000000000,160002.4843750000,64765.2187500000,177557.8906250000,,,
1.2799999979,10,150291.0000000000,150394.7500000000,176290.7656250000,169098.1406250000,159141.8437500000,159997.4843750000,64759.5585937500,177558.3125000000,,,
1.2839999979,10,150288.0312500000,150396.2343750000,176290.4375000000,169097.1562500000,159141.4062500000,159998.6718750000,64756.1523437500,177560.3906250000,,,
1.2879999978,10,150287.8125000000,150403.4687500000,176289.2656250000,169098.8906250000,159139.4062500000,160000.8750000000,64752.9335937500,177562.6406250000,,,
1.2919999978,10,150288.3437500000,150406.8437500000,176288.0468750000,169104.9375000000,159136.5312500000,159998.7187500000,64748.5625000000,177561.3750000000,,,
1.2959999978,10,150279.6875000000,150399.7968750000,176280.0000000000,169096.9375000000,159128.4062500000,159988.3125000000,64741.2382812500,177557.4375000000,,,
1.2999999977,10,150275.8750000000,150395.1250000000,176281.1875000000,169098.3593750000,159129.9843750000,159984.2187500000,64743.2226562500,177559.7968750000,,,
1.3039999979,10,150280.0000000000,150401.9687500000,176284.3750000000,169103.9218750000,159132.1093750000,159988.0781250000,64744.1093750000,177566.0156250000,,,
1.3079999979,10,150283.4687500000,150409.5625000000,176284.7187500000,169099.5937500000,159130.0312500000,159987.7031250000,64743.5195312500,177569.0468750000,,,
1.3119999978,10,150280.7031250000,150406.0468750000,176276.4687500000,169111.6875000000,159119.0625000000,159978.8437500000,64733.2734375000,177560.9218750000,,,
1.3159999978,10,150278.7968750000,150405.8593750000,176269.1875000000,169113.0000000000,159109.2812500000,159971.5312500000,64718.9765625000,177557.6718750000,,,
1.3199999977,10,150288.7187500000,150413.2343750000,176280.4375000000,169118.0156250000,159120.0312500000,159976.6718750000,64723.2968750000,177570.5781250000,,,
1.3239999979,10,150289.5781250000,150410.3437500000,176283.8906250000,169128.4218750000,159125.5312500000,159972.8437500000,64722.1406250000,177573.9843750000,,,
1.3279999979,10,150290.4375000000,150408.7812500000,176282.9218750000,169135.0312500000,159127.9218750000,159972.4687500000,64717.4218750000,177568.2187500000,,,
1.3319999978,10,150289.9531250000,150407.3281250000,176286.5468750000,169115.5000000000,159133.4218750000,159972.7343750000,64715.7578125000,177561.0000000000,,,
1.3359999978,10,150287.1718750000,150400.2812500000,176289.5781250000,169102.5468750000,159136.3906250000,159966.7500000000,64714.9257812500,177557.4843750000,,,
1.3399999978,10,150291.5156250000,150406.2656250000,176297.2968750000,169100.9062500000,159144.5781250000,159967.3906250000,64717.4765625000,177567.7343750000,,,
1.3439999977,10,150297.5781250000,150414.6562500000,176303.3125000000,169119.4375000000,159151.3906250000,159967.9843750000,64720.3437500000,177573.4218750000,,,
1.3479999979,10,150305.8906250000,150423.2656250000,176311.0625000000,169115.2031250000,159158.9531250000,159974.1093750000,64725.0117187500,177574.8437500000,,,
1.3519999979,10,150303.7968750000,150420.3750000000,176306.0468750000,169113.1875000000,159153.9375000000,159970.9843750000,64719.2734375000,177564.5156250000,,,
1.3559999978,10,150295.2968750000,150408.7500000000,176297.2187500000,169110.0000000000,159144.3593750000,159961.4375000000,64708.8632812500,177551.2656250000,,,
1.3599999978,10,150289.3906250000,150402.8281250000,176295.3750000000,169113.6562500000,159142.2343750000,159956.9375000000,64697.0078125000,177544.0781250000,,,
1.3639999977,10,150291.1875000000,150408.0781250000,176300.1250000000,169120.3281250000,159145.2500000000,159958.6875000000,64701.6484375000,177547.1093750000,,,
1.3679999979,10,150288.1875000000,150404.3281250000,176295.6406250000,169118.2031250000,159140.6250000000,159952.2656250000,64699.5859375000,177540.4062500000,,,
1.3719999979,10,150292.6093750000,150406.6093750000,176300.3281250000,169110.0312500000,159145.1875000000,159953.8750000000,64700.6835937500,177537.8281250000,,,
1.3759999978,10,150304.6562500000,150422.3281250000,176313.7187500000,169107.9843750000,159159.3281250000,159966.4531250000,64705.4062500000,177552.2812500000,,,
1.3799999978,10,150296.4687500000,150416.3750000000,176303.2031250000,169114.5312500000,159154.0781250000,159962.1093750000,64694.1914062500,177554.0312500000,,,
1.3839999977,10,150288.1875000000,150405.9062500000,176294.7500000000,169113.1406250000,159148.3281250000,159954.6562500000,64685.8242187500,177548.6562500000,,,
1.3879999977,10,150287.5468750000,150404.6718750000,176296.2031250000,169104.4843750000,159148.3281250000,159956.6406250000,64680.4062500000,177545.5312500000,,,
1.3919999979,10,150292.3750000000,150409.2343750000,176301.8593750000,169107.2343750000,159151.2500000000,159957.2031250000,64684.2968750000,177542.3906250000,,,
1.3959999979,10,150286.2500000000,150405.3437500000,176291.4531250000,169102.6250000000,159141.5937500000,159951.6250000000,64682.3632812500,177539.8437500000,,,
1.3999999978,10,150286.0468750000,150406.9843750000,176291.9375000000,169101.2031250000,159143.1562500000,159952.9687500000,64679.8164062500,177549.4687500000,,,
1.4039999978,10,150287.0937500000,150409.3437500000,176290.4375000000,169108.8281250000,159140.5312500000,159951.1718750000,64669.4882812500,177554.5312500000,,,
1.4079999977,11,150287.5781250000,150409.1250000000,176292.9375000000,169104.9062500000,159140.8281250000,159952.4375000000,64650.5273437500,177551.5625000000,,,
1.4119999977,11,150296.0156250000,150416.9375000000,176305.7031250000,169104.8281250000,159151.5468750000,159955.1406250000,64646.5820312500,177550.6250000000,,,
1.4159999976,11,150301.8437500000,150426.7031250000,176306.8281250000,169103.5937500000,159150.5781250000,159962.4687500000,64671.8515625000,177561.0000000000,,,
1.4199999976,11,150302.7812500000,150420.2812500000,176305.4531250000,169114.1093750000,159150.6093750000,159962.2500000000,64679.4140625000,177564.2500000000,,,
1.4239999976,11,150301.7343750000,150414.9531250000,176303.6875000000,169110.9687500000,159152.0000000000,159957.4687500000,64669.3281250000,177561.2656250000,,,
1.4279999975,11,150306.8906250000,150423.4843750000,176307.3593750000,169109.4375000000,159158.4218750000,159965.7812500000,64657.1523437500,177567.0312500000,,,
1.4319999977,11,150308.7031250000,150424.7656250000,176312.7343750000,169106.6250000000,159162.7031250000,159965.5468750000,64656.7773437500,177566.9218750000,,,
1.4359999977,11,150301.5468750000,150412.3750000000,176309.9687500000,169104.7656250000,159159.2968750000,159950.4531250000,64668.8203125000,177555.7500000000,,,
1.4399999976,11,150293.4687500000,150407.4062500000,176298.2500000000,169105.2812500000,159148.5937500000,159940.2500000000,64658.6523437500,177554.4843750000,,,
1.4439999976,11,150298.0312500000,150413.7656250000,176301.1718750000,169113.5625000000,159150.4531250000,159939.9531250000,64650.6875000000,177560.1718750000,,,
1.4479999975,11,150308.6250000000,150426.4218750000,176316.0312500000,169119.6093750000,159161.7187500000,159945.9375000000,64655.2460937500,177563.4218750000,,,
1.4519999977,11,150306.9687500000,150426.1875000000,176316.9687500000,169123.3125000000,159158.5156250000,159940.1718750000,64647.8984375000,177555.0937500000,,,
1.4559999977,11,150313.7968750000,150437.0312500000,176323.9687500000,169118.8750000000,159163.9375000000,159944.7812500000,64651.4375000000,177560.0625000000,,,
1.4599999976,11,150307.6875000000,150425.0625000000,176317.6875000000,169119.9218750000,159160.5312500000,159936.1718750000,64645.4296875000,177557.4062500000,,,
1.4639999976,11,150300.0468750000,150417.7968750000,176305.0625000000,169120.7656250000,159150.9843750000,159927.2968750000,64630.3046875000,177550.1875000000,,,
1.4679999975,11,150304.6562500000,150422.2656250000,176308.2500000000,169120.3906250000,159153.7812500000,159923.6718750000,64629.3906250000,177549.9531250000,,,
1.4719999975,11,150312.8593750000,150436.3593750000,176312.0625000000,169124.1875000000,159159.5625000000,159934.0625000000,64632.3398437500,177554.0468750000,,,
1.4759999977,11,150312.9375000000,150435.2343750000,176315.4062500000,169121.4218750000,159163.8281250000,159931.3750000000,64636.1757812500,177553.4062500000,,,
1.4799999977,11,150314.4531250000,150432.0156250000,176317.6875000000,169132.5000000000,159165.8437500000,159920.6406250000,64634.3789062500,177557.0000000000,,,
1.4839999976,11,150308.3281250000,150426.5312500000,176305.2968750000,169135.2656250000,159154.7656250000,159910.6093750000,64618.7968750000,177555.7656250000,,,
1.4879999976,11,150312.7500000000,150433.9062500000,176307.3437500000,169124.2968750000,159152.8906250000,159909.3750000000,64616.9726562500,177556.4375000000,,,
1.4919999975,11,150312.9687500000,150431.9218750000,176309.9062500000,169119.6093750000,159151.5468750000,159905.6250000000,64609.9179687500,177548.9531250000,,,
1.4959999977,11,150307.6406250000,150423.1562500000,176303.8750000000,169131.7812500000,159143.7656250000,159897.9531250000,64606.1640625000,177540.8906250000,,,
1.4999999977,11,150313.5625000000,150428.9218750000,176310.5625000000,169135.4062500000,159150.0781250000,159897.3437500000,64611.4218750000,177547.3437500000,,,
1.5039999976,11,150308.4062500000,150426.5156250000,176300.1718750000,169130.0937500000,159144.0625000000,159888.7500000000,64597.8750000000,177545.9531250000,,,
1.5079999976,11,150308.3906250000,150425.8437500000,176301.1875000000,169122.5312500000,159147.8750000000,159887.7812500000,64599.2148437500,177542.7656250000,,,
1.5119999975,11,150311.7968750000,150423.2031250000,176308.7812500000,169128.0000000000,159155.9531250000,159878.9687500000,64606.0546875000,177536.6718750000,,,
1.5159999975,11,150309.0781250000,150418.6250000000,176307.2812500000,169135.3750000000,159155.0312500000,159861.5781250000,64600.0195312500,177529.3750000000,,,
1.5199999977,11,150310.9062500000,150420.6875000000,176310.8437500000,169128.8281250000,159159.1718750000,159861.1875000000,64601.8984375000,177534.9531250000,,,
1.5239999976,11,150313.1875000000,150419.4062500000,176314.7656250000,169126.5781250000,159162.7343750000,159859.6250000000,64602.7851562500,177535.3906250000,,,
1.5279999976,11,150319.0937500000,150426.2343750000,176320.9062500000,169121.9687500000,159167.0468750000,159864.7500000000,64602.1132812500,177536.0000000000,,,
1.5319999976,11,150322.2812500000,150428.5781250000,176326.8906250000,169122.3125000000,159171.0781250000,159868.3750000000,64602.0312500000,177534.3125000000,,,
1.5359999975,12,150328.0156250000,150438.9062500000,176332.9843750000,169123.8906250000,159177.0000000000,159874.0000000000,64604.8476562500,177542.4375000000,,,
1.5399999975,12,150330.2656250000,150445.4218750000,176333.6718750000,169134.1718750000,159179.3593750000,159878.1562500000,64604.8203125000,177555.3750000000,,,
1.5439999974,12,150326.7812500000,150445.8281250000,176326.7812500000,169145.4687500000,159172.9218750000,159873.3281250000,64596.5859375000,177558.7968750000,,,
1.5479999974,12,150320.7031250000,150442.7031250000,176319.1406250000,169123.5000000000,159165.2031250000,159863.5468750000,64589.0781250000,177550.9375000000,,,
1.5519999973,12,150328.1562500000,150450.7812500000,176329.0937500000,169111.5000000000,159173.2500000000,159863.0312500000,64594.2812500000,177549.0156250000,,,
1.5559999973,12,150331.1093750000,150450.1093750000,176334.0468750000,169119.2343750000,159177.9375000000,159863.1875000000,64594.1718750000,177549.5000000000,,,
1.5599999975,12,150318.9531250000,150437.1875000000,176321.0937500000,169129.2031250000,159168.7187500000,159855.8125000000,64582.2382812500,177543.4843750000,,,
1.5639999975,12,150323.6250000000,150444.7500000000,176323.9687500000,169137.0625000000,159172.3125000000,159862.3281250000,64583.8203125000,177551.7187500000,,,
1.5679999974,12,150328.5312500000,150441.1250000000,176330.7500000000,169139.6875000000,159178.2343750000,159860.9062500000,64587.2265625000,177546.7812500000,,,
1.5719999974,12,150337.6718750000,150447.9687500000,176338.0000000000,169143.0937500000,159183.4687500000,159867.4375000000,64588.3007812500,177545.5312500000,,,
1.5759999973,12,150336.9843750000,150446.1718750000,176335.7968750000,169143.0468750000,159180.3906250000,159863.4062500000,64581.8085937500,177542.7656250000,,,
1.5799999975,12,150330.6718750000,150441.0468750000,176328.2812500000,169145.0312500000,159173.2500000000,159855.4687500000,64572.6875000000,177541.3593750000,,,
1.5839999975,12,150330.2656250000,150444.9062500000,176327.2187500000,169143.9843750000,159170.0312500000,159859.6250000000,64566.6523437500,177548.4218750000,,,
1.5879999974,12,150329.8437500000,150447.5156250000,176325.4218750000,169147.1718750000,159168.9062500000,159862.7968750000,64562.5781250000,177546.2968750000,,,
1.5919999974,12,150337.4375000000,150455.7968750000,176334.7812500000,169153.7812500000,159177.1718750000,159869.5000000000,64567.0312500000,177545.0156250000,,,
1.5959999973,12,150339.1250000000,150456.2031250000,176339.5468750000,169159.1718750000,159181.6406250000,159871.7031250000,64569.2812500000,177545.6875000000,,,
1.5999999973,12,150336.1718750000,150445.0937500000,176341.8906250000,169155.8125000000,159183.4687500000,159858.3125000000,64567.5117187500,177539.6718750000,,,
1.6039999975,12,150340.4843750000,150442.6093750000,176347.4843750000,169165.1562500000,159189.9531250000,159854.6562500000,64571.0546875000,177538.5000000000,,,
1.6079999974,12,150340.0937500000,150442.7343750000,176345.5625000000,169145.1718750000,159188.5625000000,159859.7812500000,64569.3085937500,177536.9375000000,,,
1.6119999974,12,150333.3906250000,150441.7968750000,176330.8906250000,169136.7187500000,159175.7968750000,159858.4687500000,64557.2382812500,177530.7500000000,,,
1.6159999974,12,150334.4062500000,150442.2500000000,176332.0937500000,169145.7812500000,159175.9843750000,159861.5625000000,64557.8828125000,177529.6250000000,,,
1.6199999973,12,150330.6718750000,150439.2500000000,176332.1250000000,169140.7343750000,159173.9531250000,159856.6718750000,64552.1953125000,177532.0312500000,,,
1.6239999975,12,150324.5937500000,150435.8906250000,176326.1093750000,169134.4687500000,159167.8281250000,159853.5156250000,64544.6601562500,177530.7187500000,,,
1.6279999975,12,150327.4843750000,150438.5468750000,176329.5937500000,169140.6875000000,159169.7812500000,159856.0625000000,64548.9531250000,177528.0156250000,,,
1.6319999974,12,150330.3593750000,150444.3437500000,176332.6250000000,169142.3750000000,159169.9218750000,159861.3750000000,64548.9257812500,177524.0937500000,,,
1.6359999974,12,150329.7968750000,150450.1875000000,176329.7031250000,169140.0156250000,159166.9375000000,159861.4218750000,64538.6250000000,177527.0468750000,,,
1.6399999973,12,150327.8906250000,150444.0468750000,176331.5625000000,169149.0625000000,159169.1406250000,159850.6718750000,64537.1210937500,177526.0468750000,,,
1.6439999973,12,150319.3593750000,150432.7343750000,176322.8593750000,169159.2812500000,159161.5000000000,159845.2968750000,64527.0117187500,177519.5937500000,,,
1.6479999975,12,150330.0312500000,150446.8906250000,176329.1718750000,169165.2343750000,159167.8281250000,159857.5625000000,64529.2890625000,177529.4531250000,,,
1.6519999974,12,150337.7812500000,150456.0156250000,176334.6875000000,169172.8750000000,159172.7968750000,159861.8750000000,64531.6250000000,177533.4531250000,,,
1.6559999974,12,150337.4531250000,150454.4843750000,176335.0468750000,169178.3125000000,159174.4062500000,159861.1250000000,64531.0898437500,177532.4843750000,,,
1.6599999974,12,150337.4375000000,150456.2343750000,176332.6875000000,169182.7500000000,159175.0468750000,159862.2500000000,64527.3593750000,177540.5625000000,,,
1.6639999973,13,150340.2968750000,150461.0625000000,176334.7812500000,169174.6093750000,159178.8593750000,159864.4843750000,64527.8437500000,177551.2656250000,,,
1.6679999973,13,150343.0625000000,150464.9218750000,176336.5156250000,169173.2187500000,159179.6875000000,159865.3437500000,64526.5820312500,177554.7187500000,,,
1.6719999972,13,150353.2812500000,150473.5000000000,176347.4062500000,169182.0468750000,159187.5937500000,159874.1875000000,64531.7851562500,177557.8281250000,,,
1.6759999972,13,150349.8750000000,150464.1406250000,176347.1718750000,169165.3125000000,159187.6562500000,159866.5156250000,64531.7304687500,177547.7968750000,,,
1.6799999971,13,150348.7187500000,150462.0781250000,176348.9062500000,169162.6875000000,159191.1718750000,159864.2187500000,64532.6718750000,177546.1406250000,,,
1.6839999971,13,150346.9218750000,150459.3125000000,176351.5156250000,169164.9843750000,159194.1093750000,159862.9531250000,64532.2929687500,177543.2500000000,,,
1.6879999973,13,150348.7187500000,150460.5781250000,176356.2812500000,169166.0937500000,159196.0781250000,159860.5937500000,64527.1992187500,177537.5625000000,,,
1.6919999972,13,150354.5000000000,150465.0781250000,176361.8437500000,169159.6718750000,159199.8750000000,159858.9531250000,64528.5390625000,177530.8593750000,,,
1.6959999972,13,150362.7343750000,150468.5625000000,176371.1250000000,169155.4375000000,159207.7656250000,159861.4531250000,64533.7968750000,177529.4375000000,,,
1.6999999972,13,150365.3593750000,150468.0312500000,176374.0625000000,169159.3593750000,159211.2812500000,159864.1250000000,64534.9218750000,177532.1406250000,,,
1.7039999971,13,150359.7500000000,150461.5937500000,176365.7500000000,169158.2343750000,159205.6562500000,159860.2187500000,64525.5351562500,177529.3437500000,,,
1.7079999973,13,150362.2656250000,150468.0312500000,176368.9218750000,169146.1562500000,159208.3593750000,159864.9843750000,64526.5546875000,177529.9375000000,,,
1.7119999973,13,150375.5468750000,150482.8906250000,176382.5468750000,169152.0000000000,159219.0000000000,159874.4062500000,64536.5859375000,177537.5312500000,,,
1.7159999972,13,150376.2656250000,150483.5937500000,176382.6562500000,169164.4218750000,159219.9687500000,159875.3125000000,64538.0078125000,177541.0937500000,,,
1.7199999972,13,150359.2656250000,150469.3750000000,176358.7812500000,169162.8750000000,159200.6406250000,159860.6250000000,64514.7539062500,177536.1093750000,,,
1.7239999971,13,150357.9218750000,150471.2968750000,176357.2500000000,169170.6406250000,159200.2656250000,159856.1875000000,64511.2382812500,177539.4375000000,,,
1.7279999971,13,150360.9062500000,150475.2656250000,176361.0625000000,169176.1250000000,159203.9062500000,159856.3750000000,64512.4726562500,177539.1093750000,,,
1.7319999973,13,150362.6250000000,150477.4218750000,176362.7500000000,169171.5937500000,159204.2500000000,159851.7343750000,64509.6015625000,177535.9218750000,,,
1.7359999972,13,150372.8593750000,150489.1406250000,176371.7968750000,169177.9687500000,159212.1406250000,159856.4531250000,64514.2187500000,177541.7187500000,,,
1.7399999972,13,150372.6718750000,150488.3906250000,176370.8437500000,169177.4843750000,159212.5937500000,159855.3593750000,64510.1406250000,177549.4687500000,,,
1.7439999972,13,150370.6093750000,150486.2500000000,176370.9843750000,169180.9531250000,159212.4843750000,159855.0625000000,64507.4570312500,177555.2812500000,,,
1.7479999971,13,150372.1875000000,150488.8750000000,176372.0625000000,169188.9062500000,159213.5156250000,159858.3125000000,64511.0234375000,177560.7343750000,,,
1.7519999973,13,150365.4062500000,150482.7812500000,176365.8125000000,169183.6875000000,159206.6406250000,159852.7656250000,64507.9414062500,177554.4218750000,,,
1.7559999973,13,150361.2812500000,150482.7500000000,176362.0000000000,169181.7812500000,159203.6406250000,159856.3593750000,64504.6132812500,177558.3125000000,,,
1.7599999972,13,150353.7656250000,150474.8750000000,176357.1718750000,169178.7500000000,159200.2812500000,159853.7187500000,64498.3906250000,177559.0468750000,,,
1.7639999972,13,150350.6093750000,150471.8437500000,176355.7812500000,169181.0312500000,159199.4062500000,159848.1718750000,64493.8593750000,177559.2812500000,,,
1.7679999971,13,150352.5156250000,150473.6406250000,176353.4687500000,169178.5625000000,159198.9375000000,159847.9843750000,64488.4687500000,177554.7031250000,,,
1.7719999971,13,150356.6875000000,150477.6562500000,176356.8281250000,169172.4375000000,159202.1093750000,159845.8437500000,64487.3125000000,177549.1250000000,,,
1.7759999973,13,150355.3437500000,150473.2343750000,176352.6093750000,169170.4062500000,159199.1562500000,159835.9687500000,64482.8359375000,177539.8437500000,,,
1.7799999972,13,150358.3281250000,150475.2500000000,176354.0937500000,169167.5625000000,159200.1562500000,159834.4375000000,64475.5390625000,177539.7031250000,,,
1.7839999972,13,150354.4687500000,150468.6250000000,176349.7343750000,169162.3906250000,159195.5937500000,159827.2812500000,64474.9218750000,177530.7500000000,,,
1.7879999971,13,150347.8125000000,150454.3437500000,176343.3593750000,169160.4843750000,159188.4375000000,159820.7656250000,64471.2226562500,177512.1250000000,,,
1.7919999971,14,150349.1250000000,150450.1093750000,176347.3593750000,169165.4375000000,159188.8281250000,159819.2656250000,64470.6562500000,177499.8750000000,,,
1.7959999971,14,150360.0781250000,150456.8125000000,176360.3125000000,169173.2812500000,159200.0156250000,159821.8906250000,64477.2578125000,177501.4218750000,,,
1.7999999970,14,150374.8750000000,150477.7968750000,176374.2031250000,169180.7343750000,159213.1093750000,159834.0937500000,64479.9921875000,177520.4531250000,,,
1.8039999970,14,150375.6875000000,150479.3437500000,176374.9062500000,169183.5156250000,159213.9375000000,159831.6718750000,64482.2187500000,177528.0312500000,,,
1.8079999969,14,150361.5468750000,150467.0625000000,176354.9218750000,169174.9687500000,159197.4218750000,159820.2031250000,64466.7968750000,177514.9531250000,,,
1.8119999969,14,150370.2656250000,150477.6406250000,176366.0781250000,169180.0312500000,159207.3125000000,159826.2656250000,64474.9218750000,177515.8125000000,,,
1.8159999971,14,150375.0312500000,150486.0000000000,176372.5937500000,169180.2500000000,159212.5625000000,159828.4531250000,64478.5976562500,177524.5781250000,,,
1.8199999970,14,150376.6718750000,150492.3593750000,176373.8593750000,169178.7812500000,159213.3437500000,159830.5468750000,64479.5898437500,177536.8125000000,,,
1.8239999970,14,150376.0312500000,150493.2968750000,176373.8750000000,169170.7031250000,159213.4218750000,159831.4687500000,64477.7929687500,177542.0937500000,,,
1.8279999970,14,150380.0781250000,150496.4375000000,176379.0000000000,169174.2656250000,159218.7968750000,159835.7031250000,64480.5546875000,177544.6718750000,,,
1.8319999969,14,150379.4687500000,150492.0156250000,176379.7812500000,169178.3437500000,159220.5156250000,159832.4218750000,64481.7343750000,177536.5625000000,,,
1.8359999971,14,150377.9687500000,150491.6875000000,176379.1093750000,169184.8906250000,159220.4531250000,159830.6093750000,64481.7343750000,177538.1406250000,,,
1.8399999971,14,150374.7656250000,150489.4687500000,176377.6875000000,169186.5312500000,159219.0000000000,159823.9062500000,64476.7460937500,177542.7812500000,,,
1.8439999970,14,150370.5312500000,150484.9062500000,176374.4218750000,169181.1875000000,159215.6250000000,159811.4531250000,64468.9687500000,177540.4843750000,,,
1.8479999970,14,150369.7343750000,150485.4687500000,176369.5156250000,169179.3437500000,159212.2500000000,159806.5156250000,64462.8789062500,177539.5156250000,,,
1.8519999969,14,150371.1718750000,150489.0000000000,176369.7812500000,169184.5937500000,159211.5468750000,159805.8437500000,64460.6250000000,177540.2187500000,,,
1.8559999969,14,150361.8125000000,150476.8281250000,176362.8906250000,169175.7656250000,159202.8906250000,159791.6562500000,64447.8867187500,177529.1562500000,,,
1.8599999971,14,150359.7812500000,150477.7656250000,176363.2031250000,169170.8906250000,159203.1562500000,159789.8281250000,64443.7031250000,177530.7968750000,,,
1.8639999970,14,150354.4375000000,150471.3281250000,176358.0625000000,169168.3906250000,159198.9218750000,159785.7812500000,64436.5117187500,177528.3906250000,,,
1.8679999970,14,150347.2031250000,150462.2656250000,176347.2187500000,169172.2500000000,159191.4375000000,159779.7187500000,64433.0546875000,177516.2812500000,,,
1.8719999969,14,150353.5468750000,150471.6718750000,176351.5312500000,169175.5312500000,159196.6718750000,159788.2500000000,64442.1445312500,177514.1718750000,,,
1.8759999969,14,150371.3125000000,150485.8906250000,176371.5781250000,169189.1562500000,159216.0625000000,159801.2343750000,64459.2851562500,177519.9062500000,,,
1.8799999971,14,150372.5156250000,150481.7968750000,176376.1875000000,169193.9218750000,159221.0781250000,159799.4062500000,64460.7070312500,177520.5781250000,,,
1.8839999971,14,150379.7812500000,150490.1875000000,176384.8281250000,169189.7187500000,159228.3750000000,159807.5937500000,64466.5546875000,177528.0937500000,,,
1.8879999970,14,150374.4218750000,150484.1562500000,176377.0781250000,169189.5625000000,159219.8593750000,159804.4531250000,64456.6015625000,177519.6093750000,,,
1.8919999970,14,150374.5625000000,150485.7031250000,176373.5937500000,169175.8437500000,159215.3593750000,159806.5937500000,64451.2382812500,177512.6406250000,,,
1.8959999969,14,150376.0312500000,150491.5468750000,176376.1406250000,169174.6093750000,159216.4375000000,159808.1250000000,64448.7695312500,177516.3125000000,,,
1.8999999969,14,150385.0625000000,150503.0937500000,176387.2187500000,169182.1250000000,159226.8437500000,159809.7343750000,64449.2812500000,177530.7656250000,,,
1.9039999971,14,150387.8593750000,150501.8593750000,176390.2187500000,169181.8125000000,159229.6093750000,159805.4218750000,64448.2890625000,177536.9375000000,,,
1.9079999970,14,150398.2656250000,150509.1250000000,176400.4843750000,169187.2500000000,159239.1562500000,159807.1875000000,64456.8164062500,177539.6562500000,,,
1.9119999970,14,150403.3125000000,150513.1406250000,176402.0937500000,169193.0781250000,159238.9062500000,159806.2031250000,64452.6601562500,177535.8750000000,,,
1.9159999969,14,150411.5937500000,150525.3750000000,176407.1875000000,169198.2968750000,159243.9531250000,159809.3906250000,64453.3828125000,177542.5937500000,,,
1.9199999969,15,150419.7500000000,150532.8593750000,176416.8281250000,169202.6718750000,159252.6406250000,159812.4531250000,64460.7617187500,177553.7812500000,,,
1.9239999969,15,150413.6406250000,150525.0781250000,176412.4843750000,169210.8593750000,159249.8281250000,159810.7031250000,64459.9023437500,177556.0937500000,,,
1.9279999968,15,150405.4531250000,150513.8906250000,176401.6406250000,169208.5468750000,159242.2656250000,159801.6406250000,64454.3242187500,177549.3593750000,,,
1.9319999968,15,150409.8750000000,150518.7187500000,176406.7968750000,169212.6718750000,159245.8593750000,159796.8125000000,64456.4414062500,177546.5468750000,,,
1.9359999967,15,150411.8125000000,150521.8125000000,176412.9375000000,169206.7031250000,159249.4843750000,159792.3906250000,64459.8476562500,177547.1406250000,,,
1.9399999967,15,150406.5312500000,150515.2343750000,176405.5781250000,169200.9062500000,159243.8750000000,159785.2187500000,64452.2304687500,177547.4843750000,,,
1.9439999969,15,150392.3125000000,150496.5468750000,176389.5156250000,169202.4531250000,159229.9843750000,159772.4062500000,64437.3710937500,177536.2656250000,,,
1.9479999968,15,150404.0000000000,150511.6093750000,176402.8437500000,169193.1718750000,159241.4531250000,159783.1250000000,64445.9804687500,177547.2187500000,,,
1.9519999968,15,150414.9218750000,150523.9218750000,176411.2187500000,169196.1250000000,159249.7500000000,159792.5156250000,64454.0000000000,177554.6406250000,,,
1.9559999967,15,150419.8906250000,150525.6718750000,176421.7343750000,169208.3125000000,159257.5468750000,159792.8437500000,64458.8281250000,177554.1875000000,,,
1.9599999967,15,150406.4531250000,150511.6718750000,176409.2656250000,169216.0312500000,159248.5937500000,159784.2500000000,64440.5898437500,177549.9531250000,,,
1.9639999969,15,150384.0781250000,150490.0468750000,176383.7812500000,169208.2031250000,159225.6562500000,159767.1406250000,64420.9023437500,177533.1875000000,,,
1.9679999969,15,150386.9531250000,150496.8906250000,176384.6718750000,169203.7656250000,159224.9843750000,159773.7343750000,64432.4648437500,177534.6406250000,,,
1.9719999968,15,150390.8906250000,150497.3281250000,176388.7656250000,169206.5156250000,159226.8906250000,159774.6562500000,64435.8164062500,177530.6875000000,,,
1.9759999968,15,150384.5312500000,150484.1718750000,176384.2812500000,169198.0937500000,159221.5625000000,159760.5937500000,64431.5781250000,177518.7031250000,,,
1.9799999967,15,150385.7656250000,150484.6093750000,176384.2031250000,169186.9062500000,159222.2031250000,159757.9375000000,64432.0625000000,177521.9531250000,,,
1.9839999967,15,150393.5156250000,150493.5625000000,176393.8125000000,169199.7968750000,159230.9218750000,159760.3593750000,64436.3789062500,177530.2968750000,,,
1.9879999969,15,150399.3593750000,150501.5312500000,176399.0156250000,169201.4375000000,159235.6093750000,159766.7187500000,64435.7343750000,177531.7187500000,,,
1.9919999968,15,150401.5156250000,150499.7343750000,176400.2812500000,169198.7031250000,159236.0156250000,159763.1250000000,64434.5546875000,177523.2656250000,,,
1.9959999968,15,150412.0312500000,150514.1093750000,176409.5625000000,169206.6718750000,159243.8125000000,159773.1250000000,64442.0664062500,177531.4218750000,,,
1.9999999967,15,150410.8750000000,150512.4218750000,176408.4843750000,169220.7031250000,159243.6093750000,159774.6250000000,64439.3554687500,177535.3906250000,,,
2.0039999967,15,150413.2812500000,150518.3750000000,176413.1250000000,169221.7968750000,159247.4062500000,159778.5625000000,64440.5351562500,177544.3125000000,,,
2.0079999969,15,150413.6875000000,150519.7656250000,176412.0781250000,169217.5312500000,159246.5781250000,159778.5468750000,64438.2851562500,177544.2031250000,,,
2.0119999968,15,150420.2812500000,150524.5937500000,176418.5468750000,169210.6093750000,159252.7031250000,159780.0468750000,64442.8710937500,177541.8281250000,,,
2.0159999968,15,150428.5468750000,150531.3906250000,176426.8281250000,169209.8593750000,159261.7656250000,159787.4687500000,64447.1328125000,177544.4531250000,,,
2.0199999968,15,150425.1718750000,150531.9218750000,176419.1875000000,169214.7656250000,159256.6875000000,159787.6093750000,64440.4570312500,177546.6562500000,,,
2.0239999967,15,150421.9218750000,150531.4687500000,176413.2343750000,169217.9375000000,159251.0625000000,159786.1406250000,64438.7656250000,177550.8125000000,,,
2.0279999967,15,150422.8906250000,150532.2187500000,176415.3750000000,169222.7656250000,159250.9218750000,159784.6093750000,64438.8476562500,177551.9687500000,,,
2.0319999969,15,150422.2187500000,150531.4375000000,176416.3125000000,169217.1875000000,159249.5781250000,159784.9218750000,64435.4921875000,177542.9218750000,,,
2.0359999968,15,150427.9531250000,150536.7187500000,176422.5625000000,169216.2656250000,159254.9531250000,159792.5937500000,64441.3671875000,177544.0000000000,,,
2.0399999968,15,150423.0781250000,150527.5156250000,176420.5781250000,169214.6093750000,159254.2031250000,159784.8125000000,64441.5273437500,177542.7343750000,,,
2.0439999967,15,150420.5781250000,150523.6093750000,176419.5312500000,169222.1718750000,159256.3125000000,159782.6406250000,64444.3437500000,177543.1093750000,,,
2.0479999967,16,150424.9062500000,150528.0312500000,176425.5625000000,169221.7500000000,159261.8437500000,159784.6562500000,64448.5546875000,177544.8281250000,,,
2.0519999966,16,150420.8437500000,150525.4062500000,176420.4218750000,169222.2500000000,159257.4687500000,159781.2187500000,64445.4726562500,177536.8125000000,,,
2.0559999966,16,150426.2343750000,150531.9687500000,176427.0468750000,169219.8593750000,159263.8750000000,159787.5625000000,64453.2226562500,177540.3281250000,,,
2.0599999966,16,150423.9375000000,150527.1250000000,176426.5937500000,169221.4218750000,159264.5781250000,159788.3593750000,64453.6250000000,177545.1250000000,,,
2.0639999965,16,150422.3281250000,150527.3593750000,176419.7500000000,169225.0625000000,159260.4218750000,159786.9687500000,64447.0000000000,177549.3906250000,,,
2.0679999965,16,150423.5625000000,150525.4062500000,176420.6093750000,169226.2500000000,159259.8593750000,159785.0000000000,64444.4257812500,177546.7656250000,,,
2.0719999967,16,150429.7343750000,150528.0000000000,176430.2812500000,169227.2343750000,159267.2656250000,159787.6093750000,64450.4335937500,177541.6093750000,,,
2.0759999966,16,150423.2031250000,150517.9531250000,176427.5468750000,169221.5781250000,159263.9843750000,159772.6718750000,64445.0156250000,177529.8125000000,,,
2.0799999966,16,150423.2968750000,150520.7031250000,176428.3593750000,169222.5468750000,159264.7656250000,159766.3906250000,64444.0234375000,177532.3593750000,,,
2.0839999965,16,150428.5468750000,150528.5937500000,176435.1093750000,169222.0312500000,159270.9687500000,159767.9218750000,64448.6367187500,177543.5937500000,,,
2.0879999965,16,150443.3281250000,150548.6562500000,176448.4218750000,169235.3750000000,159281.2812500000,159780.8437500000,64455.7460937500,177560.2031250000,,,
2.0919999967,16,150447.4375000000,150557.8593750000,176446.4843750000,169247.3125000000,159278.3906250000,159783.2343750000,64454.3750000000,177564.6718750000,,,
2.0959999966,16,150444.4218750000,150553.2500000000,176446.4375000000,169243.2812500000,159277.5937500000,159775.0781250000,64448.6914062500,177559.6093750000,,,
2.0999999966,16,150435.7031250000,150542.8437500000,176437.7187500000,169239.1250000000,159271.0156250000,159764.2968750000,64443.1367187500,177552.8125000000,,,
2.1039999966,16,150423.9375000000,150534.3125000000,176420.6093750000,169226.9218750000,159258.8437500000,159756.7656250000,64441.2070312500,177548.5625000000,,,
2.1079999965,16,150426.8593750000,150536.6093750000,176423.6093750000,169233.5156250000,159262.8593750000,159756.5000000000,64443.5390625000,177549.5937500000,,,
2.1119999965,16,150431.5312500000,150544.3437500000,176428.4375000000,169232.6093750000,159265.5937500000,159761.4531250000,64447.4296875000,177549.6250000000,,,
2.1159999967,16,150435.9843750000,150548.7656250000,176437.5625000000,169236.8906250000,159272.8593750000,159768.2500000000,64455.5585937500,177550.7343750000,,,
2.1199999966,16,150438.1562500000,150549.7031250000,176442.8437500000,169245.7968750000,159278.1250000000,159772.3437500000,64459.3398437500,177555.1875000000,,,
2.1239999966,16,150433.0000000000,150545.6250000000,176433.1875000000,169234.2500000000,159269.4843750000,159770.4218750000,64450.0312500000,177555.3125000000,,,
2.1279999965,16,150428.0625000000,150543.5625000000,176423.5000000000,169235.6406250000,159259.2343750000,159772.7500000000,64441.6640625000,177551.2656250000,,,
2.1319999965,16,150432.6250000000,150551.2031250000,176426.5625000000,169234.9062500000,159258.9375000000,159784.0468750000,64443.3242187500,177553.9218750000,,,
2.1359999967,16,150427.6875000000,150543.8593750000,176419.6093750000,169235.8593750000,159253.6562500000,159779.0468750000,64439.4921875000,177547.2656250000,,,
2.1399999966,16,150418.6718750000,150533.0781250000,176409.8437500000,169235.5000000000,159247.2187500000,159770.0156250000,64430.9609375000,177540.0312500000,,,
2.1439999966,16,150421.8906250000,150537.5000000000,176415.2343750000,169230.4843750000,159253.7656250000,159776.9062500000,64434.7695312500,177545.4687500000,,,
2.1479999966,16,150419.9687500000,150527.7343750000,176417.3281250000,169227.2343750000,159258.0937500000,159769.7187500000,64439.7578125000,177537.6875000000,,,
2.1519999965,16,150426.7031250000,150529.7187500000,176424.8125000000,169234.7031250000,159265.1093750000,159769.3906250000,64444.8554687500,177533.1250000000,,,
2.1559999965,16,150428.7343750000,150531.8125000000,176428.5937500000,169228.2031250000,159269.2187500000,159770.8437500000,64449.2265625000,177533.1250000000,,,
2.1599999967,16,150432.7343750000,150536.1562500000,176437.0000000000,169227.5625000000,159278.4218750000,159774.5937500000,64451.5585937500,177543.1093750000,,,
2.1639999966,16,150435.4687500000,150541.6562500000,176436.7031250000,169240.1093750000,159278.9843750000,159775.0312500000,64442.2539062500,177552.6562500000,,,
2.1679999966,16,150435.0937500000,150547.3906250000,176431.5468750000,169232.0156250000,159272.8906250000,159776.1562500000,64445.0156250000,177555.5781250000,,,
2.1719999965,16,150441.6718750000,150555.1718750000,176439.7343750000,169229.7343750000,159276.3281250000,159781.7812500000,64455.7968750000,177559.0468750000,,,
2.1759999965,17,150437.1093750000,150548.3125000000,176437.4218750000,169228.0000000000,159273.6093750000,159774.3593750000,64455.7460937500,177552.3125000000,,,
2.1799999964,17,150441.2343750000,150553.6406250000,176442.2500000000,169228.8750000000,159279.5937500000,159775.5312500000,64459.1796875000,177558.3125000000,,,
2.1839999964,17,150438.2812500000,150546.0000000000,176441.1562500000,169235.7187500000,159279.4843750000,159767.1406250000,64451.2382812500,177559.9531250000,,,
2.1879999964,17,150441.1562500000,150550.9687500000,176440.6718750000,169239.3437500000,159279.2500000000,159771.5625000000,64451.4257812500,177563.1406250000,,,
2.1919999963,17,150446.6562500000,150559.3593750000,176444.1093750000,169235.7656250000,159281.5000000000,159777.0937500000,64460.4375000000,177563.4375000000,,,
2.1959999963,17,150445.7656250000,150557.5937500000,176443.0312500000,169247.5781250000,159279.2968750000,159770.7968750000,64461.2148437500,177556.9843750000,,,
2.1999999965,17,150450.3750000000,150562.8125000000,176447.3750000000,169247.1250000000,159283.0781250000,159767.4843750000,64463.4960937500,177559.3437500000,,,
2.2039999964,17,150456.4375000000,150566.5781250000,176456.7656250000,169249.1250000000,159291.2187500000,159764.8906250000,64467.7070312500,177566.8437500000,,,
2.2079999964,17,150447.8281250000,150559.8906250000,176443.4531250000,169241.2187500000,159279.7812500000,159759.4218750000,64456.2539062500,177560.6250000000,,,
2.2119999963,17,150443.9375000000,150557.2187500000,176437.0468750000,169243.0625000000,159273.7031250000,159758.7968750000,64451.8281250000,177549.7656250000,,,
2.2159999963,17,150450.8906250000,150567.5937500000,176442.2812500000,169252.9062500000,159279.5468750000,159769.4531250000,64458.1328125000,177556.2031250000,,,
2.2199999965,17,150456.9218750000,150571.3281250000,176451.1562500000,169255.7500000000,159289.6875000000,159770.8437500000,64470.5781250000,177561.2500000000,,,
2.2239999964,17,150460.0312500000,150573.5781250000,176457.4062500000,169245.9062500000,159297.3593750000,159775.9375000000,64475.9960937500,177567.2812500000,,,
2.2279999964,17,150442.8750000000,150550.7031250000,176438.7031250000,169239.1250000000,159280.7812500000,159764.2187500000,64457.0039062500,177550.3593750000,,,
2.2319999964,17,150440.0625000000,150542.7812500000,176435.1093750000,169242.6406250000,159275.3906250000,159761.4062500000,64452.5781250000,177538.1718750000,,,
2.2359999963,17,150449.9218750000,150553.7500000000,176444.8750000000,169250.2343750000,159283.7500000000,159769.8593750000,64461.1640625000,177543.2500000000,,,
2.2399999963,17,150456.6250000000,150560.4062500000,176456.5468750000,169259.9062500000,159293.5156250000,159772.0312500000,64462.5312500000,177554.6406250000,,,
2.2439999965,17,150452.3125000000,150553.8593750000,176457.5468750000,169243.9531250000,159293.8437500000,159764.2187500000,64456.9765625000,177554.1875000000,,,
2.2479999964,17,150453.6875000000,150557.4843750000,176458.7500000000,169246.8437500000,159293.5156250000,159766.4687500000,64461.0546875000,177554.8593750000,,,
2.2519999964,17,150455.7500000000,150562.0937500000,176460.0312500000,169255.0625000000,159292.3593750000,159771.1406250000,64463.8710937500,177551.0156250000,,,
2.2559999963,17,150452.2656250000,150558.7500000000,176457.7812500000,169245.1562500000,159288.6875000000,159766.7343750000,64460.9765625000,177546.2187500000,,,
2.2599999963,17,150443.2500000000,150546.9218750000,176449.8125000000,169238.4062500000,159281.6875000000,159753.9531250000,64452.7929687500,177538.5312500000,,,
2.2639999965,17,150453.0312500000,150559.2187500000,176459.7187500000,169249.5312500000,159291.7968750000,159763.8750000000,64462.9609375000,177554.3750000000,,,
2.2679999964,17,150456.8125000000,150565.1562500000,176462.7968750000,169255.6718750000,159295.0156250000,159768.7187500000,64467.1171875000,177560.8906250000,,,
2.2719999964,17,150457.4375000000,150569.4218750000,176460.8593750000,169255.4375000000,159293.4843750000,159771.9687500000,64466.5546875000,177558.3125000000,,,
2.2759999963,17,150455.3437500000,150569.7968750000,176455.2031250000,169251.2500000000,159288.4531250000,159763.9218750000,64455.4218750000,177555.3750000000,,,
2.2799999963,17,150450.5156250000,150562.2343750000,176449.6250000000,169258.9531250000,159285.4375000000,159756.9531250000,64445.3359375000,177554.6406250000,,,
2.2839999963,17,150462.0000000000,150574.2500000000,176457.5625000000,169267.9843750000,159295.2343750000,159766.5000000000,64469.9335937500,177569.0468750000,,,
2.2879999964,17,150460.0937500000,150566.0625000000,176458.0156250000,169270.4218750000,159295.0156250000,159754.1406250000,64474.7343750000,177560.7656250000,,,
2.2919999964,17,150459.5312500000,150562.5000000000,176459.0468750000,169267.9531250000,159294.4843750000,159750.1406250000,64473.4453125000,177551.1250000000,,,
2.2959999964,17,150462.9375000000,150568.5312500000,176459.7187500000,169264.2031250000,159295.0781250000,159756.6875000000,64475.5937500000,177553.2187500000,,,
2.2999999963,17,150469.6406250000,150578.8125000000,176466.0156250000,169264.0156250000,159301.6250000000,159764.9218750000,64480.9570312500,177565.1562500000,,,
2.3039999963,18,150465.3437500000,150574.4531250000,176463.4687500000,169267.9531250000,159302.4218750000,159767.4843750000,64482.3789062500,177569.3437500000,,,
2.3079999962,18,150462.7812500000,150566.5781250000,176462.4531250000,169270.1875000000,159302.2031250000,159762.6875000000,64482.6992187500,177564.9687500000,,,
2.3119999962,18,150469.3750000000,150572.7500000000,176470.3593750000,169272.5156250000,159307.4687500000,159766.2343750000,64478.3828125000,177566.3593750000,,,
2.3159999961,18,150477.4375000000,150582.3125000000,176480.2343750000,169287.9375000000,159315.7812500000,159773.7968750000,64485.3554687500,177573.5468750000,,,
2.3199999961,18,150482.8906250000,150587.1406250000,176483.5625000000,169275.9531250000,159322.5625000000,159784.7968750000,64504.9882812500,177580.3906250000,,,
2.3239999961,18,150469.9687500000,150568.7968750000,176470.8906250000,169256.9843750000,159311.4375000000,159769.6718750000,64498.9804687500,177566.2812500000,,,
2.3279999963,18,150456.7656250000,150554.5312500000,176458.8750000000,169251.3281250000,159298.3750000000,159757.1718750000,64484.5234375000,177548.5312500000,,,
2.3319999962,18,150451.9687500000,150549.4687500000,176456.2031250000,169247.0937500000,159293.3281250000,159755.4531250000,64479.8046875000,177536.8281250000,,,
2.3359999962,18,150455.4843750000,150555.7968750000,176461.9062500000,169253.6562500000,159295.7500000000,159758.1250000000,64479.7500000000,177535.6562500000,,,
2.3399999961,18,150450.9218750000,150555.6875000000,176460.2968750000,169246.9843750000,159294.2187500000,159756.3906250000,64469.5312500000,177539.7031250000,,,
2.3439999961,18,150444.6093750000,150553.2500000000,176454.5312500000,169247.6875000000,159288.9843750000,159751.4218750000,64473.3125000000,177543.4375000000,,,
2.3479999963,18,150447.9062500000,150560.1875000000,176457.0781250000,169255.0000000000,159289.7343750000,159751.1562500000,64483.1562500000,177548.1875000000,,,
2.3519999962,18,150455.9375000000,150569.8281250000,176463.0156250000,169260.2343750000,159294.0312500000,159756.9218750000,64487.3945312500,177550.2656250000,,,
2.3559999962,18,150460.4062500000,150575.0468750000,176465.3437500000,169265.5781250000,159295.7656250000,159763.2031250000,64487.0468750000,177554.2343750000,,,
2.3599999961,18,150466.6562500000,150581.9375000000,176472.6875000000,169270.1875000000,159303.9062500000,159768.5937500000,64493.8046875000,177564.5468750000,,,
2.3639999961,18,150461.9687500000,150578.3281250000,176466.5781250000,169254.7031250000,159300.5000000000,159764.1093750000,64490.0781250000,177568.9062500000,,,
2.3679999961,18,150453.5000000000,150572.2812500000,176454.8593750000,169246.5000000000,159289.7968750000,159756.6250000000,64482.4843750000,177564.2187500000,,,
2.3719999962,18,150465.3437500000,150589.4062500000,176460.2187500000,169257.6562500000,159293.8437500000,159770.7968750000,64487.5273437500,177571.2968750000,,,
2.3759999962,18,150454.7031250000,150569.2031250000,176450.0312500000,169258.7812500000,159284.8593750000,159757.8906250000,64481.3593750000,177553.5937500000,,,
2.3799999962,18,150456.8750000000,150566.6093750000,176453.1718750000,169269.7343750000,159289.0625000000,159757.3281250000,64484.4726562500,177552.1562500000,,,
2.3839999961,18,150458.9687500000,150569.8281250000,176455.3906250000,169270.0468750000,159291.9375000000,159759.7968750000,64487.2343750000,177556.8750000000,,,
2.3879999961,18,150464.7343750000,150575.3437500000,176459.7656250000,169272.3906250000,159296.7968750000,159760.4687500000,64489.2460937500,177559.3437500000,,,
2.3919999963,18,150471.8906250000,150582.8906250000,176467.9531250000,169279.2968750000,159304.4375000000,159766.3593750000,64492.4101562500,177560.9531250000,,,
2.3959999962,18,150461.5625000000,150572.2343750000,176459.3906250000,169273.5625000000,159296.5000000000,159762.0468750000,64479.2148437500,177552.2343750000,,,
2.3999999962,18,150450.2812500000,150558.6875000000,176448.7187500000,169248.7031250000,159287.4375000000,159755.7968750000,64472.1054687500,177547.0468750000,,,
2.4039999961,18,150452.8750000000,150557.9687500000,176447.2968750000,169258.4375000000,159285.9843750000,159756.3906250000,64475.4335937500,177551.5625000000,,,
2.4079999961,18,150459.3593750000,150561.6875000000,176457.7343750000,169263.5000000000,159294.0781250000,159758.9062500000,64487.4218750000,177556.3281250000,,,
2.4119999961,18,150469.2656250000,150567.5625000000,176470.2812500000,169278.2812500000,159304.6250000000,159763.8437500000,64501.0468750000,177556.5781250000,,,
2.4159999962,18,150474.6093750000,150570.8593750000,176476.4687500000,169277.8750000000,159309.9531250000,159765.0312500000,64504.3476562500,177551.7500000000,,,
2.4199999962,18,150480.8750000000,150576.3125000000,176482.5937500000,169286.8906250000,159317.6250000000,159768.2500000000,64499.8125000000,177552.7187500000,,,
2.4239999962,18,150478.7343750000,150572.9062500000,176479.0000000000,169288.3437500000,159313.4218750000,159763.5781250000,64510.3281250000,177550.2656250000,,,
2.4279999961,18,150476.6093750000,150570.4843750000,176475.3281250000,169292.4531250000,159306.8750000000,159757.1093750000,64511.1054687500,177546.9531250000,,,
2.4319999961,19,150477.9062500000,150573.9218750000,176477.6250000000,169283.8593750000,159306.6406250000,159758.5312500000,64508.2343750000,177544.7187500000,,,
2.4359999960,19,150476.6718750000,150576.9218750000,176479.3437500000,169271.9218750000,159306.9375000000,159754.8593750000,64508.7968750000,177543.7812500000,,,
2.4399999960,19,150475.5468750000,150578.5937500000,176479.9375000000,169273.3750000000,159308.6718750000,159753.9687500000,64510.4335937500,177549.3593750000,,,
2.4439999959,19,150466.0468750000,150573.7968750000,176467.9531250000,169272.4687500000,159300.0625000000,159752.3437500000,64499.3320312500,177552.1562500000,,,
2.4479999959,19,150474.8437500000,150585.9062500000,176476.0468750000,169273.9375000000,159308.0312500000,159762.0937500000,64507.6445312500,177562.8281250000,,,
2.4519999959,19,150491.8437500000,150605.2187500000,176494.9531250000,169283.4687500000,159324.1250000000,159773.0781250000,64526.8242187500,177574.1406250000,,,
2.4559999960,19,150479.5625000000,150580.6875000000,176488.4062500000,169290.4375000000,159317.5468750000,159757.2968750000,64526.4218750000,177558.0781250000,,,
2.4599999960,19,150464.1406250000,150570.7343750000,176463.1718750000,169269.0000000000,159298.1875000000,159751.7500000000,64511.9921875000,177548.7968750000,,,
2.4639999960,19,150468.8281250000,150577.5937500000,176463.2500000000,169273.1875000000,159300.0156250000,159762.6093750000,64518.6406250000,177552.7187500000,,,
2.4679999959,19,150472.2968750000,150580.2812500000,176465.9375000000,169275.2812500000,159301.2500000000,159764.3593750000,64519.4218750000,177555.6875000000,,,
2.4719999959,19,150470.6562500000,150578.7031250000,176465.4531250000,169272.4062500000,159299.0781250000,159757.6406250000,64518.5078125000,177551.4218750000,,,
2.4759999961,19,150476.4843750000,150584.7812500000,176472.2968750000,169276.4531250000,159305.1093750000,159762.9062500000,64527.2265625000,177553.2968750000,,,
2.4799999960,19,150482.7500000000,150590.5312500000,176477.8750000000,169269.8593750000,159312.8593750000,159771.7031250000,64531.7851562500,177562.0468750000,,,
2.4839999960,19,150495.9843750000,150602.0625000000,176488.8437500000,169278.9218750000,159325.5781250000,159783.7968750000,64541.4414062500,177578.5937500000,,,
2.4879999959,19,150494.2968750000,150597.4218750000,176484.8437500000,169281.6406250000,159322.3750000000,159782.5468750000,64541.2265625000,177578.0625000000,,,
2.4919999959,19,150488.8125000000,150592.0000000000,176483.1250000000,169269.1406250000,159318.9687500000,159776.8281250000,64538.4375000000,177565.1875000000,,,
2.4959999959,19,150495.9843750000,150598.1406250000,176493.4218750000,169273.1406250000,159328.2500000000,159782.6718750000,64548.0117187500,177564.3750000000,,,
2.4999999960,19,150496.1875000000,150594.8437500000,176494.7656250000,169285.9218750000,159329.8125000000,159783.0781250000,64551.3398437500,177571.2812500000,,,
2.5039999960,19,150485.0625000000,150578.2500000000,176484.7968750000,169282.4687500000,159321.2031250000,159769.1875000000,64544.1250000000,177565.0312500000,,,
2.5079999960,19,150484.2343750000,150576.9218750000,176485.1875000000,169294.1562500000,159322.1093750000,159769.1875000000,64544.6328125000,177563.6093750000,,,
2.5119999959,19,150484.5781250000,150579.9531250000,176484.9843750000,169282.5000000000,159321.8125000000,159769.7187500000,64543.8554687500,177561.8906250000,,,
2.5159999959,19,150490.9062500000,150587.7343750000,176493.4843750000,169274.5312500000,159327.0937500000,159773.2656250000,64549.8085937500,177565.7187500000,,,
2.5199999961,19,150479.6250000000,150577.8906250000,176481.2812500000,169272.5156250000,159314.1406250000,159765.9062500000,64534.3320312500,177563.5000000000,,,
2.5239999960,19,150473.3750000000,150574.9375000000,176472.9687500000,169271.2343750000,159307.2187500000,159762.5625000000,64523.9257812500,177566.0937500000,,,
2.5279999960,19,150484.0625000000,150589.0781250000,176481.7812500000,169279.2812500000,159316.2031250000,159769.9843750000,64545.7851562500,177578.2187500000,,,
2.5319999959,19,150481.6250000000,150588.4687500000,176477.7968750000,169278.4218750000,159311.2187500000,159766.2343750000,64544.8203125000,177573.9218750000,,,
2.5359999959,19,150488.8437500000,150594.0156250000,176488.3281250000,169275.2500000000,159320.5312500000,159772.6093750000,64553.9921875000,177576.1875000000,,,
2.5399999958,19,150486.3750000000,150590.4687500000,176483.5000000000,169278.1250000000,159317.8437500000,159768.2500000000,64545.8125000000,177578.2812500000,,,
2.5439999960,19,150481.5781250000,150585.0312500000,176473.9531250000,169281.0156250000,159312.0781250000,159766.0156250000,64540.9062500000,177577.3125000000,,,
2.5479999960,19,150477.8750000000,150579.1250000000,176468.0312500000,169279.3906250000,159306.3125000000,159761.6718750000,64540.3671875000,177569.8750000000,,,
2.5519999960,19,150477.3437500000,150578.1406250000,176469.3437500000,169269.3281250000,159305.5625000000,159758.2343750000,64545.2773437500,177555.9531250000,,,
2.5559999959,19,150480.9062500000,150583.9531250000,176473.9843750000,169274.5312500000,159310.0468750000,159762.2656250000,64551.2304687500,177550.4062500000,,,
2.5599999959,20,150477.5781250000,150580.4218750000,176471.3750000000,169277.3437500000,159307.5781250000,159758.6406250000,64547.8789062500,177547.3281250000,,,
2.5639999958,20,150477.2031250000,150578.7812500000,176470.4218750000,169279.8906250000,159305.6093750000,159757.5625000000,64546.9140625000,177547.8281250000,,,
2.5679999958,20,150488.5468750000,150594.7968750000,176478.2187500000,169281.3750000000,159310.5312500000,159770.8437500000,64549.5429687500,177558.7187500000,,,
2.5719999957,20,150496.0937500000,150597.9843750000,176488.0312500000,169287.2500000000,159318.5156250000,159779.6406250000,64558.8476562500,177558.5937500000,,,
2.5759999957,20,150483.3750000000,150580.5156250000,176480.6093750000,169287.5312500000,159311.7500000000,159771.0625000000,64555.4960937500,177542.9531250000,,,
2.5799999957,20,150474.2500000000,150572.9375000000,176474.4375000000,169282.5000000000,159307.4687500000,159764.6718750000,64553.1367187500,177539.8593750000,,,
2.5839999958,20,150474.2031250000,150571.6250000000,176476.5312500000,169288.1562500000,159310.7343750000,159767.1718750000,64560.3789062500,177546.5468750000,,,
2.5879999958,20,150477.7968750000,150577.0156250000,176484.1250000000,169292.5781250000,159318.0625000000,159772.7187500000,64568.2382812500,177553.6718750000,,,
2.5919999958,20,150486.0625000000,150584.8437500000,176492.2187500000,169298.5312500000,159325.5156250000,159779.7500000000,64576.2812500000,177556.8750000000,,,
2.5959999957,20,150482.0625000000,150581.5937500000,176484.9531250000,169297.6250000000,159318.3593750000,159777.8437500000,64570.6523437500,177551.3125000000,,,
2.5999999957,20,150482.9218750000,150587.4218750000,176482.1093750000,169297.9687500000,159316.0156250000,159779.4062500000,64565.7695312500,177556.1718750000,,,
2.6039999959,20,150480.4218750000,150585.6406250000,176477.1406250000,169297.6562500000,159311.4062500000,159774.9531250000,64557.9101562500,177555.4531250000,,,
2.6079999958,20,150482.1406250000,150581.8593750000,176481.7031250000,169286.1093750000,159314.3593750000,159766.8437500000,64566.8671875000,177551.6093750000,,,
2.6119999958,20,150491.1250000000,150590.5468750000,176490.7500000000,169282.0625000000,159321.4375000000,159769.4843750000,64579.5820312500,177552.7187500000,,,
2.6159999957,20,150498.7343750000,150600.0156250000,176495.3593750000,169288.6875000000,159325.6718750000,159771.1875000000,64584.8671875000,177559.7656250000,,,
2.6199999957,20,150493.3437500000,150595.4843750000,176487.0937500000,169290.5937500000,159320.9062500000,159765.8281250000,64577.7031250000,177560.6250000000,,,
2.6239999956,20,150486.8125000000,150588.2500000000,176483.3750000000,169289.8750000000,159319.5312500000,159766.5781250000,64579.5820312500,177560.0156250000,,,
2.6279999958,20,150496.5937500000,150600.1875000000,176497.6406250000,169296.4218750000,159332.8906250000,159779.3750000000,64595.9453125000,177570.2031250000,,,
2.6319999958,20,150509.0625000000,150615.9218750000,176511.9843750000,169303.3125000000,159344.2656250000,159790.8750000000,64609.4335937500,177579.9375000000,,,
2.6359999957,20,150500.6250000000,150610.6718750000,176497.4218750000,169291.0781250000,159332.0156250000,159784.6562500000,64601.2265625000,177575.7812500000,,,
2.6399999957,20,150488.6250000000,150595.3593750000,176484.6093750000,169286.2812500000,159321.1250000000,159772.8593750000,64585.6718750000,177564.2968750000,,,
2.6439999957,20,150496.7343750000,150601.5781250000,176493.6093750000,169293.8125000000,159331.6562500000,159782.7500000000,64592.8593750000,177571.9375000000,,,
2.6479999959,20,150501.9375000000,150606.5625000000,176496.4062500000,169291.1562500000,159333.0312500000,159786.1875000000,64605.7890625000,177577.3593750000,,,
2.6519999958,20,150508.6718750000,150614.0468750000,176501.7656250000,169294.2656250000,159336.7812500000,159789.9218750000,64611.4218750000,177580.7968750000,,,
2.6559999958,20,150515.0781250000,150621.8281250000,176509.2187500000,169295.0000000000,159342.8906250000,159796.4375000000,64614.5585937500,177587.7656250000,,,
2.6599999957,20,150522.0781250000,150630.2812500000,176518.0468750000,169295.9062500000,159352.8750000000,159806.5468750000,64625.1796875000,177599.1093750000,,,
2.6639999957,20,150518.1093750000,150625.6875000000,176515.6875000000,169306.2031250000,159352.5468750000,159808.2812500000,64625.9296875000,177603.1093750000,,,
2.6679999956,20,150515.5625000000,150620.8437500000,176515.6875000000,169309.1250000000,159353.2031250000,159809.6093750000,64630.3281250000,177603.0312500000,,,
2.6719999958,20,150506.5000000000,150611.8437500000,176508.8437500000,169294.4843750000,159344.8281250000,159804.3125000000,64624.6718750000,177590.5000000000,,,
2.6759999958,20,150508.9843750000,150612.3906250000,176510.7343750000,169299.4687500000,159345.6093750000,159810.7500000000,64630.0625000000,177585.8906250000,,,
2.6799999957,20,150502.6875000000,150605.3281250000,176505.3593750000,169298.4062500000,159342.5781250000,159809.8437500000,64630.4921875000,177585.8125000000,,,
2.6839999957,20,150501.2968750000,150606.2187500000,176502.1406250000,169302.5625000000,159342.5000000000,159815.2031250000,64630.0351562500,177589.2187500000,,,
2.6879999957,21,150499.9531250000,150607.7812500000,176499.1406250000,169302.7500000000,159341.1562500000,159819.6875000000,64629.2578125000,177590.9375000000,,,
2.6919999956,21,150501.9062500000,150612.7656250000,176499.5468750000,169307.5000000000,159339.5781250000,159819.3593750000,64628.7187500000,177591.3906250000,,,
2.6959999956,21,150502.6875000000,150610.9687500000,176501.7968750000,169307.8750000000,159339.9218750000,159818.1875000000,64632.6914062500,177585.7500000000,,,
2.6999999955,21,150500.8125000000,150606.0781250000,176503.9218750000,169295.9375000000,159341.0937500000,159818.6718750000,64636.0429687500,177585.0312500000,,,
2.7039999955,21,150508.1093750000,150613.4843750000,176511.5937500000,169303.8750000000,159347.8125000000,159819.1562500000,64642.0781250000,177595.8437500000,,,
2.7079999954,21,150510.0625000000,150614.8750000000,176509.6250000000,169324.4218750000,159345.1718750000,159811.9843750000,64638.7773437500,177597.8281250000,,,
2.7119999956,21,150520.0625000000,150623.6718750000,176519.9062500000,169312.7187500000,159353.6875000000,159818.2656250000,64647.1210937500,177601.6562500000,,,
2.7159999956,21,150521.7812500000,150623.1406250000,176522.9531250000,169313.0156250000,159356.0156250000,159818.5625000000,64652.6718750000,177599.7656250000,,,
2.7199999955,21,150516.6250000000,150613.0000000000,176518.8593750000,169320.7500000000,159352.5000000000,159811.2187500000,64651.8125000000,177593.6406250000,,,
2.7239999955,21,150512.2812500000,150608.1718750000,176508.1562500000,169324.3125000000,159346.4687500000,159811.4843750000,64645.9921875000,177594.1562500000,,,
2.7279999955,21,150512.8750000000,150606.2656250000,176508.5625000000,169329.5156250000,159346.0625000000,159813.7812500000,64645.2968750000,177595.0937500000,,,
2.7319999957,21,150513.5781250000,150605.7343750000,176509.3281250000,169329.6718750000,159345.6093750000,159817.0000000000,64646.9609375000,177590.5781250000,,,
2.7359999956,21,150515.1875000000,150610.1406250000,176509.6562500000,169326.3437500000,159345.5781250000,159824.2812500000,64649.1601562500,177590.9687500000,,,
2.7399999956,21,150516.7968750000,150616.2812500000,176509.2500000000,169325.4843750000,159344.0781250000,159823.9218750000,64645.9140625000,177600.7187500000,,,
2.7439999955,21,150522.6093750000,150622.8281250000,176517.1093750000,169328.0937500000,159349.3281250000,159827.4687500000,64650.1250000000,177613.5781250000,,,
2.7479999955,21,150527.1406250000,150619.8125000000,176526.0156250000,169340.2500000000,159357.1093750000,159826.0937500000,64662.4375000000,177612.3125000000,,,
2.7519999954,21,150521.6406250000,150610.4062500000,176522.5781250000,169330.5625000000,159353.2031250000,159821.0781250000,64663.7226562500,177596.5468750000,,,
2.7559999956,21,150520.5000000000,150609.1718750000,176522.3437500000,169332.4687500000,159352.8437500000,159819.9531250000,64665.0898437500,177585.6250000000,,,
2.7599999956,21,150511.6718750000,150600.7968750000,176511.1093750000,169328.0468750000,159344.6718750000,159814.9375000000,64658.7890625000,177577.6250000000,,,
2.7639999955,21,150502.7187500000,150595.4687500000,176505.5000000000,169309.7968750000,159340.3750000000,159816.1406250000,64653.6093750000,177576.5781250000,,,
2.7679999955,21,150503.4062500000,150602.6718750000,176506.8437500000,169306.5781250000,159342.7656250000,159831.1406250000,64655.0078125000,177584.3437500000,,,
2.7719999955,21,150496.1875000000,150601.3437500000,176498.1250000000,169300.1718750000,159335.3906250000,159833.3437500000,64653.2890625000,177579.7187500000,,,
2.7759999956,21,150498.4531250000,150605.4062500000,176501.0156250000,169302.5312500000,159335.5000000000,159837.3125000000,64662.5703125000,177580.1250000000,,,
2.7799999956,21,150499.4062500000,150606.8125000000,176502.1250000000,169305.6406250000,159334.6093750000,159837.9062500000,64664.0703125000,177584.0156250000,,,
2.7839999956,21,150498.7968750000,150604.6875000000,176503.5625000000,169305.5937500000,159336.5937500000,159834.7343750000,64668.0664062500,177588.6250000000,,,
2.7879999955,21,150502.2500000000,150605.9531250000,176506.1875000000,169308.7343750000,159338.7656250000,159830.0156250000,64669.2226562500,177591.0625000000,,,
2.7919999955,21,150511.8906250000,150615.9531250000,176512.2500000000,169314.6875000000,159344.4843750000,159835.8593750000,64673.4609375000,177595.3125000000,,,
2.7959999954,21,150513.2187500000,150618.0937500000,176515.9531250000,169312.7968750000,159348.0000000000,159842.8281250000,64676.9453125000,177592.4062500000,,,
2.7999999956,21,150522.6718750000,150625.5312500000,176530.1250000000,169310.5312500000,159362.2968750000,159854.4687500000,64690.6250000000,177600.8125000000,,,
2.8039999956,21,150510.2812500000,150612.7343750000,176511.1875000000,169311.6250000000,159346.6562500000,159843.7187500000,64679.2812500000,177595.4062500000,,,
2.8079999955,21,150508.7968750000,150609.8125000000,176506.6250000000,169315.2500000000,159341.8593750000,159840.8437500000,64670.8828125000,177591.7343750000,,,
2.8119999955,21,150526.1562500000,150626.2500000000,176523.3906250000,169326.2500000000,159354.7343750000,159852.2812500000,64684.3750000000,177597.8281250000,,,
2.8159999955,22,150531.7031250000,150628.0781250000,176527.3593750000,169318.6562500000,159357.1406250000,159853.1406250000,64692.7460937500,177594.9375000000,,,
2.8199999954,22,150536.8906250000,150632.8281250000,176527.7656250000,169325.1718750000,159359.7968750000,159856.5468750000,64693.2812500000,177599.3906250000,,,
2.8239999954,22,150537.5000000000,150636.0468750000,176526.3437500000,169323.3437500000,159359.5312500000,159857.3437500000,64694.3789062500,177609.3593750000,,,
2.8279999953,22,150530.8281250000,150626.1250000000,176518.7812500000,169316.6406250000,159353.0937500000,159848.0156250000,64693.3632812500,177601.8750000000,,,
2.8319999953,22,150537.2812500000,150634.4843750000,176523.6562500000,169320.8750000000,159357.5937500000,159853.8906250000,64699.0742187500,177604.5312500000,,,
2.8359999952,22,150535.4062500000,150629.2343750000,176525.2343750000,169329.5625000000,159357.7500000000,159852.0156250000,64703.0429687500,177601.2031250000,,,
2.8399999954,22,150529.6718750000,150623.4375000000,176523.2812500000,169325.4062500000,159355.5000000000,159849.6406250000,64702.9101562500,177599.6562500000,,,
2.8439999954,22,150523.3437500000,150619.2812500000,176520.8593750000,169316.0468750000,159352.5781250000,159851.3125000000,64702.0781250000,177606.8593750000,,,
2.8479999953,22,150520.3281250000,150618.6562500000,176515.2343750000,169311.1093750000,159349.0937500000,159854.5625000000,64700.6054687500,177611.5000000000,,,
2.8519999953,22,150522.4531250000,150620.7500000000,176514.3437500000,169312.7187500000,159348.0156250000,159856.1718750000,64699.9335937500,177608.6406250000,,,
2.8559999953,22,150524.7031250000,150625.5781250000,176515.8750000000,169315.2187500000,159349.6093750000,159863.2187500000,64703.4179687500,177607.9375000000,,,
2.8599999954,22,150527.5781250000,150633.5781250000,176518.4218750000,169315.7343750000,159352.9062500000,159869.8437500000,64706.4492187500,177615.7968750000,,,
2.8639999954,22,150525.4062500000,150625.9062500000,176517.7500000000,169316.1562500000,159353.2187500000,159864.9843750000,64709.0273437500,177614.8593750000,,,
2.8679999954,22,150520.2187500000,150620.2187500000,176514.2343750000,169318.6250000000,159350.4843750000,159863.7343750000,64709.5351562500,177608.0937500000,,,
2.8719999953,22,150516.4218750000,150618.2343750000,176509.6875000000,169301.5625000000,159344.5000000000,159869.4218750000,64704.7890625000,177600.1093750000,,,
2.8759999953,22,150516.5000000000,150616.0156250000,176509.4375000000,169313.2812500000,159342.0937500000,159872.0937500000,64708.4609375000,177595.2187500000,,,
2.8799999952,22,150518.5625000000,150617.2656250000,176513.6250000000,169314.5468750000,159346.4062500000,159871.0468750000,64718.2539062500,177598.8750000000,,,
2.8839999954,22,150517.0000000000,150618.2812500000,176510.9218750000,169316.8281250000,159346.0156250000,159872.4218750000,64716.1601562500,177607.7031250000,,,
2.8879999954,22,150521.6406250000,150626.6562500000,176516.2812500000,169318.5937500000,159351.0312500000,159885.8281250000,64721.4179687500,177618.8906250000,,,
2.8919999953,22,150526.4218750000,150631.8906250000,176520.5937500000,169322.6406250000,159353.7812500000,159893.0468750000,64728.2851562500,177621.4843750000,,,
2.8959999953,22,150517.5781250000,150624.3437500000,176507.7187500000,169322.5937500000,159343.0000000000,159883.9531250000,64723.4023437500,177611.6718750000,,,
2.8999999953,22,150512.7968750000,150618.0781250000,176502.4687500000,169319.8593750000,159340.2968750000,159875.4531250000,64723.7226562500,177607.3437500000,,,
2.9039999954,22,150510.3750000000,150615.3437500000,176503.1718750000,169322.3593750000,159340.1562500000,159869.7656250000,64720.6914062500,177610.6562500000,,,
2.9079999954,22,150504.3437500000,150608.0937500000,176498.3906250000,169310.9531250000,159334.0781250000,159864.7187500000,64713.5039062500,177608.6093750000,,,
2.9119999954,22,150512.8281250000,150613.2187500000,176506.9218750000,169317.5468750000,159341.2343750000,159868.9531250000,64720.0234375000,177607.7031250000,,,
2.9159999953,22,150511.5312500000,150608.2812500000,176506.4375000000,169320.3906250000,159338.5781250000,159869.3593750000,64718.9218750000,177598.1718750000,,,
2.9199999953,22,150505.8437500000,150600.5625000000,176502.7656250000,169315.4843750000,159334.0781250000,159872.9531250000,64718.7890625000,177592.2812500000,,,
2.9239999952,22,150504.4531250000,150598.6250000000,176501.6093750000,169307.5468750000,159333.9687500000,159875.8750000000,64720.1835937500,177594.7500000000,,,
2.9279999954,22,150514.7500000000,150611.0000000000,176510.5937500000,169320.2031250000,159342.6875000000,159885.1875000000,64727.9882812500,177606.0937500000,,,
2.9319999954,22,150517.7656250000,150609.7656250000,176516.3125000000,169324.6406250000,159345.6875000000,159884.9687500000,64732.8437500000,177601.3750000000,,,
2.9359999953,22,150516.5468750000,150609.5468750000,176512.6875000000,169320.7500000000,159344.5312500000,159886.2656250000,64734.9101562500,177595.3125000000,,,
2.9399999953,22,150517.3281250000,150610.3281250000,176516.0937500000,169322.0781250000,159347.8281250000,159885.7031250000,64743.5468750000,177597.9687500000,,,
2.9439999952,23,150513.5937500000,150605.9531250000,176513.5156250000,169318.8125000000,159345.2343750000,159879.3437500000,64739.4414062500,177598.4218750000,,,
2.9479999952,23,150517.8906250000,150612.4375000000,176517.6406250000,169319.0000000000,159349.8125000000,159884.6562500000,64740.9726562500,177600.3281250000,,,
2.9519999952,23,150530.9531250000,150627.9218750000,176531.9218750000,169319.3281250000,159362.3437500000,159896.0000000000,64753.0664062500,177608.3750000000,,,
2.9559999951,23,150534.3125000000,150632.3125000000,176536.5312500000,169324.7656250000,159364.7812500000,159895.3750000000,64757.8164062500,177610.4375000000,,,
2.9599999951,23,150534.6562500000,150633.3906250000,176535.8125000000,169332.8906250000,159365.7812500000,159896.4062500000,64759.4765625000,177615.0781250000,,,
