Time:250Hz,Epoch,Channel 1,Channel 2,Channel 3,Channel 4,Channel 5,Channel 6,Channel 7,Channel 8,Event Id,Event Date,Event Duration
0.0000000000,0,137953.3437500000,114576.5546875000,134464.8437500000,143681.1093750000,111876.6171875000,126832.0546875000,135974.8437500000,128023.1953125000,,,
0.0040000000,0,137739.2812500000,114186.1328125000,134273.2500000000,143223.8125000000,111587.2031250000,126421.2734375000,135667.1093750000,128092.6875000000,,,
0.0079999999,0,135444.8906250000,111634.9218750000,131964.1718750000,140587.2031250000,109150.9296875000,123837.8203125000,133210.7812500000,126248.9921875000,,,
0.0119999999,0,134247.0937500000,110456.5468750000,130740.5937500000,139429.9843750000,107943.8828125000,122662.7421875000,132012.1562500000,125047.9296875000,,,
0.0159999998,0,135802.8593750000,112282.6250000000,132296.2500000000,141326.7968750000,109632.3281250000,124517.0390625000,133723.1875000000,126155.1718750000,,,
0.0199999998,0,137970.0625000000,114597.9062500000,134493.9687500000,143680.6718750000,111894.4765625000,126846.0781250000,135988.1562500000,128046.9296875000,,,
0.0240000000,0,137750.3906250000,114198.9296875000,134284.2500000000,143238.9375000000,111598.3906250000,126426.7187500000,135666.5781250000,128103.6875000000,,,
0.0279999999,0,135459.8125000000,111656.2500000000,131973.8281250000,140603.2656250000,109165.3281250000,123848.5546875000,133211.2343750000,126264.1484375000,,,
0.0319999999,0,134251.5781250000,110461.1875000000,130740.9687500000,139420.0156250000,107945.6484375000,122654.2968750000,132009.4687500000,125053.8828125000,,,
0.0359999998,0,135763.0625000000,112233.5937500000,132259.7500000000,141286.9375000000,109593.6796875000,124458.2968750000,133683.4375000000,126110.7265625000,,,
0.0399999998,0,137922.2343750000,114555.9843750000,134428.0156250000,143641.9218750000,111840.9453125000,126801.3984375000,135939.2187500000,127996.0000000000,,,
0.0440000000,0,137780.7187500000,114250.3203125000,134303.0000000000,143252.7031250000,111624.4375000000,126471.4296875000,135703.8281250000,128130.3203125000,,,
0.0480000000,0,135511.7656250000,111721.8828125000,132022.5000000000,140640.3593750000,109217.3437500000,123916.3281250000,133278.2031250000,126313.2890625000,,,
0.0519999999,0,134275.0781250000,110490.9843750000,130761.0312500000,139443.0312500000,107972.4765625000,122692.9453125000,132024.2812500000,125077.3515625000,,,
0.0559999999,0,135778.3437500000,112253.6250000000,132260.7343750000,141307.0468750000,109604.7578125000,124488.9296875000,133682.6562500000,126130.8125000000,,,
0.0599999998,0,137970.1406250000,114604.0781250000,134477.2343750000,143695.3750000000,111892.6796875000,126859.2734375000,135998.7656250000,128039.5000000000,,,
0.0639999998,0,137826.0000000000,114288.7031250000,134356.6093750000,143307.1250000000,111679.8203125000,126526.0937500000,135757.5937500000,128165.7812500000,,,
0.0680000000,0,135549.7656250000,111754.4921875000,132064.8593750000,140683.1406250000,109264.0625000000,123964.0468750000,133321.2343750000,126346.4375000000,,,
0.0719999999,0,134293.2343750000,110504.9921875000,130780.1875000000,139453.2968750000,107994.7109375000,122717.8671875000,132050.6093750000,125099.7187500000,,,
0.0759999999,0,135778.7031250000,112251.5078125000,132262.2656250000,141309.7343750000,109610.3359375000,124496.7343750000,133717.0156250000,126137.6796875000,,,
0.0799999998,0,137945.5156250000,114579.9375000000,134452.7656250000,143668.8125000000,111874.2265625000,126848.0937500000,136014.2968750000,128022.2578125000,,,
0.0839999998,0,137810.2031250000,114282.1328125000,134336.6562500000,143295.4531250000,111669.1171875000,126530.0625000000,135785.9062500000,128158.5937500000,,,
0.0880000000,0,135553.8437500000,111766.1093750000,132069.9218750000,140686.4218750000,109275.7890625000,123979.7890625000,133366.6406250000,126356.0156250000,,,
0.0919999999,0,134296.6718750000,110512.1250000000,130789.7031250000,139444.6093750000,108004.8750000000,122725.5078125000,132104.6875000000,125110.0781250000,,,
0.0959999999,0,135739.1406250000,112210.5000000000,132230.7812500000,141243.3750000000,109577.4531250000,124459.8828125000,133700.4062500000,126105.8437500000,,,
0.0999999999,0,137877.4687500000,114505.5000000000,134392.2656250000,143580.6250000000,111810.7421875000,126781.1718750000,135943.9218750000,127954.2890625000,,,
0.1039999998,0,137777.9687500000,114245.2734375000,134308.5781250000,143253.1250000000,111639.4843750000,126500.8828125000,135758.1250000000,128118.4375000000,,,
0.1079999998,0,135541.3750000000,111748.0312500000,132056.2656250000,140659.3593750000,109262.1093750000,123975.9531250000,133364.9218750000,126340.3515625000,,,
0.1120000000,0,134267.7343750000,110476.9296875000,130756.7968750000,139398.4687500000,107973.0390625000,122708.2890625000,132081.4531250000,125085.2109375000,,,
0.1159999999,0,135728.6406250000,112198.3750000000,132214.0937500000,141207.0781250000,109561.8437500000,124460.8984375000,133688.6718750000,126099.1953125000,,,
0.1199999999,0,137912.4531250000,114542.6015625000,134419.4843750000,143616.2968750000,111842.2578125000,126827.2265625000,135972.2187500000,127986.3437500000,,,
0.1239999998,0,137829.0781250000,114303.4296875000,134355.8593750000,143294.7343750000,111692.8046875000,126567.3984375000,135794.0625000000,128168.8125000000,,,
0.1279999998,1,135568.8906250000,111783.4609375000,132079.8437500000,140685.6718750000,109291.4531250000,124024.5546875000,133391.1875000000,126374.4140625000,,,
0.1319999998,1,134274.6406250000,110490.7734375000,130761.3515625000,139419.6406250000,107980.7578125000,122736.5625000000,132100.7187500000,125101.5703125000,,,
0.1359999997,1,135716.3593750000,112192.5000000000,132200.4375000000,141221.3750000000,109551.3046875000,124471.0937500000,133689.6093750000,126096.9375000000,,,
0.1399999997,1,137902.8437500000,114538.3906250000,134412.4531250000,143611.7343750000,111836.0625000000,126838.5703125000,135978.0156250000,127985.3515625000,,,
0.1439999996,1,137827.9062500000,114303.8281250000,134352.9218750000,143308.7812500000,111691.2500000000,126583.4687500000,135816.4062500000,128169.6718750000,,,
0.1479999996,1,135584.3906250000,111788.8828125000,132095.7343750000,140718.7343750000,109305.1796875000,124031.7734375000,133406.5468750000,126386.0000000000,,,
0.1519999998,1,134250.5625000000,110446.6484375000,130737.4062500000,139381.3906250000,107954.4765625000,122695.4921875000,132064.7187500000,125076.1406250000,,,
0.1559999997,1,135669.7500000000,112129.3906250000,132153.3437500000,141151.0781250000,109503.4765625000,124412.3750000000,133633.5156250000,126050.1875000000,,,
0.1599999997,1,137874.0312500000,114501.1328125000,134380.4375000000,143570.5468750000,111805.4843750000,126799.1953125000,135940.7343750000,127951.2031250000,,,
0.1639999996,1,137833.3437500000,114304.6328125000,134358.5000000000,143303.7187500000,111698.0625000000,126579.2578125000,135821.6093750000,128167.6015625000,,,
0.1679999996,1,135601.5625000000,111812.0000000000,132111.2500000000,140722.3593750000,109322.9921875000,124054.8125000000,133429.2656250000,126403.0859375000,,,
0.1719999998,1,134259.1406250000,110462.7187500000,130740.9453125000,139380.3125000000,107958.8437500000,122709.0156250000,132070.0625000000,125094.6015625000,,,
0.1759999997,1,135655.2343750000,112115.3359375000,132135.0000000000,141137.6718750000,109485.7187500000,124396.5234375000,133618.7656250000,126046.0078125000,,,
0.1799999997,1,137859.9062500000,114487.3750000000,134366.7812500000,143562.5000000000,111794.7265625000,126789.4609375000,135936.3281250000,127942.6250000000,,,
0.1839999997,1,137838.4687500000,114312.5156250000,134366.5156250000,143324.0781250000,111708.8984375000,126591.3750000000,135829.0937500000,128171.5468750000,,,
0.1879999996,1,135611.0781250000,111819.7812500000,132125.1250000000,140752.3437500000,109337.1562500000,124060.6875000000,133436.7187500000,126406.2265625000,,,
0.1919999996,1,134257.0000000000,110459.0156250000,130743.3281250000,139391.0937500000,107961.3984375000,122697.4296875000,132067.9687500000,125087.5703125000,,,
0.1959999998,1,135622.4062500000,112082.2578125000,132106.2187500000,141101.2968750000,109454.0468750000,124351.1171875000,133584.2187500000,126010.2500000000,,,
0.1999999997,1,137838.3593750000,114474.9765625000,134343.4531250000,143545.9218750000,111769.8906250000,126760.6796875000,135908.4687500000,127916.6015625000,,,
0.2039999997,1,137845.6875000000,114333.6562500000,134372.3593750000,143335.0156250000,111714.5000000000,126595.0000000000,135835.7812500000,128175.6484375000,,,
0.2079999996,1,135627.4687500000,111849.2812500000,132138.7031250000,140769.1562500000,109351.7187500000,124077.0781250000,133455.9531250000,126425.6171875000,,,
0.2119999996,1,134259.5468750000,110468.2187500000,130743.0390625000,139410.6718750000,107959.1953125000,122696.9140625000,132069.2500000000,125095.9921875000,,,
0.2159999998,1,135607.1093750000,112070.6484375000,132084.2500000000,141100.8125000000,109432.2421875000,124336.6562500000,133563.5937500000,126003.6250000000,,,
0.2199999997,1,137825.6562500000,114462.4531250000,134325.9843750000,143528.2187500000,111753.7968750000,126750.7031250000,135889.3593750000,127907.1640625000,,,
0.2239999997,1,137862.0781250000,114351.9765625000,134381.5312500000,143347.0000000000,111728.0781250000,126618.9765625000,135841.5937500000,128186.7578125000,,,
0.2279999997,1,135679.1250000000,111905.0468750000,132186.5468750000,140839.4062500000,109401.8515625000,124135.2265625000,133507.8593750000,126469.8750000000,,,
0.2319999996,1,134283.5000000000,110489.1093750000,130765.1875000000,139426.4531250000,107978.2656250000,122717.7343750000,132091.5156250000,125118.3906250000,,,
0.2359999996,1,135602.7656250000,112059.7343750000,132078.5625000000,141079.3125000000,109421.2656250000,124324.3984375000,133548.8437500000,125998.0703125000,,,
0.2399999998,1,137816.1093750000,114449.6562500000,134317.1562500000,143514.6250000000,111739.6328125000,126735.6250000000,135870.1562500000,127894.1250000000,,,
0.2439999997,1,137834.8281250000,114323.7578125000,134358.1406250000,143319.9687500000,111697.2265625000,126586.4453125000,135812.6562500000,128156.7968750000,,,
0.2479999997,1,135632.5625000000,111854.9687500000,132140.9843750000,140770.8750000000,109349.7109375000,124082.3046875000,133445.7031250000,126424.2265625000,,,
0.2519999996,1,134241.5781250000,110446.1406250000,130721.1484375000,139375.2656250000,107932.0546875000,122673.1015625000,132031.7031250000,125080.0859375000,,,
0.2559999996,2,135561.0625000000,112018.9843750000,132039.8281250000,141050.9218750000,109381.4375000000,124283.5781250000,133502.0312500000,125959.1562500000,,,
0.2599999995,2,137777.4218750000,114411.7343750000,134281.6250000000,143496.9687500000,111702.7812500000,126701.1875000000,135830.5156250000,127854.7265625000,,,
0.2639999995,2,137847.8281250000,114340.6562500000,134370.2343750000,143364.4687500000,111711.3125000000,126613.4765625000,135825.5000000000,128164.2500000000,,,
0.2679999995,2,135655.1875000000,111880.0234375000,132167.1875000000,140815.2343750000,109375.1093750000,124121.4687500000,133473.2031250000,126445.2812500000,,,
0.2719999994,2,134240.7500000000,110450.8359375000,130727.1328125000,139392.3593750000,107936.0781250000,122689.2734375000,132040.3125000000,125085.7187500000,,,
0.2759999994,2,135541.4062500000,112009.5234375000,132020.8437500000,141042.3437500000,109360.7578125000,124276.5781250000,133484.5156250000,125953.8984375000,,,
0.2799999996,2,137755.0781250000,114398.9375000000,134254.5781250000,143476.6875000000,111677.0859375000,126687.5390625000,135806.5937500000,127844.6406250000,,,
0.2839999995,2,137841.6406250000,114342.8515625000,134360.0000000000,143361.6250000000,111704.7421875000,126612.8593750000,135820.5312500000,128163.6328125000,,,
0.2879999995,2,135658.9062500000,111892.1171875000,132166.0000000000,140822.6718750000,109377.9531250000,124124.6875000000,133475.3437500000,126453.7265625000,,,
0.2919999994,2,134239.3437500000,110452.6015625000,130720.6406250000,139399.4375000000,107929.2890625000,122681.2812500000,132032.2656250000,125090.6796875000,,,
0.2959999994,2,135520.6093750000,111986.0781250000,131996.2187500000,141025.0468750000,109333.4531250000,124245.7890625000,133456.2500000000,125938.7421875000,,,
0.2999999996,2,137746.4531250000,114395.3203125000,134246.0312500000,143492.1718750000,111668.4218750000,126676.1328125000,135799.9062500000,127840.2421875000,,,
0.3039999995,2,137860.0156250000,114373.7812500000,134383.7031250000,143393.7812500000,111728.5312500000,126637.2421875000,135843.6250000000,128191.0468750000,,,
0.3079999995,2,135671.1093750000,111920.1250000000,132189.3125000000,140838.1406250000,109402.6796875000,124151.4531250000,133501.7187500000,126485.8593750000,,,
0.3119999995,2,134227.8437500000,110455.9609375000,130718.0390625000,139386.2187500000,107929.2890625000,122683.2656250000,132031.3750000000,125110.9609375000,,,
0.3159999994,2,135487.1406250000,111965.7734375000,131970.3593750000,140997.5000000000,109312.1015625000,124222.9609375000,133429.9375000000,125936.5937500000,,,
0.3199999994,2,137732.9531250000,114391.1640625000,134237.3437500000,143479.5625000000,111664.6406250000,126673.2421875000,135792.3750000000,127845.7421875000,,,
0.3239999996,2,137862.1875000000,114376.3281250000,134385.3750000000,143397.7343750000,111735.9843750000,126640.2187500000,135846.9375000000,128199.1250000000,,,
0.3279999995,2,135695.4687500000,111935.2500000000,132207.3125000000,140855.8750000000,109424.8125000000,124164.9453125000,133514.9687500000,126507.7187500000,,,
0.3319999995,2,134240.2656250000,110452.2578125000,130725.9765625000,139385.3593750000,107940.5312500000,122679.0234375000,132034.8437500000,125117.9062500000,,,
0.3359999994,2,135489.9531250000,111954.0234375000,131968.1406250000,140976.3281250000,109314.4609375000,124215.5312500000,133431.2343750000,125934.5312500000,,,
0.3399999994,2,137724.5312500000,114369.8359375000,134222.6718750000,143442.6250000000,111655.0625000000,126654.8125000000,135781.3281250000,127832.0312500000,,,
0.3439999996,2,137877.9531250000,114387.4296875000,134396.9062500000,143401.3437500000,111754.8671875000,126654.4062500000,135868.3593750000,128207.6484375000,,,
0.3479999995,2,135730.6875000000,111971.0859375000,132239.5781250000,140880.4531250000,109464.7968750000,124203.3281250000,133560.3281250000,126540.9531250000,,,
0.3519999995,2,134255.2343750000,110464.6171875000,130737.3203125000,139374.2031250000,107956.0546875000,122696.4843750000,132053.7031250000,125139.8984375000,,,
0.3559999994,2,135475.9062500000,111936.4296875000,131951.3750000000,140944.7656250000,109300.9140625000,124204.3750000000,133418.6250000000,125929.5468750000,,,
0.3599999994,2,137713.1250000000,114361.2265625000,134212.0937500000,143427.2031250000,111648.7656250000,126657.8203125000,135782.0000000000,127824.1718750000,,,
0.3639999994,2,137896.7500000000,114414.6328125000,134415.0000000000,143418.2187500000,111778.9843750000,126695.8515625000,135900.6250000000,128227.6562500000,,,
0.3679999996,2,135764.3750000000,112014.6406250000,132273.5000000000,140917.0000000000,109506.0234375000,124263.8125000000,133609.3750000000,126577.6953125000,,,
0.3719999995,2,134294.2343750000,110512.2812500000,130780.1875000000,139415.6718750000,108003.0781250000,122756.6250000000,132112.1718750000,125183.8906250000,,,
0.3759999995,2,135488.6718750000,111947.4296875000,131965.9375000000,140956.0781250000,109316.5312500000,124224.8125000000,133446.1093750000,125944.9921875000,,,
0.3799999994,2,137656.1093750000,114295.4296875000,134152.8281250000,143369.0312500000,111591.6562500000,126594.7578125000,135728.7343750000,127765.6796875000,,,
0.3839999994,3,137815.5625000000,114324.3984375000,134330.2031250000,143339.4218750000,111697.5546875000,126604.9531250000,135819.5937500000,128141.2890625000,,,
0.3879999993,3,135744.9062500000,111986.0781250000,132251.4531250000,140904.0468750000,109490.4140625000,124231.3046875000,133591.3593750000,126552.6171875000,,,
0.3919999993,3,134301.9218750000,110506.7343750000,130783.3203125000,139418.9375000000,108010.2656250000,122749.9453125000,132109.3281250000,125190.2968750000,,,
0.3959999993,3,135458.4375000000,111905.6093750000,131938.4375000000,140910.4531250000,109288.0703125000,124184.3125000000,133410.2187500000,125917.8984375000,,,
0.3999999992,3,137605.8437500000,114236.8515625000,134108.4062500000,143306.8750000000,111543.5156250000,126543.9062500000,135679.1250000000,127717.6640625000,,,
0.4039999992,3,137798.7968750000,114305.4921875000,134320.3750000000,143320.7187500000,111686.7421875000,126597.3046875000,135805.2500000000,128125.0625000000,,,
0.4079999994,3,135762.8750000000,112005.9296875000,132276.4531250000,140924.4375000000,109511.8203125000,124264.4843750000,133611.6093750000,126573.9687500000,,,
0.4119999993,3,134307.2656250000,110509.1484375000,130797.4843750000,139434.6562500000,108021.2343750000,122763.7343750000,132121.0781250000,125205.5312500000,,,
0.4159999993,3,135437.4375000000,111877.7421875000,131920.3906250000,140893.9375000000,109267.3906250000,124160.9218750000,133379.3281250000,125907.7109375000,,,
0.4199999992,3,137576.7968750000,114206.9765625000,134081.6562500000,143273.4062500000,111517.9765625000,126512.8125000000,135630.3750000000,127696.0468750000,,,
0.4239999992,3,137770.4218750000,114278.8593750000,134291.5468750000,143287.4687500000,111660.8046875000,126572.2031250000,135760.5937500000,128100.4140625000,,,
0.4279999994,3,135776.8750000000,112022.7734375000,132288.9531250000,140937.4218750000,109528.1015625000,124279.6093750000,133614.6093750000,126591.9453125000,,,
0.4319999993,3,134345.0000000000,110549.6171875000,130832.1406250000,139463.8437500000,108059.0000000000,122801.5468750000,132147.4062500000,125250.1093750000,,,
0.4359999993,3,135447.8437500000,111890.7500000000,131926.2187500000,140892.0000000000,109276.8281250000,124175.9375000000,133381.6093750000,125925.5234375000,,,
0.4399999992,3,137575.1093750000,114205.5781250000,134073.6406250000,143279.8125000000,111513.1484375000,126510.5390625000,135621.2500000000,127691.8593750000,,,
0.4439999992,3,137799.0781250000,114311.0468750000,134314.5625000000,143324.0781250000,111686.6875000000,126596.6875000000,135779.9062500000,128119.1093750000,,,
0.4479999992,3,135808.0156250000,112056.6484375000,132313.4218750000,140960.2656250000,109552.6718750000,124306.8046875000,133625.7656250000,126614.8750000000,,,
0.4519999993,3,134366.3750000000,110567.5390625000,130851.6953125000,139474.8281250000,108072.6796875000,122812.3046875000,132145.5625000000,125265.2656250000,,,
0.4559999993,3,135431.8906250000,111869.8593750000,131906.3125000000,140886.5156250000,109248.6171875000,124141.7187500000,133338.8750000000,125905.5390625000,,,
0.4599999993,3,137534.0468750000,114161.9687500000,134026.9531250000,143237.1718750000,111458.2187500000,126456.1171875000,135558.8906250000,127644.4140625000,,,
0.4639999992,3,137780.4062500000,114292.7265625000,134293.5781250000,143312.5937500000,111660.1328125000,126570.6171875000,135748.4375000000,128088.1562500000,,,
0.4679999992,3,135818.0781250000,112068.4218750000,132324.5000000000,140994.0937500000,109558.3281250000,124310.1328125000,133629.2500000000,126610.2343750000,,,
0.4719999994,3,134375.2500000000,110582.4765625000,130856.1718750000,139509.4687500000,108072.8125000000,122817.4531250000,132144.0937500000,125266.5000000000,,,
0.4759999993,3,135410.7187500000,111848.0781250000,131882.2500000000,140871.8437500000,109219.3515625000,124111.4375000000,133305.6718750000,125879.0937500000,,,
0.4799999993,3,137513.5468750000,114143.3750000000,134007.9843750000,143233.3125000000,111433.7578125000,126426.2109375000,135526.5156250000,127614.6640625000,,,
0.4839999992,3,137787.4531250000,114304.9296875000,134303.2187500000,143330.3281250000,111661.2656250000,126568.1796875000,135737.2812500000,128079.7890625000,,,
0.4879999992,3,135843.3125000000,112097.4687500000,132351.3125000000,141020.4062500000,109575.1171875000,124325.2343750000,133634.9375000000,126621.3125000000,,,
0.4919999992,3,134398.4375000000,110604.6093750000,130881.8671875000,139535.7187500000,108089.6562500000,122827.1640625000,132154.2343750000,125279.5390625000,,,
0.4959999993,3,135417.3281250000,111852.3125000000,131892.8125000000,140876.7968750000,109221.0703125000,124105.5625000000,133300.2500000000,125881.5546875000,,,
0.4999999993,3,137483.6718750000,114106.8437500000,133978.9843750000,143182.8281250000,111399.7734375000,126385.5468750000,135483.1406250000,127583.6875000000,,,
0.5039999993,3,137762.4843750000,114275.3671875000,134277.4375000000,143293.2343750000,111637.3671875000,126541.3515625000,135708.3437500000,128051.0937500000,,,
0.5079999992,3,135864.7343750000,112117.2343750000,132373.3906250000,141037.0312500000,109601.0546875000,124352.2734375000,133655.5156250000,126639.1718750000,,,
0.5119999992,4,134415.1406250000,110620.5625000000,130897.0468750000,139532.1562500000,108106.9296875000,122849.6953125000,132162.2656250000,125301.0234375000,,,
0.5159999991,4,135418.0468750000,111851.4062500000,131892.0937500000,140865.1562500000,109223.1328125000,124115.3750000000,133297.1718750000,125890.5468750000,,,
0.5199999991,4,137490.5625000000,114111.5390625000,133984.8906250000,143187.4375000000,111405.0546875000,126401.2343750000,135487.0625000000,127595.3281250000,,,
0.5239999990,4,137777.7500000000,114289.4218750000,134289.4531250000,143304.8906250000,111645.7890625000,126560.5625000000,135715.6406250000,128062.8671875000,,,
0.5279999990,4,135885.3906250000,112131.3437500000,132389.9062500000,141048.7031250000,109613.4765625000,124369.4921875000,133669.2656250000,126652.3750000000,,,
0.5319999990,4,134428.8281250000,110623.4062500000,130907.1875000000,139543.6406250000,108113.4531250000,122854.1718750000,132173.4843750000,125305.3906250000,,,
0.5359999991,4,135401.6250000000,111823.8046875000,131871.6562500000,140840.5156250000,109197.4687500000,124080.6171875000,133273.8125000000,125863.1015625000,,,
0.5399999991,4,137444.9375000000,114058.5703125000,133934.2187500000,143144.0625000000,111352.7031250000,126339.0625000000,135433.3593750000,127535.7031250000,,,
0.5439999991,4,137756.9375000000,114268.9843750000,134267.7343750000,143303.8281250000,111628.5625000000,126537.0078125000,135698.1718750000,128029.8437500000,,,
0.5479999990,4,135892.3750000000,112144.5703125000,132396.7031250000,141080.5468750000,109626.4062500000,124378.6875000000,133682.0625000000,126653.2578125000,,,
0.5519999990,4,134427.8750000000,110624.6953125000,130905.9765625000,139564.9843750000,108117.2031250000,122852.2734375000,132176.4843750000,125305.8203125000,,,
0.5559999992,4,135369.9531250000,111791.3515625000,131838.6406250000,140828.9531250000,109165.4140625000,124048.0000000000,133240.2031250000,125837.0078125000,,,
0.5599999991,4,137427.8593750000,114046.0390625000,133917.9687500000,143144.3593750000,111333.5468750000,126324.0390625000,135414.9687500000,127519.0468750000,,,
0.5639999991,4,137751.0781250000,114267.5625000000,134260.5937500000,143316.7812500000,111617.0859375000,126531.3750000000,135684.2812500000,128018.9296875000,,,
0.5679999990,4,135895.9687500000,112151.4921875000,132400.0468750000,141107.3906250000,109624.9296875000,124383.1953125000,133676.1875000000,126649.6875000000,,,
0.5719999990,4,134438.3125000000,110636.2812500000,130921.1640625000,139578.4531250000,108121.1484375000,122860.1015625000,132174.1875000000,125311.9921875000,,,
0.5759999990,4,135375.1250000000,111796.3906250000,131846.3906250000,140828.2968750000,109163.9921875000,124051.0312500000,133232.9375000000,125839.7656250000,,,
0.5799999991,4,137434.6718750000,114054.9453125000,133925.3125000000,143160.9218750000,111336.9843750000,126330.9062500000,135414.2343750000,127519.2890625000,,,
0.5839999991,4,137800.0937500000,114318.2890625000,134310.6406250000,143363.3437500000,111664.3984375000,126578.5546875000,135728.8125000000,128056.2656250000,,,
0.5879999991,4,135959.8750000000,112211.6484375000,132460.2343750000,141161.6250000000,109683.4843750000,124439.4921875000,133733.5937500000,126704.8359375000,,,
0.5919999990,4,134475.4062500000,110669.5390625000,130950.1015625000,139617.4687500000,108153.3046875000,122893.5000000000,132204.8906250000,125353.5625000000,,,
0.5959999990,4,135376.7187500000,111793.9218750000,131845.6718750000,140843.5625000000,109163.9140625000,124044.5390625000,133226.6875000000,125850.7109375000,,,
0.5999999992,4,137392.2343750000,114010.2578125000,133880.4375000000,143108.8281250000,111293.6953125000,126287.3750000000,135366.7656250000,127487.2890625000,,,
0.6039999991,4,137759.0468750000,114280.3046875000,134269.2031250000,143321.9062500000,111626.2890625000,126545.7265625000,135686.9062500000,128020.6171875000,,,
0.6079999991,4,135947.8593750000,112211.5937500000,132453.2187500000,141154.3593750000,109680.6953125000,124444.6484375000,133724.8281250000,126699.9531250000,,,
0.6119999990,4,134468.7812500000,110671.5546875000,130948.5703125000,139608.2968750000,108153.7890625000,122898.6171875000,132202.9687500000,125354.4218750000,,,
0.6159999990,4,135345.7812500000,111762.2187500000,131815.3593750000,140800.2187500000,109134.2734375000,124021.1484375000,133196.9062500000,125825.3671875000,,,
0.6199999989,4,137366.9687500000,113979.6562500000,133856.3281250000,143084.1562500000,111267.8125000000,126265.8125000000,135338.8750000000,127459.2343750000,,,
0.6239999991,4,137749.7656250000,114271.3437500000,134260.6718750000,143327.9062500000,111616.2812500000,126544.4687500000,135680.7968750000,128002.8359375000,,,
0.6279999991,4,135965.0312500000,112227.6406250000,132471.1093750000,141182.0000000000,109696.5156250000,124466.6640625000,133749.5781250000,126710.4921875000,,,
0.6319999991,4,134483.1406250000,110677.1562500000,130969.5781250000,139620.4531250000,108168.7812500000,122911.4687500000,132224.1718750000,125365.9062500000,,,
0.6359999990,4,135331.1093750000,111738.1328125000,131807.3593750000,140788.8750000000,109123.9218750000,124003.2031250000,133189.9687500000,125808.7656250000,,,
0.6399999990,5,137369.3593750000,113979.7656250000,133864.6718750000,143097.3125000000,111279.3125000000,126268.4375000000,135345.3281250000,127457.4921875000,,,
0.6439999989,5,137783.4062500000,114301.9531250000,134299.7187500000,143368.5156250000,111660.4609375000,126576.1718750000,135721.8906250000,128033.2812500000,,,
0.6479999989,5,135993.0312500000,112245.2343750000,132501.6250000000,141230.0781250000,109731.3828125000,124489.1953125000,133784.6406250000,126734.3671875000,,,
0.6519999988,5,134505.8593750000,110692.1250000000,130987.9453125000,139666.7968750000,108191.5000000000,122926.4843750000,132245.4531250000,125388.0312500000,,,
0.6559999988,5,135332.7187500000,111735.4218750000,131806.7968750000,140792.6250000000,109122.3125000000,124000.3671875000,133196.6093750000,125814.9843750000,,,
0.6599999988,5,137335.6406250000,113938.1875000000,133829.0468750000,143058.9375000000,111241.1171875000,126232.2265625000,135324.3593750000,127424.2031250000,,,
0.6639999989,5,137735.1562500000,114247.3437500000,134250.2343750000,143326.1718750000,111608.1796875000,126527.4062500000,135680.5468750000,127977.3828125000,,,
0.6679999989,5,135996.8437500000,112252.5000000000,132502.6718750000,141249.0156250000,109728.4609375000,124491.8281250000,133786.0000000000,126726.0781250000,,,
0.6719999989,5,134519.6093750000,110708.0859375000,130999.5859375000,139679.9218750000,108196.7890625000,122937.3750000000,132255.1875000000,125396.9375000000,,,
0.6759999988,5,135337.4218750000,111738.3203125000,131808.2187500000,140769.2187500000,109119.9453125000,124002.1093750000,133194.2031250000,125822.0703125000,,,
0.6799999988,5,137340.5468750000,113941.4921875000,133832.9375000000,143038.0468750000,111242.7265625000,126231.4531250000,135322.1250000000,127433.0000000000,,,
0.6839999990,5,137785.9062500000,114297.8984375000,134298.5781250000,143361.9218750000,111660.0546875000,126578.0468750000,135725.6718750000,128027.7031250000,,,
0.6879999989,5,136045.3593750000,112297.5078125000,132551.7812500000,141273.7187500000,109782.6171875000,124543.2421875000,133830.9218750000,126778.3046875000,,,
0.6919999989,5,134548.7968750000,110730.7265625000,131031.4843750000,139693.2968750000,108232.2734375000,122968.9765625000,132278.9531250000,125431.7265625000,,,
0.6959999988,5,135336.3437500000,111729.8984375000,131805.2656250000,140776.7031250000,109117.0000000000,124000.3906250000,133177.2812500000,125823.4609375000,,,
0.6999999988,5,137334.3281250000,113936.7656250000,133820.1406250000,143055.7187500000,111231.0390625000,126235.2890625000,135303.2812500000,127426.0312500000,,,
0.7039999987,5,137784.4062500000,114303.3750000000,134293.3906250000,143380.7968750000,111651.8203125000,126593.0390625000,135714.6718750000,128023.9453125000,,,
0.7079999989,5,136059.8125000000,112318.2421875000,132564.4687500000,141298.3906250000,109789.9140625000,124572.0781250000,133837.4218750000,126789.7578125000,,,
0.7119999989,5,134549.4375000000,110733.1093750000,131032.2578125000,139705.6406250000,108226.3203125000,122976.0546875000,132275.7812500000,125431.9921875000,,,
0.7159999989,5,135316.9531250000,111705.7890625000,131790.4687500000,140777.6718750000,109095.7265625000,123977.0546875000,133160.3750000000,125802.7031250000,,,
0.7199999988,5,137289.8750000000,113879.7968750000,133783.0781250000,143025.5468750000,111189.2734375000,126181.1328125000,135263.7187500000,127371.6562500000,,,
0.7239999988,5,137748.8906250000,114258.3359375000,134263.2500000000,143362.0468750000,111623.8750000000,126549.5390625000,135690.5312500000,127974.9140625000,,,
0.7279999990,5,136058.3125000000,112309.6875000000,132567.9843750000,141315.6406250000,109800.0781250000,124568.6718750000,133855.0156250000,126780.2343750000,,,
0.7319999989,5,134542.8750000000,110717.5000000000,131028.2343750000,139702.9843750000,108231.6250000000,122973.3750000000,132286.6718750000,125428.6953125000,,,
0.7359999989,5,135303.9687500000,111689.0468750000,131776.5156250000,140762.7031250000,109092.9375000000,123979.1718750000,133158.9218750000,125798.6796875000,,,
0.7399999988,5,137281.0000000000,113873.1484375000,133772.0312500000,143009.5312500000,111187.7421875000,126193.4687500000,135263.1250000000,127372.0390625000,,,
0.7439999988,5,137757.3281250000,114274.0312500000,134270.0937500000,143356.5625000000,111636.4765625000,126577.2968750000,135704.6093750000,127986.1796875000,,,
0.7479999987,5,136080.9218750000,112345.4687500000,132586.8125000000,141323.5156250000,109823.3828125000,124604.9375000000,133875.7500000000,126805.3125000000,,,
0.7519999989,5,134561.4218750000,110745.6875000000,131042.2343750000,139705.7656250000,108245.0937500000,122985.3046875000,132295.1250000000,125451.2500000000,,,
0.7559999989,5,135285.7656250000,111676.8437500000,131755.7500000000,140716.9687500000,109067.0546875000,123935.0781250000,133130.3125000000,125786.2031250000,,,
0.7599999988,5,137263.3593750000,113866.4921875000,133753.3593750000,142971.4375000000,111165.5390625000,126149.3515625000,135239.1718750000,127355.2187500000,,,
0.7639999988,5,137775.3125000000,114311.1796875000,134285.7187500000,143364.5156250000,111654.7734375000,126579.0390625000,135720.3593750000,128002.1953125000,,,
0.7679999988,6,136113.9687500000,112397.6328125000,132618.7031250000,141346.5000000000,109860.2656250000,124624.7812500000,133911.1562500000,126834.5468750000,,,
0.7719999987,6,134581.8125000000,110782.0312500000,131063.4531250000,139715.7031250000,108270.5234375000,122997.4296875000,132318.2500000000,125471.9062500000,,,
0.7759999987,6,135293.1093750000,111692.6718750000,131764.9062500000,140716.7812500000,109080.0078125000,123943.3906250000,133138.2812500000,125795.6484375000,,,
0.7799999986,6,137279.0156250000,113885.1093750000,133766.7500000000,142971.9218750000,111183.3437500000,126170.0000000000,135246.5468750000,127370.2109375000,,,
0.7839999986,6,137812.4843750000,114345.5625000000,134318.8437500000,143383.8906250000,111689.2890625000,126618.0390625000,135739.8906250000,128034.0546875000,,,
0.7879999985,6,136144.0625000000,112419.4921875000,132642.7031250000,141361.5781250000,109882.1796875000,124658.6015625000,133918.7187500000,126861.6406250000,,,
0.7919999987,6,134604.0000000000,110798.3125000000,131079.3593750000,139723.0937500000,108282.3515625000,123028.2812500000,132323.2031250000,125496.7187500000,,,
0.7959999987,6,135286.6250000000,111683.0937500000,131749.7812500000,140697.4062500000,109059.9453125000,123939.5859375000,133114.7187500000,125794.1718750000,,,
0.7999999986,6,137230.6250000000,113839.7812500000,133711.0937500000,142923.6718750000,111123.6093750000,126123.7656250000,135186.4843750000,127325.9296875000,,,
0.8039999986,6,137773.5937500000,114320.3750000000,134276.3437500000,143358.8906250000,111648.4921875000,126595.8281250000,135706.4062500000,127995.7812500000,,,
0.8079999986,6,136153.0000000000,112444.1171875000,132652.0468750000,141381.8906250000,109897.7656250000,124687.8671875000,133946.4843750000,126870.7812500000,33029,0.8094386894,0.0000000000
0.8119999988,6,134599.6562500000,110801.8828125000,131076.4375000000,139720.2031250000,108286.6406250000,123038.4687500000,132335.5468750000,125499.4218750000,,,
0.8159999987,6,135254.4062500000,111655.8437500000,131721.4531250000,140666.0781250000,109038.8671875000,123923.3281250000,133098.4375000000,125773.9218750000,,,
0.8199999987,6,137199.4062500000,113815.0781250000,133685.4218750000,142901.6562500000,111105.8046875000,126111.0781250000,135173.5156250000,127301.9765625000,,,
0.8239999986,6,137760.0468750000,114307.6875000000,134268.2031250000,143353.4687500000,111644.8437500000,126594.0312500000,135707.7187500000,127982.7734375000,,,
0.8279999986,6,136144.6250000000,112433.3593750000,132647.4531250000,141384.7343750000,109894.9453125000,124685.0546875000,133948.9531250000,126859.8125000000,,,
0.8319999985,6,134594.6562500000,110789.8906250000,131072.7656250000,139729.5625000000,108283.8515625000,123036.5937500000,132340.9687500000,125487.9140625000,,,
0.8359999987,6,135245.7343750000,111635.2421875000,131714.3125000000,140660.4218750000,109029.4218750000,123911.6640625000,133099.8593750000,125755.7890625000,,,
0.8399999987,6,137198.3906250000,113799.5703125000,133684.8593750000,142895.7500000000,111101.7500000000,126101.3671875000,135177.5312500000,127282.6640625000,,,
0.8439999986,6,137764.1406250000,114299.1640625000,134271.7812500000,143356.5312500000,111646.6171875000,126584.1875000000,135710.5625000000,127961.5312500000,,,
0.8479999986,6,136169.4375000000,112451.2500000000,132670.3593750000,141401.0937500000,109914.1796875000,124690.6328125000,133962.7812500000,126864.7734375000,,,
0.8519999986,6,134614.2656250000,110805.8281250000,131090.9687500000,139732.6718750000,108296.3203125000,123030.3671875000,132344.8750000000,125504.7109375000,,,
0.8559999987,6,135236.8593750000,111630.8203125000,131702.4062500000,140639.9843750000,109014.8593750000,123878.1093750000,133071.7812500000,125756.2734375000,,,
0.8599999987,6,137175.1093750000,113787.9296875000,133655.5937500000,142870.8906250000,111074.0703125000,126064.0859375000,135137.5625000000,127272.6875000000,,,
0.8639999987,6,137748.4375000000,114299.8281250000,134247.8750000000,143339.2343750000,111629.0781250000,126567.1875000000,135688.7656250000,127959.3046875000,,,
0.8679999986,6,136168.8281250000,112468.6875000000,132664.3906250000,141409.1406250000,109916.0859375000,124700.8515625000,133964.8281250000,126878.0234375000,,,
0.8719999986,6,134619.1718750000,110829.2421875000,131088.4218750000,139742.9218750000,108300.7734375000,123050.9687500000,132351.2343750000,125525.6328125000,,,
0.8759999985,6,135208.7031250000,111607.1640625000,131666.1406250000,140609.5937500000,108981.0625000000,123859.1484375000,133042.8437500000,125741.9218750000,,,
0.8799999987,6,137144.3906250000,113756.6328125000,133622.2031250000,142844.5000000000,111042.8515625000,126040.4531250000,135111.1718750000,127243.3437500000,,,
0.8839999987,6,137760.5781250000,114313.2421875000,134261.8281250000,143362.5312500000,111642.9687500000,126585.8281250000,135704.6875000000,127963.7578125000,,,
0.8879999986,6,136187.5156250000,112486.2578125000,132681.0156250000,141433.8125000000,109931.4218750000,124720.4296875000,133987.9218750000,126888.4296875000,,,
0.8919999986,6,134627.2968750000,110834.2812500000,131095.5781250000,139754.5156250000,108307.1562500000,123056.7890625000,132366.5312500000,125528.5546875000,,,
0.8959999986,7,135217.1250000000,111615.6093750000,131677.8593750000,140616.8437500000,108993.8281250000,123870.4375000000,133062.5000000000,125750.3437500000,,,
0.8999999985,7,137142.6562500000,113755.1015625000,133625.0625000000,142835.0000000000,111046.6640625000,126042.9218750000,135122.7656250000,127244.7890625000,,,
0.9039999985,7,137751.0625000000,114309.7031250000,134254.3437500000,143358.5156250000,111641.9531250000,126591.7265625000,135710.6250000000,127954.9062500000,,,
0.9079999984,7,136201.0937500000,112502.8281250000,132697.7187500000,141455.9687500000,109958.1953125000,124753.1015625000,134011.0468750000,126902.4062500000,,,
0.9119999984,7,134625.4218750000,110828.0625000000,131098.2968750000,139750.2187500000,108314.8828125000,123065.1015625000,132364.6718750000,125532.4687500000,,,
0.9159999983,7,135194.8125000000,111591.5000000000,131658.9843750000,140586.9062500000,108975.5390625000,123853.8046875000,133036.2187500000,125734.6562500000,,,
0.9199999985,7,137117.8750000000,113730.8046875000,133602.0000000000,142801.6250000000,111024.0234375000,126022.4296875000,135093.0468750000,127219.2265625000,,,
0.9239999985,7,137732.7656250000,114285.6718750000,134234.3125000000,143342.5781250000,111625.6406250000,126573.2968750000,135687.8281250000,127925.9375000000,,,
0.9279999984,7,136199.4531250000,112495.6171875000,132697.7812500000,141459.7812500000,109961.8906250000,124749.2109375000,134010.7500000000,126887.4375000000,,,
0.9319999984,7,134631.5468750000,110823.8515625000,131107.3125000000,139764.9375000000,108327.9765625000,123063.8984375000,132375.7812500000,125522.1406250000,,,
0.9359999984,7,135181.9062500000,111559.2343750000,131645.7812500000,140577.2968750000,108964.7265625000,123823.6875000000,133019.7500000000,125701.3437500000,,,
0.9399999985,7,137099.1718750000,113696.5468750000,133578.6875000000,142786.9062500000,111001.6796875000,125987.9062500000,135060.0781250000,127182.2968750000,,,
0.9439999985,7,137731.3437500000,114280.8671875000,134232.1875000000,143336.0937500000,111619.3125000000,126559.9453125000,135669.5312500000,127908.5546875000,,,
0.9479999985,7,136216.6718750000,112518.0390625000,132711.5156250000,141466.5625000000,109972.5703125000,124758.5703125000,134011.4687500000,126894.2031250000,,,
0.9519999984,7,134645.8906250000,110848.6562500000,131114.8906250000,139772.0156250000,108334.0625000000,123071.6484375000,132371.7031250000,125540.2187500000,,,
0.9559999984,7,135181.4218750000,111575.0546875000,131640.1562500000,140577.2187500000,108955.4453125000,123820.3046875000,133005.6093750000,125713.4921875000,,,
0.9599999983,7,137086.0625000000,113699.1796875000,133566.2031250000,142773.8437500000,110983.0625000000,125970.7968750000,135041.1718750000,127176.8750000000,,,
0.9639999985,7,137756.6875000000,114321.7734375000,134258.6406250000,143357.2031250000,111642.9140625000,126584.5390625000,135695.7031250000,127934.2265625000,,,
0.9679999985,7,136252.2187500000,112560.7656250000,132747.4531250000,141508.7343750000,110004.4609375000,124788.5546875000,134045.7968750000,126927.8593750000,,,
0.9719999984,7,134669.4687500000,110876.4765625000,131139.0625000000,139795.6562500000,108351.2812500000,123092.1953125000,132390.3906250000,125567.9296875000,,,
0.9759999984,7,135178.1562500000,111572.8593750000,131638.4843750000,140569.1250000000,108949.6796875000,123817.8671875000,132999.7343750000,125721.4296875000,,,
0.9799999984,7,137068.3906250000,113684.0468750000,133545.3750000000,142761.3437500000,110963.1640625000,125957.9453125000,135023.4687500000,127171.6718750000,,,
0.9839999985,7,137759.9687500000,114334.1093750000,134257.0000000000,143374.5312500000,111645.8359375000,126599.1015625000,135702.5156250000,127947.1250000000,,,
0.9879999985,7,136279.9531250000,112604.2187500000,132772.5781250000,141537.1875000000,110036.2734375000,124830.5859375000,134081.7187500000,126968.6562500000,,,
0.9919999985,7,134699.1093750000,110921.5859375000,131169.3750000000,139818.5937500000,108388.8593750000,123131.9453125000,132433.3125000000,125613.4687500000,,,
0.9959999984,7,135185.9843750000,111590.0234375000,131648.2812500000,140568.7187500000,108963.5234375000,123827.4140625000,133016.8593750000,125743.4218750000,,,
0.9999999984,7,137065.2968750000,113686.1953125000,133547.0468750000,142746.2187500000,110967.3984375000,125952.4453125000,135027.0000000000,127174.5468750000,,,
1.0039999983,7,137754.8906250000,114327.5937500000,134259.7031250000,143357.8437500000,111649.7812500000,126588.3203125000,135708.9843750000,127937.8750000000,,,
1.0079999985,7,136295.8281250000,112615.8906250000,132796.3437500000,141549.7968750000,110060.5156250000,124844.8593750000,134114.4375000000,126974.3984375000,,,
1.0119999985,7,134699.1562500000,110905.0937500000,131174.2343750000,139819.8750000000,108392.5625000000,123126.2343750000,132445.7812500000,125604.9453125000,,,
1.0159999984,7,135165.0625000000,111552.8984375000,131627.0937500000,140544.0468750000,108943.1093750000,123803.2500000000,133004.4843750000,125718.6171875000,,,
1.0199999984,7,137050.2031250000,113661.6015625000,133530.7968750000,142728.6250000000,110956.2968750000,125944.0234375000,135024.1875000000,127153.9140625000,,,
1.0239999983,8,137768.3281250000,114340.9218750000,134270.2968750000,143372.9218750000,111669.4687500000,126617.0703125000,135728.8125000000,127943.2421875000,,,
1.0279999983,8,136326.3437500000,112646.8125000000,132821.7968750000,141580.9843750000,110094.7187500000,124886.0546875000,134139.4062500000,126997.1171875000,,,
1.0319999983,8,134723.2968750000,110928.6718750000,131192.1406250000,139832.7812500000,108416.3515625000,123151.2812500000,132458.5781250000,125626.2656250000,,,
1.0359999982,8,135171.1718750000,111555.8750000000,131627.5468750000,140540.9843750000,108947.4296875000,123800.9687500000,133000.9218750000,125721.2187500000,,,
1.0399999982,8,137056.1250000000,113667.1484375000,133529.6562500000,142733.1250000000,110957.8281250000,125937.3203125000,135017.7500000000,127152.3125000000,,,
1.0439999981,8,137778.0937500000,114348.9140625000,134274.2500000000,143383.8906250000,111670.8125000000,126608.2734375000,135722.4843750000,127941.5468750000,,,
1.0479999983,8,136343.2812500000,112663.5234375000,132833.5468750000,141603.3750000000,110100.9375000000,124884.2578125000,134141.6875000000,127005.9687500000,,,
1.0519999983,8,134730.4062500000,110935.9921875000,131196.9531250000,139842.0781250000,108412.9687500000,123142.0859375000,132453.1093750000,125631.6328125000,,,
1.0559999982,8,135164.1250000000,111548.9843750000,131623.3593750000,140528.1718750000,108930.4531250000,123781.8750000000,132981.0937500000,125718.7187500000,,,
1.0599999982,8,137035.9218750000,113647.4609375000,133509.6250000000,142713.2343750000,110925.0468750000,125911.5468750000,134983.9375000000,127138.9531250000,,,
1.0639999982,8,137747.8125000000,114323.7031250000,134236.2187500000,143355.0781250000,111630.2812500000,126585.0234375000,135685.6562500000,127919.9062500000,,,
1.0679999983,8,136328.8125000000,112658.1015625000,132813.3281250000,141581.9218750000,110083.8281250000,124884.5781250000,134130.6093750000,127001.3515625000,,,
1.0719999983,8,134729.5000000000,110948.0859375000,131189.7343750000,139833.9843750000,108411.2578125000,123155.6796875000,132459.1406250000,125644.1562500000,,,
1.0759999983,8,135147.9531250000,111544.7187500000,131597.8906250000,140511.1406250000,108913.7421875000,123779.5078125000,132971.8125000000,125718.1328125000,,,
1.0799999982,8,137041.2656250000,113666.9140625000,133511.8593750000,142732.8125000000,110938.8359375000,125936.7812500000,135005.9843750000,127149.3281250000,,,
1.0839999982,8,137824.0156250000,114412.5390625000,134321.5625000000,143458.1250000000,111723.4921875000,126674.7656250000,135782.8750000000,127988.6484375000,,,
1.0879999981,8,136406.8750000000,112740.9296875000,132903.5625000000,141686.3437500000,110177.5703125000,124959.5468750000,134221.1406250000,127074.0703125000,,,
1.0919999983,8,134785.6093750000,111000.3906250000,131256.5468750000,139895.2968750000,108477.2890625000,123201.2031250000,132516.3750000000,125703.4062500000,,,
1.0959999983,8,135156.9062500000,111546.1406250000,131610.8593750000,140525.7187500000,108925.0625000000,123782.7578125000,132975.0625000000,125735.1640625000,,,
1.0999999982,8,137023.7812500000,113645.8593750000,133493.5000000000,142698.2656250000,110919.2265625000,125915.8671875000,134978.2500000000,127140.0000000000,,,
1.1039999982,8,137801.5312500000,114392.9296875000,134294.9531250000,143413.7656250000,111698.6250000000,126651.9921875000,135751.3593750000,127969.8984375000,,,
1.1079999981,8,136405.0000000000,112740.4765625000,132896.4531250000,141654.1875000000,110174.0000000000,124965.6640625000,134215.1093750000,127072.5703125000,,,
1.1119999983,8,134762.2656250000,110971.1796875000,131230.0937500000,139846.6093750000,108455.2421875000,123186.3125000000,132492.5000000000,125683.2656250000,,,
1.1159999983,8,135138.7968750000,111522.2421875000,131592.8593750000,140482.7500000000,108913.8984375000,123771.3046875000,132959.8750000000,125717.8359375000,,,
1.1199999982,8,136987.4531250000,113598.2187500000,133459.6093750000,142646.1250000000,110892.3828125000,125886.0390625000,134949.4062500000,127098.6406250000,,,
1.1239999982,8,137768.5937500000,114348.1640625000,134264.4218750000,143371.7343750000,111674.9375000000,126630.2421875000,135729.4218750000,127927.3359375000,,,
1.1279999982,8,136394.3125000000,112723.3359375000,132887.7343750000,141645.5781250000,110171.8828125000,124965.3437500000,134212.2343750000,127053.3906250000,,,
1.1319999981,8,134768.3125000000,110975.3671875000,131233.0781250000,139859.0000000000,108463.3203125000,123195.3281250000,132498.0937500000,125687.4453125000,,,
1.1359999983,8,135128.0156250000,111509.2578125000,131581.5781250000,140465.9375000000,108899.7656250000,123752.2031250000,132944.6406250000,125710.8125000000,,,
1.1399999983,8,136990.9687500000,113605.4375000000,133464.2968750000,142650.8125000000,110893.0781250000,125880.8906250000,134947.3750000000,127104.1875000000,,,
1.1439999982,8,137785.2500000000,114371.3671875000,134280.2500000000,143400.1875000000,111688.9140625000,126638.6953125000,135739.4843750000,127942.6250000000,,,
1.1479999982,8,136422.1250000000,112758.8203125000,132913.5625000000,141694.0625000000,110194.9531250000,124987.1250000000,134235.8281250000,127076.9687500000,,,
1.1519999981,9,134785.2812500000,110999.4531250000,131250.6406250000,139892.9843750000,108476.6171875000,123210.0234375000,132516.7500000000,125705.0937500000,,,
1.1559999981,9,135114.9062500000,111498.6406250000,131567.6250000000,140460.4062500000,108881.7187500000,123736.1640625000,132933.2500000000,125703.1875000000,,,
1.1599999981,9,136949.6718750000,113566.0312500000,133419.0468750000,142616.2656250000,110842.1953125000,125837.2187500000,134901.5312500000,127067.7656250000,,,
1.1639999980,9,137757.4218750000,114350.2578125000,134247.5625000000,143376.8906250000,111651.2265625000,126620.0000000000,135706.1406250000,127914.7031250000,,,
1.1679999980,9,136426.4218750000,112770.9218750000,132910.8437500000,141693.7187500000,110192.0312500000,125006.2734375000,134236.1875000000,127085.6562500000,,,
1.1719999979,9,134793.9218750000,111007.0156250000,131251.2343750000,139894.8750000000,108477.1562500000,123226.1953125000,132518.1250000000,125723.3593750000,,,
1.1759999981,9,135119.9218750000,111500.4921875000,131563.9218750000,140463.7968750000,108881.1250000000,123742.7656250000,132931.6875000000,125717.4843750000,,,
1.1799999981,9,136958.4687500000,113575.1250000000,133421.2500000000,142615.7812500000,110849.3046875000,125848.0859375000,134905.8593750000,127079.8046875000,,,
1.1839999980,9,137779.0937500000,114370.2968750000,134268.5625000000,143376.5156250000,111675.6093750000,126642.2578125000,135723.2343750000,127932.7500000000,,,
1.1879999980,9,136451.6406250000,112791.1171875000,132939.3593750000,141710.5312500000,110221.9375000000,125027.2187500000,134259.3281250000,127102.3671875000,,,
1.1919999979,9,134799.7656250000,111004.1484375000,131262.8750000000,139898.2187500000,108485.8984375000,123220.9375000000,132524.3125000000,125722.6093750000,,,
1.1959999981,9,135094.3281250000,111464.2031250000,131545.1562500000,140438.0156250000,108856.8281250000,123711.3281250000,132905.7031250000,125690.9609375000,,,
1.1999999981,9,136909.2968750000,113508.9296875000,133376.1562500000,142576.4843750000,110800.9453125000,125795.4062500000,134857.8906250000,127028.0390625000,,,
1.2039999980,9,137735.0156250000,114314.6093750000,134224.8593750000,143356.9531250000,111631.6484375000,126596.5546875000,135684.6093750000,127881.3906250000,,,
1.2079999980,9,136435.4062500000,112767.8593750000,132923.4531250000,141710.6718750000,110207.0781250000,125012.5781250000,134245.9531250000,127076.6718750000,,,
1.2119999980,9,134785.9375000000,110987.0078125000,131249.5937500000,139888.9062500000,108474.6875000000,123211.6875000000,132508.8750000000,125703.7812500000,,,
1.2159999979,9,135084.0000000000,111450.2265625000,131534.6875000000,140428.0312500000,108847.4921875000,123695.8828125000,132887.2968750000,125675.2734375000,,,
1.2199999981,9,136920.4531250000,113522.7968750000,133384.3906250000,142576.9375000000,110813.2031250000,125802.5156250000,134847.9687500000,127031.1015625000,,,
1.2239999981,9,137763.8750000000,114350.6093750000,134248.0937500000,143382.7343750000,111660.0546875000,126624.8515625000,135703.9687500000,127901.0468750000,,,
1.2279999980,9,136451.8437500000,112792.6171875000,132931.4531250000,141729.9062500000,110217.9140625000,125032.0234375000,134256.4843750000,127091.4765625000,,,
1.2319999980,9,134794.5156250000,111001.8671875000,131248.5781250000,139900.5312500000,108475.8984375000,123224.8828125000,132510.2031250000,125719.8984375000,,,
1.2359999979,9,135054.4531250000,111425.8203125000,131495.0000000000,140393.7343750000,108812.1953125000,123668.6562500000,132868.8437500000,125656.6796875000,,,
1.2399999981,9,136868.3437500000,113476.2031250000,133326.7031250000,142526.2812500000,110760.3906250000,125749.8593750000,134820.7968750000,126989.0937500000,,,
1.2439999981,9,137735.2656250000,114328.9843750000,134219.5312500000,143351.3750000000,111636.2109375000,126596.4218750000,135682.5937500000,127877.3906250000,,,
1.2479999980,9,136459.5000000000,112809.2500000000,132943.1250000000,141733.3125000000,110235.2890625000,125041.3046875000,134264.5312500000,127097.1093750000,,,
1.2519999980,9,134819.7031250000,111035.0468750000,131278.4531250000,139921.2343750000,108510.3125000000,123250.2031250000,132554.4687500000,125740.7187500000,,,
1.2559999980,9,135076.9218750000,111452.4531250000,131522.7031250000,140397.1875000000,108837.7500000000,123688.3671875000,132892.5781250000,125681.2500000000,,,
1.2599999979,9,136880.0312500000,113488.6484375000,133340.6562500000,142505.3750000000,110766.7187500000,125757.1015625000,134823.5312500000,127003.1796875000,,,
1.2639999981,9,137745.9375000000,114344.4062500000,134227.2500000000,143340.2500000000,111636.0468750000,126605.8593750000,135687.9062500000,127885.8906250000,,,
1.2679999981,9,136464.0781250000,112815.3593750000,132949.9531250000,141746.9375000000,110233.5468750000,125047.3671875000,134278.9375000000,127093.0859375000,,,
1.2719999980,9,134801.6718750000,111023.2421875000,131264.5156250000,139916.0312500000,108486.1953125000,123237.7031250000,132528.6562500000,125723.6015625000,,,
1.2759999980,9,135030.8125000000,111413.0468750000,131479.8593750000,140374.9843750000,108786.0390625000,123650.8437500000,132832.6718750000,125640.2656250000,,,
1.2799999979,10,136836.3750000000,113455.1250000000,133298.5937500000,142499.5156250000,110722.0312500000,125727.3281250000,134776.5625000000,126960.8515625000,,,
1.2839999979,10,137734.2343750000,114343.0937500000,134218.8281250000,143371.3593750000,111629.0468750000,126612.4296875000,135684.2031250000,127869.9375000000,,,
1.2879999978,10,136492.2656250000,112856.0781250000,132976.8125000000,141781.3437500000,110261.8437500000,125086.6875000000,134309.6562500000,127121.3046875000,,,
1.2919999978,10,134838.5312500000,111065.1953125000,131297.0781250000,139944.1875000000,108521.6015625000,123275.1718750000,132565.8906250000,125760.1093750000,,,
1.2959999978,10,135054.2031250000,111430.9921875000,131497.8906250000,140395.9375000000,108807.8750000000,123664.1718750000,132856.7031250000,125662.1562500000,,,
1.2999999977,10,136836.3750000000,113443.2421875000,133294.2500000000,142506.5625000000,110721.4453125000,125714.5078125000,134776.1875000000,126955.5156250000,,,
1.3039999979,10,137728.0781250000,114328.2109375000,134205.9843750000,143361.5781250000,111627.6796875000,126604.4375000000,135686.9843750000,127855.0468750000,,,
1.3079999979,10,136497.7656250000,112856.5078125000,132973.2343750000,141776.2187500000,110273.8125000000,125097.6796875000,134324.4531250000,127119.0468750000,,,
1.3119999978,10,134836.4375000000,111050.0703125000,131287.3593750000,139930.5937500000,108524.3125000000,123272.9765625000,132568.0937500000,125753.1875000000,,,
1.3159999978,10,135031.2187500000,111396.2031250000,131467.7656250000,140354.8750000000,108788.9609375000,123646.4218750000,132840.6562500000,125642.1953125000,,,
1.3199999977,10,136835.1406250000,113439.5937500000,133286.3906250000,142494.0312500000,110723.5078125000,125727.3046875000,134781.6875000000,126955.8359375000,,,
1.3239999979,10,137755.1562500000,114356.0000000000,134230.9062500000,143392.5468750000,111655.6328125000,126639.7421875000,135710.8125000000,127877.7109375000,,,
1.3279999979,10,136540.0625000000,112898.8359375000,133014.8750000000,141831.0156250000,110315.1406250000,125147.4375000000,134365.7343750000,127158.8828125000,,,
1.3319999978,10,134865.1562500000,111080.0546875000,131313.1406250000,139965.4843750000,108547.3515625000,123306.6640625000,132594.9687500000,125788.1640625000,,,
1.3359999978,10,135033.8750000000,111401.5703125000,131470.9062500000,140357.9218750000,108783.3281250000,123648.5937500000,132836.3125000000,125652.2265625000,,,
1.3399999978,10,136821.4062500000,113430.7656250000,133281.2656250000,142474.6250000000,110705.8828125000,125708.5312500000,134765.1718750000,126944.4609375000,,,
1.3439999977,10,137756.3750000000,114366.5390625000,134241.2031250000,143387.8593750000,111656.2968750000,126642.0156250000,135711.1875000000,127875.3750000000,,,
1.3479999979,10,136552.2500000000,112923.9375000000,133036.3593750000,141847.5468750000,110329.6796875000,125162.2421875000,134374.5000000000,127164.6718750000,,,
1.3519999979,10,134876.2968750000,111104.8125000000,131335.4531250000,139984.3125000000,108561.8593750000,123320.1562500000,132603.1406250000,125800.0468750000,,,
1.3559999978,10,135038.5468750000,111416.4062500000,131481.1250000000,140356.5625000000,108786.8203125000,123651.5390625000,132834.1406250000,125664.8359375000,,,
1.3599999978,10,136803.6718750000,113417.8437500000,133259.3750000000,142452.2500000000,110682.4140625000,125691.9296875000,134737.3750000000,126931.1328125000,,,
1.3639999977,10,137738.8281250000,114354.9531250000,134220.9218750000,143381.4687500000,111636.5859375000,126633.9687500000,135690.2343750000,127855.3125000000,,,
1.3679999979,10,136554.4687500000,112933.0546875000,133037.0000000000,141858.8125000000,110331.3437500000,125177.3437500000,134375.4687500000,127162.3671875000,,,
1.3719999979,10,134873.1250000000,111099.7656250000,131329.7968750000,139981.3125000000,108556.0156250000,123322.6484375000,132596.7968750000,125793.4453125000,,,
1.3759999978,10,135015.6875000000,111385.4765625000,131454.2187500000,140338.0781250000,108759.5703125000,123631.7187500000,132806.2656250000,125639.0859375000,,,
1.3799999978,10,136792.1093750000,113399.4375000000,133241.3750000000,142438.5625000000,110663.4531250000,125678.2500000000,134712.9687500000,126913.9375000000,,,
1.3839999977,10,137739.4687500000,114348.6718750000,134210.2812500000,143368.7656250000,111627.9453125000,126624.7187500000,135673.5781250000,127846.1953125000,,,
1.3879999977,10,136566.8593750000,112931.7968750000,133037.1093750000,141849.0937500000,110336.1171875000,125176.8046875000,134371.9531250000,127166.5234375000,,,
1.3919999979,10,134880.9062500000,111089.9531250000,131327.8125000000,139962.7812500000,108560.7656250000,123318.2812500000,132595.0468750000,125799.8828125000,,,
1.3959999979,10,135006.8125000000,111362.6015625000,131438.4062500000,140303.3906250000,108752.9453125000,123611.9765625000,132797.9062500000,125633.1875000000,,,
1.3999999978,10,136770.6250000000,113372.5390625000,133216.4375000000,142396.5156250000,110649.8515625000,125655.0156250000,134703.0000000000,126897.7968750000,,,
1.4039999978,10,137751.0000000000,114360.4531250000,134222.9375000000,143367.7968750000,111651.4687500000,126641.3984375000,135702.4218750000,127858.9062500000,,,
1.4079999977,11,136597.0937500000,112964.4375000000,133070.3281250000,141876.3437500000,110376.4062500000,125208.6953125000,134418.6250000000,127193.1562500000,,,
1.4119999977,11,134908.8281250000,111122.5390625000,131358.0937500000,139988.0781250000,108593.0859375000,123342.2265625000,132633.4843750000,125827.3750000000,,,
1.4159999976,11,135022.7500000000,111381.1875000000,131455.7187500000,140323.9218750000,108766.2968750000,123620.0234375000,132813.6406250000,125652.2578125000,,,
1.4199999976,11,136789.5468750000,113385.4921875000,133240.6562500000,142432.5625000000,110665.8437500000,125659.2265625000,134718.2812500000,126909.2734375000,,,
1.4239999976,11,137783.2656250000,114386.8125000000,134258.8281250000,143415.5156250000,111676.9765625000,126658.2734375000,135725.2968750000,127877.0156250000,,,
1.4279999975,11,136636.7343750000,112999.3906250000,133115.1875000000,141932.0000000000,110408.6171875000,125234.3437500000,134445.4531250000,127221.2421875000,,,
1.4319999977,11,134940.0468750000,111148.8515625000,131394.9218750000,140030.5937500000,108617.0625000000,123356.2812500000,132647.2656250000,125850.7968750000,,,
1.4359999977,11,135038.4531250000,111391.5625000000,131478.7968750000,140341.5937500000,108777.8359375000,123616.1093750000,132813.9687500000,125663.5468750000,,,
1.4399999976,11,136779.2187500000,113372.1093750000,133235.0781250000,142426.8281250000,110653.7187500000,125634.7109375000,134698.3593750000,126898.8359375000,,,
1.4439999976,11,137769.2968750000,114373.8046875000,134247.7187500000,143415.8906250000,111663.3515625000,126635.7187500000,135705.8281250000,127859.7968750000,,,
1.4479999975,11,136639.6093750000,113008.9921875000,133115.9375000000,141951.5937500000,110411.4843750000,125234.7421875000,134446.9218750000,127219.8437500000,,,
1.4519999977,11,134938.5781250000,111150.7812500000,131389.0156250000,140040.8593750000,108615.7734375000,123359.3125000000,132651.2343750000,125852.5937500000,,,
1.4559999977,11,135011.6406250000,111361.6562500000,131444.5468750000,140319.8593750000,108751.8984375000,123600.8515625000,132795.8906250000,125645.9765625000,,,
1.4599999976,11,136753.8437500000,113348.1328125000,133200.8281250000,142392.1718750000,110630.8906250000,125631.2265625000,134679.7343750000,126881.7578125000,,,
1.4639999976,11,137758.6562500000,114366.9921875000,134227.8906250000,143397.4062500000,111658.5781250000,126657.2265625000,135704.0000000000,127854.5390625000,,,
1.4679999975,11,136631.3750000000,113005.2109375000,133101.9062500000,141936.0312500000,110411.6171875000,125259.6640625000,134451.2187500000,127216.4140625000,,,
1.4719999975,11,134917.8906250000,111132.1953125000,131366.2968750000,140011.7031250000,108603.3046875000,123367.7890625000,132643.5156250000,125840.3593750000,,,
1.4759999977,11,134954.6406250000,111303.3203125000,131390.3125000000,140255.5781250000,108698.7890625000,123563.8906250000,132747.1250000000,125599.6562500000,,,
1.4799999977,11,136692.1718750000,113289.9296875000,133145.2812500000,142332.8593750000,110573.0859375000,125586.2968750000,134629.2656250000,126827.0625000000,,,
1.4839999976,11,137708.2031250000,114324.7734375000,134188.0625000000,143355.0468750000,111613.3593750000,126620.6406250000,135666.9843750000,127805.9921875000,,,
1.4879999976,11,136615.7343750000,113004.7812500000,133097.3437500000,141931.4218750000,110401.4296875000,125262.5546875000,134448.9062500000,127203.2734375000,,,
1.4919999975,11,134924.0156250000,111156.2265625000,131381.1875000000,140023.6718750000,108611.5625000000,123389.9218750000,132659.1250000000,125851.7343750000,,,
1.4959999977,11,134964.4062500000,111329.2578125000,131403.9375000000,140263.4375000000,108709.7578125000,123582.0703125000,132763.8125000000,125614.8671875000,,,
1.4999999977,11,136702.6562500000,113310.1484375000,133154.5312500000,142335.5468750000,110582.5312500000,125595.1484375000,134637.4375000000,126840.7187500000,,,
1.5039999976,11,137726.6250000000,114339.6093750000,134203.2968750000,143363.0937500000,111631.7031250000,126628.2578125000,135672.6718750000,127820.3906250000,,,
1.5079999976,11,136640.0625000000,113015.1875000000,133118.3125000000,141946.6562500000,110427.1250000000,125268.0000000000,134457.5937500000,127219.7656250000,,,
1.5119999975,11,134939.6406250000,111154.2734375000,131395.0781250000,140036.4843750000,108628.1406250000,123382.0859375000,132661.2968750000,125863.9921875000,,,
1.5159999975,11,134966.3125000000,111313.7265625000,131408.1718750000,140268.1718750000,108715.8750000000,123562.3828125000,132743.8281250000,125618.4296875000,,,
1.5199999977,11,136694.1562500000,113281.5078125000,133154.1562500000,142341.3125000000,110580.6796875000,125569.3515625000,134591.0156250000,126826.9296875000,,,
1.5239999976,11,137741.2656250000,114344.5703125000,134223.9531250000,143395.0937500000,111649.3281250000,126635.8515625000,135685.4375000000,127823.0468750000,,,
1.5279999976,11,136683.1875000000,113063.0625000000,133161.8281250000,141993.0781250000,110467.6796875000,125314.9921875000,134522.4843750000,127255.0937500000,,,
1.5319999976,11,134961.8281250000,111168.4843750000,131423.2500000000,140082.6250000000,108652.9765625000,123404.9687500000,132710.9218750000,125877.0000000000,,,
1.5359999975,12,134954.2187500000,111286.6875000000,131398.0312500000,140273.1718750000,108697.6093750000,123545.6718750000,132759.5937500000,125598.2109375000,,,
1.5399999975,12,136672.2187500000,113247.8671875000,133127.3281250000,142330.9062500000,110546.0234375000,125546.2578125000,134615.6406250000,126797.9062500000,,,
1.5439999974,12,137731.1093750000,114326.5703125000,134211.2968750000,143399.6250000000,111631.3515625000,126630.0859375000,135697.4218750000,127802.5000000000,,,
1.5479999974,12,136674.0781250000,113039.9140625000,133152.7812500000,141999.7343750000,110455.0703125000,125307.8593750000,134511.2656250000,127232.2421875000,,,
1.5519999973,12,134964.4062500000,111170.7421875000,131414.5312500000,140065.8593750000,108644.7656250000,123413.3359375000,132693.0312500000,125878.6875000000,,,
1.5559999973,12,134939.6718750000,111279.3437500000,131371.0000000000,140228.1875000000,108677.8437500000,123544.6562500000,132730.4531250000,125595.9062500000,,,
1.5599999975,12,136653.0468750000,113245.8046875000,133101.8437500000,142282.7343750000,110532.2421875000,125548.8046875000,134592.7812500000,126796.7265625000,,,
1.5639999975,12,137734.7500000000,114351.9218750000,134213.0937500000,143390.5312500000,111646.2421875000,126656.1562500000,135703.5468750000,127822.5156250000,,,
1.5679999974,12,136677.8750000000,113057.4062500000,133161.5781250000,142009.5468750000,110476.6875000000,125328.9140625000,134527.6562500000,127247.6093750000,,,
1.5719999974,12,134956.9531250000,111174.4375000000,131419.6562500000,140068.1406250000,108658.7421875000,123421.3515625000,132709.9531250000,125884.5625000000,,,
1.5759999973,12,134928.8906250000,111275.5078125000,131374.2968750000,140233.5468750000,108684.8437500000,123543.3437500000,132739.9062500000,125599.7109375000,,,
1.5799999975,12,136632.8750000000,113228.4218750000,133089.7343750000,142276.0312500000,110522.5312500000,125532.6562500000,134580.0781250000,126787.0703125000,,,
1.5839999975,12,137698.7031250000,114317.4843750000,134179.3281250000,143358.1875000000,111612.7968750000,126624.6406250000,135676.0156250000,127790.0000000000,,,
1.5879999974,12,136660.6562500000,113048.8515625000,133143.2187500000,141990.1250000000,110453.0312500000,125320.9531250000,134504.5937500000,127230.0156250000,,,
1.5919999974,12,134951.6875000000,111175.2421875000,131411.4687500000,140058.5625000000,108642.8906250000,123425.3281250000,132682.0312500000,125876.9218750000,,,
1.5959999973,12,134913.4218750000,111257.5390625000,131359.9687500000,140216.1406250000,108658.7968750000,123530.5468750000,132715.3437500000,125576.9687500000,,,
1.5999999973,12,136609.7187500000,113192.6406250000,133070.7031250000,142256.2343750000,110487.6640625000,125502.5859375000,134557.6718750000,126747.0546875000,,,
1.6039999975,12,137696.5781250000,114312.2500000000,134183.7500000000,143361.5781250000,111605.0703125000,126616.8593750000,135670.3281250000,127764.9765625000,,,
1.6079999974,12,136685.4218750000,113074.9218750000,133172.3906250000,142026.6562500000,110476.2343750000,125337.6093750000,134533.6718750000,127232.4296875000,,,
1.6119999974,12,134969.4687500000,111193.9375000000,131428.6406250000,140085.7031250000,108656.8671875000,123429.3515625000,132715.0156250000,125883.5703125000,,,
1.6159999974,12,134914.2968750000,111261.7968750000,131354.6562500000,140215.1562500000,108654.7734375000,123517.2734375000,132718.8281250000,125580.2421875000,,,
1.6199999973,12,136609.5156250000,113203.9609375000,133064.0781250000,142244.6250000000,110489.0859375000,125497.4687500000,134559.2343750000,126756.0937500000,,,
1.6239999975,12,137731.7500000000,114356.7734375000,134210.9687500000,143391.2656250000,111646.9375000000,126655.4296875000,135712.5468750000,127804.4062500000,,,
1.6279999975,12,136727.9531250000,113123.0156250000,133209.7500000000,142060.0625000000,110530.5468750000,125390.9531250000,134587.4531250000,127277.8359375000,,,
1.6319999974,12,134986.1875000000,111209.5234375000,131447.4062500000,140086.0000000000,108689.0546875000,123457.5078125000,132741.8437500000,125907.7656250000,,,
1.6359999974,12,134927.2500000000,111273.9218750000,131370.4375000000,140200.0000000000,108680.4687500000,123540.6093750000,132737.1562500000,125601.2656250000,,,
1.6399999973,12,136623.2500000000,113215.7656250000,133080.2812500000,142238.9843750000,110509.6015625000,125515.3593750000,134571.8593750000,126769.1796875000,,,
1.6439999973,12,137740.7656250000,114364.5546875000,134223.8125000000,143407.1718750000,111660.8046875000,126668.0625000000,135721.4375000000,127803.9531250000,,,
1.6479999975,12,136759.0937500000,113160.8046875000,133243.6562500000,142101.2031250000,110563.1640625000,125422.4453125000,134612.2812500000,127296.8828125000,,,
1.6519999974,12,135021.8906250000,111252.8984375000,131481.7187500000,140130.4531250000,108718.6093750000,123481.9218750000,132763.7656250000,125932.1171875000,,,
1.6559999974,12,134917.1093750000,111263.9453125000,131359.8437500000,140211.7656250000,108662.0390625000,123508.3125000000,132711.2343750000,125583.5078125000,,,
1.6599999974,12,136591.2656250000,113187.0625000000,133046.5937500000,142227.2656250000,110471.2734375000,125467.4218750000,134526.8593750000,126734.9531250000,,,
1.6639999973,13,137721.2343750000,114358.6250000000,134198.1562500000,143396.6250000000,111632.9140625000,126641.6406250000,135689.2968750000,127786.8671875000,,,
1.6679999973,13,136750.1406250000,113166.7890625000,133228.1093750000,142108.8437500000,110545.8125000000,125413.3281250000,134594.5781250000,127294.1171875000,,,
1.6719999972,13,135015.1562500000,111258.5546875000,131466.8593750000,140135.4843750000,108701.2265625000,123482.5078125000,132746.9218750000,125938.4453125000,,,
1.6759999972,13,134909.0156250000,111269.4140625000,131342.3437500000,140209.0312500000,108641.2031250000,123517.1640625000,132694.2968750000,125595.7421875000,,,
1.6799999971,13,136583.6250000000,113186.9531250000,133031.6250000000,142235.9062500000,110451.2890625000,125474.3750000000,134510.4062500000,126742.1953125000,,,
1.6839999971,13,137733.2968750000,114371.2031250000,134206.9218750000,143414.0000000000,111638.8125000000,126667.4218750000,135695.9843750000,127805.5625000000,,,
1.6879999973,13,136762.9375000000,113171.7187500000,133241.3593750000,142114.2968750000,110558.8750000000,125438.8828125000,134609.4062500000,127308.8125000000,,,
1.6919999972,13,135017.8125000000,111244.2578125000,131477.7187500000,140140.2968750000,108714.2656250000,123488.4609375000,132761.9843750000,125941.3203125000,,,
1.6959999972,13,134898.5625000000,111240.1562500000,131341.3906250000,140189.2343750000,108645.7343750000,123505.3906250000,132699.5781250000,125588.3906250000,,,
1.6999999972,13,136561.8750000000,113152.9453125000,133014.3281250000,142190.4687500000,110445.3125000000,125457.2890625000,134505.1875000000,126726.0234375000,,,
1.7039999971,13,137713.7968750000,114345.1093750000,134193.1406250000,143370.6875000000,111635.7265625000,126656.4218750000,135693.8593750000,127787.3203125000,,,
1.7079999973,13,136787.1875000000,113193.4218750000,133270.6093750000,142126.5156250000,110598.3046875000,125474.2343750000,134653.5937500000,127328.3125000000,,,
1.7119999973,13,135042.0000000000,111266.0078125000,131498.4062500000,140144.8437500000,108743.5312500000,123521.3203125000,132796.4062500000,125964.3593750000,,,
1.7159999972,13,134902.0937500000,111235.7265625000,131341.1718750000,140174.7031250000,108648.9531250000,123513.0859375000,132705.4687500000,125594.5312500000,,,
1.7199999972,13,136560.8281250000,113142.3281250000,133014.6718750000,142173.3281250000,110444.3671875000,125460.2890625000,134506.8437500000,126724.5468750000,,,
1.7239999971,13,137747.7343750000,114369.8671875000,134227.2500000000,143392.9531250000,111669.9765625000,126694.9687500000,135727.3906250000,127815.0312500000,,,
1.7279999971,13,136806.9687500000,113199.3515625000,133289.5312500000,142136.9218750000,110620.3203125000,125494.8906250000,134668.4218750000,127342.1250000000,,,
1.7319999973,13,135053.3437500000,111266.5781250000,131513.0937500000,140143.7500000000,108761.2265625000,123536.7187500000,132806.6718750000,125974.2265625000,,,
1.7359999972,13,134897.5156250000,111221.2734375000,131340.9062500000,140159.1406250000,108650.5078125000,123509.8437500000,132704.1406250000,125591.9609375000,,,
1.7399999972,13,136551.9218750000,113124.0546875000,133010.4218750000,142169.5468750000,110442.6796875000,125447.7890625000,134504.3281250000,126715.3203125000,,,
1.7439999972,13,137749.3750000000,114369.2187500000,134231.2500000000,143410.5000000000,111678.4843750000,126693.0312500000,135738.3281250000,127809.7187500000,,,
1.7479999971,13,136834.8906250000,113231.0546875000,133320.6875000000,142180.7031250000,110649.4218750000,125513.9609375000,134702.1875000000,127357.2812500000,,,
1.7519999973,13,135071.6875000000,111281.7578125000,131531.8750000000,140166.6562500000,108773.4609375000,123537.3359375000,132821.2187500000,125982.6484375000,,,
1.7559999973,13,134894.1562500000,111211.5859375000,131332.6718750000,140155.4687500000,108634.8984375000,123484.1171875000,132688.7343750000,125582.8906250000,,,
1.7599999972,13,136545.2968750000,113117.1953125000,132996.1250000000,142159.5937500000,110420.6875000000,125427.3515625000,134481.8437500000,126704.5156250000,,,
1.7639999972,13,137735.8281250000,114356.5078125000,134214.5156250000,143406.6093750000,111653.0781250000,126674.2578125000,135709.0156250000,127791.3750000000,,,
1.7679999971,13,136837.0937500000,113237.1406250000,133320.4218750000,142189.3125000000,110644.1406250000,125521.9296875000,134693.4687500000,127356.7734375000,,,
1.7719999971,13,135076.6562500000,111291.9218750000,131538.5468750000,140175.4218750000,108775.7656250000,123550.4218750000,132822.3125000000,125989.9218750000,,,
1.7759999973,13,134884.6093750000,111205.3125000000,131327.5156250000,140149.7812500000,108627.3906250000,123484.6562500000,132678.2812500000,125580.7187500000,,,
1.7799999972,13,136535.1406250000,113108.5859375000,132990.8906250000,142152.1093750000,110416.6093750000,125428.9609375000,134473.3437500000,126701.9687500000,,,
1.7839999972,13,137746.4531250000,114367.1796875000,134229.7187500000,143416.9531250000,111672.6875000000,126696.3828125000,135727.9687500000,127804.8359375000,,,
1.7879999971,13,136841.8750000000,113239.4765625000,133331.1250000000,142193.1406250000,110661.4140625000,125534.6406250000,134709.8125000000,127362.6171875000,,,
1.7919999971,14,135076.9843750000,111289.9609375000,131544.4843750000,140175.9062500000,108787.9453125000,123554.1250000000,132831.8906250000,125994.9921875000,,,
1.7959999971,14,134862.7812500000,111179.8828125000,131308.9843750000,140119.1875000000,108613.1718750000,123463.7890625000,132666.1250000000,125569.5937500000,,,
1.7999999970,14,136488.2187500000,113058.9843750000,132942.3593750000,142092.2187500000,110371.4921875000,125381.2421875000,134441.4843750000,126667.7109375000,,,
1.8039999970,14,137700.9062500000,114329.6875000000,134179.7812500000,143360.1562500000,111627.4687500000,126657.2812500000,135697.9062500000,127763.7421875000,,,
1.8079999969,14,136845.2812500000,113254.8671875000,133328.0156250000,142198.5625000000,110663.0234375000,125549.6328125000,134727.2968750000,127361.4687500000,,,
1.8119999969,14,135082.9531250000,111298.1953125000,131544.4843750000,140175.1875000000,108790.5234375000,123567.3203125000,132849.9843750000,125995.1484375000,,,
1.8159999971,14,134859.1250000000,111172.9687500000,131301.7656250000,140108.1562500000,108607.7578125000,123462.4765625000,132668.5468750000,125559.8828125000,,,
1.8199999970,14,136485.0000000000,113051.1328125000,132938.5000000000,142086.6406250000,110369.3203125000,125378.7812500000,134412.8593750000,126653.9843750000,,,
1.8239999970,14,137718.5781250000,114340.3906250000,134196.7343750000,143383.7031250000,111646.2109375000,126673.9375000000,135677.3906250000,127766.2421875000,,,
1.8279999970,14,136868.8281250000,113275.1484375000,133349.4218750000,142229.1718750000,110684.9921875000,125573.2109375000,134743.5000000000,127371.1484375000,,,
1.8319999969,14,135102.1562500000,111319.3593750000,131558.5156250000,140203.2968750000,108806.0468750000,123590.8203125000,132870.6406250000,126009.4218750000,,,
1.8359999971,14,134855.3750000000,111172.0234375000,131291.0937500000,140111.8593750000,108593.7265625000,123456.9765625000,132661.5156250000,125562.3750000000,,,
1.8399999971,14,136480.2500000000,113048.9296875000,132926.1406250000,142085.5156250000,110350.4921875000,125366.1171875000,134422.2812500000,126655.7812500000,,,
1.8439999970,14,137711.8125000000,114336.2031250000,134182.4062500000,143372.2968750000,111625.2968750000,126659.2343750000,135695.0156250000,127764.2265625000,,,
1.8479999970,14,136858.0156250000,113264.7656250000,133335.7343750000,142214.1406250000,110664.5000000000,125551.1406250000,134726.8125000000,127362.7812500000,,,
1.8519999969,14,135096.4687500000,111317.0546875000,131552.9218750000,140205.9531250000,108792.2656250000,123574.2421875000,132846.9843750000,126007.4609375000,,,
1.8559999969,14,134828.7187500000,111148.6953125000,131267.1718750000,140088.4375000000,108565.2109375000,123427.4453125000,132631.0156250000,125545.3984375000,,,
1.8599999971,14,136439.5937500000,113013.8750000000,132892.5625000000,142053.8906250000,110315.2734375000,125333.4218750000,134394.3593750000,126629.5468750000,,,
1.8639999970,14,137701.2500000000,114336.1250000000,134179.5312500000,143379.5468750000,111626.1015625000,126668.7578125000,135701.8281250000,127762.8359375000,,,
1.8679999970,14,136874.8281250000,113294.8593750000,133357.2500000000,142244.8906250000,110693.2812500000,125599.1250000000,134758.5937500000,127387.8046875000,,,
1.8719999969,14,135092.9375000000,111318.9609375000,131553.5000000000,140211.2656250000,108800.6875000000,123594.3593750000,132858.1250000000,126011.4296875000,,,
1.8759999969,14,134814.6562500000,111136.0078125000,131255.4687500000,140076.9375000000,108559.2890625000,123427.6015625000,132618.8437500000,125540.8359375000,,,
1.8799999971,14,136424.4062500000,112997.1875000000,132878.0937500000,142046.7031250000,110307.6875000000,125329.0000000000,134373.2187500000,126621.8750000000,,,
1.8839999971,14,137714.3125000000,114351.1406250000,134193.4375000000,143396.5000000000,111646.0000000000,126684.7187500000,135709.6250000000,127775.6250000000,,,
1.8879999970,14,136914.7968750000,113338.7656250000,133399.0468750000,142286.3281250000,110740.1640625000,125635.5156250000,134798.2968750000,127420.8515625000,,,
1.8919999970,14,135117.6093750000,111344.7109375000,131577.3437500000,140226.3281250000,108827.1328125000,123613.4843750000,132882.0937500000,126033.6640625000,,,
1.8959999969,14,134823.6718750000,111142.9531250000,131262.1250000000,140074.3906250000,108566.6093750000,123423.5312500000,132623.1250000000,125548.9921875000,,,
1.8999999969,14,136420.9218750000,112988.0937500000,132870.7187500000,142014.9687500000,110298.9687500000,125303.8125000000,134358.7031250000,126614.2578125000,,,
1.9039999971,14,137703.5312500000,114332.6328125000,134179.1562500000,143371.0156250000,111630.7890625000,126658.6250000000,135685.1718750000,127758.2187500000,,,
1.9079999970,14,136909.5625000000,113327.6640625000,133392.5781250000,142270.3437500000,110734.1328125000,125623.3671875000,134781.7968750000,127406.5000000000,,,
1.9119999970,14,135129.5000000000,111356.5078125000,131590.7812500000,140230.7812500000,108841.0234375000,123624.1015625000,132887.2812500000,126041.1250000000,,,
1.9159999969,14,134825.8906250000,111148.9062500000,131268.2343750000,140071.6562500000,108573.4765625000,123428.5703125000,132625.1406250000,125552.8281250000,,,
1.9199999969,15,136422.6093750000,112997.7812500000,132877.1093750000,142018.4062500000,110308.2187500000,125312.9843750000,134367.8593750000,126617.5859375000,,,
1.9239999969,15,137713.8906250000,114354.6562500000,134191.8281250000,143387.4531250000,111649.3828125000,126681.2031250000,135708.6093750000,127766.1328125000,,,
1.9279999968,15,136922.4375000000,113351.4843750000,133401.9062500000,142293.3750000000,110749.9843750000,125641.8750000000,134801.2500000000,127416.0000000000,,,
1.9319999968,15,135133.0156250000,111367.3750000000,131589.8593750000,140239.6093750000,108842.9843750000,123618.6562500000,132888.1562500000,126040.8828125000,,,
1.9359999967,15,134813.5781250000,111141.7421875000,131252.3906250000,140066.7500000000,108554.5390625000,123401.8593750000,132606.4531250000,125541.2656250000,,,
1.9399999967,15,136411.8281250000,112998.5546875000,132861.9218750000,142024.3593750000,110286.8984375000,125293.1875000000,134349.0781250000,126612.0546875000,,,
1.9439999969,15,137705.1875000000,114357.6640625000,134181.0625000000,143390.1562500000,111629.0781250000,126658.6484375000,135692.2187500000,127758.9687500000,,,
1.9479999968,15,136928.3437500000,113372.3750000000,133411.2968750000,142311.4843750000,110751.9921875000,125641.7421875000,134809.5312500000,127419.0312500000,,,
1.9519999968,15,135142.1250000000,111388.8281250000,131605.6093750000,140255.5781250000,108855.2968750000,123634.7500000000,132909.4843750000,126051.3437500000,,,
1.9559999967,15,134806.3906250000,111137.3203125000,131251.0468750000,140060.9218750000,108554.4843750000,123405.7187500000,132615.1406250000,125540.8125000000,,,
1.9599999967,15,136393.4062500000,112974.6875000000,132847.5000000000,141999.9531250000,110279.6562500000,125287.0234375000,134347.1406250000,126599.5859375000,,,
1.9639999969,15,137694.5156250000,114343.3671875000,134172.9375000000,143377.8281250000,111630.1484375000,126663.2343750000,135692.9687500000,127752.0468750000,,,
1.9679999969,15,136916.3750000000,113357.4375000000,133398.0937500000,142299.5468750000,110744.6953125000,125642.8125000000,134799.0156250000,127408.9921875000,,,
1.9719999968,15,135129.0312500000,111372.6562500000,131586.7500000000,140244.1718750000,108838.3984375000,123625.9531250000,132890.0156250000,126038.7890625000,,,
1.9759999968,15,134781.6718750000,111110.9765625000,131217.7031250000,140030.0312500000,108519.2656250000,123373.6406250000,132577.4218750000,125516.5625000000,,,
1.9799999967,15,136363.3125000000,112941.6171875000,132807.3437500000,141952.3437500000,110234.1406250000,125243.3281250000,134299.2500000000,126567.6640625000,,,
1.9839999967,15,137686.5000000000,114331.0000000000,134152.3593750000,143355.0000000000,111607.6718750000,126644.7812500000,135670.5156250000,127732.6875000000,,,
1.9879999969,15,136963.7812500000,113401.2343750000,133433.0312500000,142338.6093750000,110781.5000000000,125682.7031250000,134837.6093750000,127439.3046875000,,,
1.9919999968,15,135177.1093750000,111417.5859375000,131628.5625000000,140266.5468750000,108880.5078125000,123665.7812500000,132933.1406250000,126075.5859375000,,,
1.9959999968,15,134817.2656250000,111138.3906250000,131250.5156250000,140030.4531250000,108553.5468750000,123400.0859375000,132607.5156250000,125550.4140625000,,,
1.9999999967,15,136382.4843750000,112951.7500000000,132822.0468750000,141954.4843750000,110254.8984375000,125255.6406250000,134314.2031250000,126590.3046875000,,,
2.0039999967,15,137733.9531250000,114376.2500000000,134196.4687500000,143399.3437500000,111654.7734375000,126688.8203125000,135710.1718750000,127782.4921875000,,,
2.0079999969,15,137001.1093750000,113439.7265625000,133469.0156250000,142373.5312500000,110816.8203125000,125720.2500000000,134863.7187500000,127474.3906250000,,,
2.0119999968,15,135195.5781250000,111432.8203125000,131645.6250000000,140302.2187500000,108897.5703125000,123686.6562500000,132941.1875000000,126088.0078125000,,,
2.0159999968,15,134808.5937500000,111125.1171875000,131240.1250000000,140042.7187500000,108540.9687500000,123395.0390625000,132589.9531250000,125538.3125000000,,,
2.0199999968,15,136377.4531250000,112945.3125000000,132818.7500000000,141958.5937500000,110245.3203125000,125255.0468750000,134299.8125000000,126585.3671875000,,,
2.0239999967,15,137739.9531250000,114385.9843750000,134206.4687500000,143413.3906250000,111663.1640625000,126706.2031250000,135717.9375000000,127788.3437500000,,,
2.0279999967,15,137012.0312500000,113451.6093750000,133488.8750000000,142389.0781250000,110836.6171875000,125740.2890625000,134884.7500000000,127482.9687500000,,,
2.0319999969,15,135185.3125000000,111420.1328125000,131641.5781250000,140286.0468750000,108893.2500000000,123680.3203125000,132940.7812500000,126079.7968750000,,,
2.0359999968,15,134764.2031250000,111080.0781250000,131197.8906250000,139997.4062500000,108499.0156250000,123354.8671875000,132557.0156250000,125503.1015625000,,,
2.0399999968,15,136338.3125000000,112906.9062500000,132780.0468750000,141933.0000000000,110209.2187500000,125221.6796875000,134277.0000000000,126552.8906250000,,,
2.0439999967,15,137732.3437500000,114380.7031250000,134200.1562500000,143417.3593750000,111663.2734375000,126709.1250000000,135732.4062500000,127781.3671875000,,,
2.0479999967,16,137012.5937500000,113459.4687500000,133488.7656250000,142403.6718750000,110845.9218750000,125753.3515625000,134907.0625000000,127482.0859375000,,,
2.0519999966,16,135182.3125000000,111431.6093750000,131636.2968750000,140295.9375000000,108898.1015625000,123693.4921875000,132953.7656250000,126080.8437500000,,,
2.0559999966,16,134762.1875000000,111093.7031250000,131195.7343750000,139997.2968750000,108504.1640625000,123369.8046875000,132564.8125000000,125512.3828125000,,,
2.0599999966,16,136345.4531250000,112929.9765625000,132787.1406250000,141931.4218750000,110220.8906250000,125245.2578125000,134285.6406250000,126575.9531250000,,,
2.0639999965,16,137725.7187500000,114381.3984375000,134195.6875000000,143405.3437500000,111657.9921875000,126709.3437500000,135718.2187500000,127784.5859375000,,,
2.0679999965,16,137022.8125000000,113471.6171875000,133504.8281250000,142403.0000000000,110860.7031250000,125768.8281250000,134913.1406250000,127491.4218750000,,,
2.0719999967,16,135201.3437500000,111444.2421875000,131658.2343750000,140296.9375000000,108917.2812500000,123712.2421875000,132961.2187500000,126094.0703125000,,,
2.0759999966,16,134771.3906250000,111089.3906250000,131200.4375000000,139986.0937500000,108506.1796875000,123371.7890625000,132555.2968750000,125515.5703125000,,,
2.0799999966,16,136342.1250000000,112904.7578125000,132777.5156250000,141910.2500000000,110209.1406250000,125224.1484375000,134271.3281250000,126564.3671875000,,,
2.0839999965,16,137749.9062500000,114385.5546875000,134210.1875000000,143419.4062500000,111671.5625000000,126717.0156250000,135732.3750000000,127796.4140625000,,,
2.0879999965,16,137065.9687500000,113498.8437500000,133535.0000000000,142441.3906250000,110891.3359375000,125801.0625000000,134942.7656250000,127520.3906250000,,,
2.0919999967,16,135222.1093750000,111449.3671875000,131670.8125000000,140319.2968750000,108931.0703125000,123721.5781250000,132977.3906250000,126101.8203125000,,,
2.0959999966,16,134768.2343750000,111073.5390625000,131195.5312500000,139987.9218750000,108500.6250000000,123353.0156250000,132550.5781250000,125506.9062500000,,,
2.0999999966,16,136342.1718750000,112906.1015625000,132777.8750000000,141912.0468750000,110210.2109375000,125217.8437500000,134265.3593750000,126567.0234375000,,,
2.1039999966,16,137781.1250000000,114433.0546875000,134242.2656250000,143439.2187500000,111709.2500000000,126755.7734375000,135760.1406250000,127831.6875000000,,,
2.1079999965,16,137109.3906250000,113562.8671875000,133579.2343750000,142469.7968750000,110938.8125000000,125856.8828125000,134980.7343750000,127569.7968750000,,,
2.1119999965,16,135228.8125000000,111473.9609375000,131680.0156250000,140317.5625000000,108939.0859375000,123739.2500000000,132978.4687500000,126118.0468750000,,,
2.1159999967,16,134739.5000000000,111056.2109375000,131170.3125000000,139946.5000000000,108474.1250000000,123334.1328125000,132519.3281250000,125492.5546875000,,,
2.1199999966,16,136304.0937500000,112874.0781250000,132742.0625000000,141870.9375000000,110172.5000000000,125189.4687500000,134228.7031250000,126543.5781250000,,,
2.1239999966,16,137759.2343750000,114414.1484375000,134223.9531250000,143432.4375000000,111687.8125000000,126742.2812500000,135745.7031250000,127817.2265625000,,,
2.1279999965,16,137094.2656250000,113547.8437500000,133568.9531250000,142481.6250000000,110925.9062500000,125844.3281250000,134975.1562500000,127551.5312500000,,,
2.1319999965,16,135221.3125000000,111466.2109375000,131676.1562500000,140327.7500000000,108935.7343750000,123731.4218750000,132982.5781250000,126106.6484375000,,,
2.1359999967,16,134725.9843750000,111041.9375000000,131160.5468750000,139943.8437500000,108467.1562500000,123320.9062500000,132520.2968750000,125478.8281250000,,,
2.1399999966,16,136282.3593750000,112851.4687500000,132722.6406250000,141856.1250000000,110158.1250000000,125170.2109375000,134220.5156250000,126525.9843750000,,,
2.1439999966,16,137745.6875000000,114398.8828125000,134208.9375000000,143429.4843750000,111679.5781250000,126732.0078125000,135742.8281250000,127806.4453125000,,,
2.1479999966,16,137099.7656250000,113550.2890625000,133570.0312500000,142497.1406250000,110935.7500000000,125859.9140625000,134990.5781250000,127558.9296875000,,,
2.1519999965,16,135227.3125000000,111468.7343750000,131673.8437500000,140339.9218750000,108938.6562500000,123750.1171875000,132988.2343750000,126119.2578125000,,,
2.1559999965,16,134719.9687500000,111031.2890625000,131144.9687500000,139933.2500000000,108451.6250000000,123322.3828125000,132508.8750000000,125481.9609375000,,,
2.1599999967,16,136285.3906250000,112852.3750000000,132719.0937500000,141846.7968750000,110153.0546875000,125176.6718750000,134218.9062500000,126530.3046875000,,,
2.1639999966,16,137762.5156250000,114410.5234375000,134220.7656250000,143448.2031250000,111690.0390625000,126747.7265625000,135753.8281250000,127815.3750000000,,,
2.1679999966,16,137113.3125000000,113555.1718750000,133579.5468750000,142516.5625000000,110944.2500000000,125871.0937500000,135000.0781250000,127557.4843750000,,,
2.1719999965,16,135230.7187500000,111457.4375000000,131679.5312500000,140351.4062500000,108940.7812500000,123744.7500000000,132990.7500000000,126102.9765625000,,,
2.1759999965,17,134704.7968750000,110995.3515625000,131135.6875000000,139930.8593750000,108437.0546875000,123291.3515625000,132491.5625000000,125448.7812500000,,,
2.1799999964,17,136266.9375000000,112807.2890625000,132703.2812500000,141837.6718750000,110132.2109375000,125140.1171875000,134194.6406250000,126500.9375000000,,,
2.1839999964,17,137758.1093750000,114386.8437500000,134219.9843750000,143426.5625000000,111684.4921875000,126730.0468750000,135744.9843750000,127805.5312500000,,,
2.1879999964,17,137121.7656250000,113556.1328125000,133595.4375000000,142507.4687500000,110957.0468750000,125869.7031250000,135008.6875000000,127563.1718750000,,,
2.1919999963,17,135226.1406250000,111452.3437500000,131682.7812500000,140336.1250000000,108943.6718750000,123738.9531250000,132988.9843750000,126103.9140625000,,,
2.1959999963,17,134671.0312500000,110963.9687500000,131107.2812500000,139885.9687500000,108408.9453125000,123261.4453125000,132456.5156250000,125432.3437500000,,,
2.1999999965,17,136226.8906250000,112775.8515625000,132667.8437500000,141792.6718750000,110097.5312500000,125108.8125000000,134154.7500000000,126482.5625000000,,,
2.2039999964,17,137708.5468750000,114349.3984375000,134172.7968750000,143384.9062500000,111640.0156250000,126693.5937500000,135697.6093750000,127771.7656250000,,,
2.2079999964,17,137089.2968750000,113540.1796875000,133562.0625000000,142495.2656250000,110928.7812500000,125854.3046875000,134977.3281250000,127537.0703125000,,,
2.2119999963,17,135213.7187500000,111452.7500000000,131667.8593750000,140331.9062500000,108934.2031250000,123738.1250000000,132978.6250000000,126093.4531250000,,,
2.2159999963,17,134643.0468750000,110939.6406250000,131077.4843750000,139861.4218750000,108380.7343750000,123235.2656250000,132430.5000000000,125405.3046875000,,,
2.2199999965,17,136184.5468750000,112730.9296875000,132625.7656250000,141758.3281250000,110054.6953125000,125067.5859375000,134115.5625000000,126437.8750000000,,,
2.2239999964,17,137725.4375000000,114360.3984375000,134190.2968750000,143421.4843750000,111658.9531250000,126719.5312500000,135720.5468750000,127778.3593750000,,,
2.2279999964,17,137142.7812500000,113566.6250000000,133617.9843750000,142540.9531250000,110983.7343750000,125913.0781250000,135035.1093750000,127577.4921875000,,,
2.2319999964,17,135248.3437500000,111447.1718750000,131705.4687500000,140360.6406250000,108969.6406250000,123771.7343750000,133013.3125000000,126119.3359375000,,,
2.2359999963,17,134650.0156250000,110900.0234375000,131080.0312500000,139857.3437500000,108382.4765625000,123237.2187500000,132430.0625000000,125415.1718750000,,,
2.2399999963,17,136182.2656250000,112689.9140625000,132614.6875000000,141742.7031250000,110041.6093750000,125055.7031250000,134098.0000000000,126444.6640625000,,,
2.2439999965,17,137730.3593750000,114349.6406250000,134187.0000000000,143410.6875000000,111655.8984375000,126716.3671875000,135714.1093750000,127788.6640625000,,,
2.2479999964,17,137169.4687500000,113603.3437500000,133637.0625000000,142569.9375000000,111005.2734375000,125937.4531250000,135053.5312500000,127601.7109375000,,,
2.2519999964,17,135270.6093750000,111488.6328125000,131720.6406250000,140377.3125000000,108984.8203125000,123789.7578125000,133023.3906250000,126135.6953125000,,,
2.2559999963,17,134662.0156250000,110937.1484375000,131089.9062500000,139861.6875000000,108390.8671875000,123243.5234375000,132433.7187500000,125418.7734375000,,,
2.2599999963,17,136204.6875000000,112736.6406250000,132636.8437500000,141755.2500000000,110066.0468750000,125076.0390625000,134120.2031250000,126457.3750000000,,,
2.2639999965,17,137774.4531250000,114409.2421875000,134230.8125000000,143447.4843750000,111703.9921875000,126757.4375000000,135756.4843750000,127818.8906250000,,,
2.2679999964,17,137211.4062500000,113656.7734375000,133679.4062500000,142609.6875000000,111051.2500000000,125972.9140625000,135094.2031250000,127628.8281250000,,,
2.2719999964,17,135291.5468750000,111523.0468750000,131740.7031250000,140393.1093750000,109008.3437500000,123804.9687500000,133043.4062500000,126151.4453125000,,,
2.2759999963,17,134668.5781250000,110958.2031250000,131096.0468750000,139856.3750000000,108400.2578125000,123248.0859375000,132438.6250000000,125432.8281250000,,,
2.2799999963,17,136191.8906250000,112734.3046875000,132624.3906250000,141732.8281250000,110057.2968750000,125060.3984375000,134104.1406250000,126457.0000000000,,,
2.2839999963,17,137773.7031250000,114420.1796875000,134231.6718750000,143446.1718750000,111709.4609375000,126761.6171875000,135757.4062500000,127829.5937500000,,,
2.2879999964,17,137215.5000000000,113671.4140625000,133685.0156250000,142616.0312500000,111060.6093750000,125986.3828125000,135101.8125000000,127642.6406250000,,,
2.2919999964,17,135291.7343750000,111531.6328125000,131743.6406250000,140400.1093750000,109013.5156250000,123817.4140625000,133052.1562500000,126161.4218750000,,,
2.2959999964,17,134651.0156250000,110944.8671875000,131081.7656250000,139850.2656250000,108385.6640625000,123237.8359375000,132429.0156250000,125426.2500000000,,,
2.2999999963,17,136179.9062500000,112724.0312500000,132614.0312500000,141733.5781250000,110044.7187500000,125053.0000000000,134099.3906250000,126452.5468750000,,,
2.3039999963,18,137765.8906250000,114412.4609375000,134221.8593750000,143451.0468750000,111696.1562500000,126756.8984375000,135754.4218750000,127825.3828125000,,,
2.3079999962,18,137224.4375000000,113687.2968750000,133691.3437500000,142640.0625000000,111065.6250000000,126006.1171875000,135117.0781250000,127649.9921875000,,,
2.3119999962,18,135295.7968750000,111539.3828125000,131743.7656250000,140410.3906250000,109010.5703125000,123828.5937500000,133056.7343750000,126161.8203125000,,,
2.3159999961,18,134636.5781250000,110932.2343750000,131060.5000000000,139828.7500000000,108361.8203125000,123230.5703125000,132412.8437500000,125412.5703125000,,,
2.3199999961,18,136158.9062500000,112705.3906250000,132585.5781250000,141697.9843750000,110014.6796875000,125036.6640625000,134071.3906250000,126437.2578125000,,,
2.3239999961,18,137779.0625000000,114429.8359375000,134230.6093750000,143448.2812500000,111706.1093750000,126771.7578125000,135756.7500000000,127838.2265625000,,,
2.3279999963,18,137254.3750000000,113709.8281250000,133719.2500000000,142655.6875000000,111095.3984375000,126027.2031250000,135133.8906250000,127673.2500000000,,,
2.3319999962,18,135315.6875000000,111547.0000000000,131764.4687500000,140419.7031250000,109033.3906250000,123832.9375000000,133063.0625000000,126174.8046875000,,,
2.3359999962,18,134645.4062500000,110926.1250000000,131074.6406250000,139829.2343750000,108375.4453125000,123222.4140625000,132412.5312500000,125417.2421875000,,,
2.3399999961,18,136156.4062500000,112685.3281250000,132588.9375000000,141697.5312500000,110017.7656250000,125021.6953125000,134071.3281250000,126428.6484375000,,,
2.3439999961,18,137766.7500000000,114396.7421875000,134224.8906250000,143437.1250000000,111700.7187500000,126748.8515625000,135756.2187500000,127812.6406250000,,,
2.3479999963,18,137251.2031250000,113689.7343750000,133722.7343750000,142654.7812500000,111101.4843750000,126023.8203125000,135146.7187500000,127652.5703125000,,,
2.3519999962,18,135295.0156250000,111504.5390625000,131749.1250000000,140412.1875000000,109019.4453125000,123819.4218750000,133058.4218750000,126143.1250000000,,,
2.3559999962,18,134592.6718750000,110851.7734375000,131022.6015625000,139791.4375000000,108322.1015625000,123173.6796875000,132371.5468750000,125362.5000000000,,,
2.3599999961,18,136104.4531250000,112607.6250000000,132536.3125000000,141656.6250000000,109961.3046875000,124971.5078125000,134024.9375000000,126378.7578125000,,,
2.3639999961,18,137720.1406250000,114336.1250000000,134178.4062500000,143406.9218750000,111649.3828125000,126706.9531250000,135714.0000000000,127768.4140625000,,,
2.3679999961,18,137245.4843750000,113663.5546875000,133717.3906250000,142670.7343750000,111093.2500000000,126026.4765625000,135145.2343750000,127649.9140625000,,,
2.3719999962,18,135293.6250000000,111446.6875000000,131748.3281250000,140411.7343750000,109016.6015625000,123817.6015625000,133058.7968750000,126146.8281250000,,,
2.3759999962,18,134575.5156250000,110754.8125000000,131007.6328125000,139769.2343750000,108306.8671875000,123150.8828125000,132352.8906250000,125354.9062500000,,,
2.3799999962,18,136107.1406250000,112529.8125000000,132543.1406250000,141650.2968750000,109972.7578125000,124975.0234375000,134030.7031250000,126392.0625000000,,,
2.3839999961,18,137782.3125000000,114310.9062500000,134243.2656250000,143467.3593750000,111722.1484375000,126777.3359375000,135780.6250000000,127837.0468750000,,,
2.3879999961,18,137308.8125000000,113646.6875000000,133781.8125000000,142735.5468750000,111163.3359375000,126093.6640625000,135209.7500000000,127714.2343750000,,,
2.3919999963,18,135334.2031250000,111436.1171875000,131785.2031250000,140455.2343750000,109059.8671875000,123859.1953125000,133099.3281250000,126185.6953125000,,,
2.3959999962,18,134580.3906250000,110721.2578125000,131005.0859375000,139769.2343750000,108309.1953125000,123156.0312500000,132357.0312500000,125361.3984375000,,,
2.3999999962,18,136090.6406250000,112486.9296875000,132516.4375000000,141633.5625000000,109948.8046875000,124959.7890625000,134010.7968750000,126379.5078125000,,,
2.4039999961,18,137781.2031250000,114293.0703125000,134230.2812500000,143478.2968750000,111712.1171875000,126783.9375000000,135777.6250000000,127839.7890625000,,,
2.4079999961,18,137323.9218750000,113652.0234375000,133785.3593750000,142756.8125000000,111171.3281250000,126123.3359375000,135223.4218750000,127733.7343750000,,,
2.4119999961,18,135346.0625000000,111439.0703125000,131793.7656250000,140464.4687500000,109069.2812500000,123886.3671875000,133108.3750000000,126206.6718750000,,,
2.4159999962,18,134581.2968750000,110705.6953125000,131009.7031250000,139774.4375000000,108313.3515625000,123165.3359375000,132356.8750000000,125371.1093750000,,,
2.4199999962,18,136088.2187500000,112461.5234375000,132521.0468750000,141637.9218750000,109952.6406250000,124960.4375000000,134008.2500000000,126382.7265625000,,,
2.4239999962,18,137804.2968750000,114291.0859375000,134266.0937500000,143499.6250000000,111747.7109375000,126811.1875000000,135805.5781250000,127857.7265625000,,,
2.4279999961,18,137366.0312500000,113662.5625000000,133840.8281250000,142801.9843750000,111225.4531250000,126164.7187500000,135267.0312500000,127762.8593750000,,,
2.4319999961,19,135368.4843750000,111420.5625000000,131827.3125000000,140505.8281250000,109101.4453125000,123903.0234375000,133131.4062500000,126210.4218750000,,,
2.4359999960,19,134577.8125000000,110660.1562500000,131012.1718750000,139781.7031250000,108314.4296875000,123158.2031250000,132349.3281250000,125355.2265625000,,,
2.4399999960,19,136074.4062500000,112406.8593750000,132511.2031250000,141627.2031250000,109942.2343750000,124946.3828125000,133993.8750000000,126361.6484375000,,,
2.4439999959,19,137798.5312500000,114248.8125000000,134261.2968750000,143505.8125000000,111746.0234375000,126807.4531250000,135801.7031250000,127844.3984375000,,,
2.4479999959,19,137359.8593750000,113630.4296875000,133834.0156250000,142804.0781250000,111223.1484375000,126161.1250000000,135267.0625000000,127746.6093750000,,,
2.4519999959,19,135356.1093750000,111401.4375000000,131814.5468750000,140482.5625000000,109090.4453125000,123896.3750000000,133126.7968750000,126197.5781250000,,,
2.4559999960,19,134555.5625000000,110639.6875000000,130989.7734375000,139748.8437500000,108290.7421875000,123137.7109375000,132334.7656250000,125337.2812500000,,,
2.4599999960,19,136055.5468750000,112394.7109375000,132488.4843750000,141599.9531250000,109918.8984375000,124923.6640625000,133975.1250000000,126347.7812500000,,,
2.4639999960,19,137793.2812500000,114251.5546875000,134249.7812500000,143488.5468750000,111733.6796875000,126796.1640625000,135791.5781250000,127841.9296875000,,,
2.4679999959,19,137374.8281250000,113664.6875000000,133842.5937500000,142809.2187500000,111231.8437500000,126173.1718750000,135277.4687500000,127762.2968750000,,,
2.4719999959,19,135369.7968750000,111440.1953125000,131815.8906250000,140489.0000000000,109094.5781250000,123903.2109375000,133130.9218750000,126213.6953125000,,,
2.4759999961,19,134531.7968750000,110642.3437500000,130951.4140625000,139717.3906250000,108253.2734375000,123101.1250000000,132296.2031250000,125323.1250000000,,,
2.4799999960,19,136030.9531250000,112410.3515625000,132451.9843750000,141563.4375000000,109882.8203125000,124890.0781250000,133939.0000000000,126335.0390625000,,,
2.4839999960,19,137792.8437500000,114310.3437500000,134237.3125000000,143477.5156250000,111723.7578125000,126794.2343750000,135782.3750000000,127851.5625000000,,,
2.4879999959,19,137373.6406250000,113723.7734375000,133830.4218750000,142808.2343750000,111225.0000000000,126177.8906250000,135273.2812500000,127769.8593750000,,,
2.4919999959,19,135349.3750000000,111474.7109375000,131790.3593750000,140471.4687500000,109073.5468750000,123890.3359375000,133110.9218750000,126202.5390625000,,,
2.4959999959,19,134499.5781250000,110666.4296875000,130917.7812500000,139680.1250000000,108224.9218750000,123078.4375000000,132264.4375000000,125302.0390625000,,,
2.4999999960,19,136008.1562500000,112441.1640625000,132433.4375000000,141541.6406250000,109867.3203125000,124878.5468750000,133919.3593750000,126322.6484375000,,,
2.5039999960,19,137787.5312500000,114345.3750000000,134240.8281250000,143484.4218750000,111727.2187500000,126796.7031250000,135777.7031250000,127848.8281250000,,,
2.5079999960,19,137385.5312500000,113762.1328125000,133853.3281250000,142826.8750000000,111244.5000000000,126193.5781250000,135280.2031250000,127777.5546875000,,,
2.5119999959,19,135342.5156250000,111474.0156250000,131795.2656250000,140466.0781250000,109073.1953125000,123883.5000000000,133099.4843750000,126190.4687500000,,,
2.5159999959,19,134466.4531250000,110616.1093750000,130898.4140625000,139652.3750000000,108199.4453125000,123040.8828125000,132234.4531250000,125264.6796875000,,,
2.5199999961,19,135953.5781250000,112351.9062500000,132387.2500000000,141498.1875000000,109815.5234375000,124818.4609375000,133867.8437500000,126264.8984375000,,,
2.5239999960,19,137736.0625000000,114261.8281250000,134194.3125000000,143447.8906250000,111678.5625000000,126750.9140625000,135738.0312500000,127793.8671875000,,,
2.5279999960,19,137379.2187500000,113730.8515625000,133852.7343750000,142836.0156250000,111245.1171875000,126202.3203125000,135295.3593750000,127764.9531250000,,,
2.5319999959,19,135339.5937500000,111449.9843750000,131794.6250000000,140472.2343750000,109073.3359375000,123892.5625000000,133112.8437500000,126183.5468750000,,,
2.5359999959,19,134440.5468750000,110578.9062500000,130870.4921875000,139613.7500000000,108171.4375000000,123022.5937500000,132217.9531250000,125244.5078125000,,,
2.5399999958,19,135920.7656250000,112314.8593750000,132354.9843750000,141462.8125000000,109783.4453125000,124790.4609375000,133847.8281250000,126239.0156250000,,,
2.5439999960,19,137746.9531250000,114275.5546875000,134206.7812500000,143459.1562500000,111692.6953125000,126764.8671875000,135758.4687500000,127805.0546875000,,,
2.5479999960,19,137402.6093750000,113760.4921875000,133878.0781250000,142853.4218750000,111270.4921875000,126218.8437500000,135319.0781250000,127780.9140625000,,,
2.5519999960,19,135347.1875000000,111466.3437500000,131804.6562500000,140468.3750000000,109082.5312500000,123887.4687500000,133116.0937500000,126181.2421875000,,,
2.5559999959,19,134441.3750000000,110593.6093750000,130873.0156250000,139617.7187500000,108175.0859375000,123015.7812500000,132214.3125000000,125235.8125000000,,,
2.5599999959,20,135948.4843750000,112363.6796875000,132379.5937500000,141479.6250000000,109813.5156250000,124815.8906250000,133867.7343750000,126262.3515625000,,,
2.5639999958,20,137814.4062500000,114366.5937500000,134270.3593750000,143506.8593750000,111762.5390625000,126832.2968750000,135822.5468750000,127868.3515625000,,,
2.5679999958,20,137461.0625000000,113844.8203125000,133931.1093750000,142908.5468750000,111328.5312500000,126283.2968750000,135379.3125000000,127837.9609375000,,,
2.5719999957,20,135361.9687500000,111510.8203125000,131813.4531250000,140484.5468750000,109094.2812500000,123915.6093750000,133138.1406250000,126205.1640625000,,,
2.5759999957,20,134408.2500000000,110584.5937500000,130832.0546875000,139587.1718750000,108136.7812500000,122999.8750000000,132192.9062500000,125224.9531250000,,,
2.5799999957,20,135899.9375000000,112333.1796875000,132323.1562500000,141438.5625000000,109759.1718750000,124785.2343750000,133831.8750000000,126236.1484375000,,,
2.5839999958,20,137786.1406250000,114352.7265625000,134236.0000000000,143494.9375000000,111731.6718750000,126820.4687500000,135804.5781250000,127852.8984375000,,,
2.5879999958,20,137476.2187500000,113865.7421875000,133943.5781250000,142934.5625000000,111345.8906250000,126313.2890625000,135403.7812500000,127854.2421875000,,,
2.5919999958,20,135376.9531250000,111516.6875000000,131830.2187500000,140504.8593750000,109114.3671875000,123933.9218750000,133157.0312500000,126216.8359375000,,,
2.5959999957,20,134402.1875000000,110560.0781250000,130830.9843750000,139574.0781250000,108135.8984375000,122979.4375000000,132179.3125000000,125212.6953125000,,,
2.5999999957,20,135889.6875000000,112298.7968750000,132317.3281250000,141412.9531250000,109752.1484375000,124753.7187500000,133807.8906250000,126218.9531250000,,,
2.6039999959,20,137799.6875000000,114341.5703125000,134252.0156250000,143492.0937500000,111748.4375000000,126821.5078125000,135805.5781250000,127859.0156250000,,,
2.6079999958,20,137507.9687500000,113882.6640625000,133976.6562500000,142960.0468750000,111383.8984375000,126340.9921875000,135424.4531250000,127875.9140625000,,,
2.6119999958,20,135394.2812500000,111527.8203125000,131846.6875000000,140523.6093750000,109137.4140625000,123955.3828125000,133167.0781250000,126222.8125000000,,,
2.6159999957,20,134373.4531250000,110531.4375000000,130797.7031250000,139548.5625000000,108106.5546875000,122958.0859375000,132145.0312500000,125182.3906250000,,,
2.6199999957,20,135861.0156250000,112279.2421875000,132284.6093750000,141400.0468750000,109723.6640625000,124735.9062500000,133780.4843750000,126193.8203125000,,,
2.6239999956,20,137821.2031250000,114374.7968750000,134269.9062500000,143543.2343750000,111770.9921875000,126850.9375000000,135831.7187500000,127879.5078125000,,,
2.6279999958,20,137536.0000000000,113914.7187500000,133997.5000000000,143008.3750000000,111404.6250000000,126364.7578125000,135450.1718750000,127900.0312500000,,,
2.6319999958,20,135385.1562500000,111515.6484375000,131830.4843750000,140516.9218750000,109117.0781250000,123932.0468750000,133149.1406250000,126212.5937500000,,,
2.6359999957,20,134349.7031250000,110498.6562500000,130773.0468750000,139527.2187500000,108075.6875000000,122920.5859375000,132114.4531250000,125159.8046875000,,,
2.6399999957,20,135871.1562500000,112281.4140625000,132294.7187500000,141409.0312500000,109727.8984375000,124737.1953125000,133788.5468750000,126206.6718750000,,,
2.6439999957,20,137863.7187500000,114409.4843750000,134312.4062500000,143574.2656250000,111810.4765625000,126890.1796875000,135876.1093750000,127925.6718750000,,,
2.6479999959,20,137586.3125000000,113960.2343750000,134051.4843750000,143041.8750000000,111456.1562500000,126417.8359375000,135505.8125000000,127954.9062500000,,,
2.6519999958,20,135401.6875000000,111527.5234375000,131849.2031250000,140525.0781250000,109136.1484375000,123953.4531250000,133171.4062500000,126233.9218750000,,,
2.6559999958,20,134321.3750000000,110467.1718750000,130741.0781250000,139491.7343750000,108046.9843750000,122892.8281250000,132088.9687500000,125133.7343750000,,,
2.6599999957,20,135856.6718750000,112267.6015625000,132277.3906250000,141393.5468750000,109714.8593750000,124725.0937500000,133780.2343750000,126194.4140625000,,,
2.6639999957,20,137907.4062500000,114464.6250000000,134356.2343750000,143628.7656250000,111855.5312500000,126939.7421875000,135927.8593750000,127968.2890625000,,,
2.6679999956,20,137644.8906250000,114030.8828125000,134110.1406250000,143117.1093750000,111515.8593750000,126481.1406250000,135571.8437500000,128007.1015625000,,,
2.6719999958,20,135417.4531250000,111550.6718750000,131866.5312500000,140547.0468750000,109152.2968750000,123969.0078125000,133192.7031250000,126245.3750000000,,,
2.6759999958,20,134291.7343750000,110443.8593750000,130717.3671875000,139450.7812500000,108022.0390625000,122869.9218750000,132069.7968750000,125112.1640625000,,,
2.6799999957,20,135827.7031250000,112238.2343750000,132257.6718750000,141345.5156250000,109693.1406250000,124702.9140625000,133760.3906250000,126176.3828125000,,,
2.6839999957,20,137924.8125000000,114469.0234375000,134384.0000000000,143640.9218750000,111884.2578125000,126962.5937500000,135958.8281250000,127987.5781250000,,,
2.6879999957,21,137683.3593750000,114050.0937500000,134156.2031250000,143159.1406250000,111567.0078125000,126527.7265625000,135624.1718750000,128041.1406250000,,,
2.6919999956,21,135419.9531250000,111526.1015625000,131875.6250000000,140558.2656250000,109164.6328125000,123977.4296875000,133204.2656250000,126242.6406250000,,,
2.6959999956,21,134242.2968750000,110364.3359375000,130671.5781250000,139412.7656250000,107974.1328125000,122816.0078125000,132017.6250000000,125058.2265625000,,,
2.6999999955,21,135768.0468750000,112158.8906250000,132194.7812500000,141302.8437500000,109626.4843750000,124637.4453125000,133690.9375000000,126115.1015625000,,,
2.7039999955,21,137875.4843750000,114411.5468750000,134325.3125000000,143597.3593750000,111821.7656250000,126911.3125000000,135892.9531250000,127940.4453125000,,,
2.7079999954,21,137651.1406250000,114015.9453125000,134114.9531250000,143124.2968750000,111520.0156250000,126494.0937500000,135574.0156250000,128009.6796875000,,,
2.7119999956,21,135397.5000000000,111511.4843750000,131845.2343750000,140529.2343750000,109128.5625000000,123953.9609375000,133165.8281250000,126222.6015625000,,,
2.7159999956,21,134215.1093750000,110341.5312500000,130638.6718750000,139380.3125000000,107938.9687500000,122790.5546875000,131984.4375000000,125038.8046875000,,,
2.7199999955,21,135733.8750000000,112133.5468750000,132156.3750000000,141263.0937500000,109590.7265625000,124608.5781250000,133660.0156250000,126092.7812500000,,,
2.7239999955,21,137877.9062500000,114442.2265625000,134325.7968750000,143601.9531250000,111829.8671875000,126928.6093750000,135907.7031250000,127951.2812500000,,,
2.7279999955,21,137710.6406250000,114111.6718750000,134174.3125000000,143192.2968750000,111588.9218750000,126572.2265625000,135649.2187500000,128071.4218750000,,,
2.7319999957,21,135449.7968750000,111595.2812500000,131896.9687500000,140582.5937500000,109186.6015625000,124018.1718750000,133225.4218750000,126278.4453125000,,,
2.7359999956,21,134233.5625000000,110380.9375000000,130655.0312500000,139389.9687500000,107955.3906250000,122807.1328125000,131998.7343750000,125064.3437500000,,,
2.7399999956,21,135725.7187500000,112128.0234375000,132146.3125000000,141241.2343750000,109577.1875000000,124593.3750000000,133644.2968750000,126090.5546875000,,,
2.7439999955,21,137857.0937500000,114408.2968750000,134301.7968750000,143566.7812500000,111802.0781250000,126896.6953125000,135876.6250000000,127929.7500000000,,,
2.7479999955,21,137686.9062500000,114073.3203125000,134149.2031250000,143163.9375000000,111561.9375000000,126541.8359375000,135621.3281250000,128040.4140625000,,,
2.7519999954,21,135434.4375000000,111569.2109375000,131884.1875000000,140569.0468750000,109172.3828125000,124000.4453125000,133215.8750000000,126252.9609375000,,,
2.7559999956,21,134213.3593750000,110362.8281250000,130638.4062500000,139377.4218750000,107939.1875000000,122790.9531250000,131990.3125000000,125036.0468750000,,,
2.7599999956,21,135714.4062500000,112134.1640625000,132137.2187500000,141236.1406250000,109571.2812500000,124591.2812500000,133643.2343750000,126074.0078125000,,,
2.7639999955,21,137863.3906250000,114439.0078125000,134310.0312500000,143579.9062500000,111813.6640625000,126911.4765625000,135890.4375000000,127928.5390625000,,,
2.7679999955,21,137713.9062500000,114128.2265625000,134179.7812500000,143198.1718750000,111595.1484375000,126575.0468750000,135651.2968750000,128055.0078125000,,,
2.7719999955,21,135459.1406250000,111615.6875000000,131912.7500000000,140596.9687500000,109201.5390625000,124027.9609375000,133240.8750000000,126266.3750000000,,,
2.7759999956,21,134208.9375000000,110369.1875000000,130636.3125000000,139371.7500000000,107937.5000000000,122783.5546875000,131985.1093750000,125024.8046875000,,,
2.7799999956,21,135679.2656250000,112105.7031250000,132105.2812500000,141208.3437500000,109537.7812500000,124548.0468750000,133608.4375000000,126036.5078125000,,,
2.7839999956,21,137849.7031250000,114439.0937500000,134298.9687500000,143582.5625000000,111800.8671875000,126896.6953125000,135880.5937500000,127911.3437500000,,,
2.7879999955,21,137738.0781250000,114169.0703125000,134206.0625000000,143230.8593750000,111620.6796875000,126601.6484375000,135681.9218750000,128075.2578125000,,,
2.7919999955,21,135484.0625000000,111653.1875000000,131938.2343750000,140620.6250000000,109226.0312500000,124051.8593750000,133268.0468750000,126292.0703125000,,,
2.7959999954,21,134196.1875000000,110366.7734375000,130618.6093750000,139349.1718750000,107916.6015625000,122767.5156250000,131966.2500000000,125022.6875000000,,,
2.7999999956,21,135651.5312500000,112087.0859375000,132067.2500000000,141166.9375000000,109499.8593750000,124520.1796875000,133572.1562500000,126023.9843750000,,,
2.8039999956,21,137841.5625000000,114438.2578125000,134280.2031250000,143566.2812500000,111786.8671875000,126893.0703125000,135861.5000000000,127916.3593750000,,,
2.8079999955,21,137744.9375000000,114179.9609375000,134202.1718750000,143234.3281250000,111621.4843750000,126616.6718750000,135674.6562500000,128092.8828125000,,,
2.8119999955,21,135483.4687500000,111656.5703125000,131927.7968750000,140619.9218750000,109220.7500000000,124060.5234375000,133257.8437500000,126302.2656250000,,,
2.8159999955,22,134181.4687500000,110353.5000000000,130601.9765625000,139331.7187500000,107903.3515625000,122759.5234375000,131954.7187500000,125021.1328125000,,,
2.8199999954,22,135625.5625000000,112061.8515625000,132047.2031250000,141135.9531250000,109479.3125000000,124498.9296875000,133558.0468750000,126011.0859375000,,,
2.8239999954,22,137821.4687500000,114420.7734375000,134268.5000000000,143540.6875000000,111773.7812500000,126874.5937500000,135859.4531250000,127904.5312500000,,,
2.8279999953,22,137727.1093750000,114167.7343750000,134192.4375000000,143214.8593750000,111611.1562500000,126599.5859375000,135677.3593750000,128077.4531250000,,,
2.8319999953,22,135477.7500000000,111656.9140625000,131927.5312500000,140618.0156250000,109219.7812500000,124062.5937500000,133267.3906250000,126295.9296875000,,,
2.8359999952,22,134170.2812500000,110344.4609375000,130592.4296875000,139325.3593750000,107891.4140625000,122750.3984375000,131944.3906250000,125008.6562500000,,,
2.8399999954,22,135605.3437500000,112037.8984375000,132025.7968750000,141111.1406250000,109454.8203125000,124473.3984375000,133527.8437500000,125988.9296875000,,,
2.8439999954,22,137819.0468750000,114412.8359375000,134263.5937500000,143542.4062500000,111767.8828125000,126865.5000000000,135843.1250000000,127894.7421875000,,,
2.8479999953,22,137755.4062500000,114188.9531250000,134217.4687500000,143253.6875000000,111639.1640625000,126619.7031250000,135696.9375000000,128088.4765625000,,,
2.8519999953,22,135512.2187500000,111687.3046875000,131961.0000000000,140657.6875000000,109256.3906250000,124083.4296875000,133297.0156250000,126312.7265625000,,,
2.8559999953,22,134189.5625000000,110362.5625000000,130613.5937500000,139345.6562500000,107915.8281250000,122756.1171875000,131962.1875000000,125017.6171875000,,,
2.8599999954,22,135615.2656250000,112045.1406250000,132037.4687500000,141128.5000000000,109469.6562500000,124468.5937500000,133537.2343750000,125991.2578125000,,,
2.8639999954,22,137828.7343750000,114418.7109375000,134274.4531250000,143557.7187500000,111778.7421875000,126866.1171875000,135852.9375000000,127896.9140625000,,,
2.8679999954,22,137788.0000000000,114221.7500000000,134251.0468750000,143296.7656250000,111670.4375000000,126650.1484375000,135725.8281250000,128114.3671875000,,,
2.8719999953,22,135540.4687500000,111707.9609375000,131989.1406250000,140694.5625000000,109282.4140625000,124103.6562500000,133318.1718750000,126333.7812500000,,,
2.8759999953,22,134196.0312500000,110353.2265625000,130614.9609375000,139353.6250000000,107912.2031250000,122747.1562500000,131951.5000000000,125020.5703125000,,,
2.8799999952,22,135603.0156250000,112020.9765625000,132015.3906250000,141112.0625000000,109442.6484375000,124442.2578125000,133502.9687500000,125978.7109375000,,,
2.8839999954,22,137826.6718750000,114412.3203125000,134260.2187500000,143544.7187500000,111763.7734375000,126851.0937500000,135834.4843750000,127892.4140625000,,,
2.8879999954,22,137808.4062500000,114244.7890625000,134257.8281250000,143302.3750000000,111680.3359375000,126659.9375000000,135735.7031250000,128129.5156250000,,,
2.8919999953,22,135578.9218750000,111753.2109375000,132014.1093750000,140720.9062500000,109312.0234375000,124136.9687500000,133349.0781250000,126367.6015625000,,,
2.8959999953,22,134220.1250000000,110383.9687500000,130630.0859375000,139360.7812500000,107932.0000000000,122765.8750000000,131974.2187500000,125044.7343750000,,,
2.8999999953,22,135592.7343750000,112014.8046875000,131999.9218750000,141085.3906250000,109430.3593750000,124428.2812500000,133497.0781250000,125976.0781250000,,,
2.9039999954,22,137799.6093750000,114388.0468750000,134230.8437500000,143516.2031250000,111737.1406250000,126827.9765625000,135814.1875000000,127873.2343750000,,,
2.9079999954,22,137775.2500000000,114211.5859375000,134226.1875000000,143281.8593750000,111651.3359375000,126638.7734375000,135711.3750000000,128101.0625000000,,,
2.9119999954,22,135559.0468750000,111733.4140625000,131998.6875000000,140715.2968750000,109297.8906250000,124130.6093750000,133339.1250000000,126354.1406250000,,,
2.9159999953,22,134184.9843750000,110350.4375000000,130603.1015625000,139335.1250000000,107904.6406250000,122744.8984375000,131955.0156250000,125020.2734375000,,,
2.9199999953,22,135542.9375000000,111968.9375000000,131958.7968750000,141048.4531250000,109389.4296875000,124392.5000000000,133463.5937500000,125937.7812500000,,,
2.9239999952,22,137747.9687500000,114346.2343750000,134187.0156250000,143478.0312500000,111697.0937500000,126789.5703125000,135777.8125000000,127830.1328125000,,,
2.9279999954,22,137788.3906250000,114241.8984375000,134247.6875000000,143312.2656250000,111681.7265625000,126668.7890625000,135747.3750000000,128114.1484375000,,,
2.9319999954,22,135585.3906250000,111774.5859375000,132034.8906250000,140756.0156250000,109341.0156250000,124168.0859375000,133388.2031250000,126377.8203125000,,,
2.9359999953,22,134199.1406250000,110370.3984375000,130624.2968750000,139366.2031250000,107930.0703125000,122760.5390625000,131982.8125000000,125029.8203125000,,,
2.9399999953,22,135544.0625000000,111965.2109375000,131967.0937500000,141056.1250000000,109397.1562500000,124383.0312500000,133471.8125000000,125930.9375000000,,,
2.9439999952,23,137777.7500000000,114369.7031250000,134223.1562500000,143509.5000000000,111728.4765625000,126801.1250000000,135809.1406250000,127844.1015625000,,,
