Time:250Hz,Epoch,Channel 1,Channel 2,Channel 3,Channel 4,Channel 5,Channel 6,Channel 7,Channel 8,Event Id,Event Date,Event Duration
0.0000000000,0,148676.0000000000,195258.4843750000,147203.2656250000,150536.9375000000,120339.7890625000,152209.2343750000,131787.2187500000,145227.9375000000,,,
0.0040000000,0,148265.9062500000,196033.5937500000,146559.3593750000,150036.5937500000,119976.1093750000,151805.0625000000,131534.4218750000,144992.3593750000,,,
0.0079999999,0,147989.6093750000,198257.0312500000,145971.5000000000,149729.9062500000,119718.1875000000,151546.8906250000,131199.3593750000,144804.7343750000,,,
0.0119999999,0,148246.5937500000,198924.0000000000,146311.6250000000,149988.7656250000,119991.5312500000,151813.1562500000,131459.9375000000,144947.6093750000,,,
0.0159999998,0,148627.1718750000,197034.8125000000,146988.1093750000,150456.5000000000,120341.7500000000,152102.6718750000,131774.7968750000,145141.7500000000,,,
0.0199999998,0,148671.7343750000,195262.6718750000,147210.4843750000,150534.2031250000,120342.1796875000,152190.5156250000,131790.7812500000,145213.0937500000,,,
0.0240000000,0,148254.3281250000,196004.8125000000,146537.8906250000,150039.4375000000,119950.7656250000,151818.4218750000,131531.5468750000,144979.0000000000,,,
0.0279999999,0,147983.5468750000,198237.1562500000,145943.8437500000,149724.1406250000,119703.9218750000,151541.2031250000,131356.3750000000,144794.1093750000,,,
0.0319999999,0,148175.5937500000,198922.0625000000,146182.2656250000,149987.7812500000,119831.5390625000,151713.1718750000,131265.2031250000,144879.6250000000,,,
0.0359999998,0,148622.1093750000,197050.9062500000,146911.2343750000,150508.0156250000,120291.9375000000,152145.0625000000,131725.6093750000,145159.1093750000,,,
0.0399999998,0,148654.7031250000,195266.2968750000,147178.1406250000,150549.0312500000,120330.8359375000,152201.3281250000,131785.8593750000,145209.7187500000,,,
0.0440000000,0,148229.1562500000,195987.7812500000,146529.7656250000,150008.0781250000,119929.5468750000,151794.9218750000,131497.9375000000,144955.4687500000,,,
0.0480000000,0,147974.9687500000,198220.0156250000,145955.0000000000,149682.2812500000,119727.4140625000,151556.1250000000,131358.1250000000,144794.5937500000,,,
0.0519999999,0,148195.1250000000,198934.9375000000,146269.3593750000,149951.9687500000,119957.2265625000,151727.3750000000,131376.5781250000,144890.1406250000,,,
0.0559999999,0,148626.3750000000,197064.9843750000,147011.4375000000,150450.2968750000,120388.1250000000,152124.8906250000,131805.4843750000,145146.9843750000,,,
0.0599999998,0,148654.8281250000,195255.8593750000,147219.5312500000,150543.9062500000,120348.6171875000,152174.2343750000,131860.5312500000,145211.2812500000,,,
0.0639999998,0,148242.3125000000,195951.3281250000,146547.1250000000,150056.6562500000,119952.8281250000,151787.6562500000,131426.1093750000,144950.7187500000,,,
0.0680000000,0,147950.2343750000,198176.2812500000,145929.7343750000,149695.3437500000,119647.8125000000,151526.1562500000,131194.5000000000,144764.0937500000,,,
0.0719999999,0,148140.3750000000,198904.6250000000,146146.2656250000,149922.8437500000,119790.9843750000,151724.3437500000,131412.0312500000,144861.3750000000,,,
0.0759999999,0,148611.2500000000,197059.6406250000,146881.7500000000,150453.1250000000,120281.9609375000,152148.1875000000,131782.6875000000,145154.8125000000,,,
0.0799999998,0,148696.8906250000,195253.7343750000,147214.0468750000,150542.2968750000,120407.4140625000,152211.2031250000,131936.9218750000,145247.3750000000,,,
0.0839999998,0,148255.5781250000,195910.9375000000,146580.3750000000,150037.7031250000,120009.6640625000,151776.9531250000,131432.5312500000,144964.5468750000,,,
0.0880000000,0,147958.1562500000,198079.0781250000,145910.9843750000,149695.9531250000,119674.4453125000,151523.1562500000,131176.3750000000,144769.8125000000,,,
0.0919999999,0,148189.7343750000,198812.1718750000,146182.9843750000,149959.6406250000,119881.7500000000,151751.2500000000,131409.2968750000,144889.6250000000,,,
0.0959999999,0,148635.8906250000,197034.4531250000,146930.8593750000,150479.1562500000,120334.3437500000,152151.2500000000,131847.3750000000,145164.6250000000,,,
0.0999999999,0,148673.7968750000,195274.9218750000,147218.4843750000,150537.7343750000,120370.8750000000,152209.5625000000,131867.9062500000,145224.4531250000,,,
0.1039999998,0,148254.7187500000,195929.8437500000,146566.6250000000,150036.9218750000,119969.8359375000,151808.0625000000,131520.0937500000,144972.4218750000,,,
0.1079999998,0,147928.5468750000,198074.7031250000,145866.0781250000,149673.4218750000,119591.2109375000,151504.5468750000,131110.7968750000,144740.2187500000,,,
0.1120000000,0,148172.4687500000,198812.9843750000,146150.6093750000,149942.1093750000,119862.3281250000,151734.8906250000,131370.9687500000,144871.5937500000,,,
0.1159999999,0,148615.3281250000,197052.3437500000,146915.5000000000,150457.2187500000,120309.0234375000,152145.6406250000,131759.1093750000,145143.2031250000,,,
0.1199999999,0,148649.2031250000,195278.8437500000,147181.5937500000,150538.1406250000,120314.5546875000,152175.8750000000,131795.4218750000,145188.1250000000,,,
0.1239999998,0,148252.6562500000,195904.9062500000,146544.5468750000,150047.9375000000,119961.1953125000,151803.4218750000,131525.2968750000,144963.5000000000,,,
0.1279999998,1,147983.1718750000,198050.2343750000,145901.2187500000,149695.8281250000,119686.7812500000,151557.3906250000,131266.7343750000,144789.7343750000,,,
0.1319999998,1,148211.3593750000,198812.9218750000,146183.4218750000,149949.8750000000,119895.0000000000,151770.8125000000,131396.2812500000,144914.8906250000,,,
0.1359999997,1,148621.4843750000,197072.2812500000,146908.3906250000,150439.7031250000,120326.9453125000,152139.0468750000,131784.0000000000,145153.9062500000,,,
0.1399999997,1,148716.2500000000,195307.7656250000,147278.6718750000,150556.2500000000,120473.5546875000,152219.2968750000,131863.6562500000,145244.0781250000,,,
0.1439999996,1,148257.4843750000,195907.2343750000,146544.1406250000,150062.6093750000,119908.5703125000,151821.2656250000,131512.0312500000,144975.1875000000,,,
0.1479999996,1,147969.2031250000,198037.3125000000,145877.3281250000,149694.7500000000,119651.1328125000,151541.4218750000,131186.1406250000,144779.3906250000,,,
0.1519999998,1,148145.3125000000,198807.2656250000,146118.1093750000,149906.4531250000,119833.6328125000,151699.2968750000,131400.3125000000,144851.5625000000,,,
0.1559999997,1,148576.2343750000,197082.7656250000,146859.2187500000,150406.5000000000,120270.7500000000,152094.6562500000,131780.2500000000,145109.9375000000,,,
0.1599999997,1,148644.0000000000,195306.4375000000,147164.5937500000,150520.0156250000,120300.8437500000,152162.1718750000,131752.2968750000,145179.7656250000,,,
0.1639999996,1,148270.4375000000,195889.1562500000,146534.0312500000,150056.7187500000,119939.8984375000,151815.1718750000,131482.5000000000,144971.4062500000,,,
0.1679999996,1,147995.6718750000,198023.0625000000,145904.6562500000,149705.2031250000,119695.7109375000,151546.5000000000,131229.6093750000,144790.3906250000,,,
0.1719999998,1,148187.2187500000,198821.5937500000,146138.7343750000,149934.8593750000,119873.9218750000,151725.9062500000,131384.1093750000,144886.1406250000,,,
0.1759999997,1,148619.6875000000,197124.3906250000,146879.3437500000,150432.0625000000,120318.5234375000,152129.7656250000,131833.7500000000,145151.1406250000,,,
0.1799999997,1,148684.7656250000,195347.7031250000,147200.2968750000,150543.3750000000,120375.1406250000,152206.8281250000,131830.4375000000,145222.0781250000,,,
0.1839999997,1,148287.9062500000,195904.6093750000,146553.8281250000,150091.5000000000,119974.5312500000,151840.7812500000,131479.9687500000,144996.7031250000,,,
0.1879999996,1,147974.0781250000,198009.3125000000,145868.0156250000,149715.4218750000,119672.0859375000,151540.9375000000,131185.0937500000,144781.0468750000,,,
0.1919999996,1,148179.2812500000,198814.5312500000,146115.3906250000,149943.1250000000,119874.6171875000,151730.3281250000,131411.2343750000,144882.4687500000,,,
0.1959999998,1,148595.6562500000,197136.3750000000,146836.9843750000,150446.8437500000,120272.1484375000,152128.0156250000,131792.0156250000,145134.6406250000,,,
0.1999999997,1,148653.1406250000,195319.2343750000,147131.5781250000,150532.0000000000,120335.4765625000,152183.9531250000,131860.1250000000,145191.1250000000,,,
0.2039999997,1,148264.9687500000,195790.4531250000,146469.8437500000,150066.0937500000,119949.3671875000,151825.7343750000,131458.4687500000,144969.5625000000,,,
0.2079999996,1,147969.2031250000,197887.7187500000,145825.6406250000,149694.5625000000,119667.6328125000,151546.9531250000,131219.8750000000,144774.2343750000,,,
0.2119999996,1,148162.4531250000,198738.7343750000,146100.1562500000,149932.7343750000,119855.4687500000,151708.9531250000,131363.8281250000,144870.7656250000,,,
0.2159999998,1,148593.8125000000,197164.9531250000,146909.5468750000,150427.9531250000,120300.8437500000,152106.2968750000,131750.7343750000,145138.2343750000,,,
0.2199999997,1,148675.4218750000,195372.1875000000,147197.5625000000,150536.4062500000,120346.9531250000,152201.0000000000,131852.1562500000,145220.1562500000,,,
0.2239999997,1,148302.5781250000,195814.6718750000,146528.4531250000,150069.9843750000,119988.7734375000,151848.0312500000,131531.6875000000,145005.6093750000,,,
0.2279999997,1,147990.6562500000,197893.5625000000,145864.1250000000,149691.9843750000,119698.2890625000,151547.5937500000,131252.2031250000,144795.8750000000,,,
0.2319999996,1,148171.5468750000,198760.1718750000,146122.5312500000,149914.2812500000,119870.8906250000,151712.8906250000,131379.2031250000,144879.0781250000,,,
0.2359999996,1,148579.6406250000,197197.7500000000,146904.6875000000,150429.9375000000,120261.8984375000,152081.4062500000,131741.9375000000,145117.2031250000,,,
0.2399999998,1,148671.6406250000,195391.6562500000,147210.0781250000,150550.2968750000,120346.0156250000,152178.5312500000,131838.9375000000,145205.4062500000,,,
0.2439999997,1,148295.6875000000,195811.1875000000,146555.7343750000,150092.3125000000,119987.7500000000,151822.1406250000,131501.9375000000,144989.9375000000,,,
0.2479999997,1,147983.7656250000,197886.4687500000,145881.5625000000,149712.3750000000,119701.2890625000,151529.2187500000,131224.1718750000,144783.7656250000,,,
0.2519999996,1,148167.9531250000,198770.3281250000,146119.4687500000,149933.6562500000,119871.5546875000,151698.9218750000,131408.9218750000,144875.0625000000,,,
0.2559999996,2,148581.9531250000,197224.9687500000,146893.8281250000,150430.2968750000,120267.5078125000,152088.4843750000,131783.0625000000,145124.4062500000,,,
0.2599999995,2,148675.3281250000,195406.5156250000,147201.5000000000,150543.5937500000,120348.8593750000,152180.8593750000,131819.1093750000,145211.2500000000,,,
0.2639999995,2,148285.4843750000,195809.2812500000,146536.0937500000,150076.1562500000,119973.1093750000,151802.4375000000,131476.8125000000,144980.2343750000,,,
0.2679999995,2,147962.2343750000,197926.4531250000,145853.7187500000,149691.5000000000,119662.3984375000,151501.6718750000,131192.7812500000,144764.9062500000,,,
0.2719999994,2,148141.7031250000,198867.2187500000,146095.7031250000,149909.4531250000,119838.0546875000,151666.3125000000,131349.2187500000,144853.7656250000,,,
0.2759999994,2,148592.8906250000,197318.5781250000,146896.4062500000,150443.1718750000,120282.7656250000,152083.6562500000,131749.6093750000,145134.3750000000,,,
0.2799999996,2,148687.1562500000,195450.2031250000,147218.6718750000,150568.2187500000,120370.0234375000,152174.5937500000,131845.1875000000,145220.6875000000,,,
0.2839999995,2,148288.0312500000,195826.3593750000,146546.9687500000,150105.1250000000,119974.7968750000,151817.6406250000,131510.8750000000,144986.7968750000,,,
0.2879999995,2,147957.0781250000,197958.9375000000,145857.6562500000,149711.3750000000,119663.0468750000,151501.8125000000,131209.8437500000,144763.9375000000,,,
0.2919999994,2,148149.6406250000,198923.6250000000,146099.4843750000,149925.6406250000,119856.8359375000,151673.0625000000,131379.6562500000,144861.9687500000,,,
0.2959999994,2,148593.8906250000,197351.1718750000,146883.3593750000,150455.8750000000,120286.3046875000,152080.7031250000,131773.4375000000,145134.9062500000,,,
0.2999999996,2,148680.1250000000,195426.6562500000,147189.8281250000,150573.0156250000,120368.5468750000,152172.2031250000,131856.5625000000,145212.7812500000,,,
0.3039999995,2,148293.8125000000,195776.4218750000,146542.7031250000,150099.1406250000,119995.6406250000,151819.8593750000,131518.3281250000,144991.8750000000,,,
0.3079999995,2,147970.5937500000,197932.2968750000,145865.8125000000,149694.5312500000,119685.7109375000,151507.8750000000,131229.3281250000,144780.8125000000,,,
0.3119999995,2,148134.6718750000,198935.3593750000,146091.6250000000,149890.9531250000,119848.1171875000,151653.6406250000,131361.1718750000,144851.8906250000,,,
0.3159999994,2,148561.1718750000,197368.0937500000,146850.0468750000,150399.2812500000,120244.6562500000,152056.7031250000,131751.4687500000,145105.3281250000,,,
0.3199999994,2,148678.4531250000,195401.4531250000,147175.4843750000,150544.5000000000,120361.4140625000,152163.2343750000,131850.7343750000,145205.9843750000,,,
0.3239999996,2,148315.5625000000,195730.0937500000,146557.3750000000,150103.0937500000,120015.1875000000,151824.7968750000,131537.4218750000,145006.6250000000,,,
0.3279999995,2,147999.9218750000,197926.4843750000,145895.0468750000,149720.1250000000,119708.3437500000,151539.5781250000,131263.2187500000,144812.9062500000,,,
0.3319999995,2,148157.5156250000,198971.5468750000,146107.6406250000,149908.6250000000,119854.3125000000,151669.7343750000,131379.0156250000,144878.5000000000,,,
0.3359999994,2,148560.5000000000,197395.1875000000,146849.3750000000,150395.6718750000,120248.1953125000,152057.1562500000,131753.1875000000,145103.8281250000,,,
0.3399999994,2,148673.1718750000,195394.2656250000,147173.2343750000,150541.6250000000,120357.2031250000,152159.0781250000,131864.8750000000,145198.9687500000,,,
0.3439999996,2,148299.9687500000,195704.7187500000,146549.5156250000,150101.4843750000,119997.6250000000,151816.1093750000,131533.2968750000,144992.2968750000,,,
0.3479999995,2,147973.7656250000,197916.4218750000,145876.8593750000,149714.2968750000,119684.2343750000,151508.4531250000,131242.4062500000,144784.8281250000,,,
0.3519999995,2,148151.8125000000,198986.7500000000,146100.3750000000,149915.2031250000,119857.0234375000,151672.1875000000,131393.9843750000,144875.4843750000,,,
0.3559999994,2,148578.0937500000,197411.7656250000,146853.8593750000,150432.4062500000,120268.5000000000,152075.5625000000,131769.8906250000,145135.9375000000,,,
0.3599999994,2,148686.8281250000,195370.1250000000,147178.2968750000,150562.1562500000,120372.4375000000,152164.5000000000,131869.4843750000,145215.0625000000,,,
0.3639999994,2,148313.8750000000,195655.1093750000,146560.7812500000,150115.6093750000,120010.0156250000,151829.2500000000,131540.5937500000,145005.8125000000,,,
0.3679999996,2,147983.7656250000,197897.7500000000,145890.7343750000,149717.8750000000,119691.1562500000,151528.2500000000,131250.8593750000,144799.0937500000,,,
0.3719999995,2,148147.3906250000,199018.9375000000,146099.7031250000,149913.3750000000,119850.3984375000,151675.6093750000,131387.9687500000,144871.7343750000,,,
0.3759999995,2,148583.8281250000,197449.7656250000,146859.3593750000,150432.9531250000,120282.4218750000,152071.1562500000,131771.2812500000,145128.8281250000,,,
0.3799999994,2,148718.7968750000,195367.6250000000,147202.3593750000,150588.3593750000,120416.2109375000,152198.4062500000,131896.8906250000,145252.6093750000,,,
0.3839999994,3,148324.0937500000,195626.7031250000,146562.7343750000,150132.6718750000,120017.6875000000,151844.0625000000,131554.2656250000,145026.5000000000,,,
0.3879999993,3,147973.7656250000,197894.7031250000,145874.5312500000,149712.2968750000,119682.5937500000,151507.8437500000,131226.0468750000,144783.5468750000,,,
0.3919999993,3,148122.2500000000,199056.1250000000,146069.1562500000,149883.0468750000,119824.7031250000,151643.3437500000,131355.2812500000,144847.7500000000,,,
0.3959999993,3,148568.1093750000,197479.9218750000,146824.3906250000,150397.6718750000,120253.3671875000,152062.8437500000,131766.7343750000,145111.9843750000,,,
0.3999999992,3,148695.0312500000,195350.4375000000,147159.8437500000,150558.0937500000,120372.8125000000,152192.9531250000,131879.0625000000,145215.0000000000,,,
0.4039999992,3,148326.7500000000,195585.2343750000,146578.7500000000,150121.4062500000,120019.5859375000,151852.8593750000,131552.3437500000,145015.5000000000,,,
0.4079999994,3,147977.2968750000,197888.6093750000,145911.6562500000,149709.3437500000,119678.1953125000,151526.9687500000,131236.8281250000,144798.7500000000,,,
0.4119999993,3,148133.2500000000,199083.5312500000,146099.9531250000,149891.3593750000,119832.1328125000,151666.8906250000,131375.9062500000,144865.1406250000,,,
0.4159999993,3,148581.4218750000,197505.7500000000,146844.0937500000,150415.4062500000,120271.8515625000,152093.5625000000,131777.7500000000,145132.2656250000,,,
0.4199999992,3,148713.2968750000,195351.2968750000,147180.8437500000,150581.1718750000,120402.5312500000,152224.1875000000,131890.5625000000,145237.6406250000,,,
0.4239999992,3,148353.1093750000,195555.8125000000,146598.4531250000,150160.5468750000,120055.6406250000,151883.3281250000,131571.6718750000,145041.3906250000,,,
0.4279999994,3,147995.4843750000,197850.2500000000,145918.2031250000,149728.5937500000,119704.5625000000,151539.8906250000,131255.4687500000,144811.6250000000,,,
0.4319999993,3,148135.9843750000,199079.5937500000,146090.7500000000,149888.3437500000,119830.7109375000,151672.3125000000,131374.4218750000,144876.8593750000,,,
0.4359999993,3,148571.5000000000,197515.3437500000,146828.7343750000,150405.7500000000,120258.4375000000,152080.9843750000,131764.0781250000,145134.5937500000,,,
0.4399999992,3,148714.0312500000,195339.4843750000,147191.8125000000,150578.1093750000,120402.9062500000,152209.7812500000,131889.9687500000,145233.6250000000,,,
0.4439999992,3,148329.5625000000,195518.2031250000,146590.5781250000,150134.8125000000,120031.4218750000,151847.4687500000,131533.6093750000,145009.7343750000,,,
0.4479999992,3,147957.5312500000,197819.2968750000,145880.1093750000,149702.2343750000,119666.3984375000,151498.7500000000,131204.6718750000,144778.8750000000,,,
0.4519999993,3,148100.4218750000,199091.5312500000,146052.7656250000,149864.6406250000,119802.1953125000,151632.2968750000,131330.3281250000,144839.1406250000,,,
0.4559999993,3,148552.7187500000,197548.9375000000,146804.3281250000,150392.3593750000,120237.9765625000,152061.8281250000,131741.9687500000,145105.2187500000,,,
0.4599999993,3,148708.6093750000,195335.4062500000,147171.8437500000,150582.9375000000,120389.6015625000,152206.7500000000,131886.7500000000,145226.9062500000,,,
0.4639999992,3,148357.4062500000,195494.6562500000,146609.0625000000,150152.8437500000,120049.5781250000,151873.2968750000,131577.2031250000,145037.5468750000,,,
0.4679999992,3,147988.4062500000,197840.3750000000,145929.0937500000,149719.8281250000,119689.3046875000,151516.4218750000,131235.6562500000,144799.4218750000,,,
0.4719999994,3,148124.0000000000,199149.9375000000,146097.2343750000,149865.5781250000,119825.2890625000,151650.6718750000,131353.6875000000,144855.9375000000,,,
0.4759999993,3,148563.1250000000,197588.2031250000,146819.8437500000,150390.6250000000,120253.9609375000,152069.7968750000,131744.2500000000,145110.9687500000,,,
0.4799999993,3,148710.8281250000,195316.0468750000,147160.6562500000,150587.5156250000,120395.5000000000,152205.0781250000,131869.8593750000,145223.6093750000,,,
0.4839999992,3,148353.5312500000,195434.7656250000,146593.1718750000,150158.3437500000,120049.3593750000,151870.2031250000,131552.6875000000,145030.6093750000,,,
0.4879999992,3,147991.4687500000,197802.8281250000,145913.6875000000,149736.3437500000,119694.8515625000,151532.7343750000,131235.7656250000,144804.0156250000,,,
0.4919999992,3,148096.1250000000,199154.5625000000,146049.8125000000,149881.7031250000,119793.5625000000,151621.6562500000,131328.5625000000,144830.6093750000,,,
0.4959999993,3,148545.7968750000,197612.1562500000,146779.9687500000,150390.6250000000,120233.2812500000,152047.2031250000,131727.2656250000,145096.0156250000,,,
0.4999999993,3,148710.1093750000,195314.3281250000,147151.2031250000,150576.4531250000,120394.9921875000,152211.0312500000,131875.1406250000,145225.3906250000,,,
0.5039999993,3,148374.4375000000,195403.3281250000,146608.4375000000,150155.1250000000,120070.8203125000,151903.4375000000,131570.0156250000,145055.6875000000,,,
0.5079999992,3,147986.2343750000,197786.3593750000,145925.1718750000,149711.6406250000,119693.3515625000,151541.4531250000,131225.3281250000,144812.1875000000,,,
0.5119999992,4,148069.3281250000,199180.7656250000,146052.4375000000,149863.0781250000,119773.3906250000,151606.9531250000,131300.0312500000,144816.0468750000,,,
0.5159999991,4,148533.8281250000,197651.7656250000,146780.2656250000,150378.5000000000,120223.1406250000,152033.4687500000,131716.5468750000,145090.8750000000,,,
0.5199999991,4,148713.7812500000,195324.0468750000,147157.6406250000,150592.3750000000,120399.9531250000,152215.3281250000,131888.5468750000,145226.2500000000,,,
0.5239999990,4,148357.3750000000,195371.4375000000,146608.2500000000,150162.3906250000,120056.3906250000,151884.5312500000,131569.1562500000,145034.7812500000,,,
0.5279999990,4,147983.1562500000,197752.1093750000,145936.4062500000,149716.3750000000,119692.0937500000,151531.7968750000,131220.5000000000,144804.0625000000,,,
0.5319999990,4,148108.1093750000,199186.4531250000,146098.7187500000,149843.9687500000,119814.8593750000,151643.3437500000,131344.8750000000,144851.9687500000,,,
0.5359999991,4,148559.9843750000,197682.2656250000,146822.7968750000,150374.7968750000,120250.9296875000,152070.1718750000,131743.3593750000,145118.1718750000,,,
0.5399999991,4,148724.7812500000,195339.9375000000,147186.4062500000,150580.5468750000,120407.3046875000,152233.8437500000,131886.1406250000,145246.5156250000,,,
0.5439999991,4,148363.1093750000,195353.0312500000,146629.7656250000,150158.2968750000,120061.7578125000,151897.9218750000,131570.4375000000,145043.0000000000,,,
0.5479999990,4,147972.9531250000,197710.5937500000,145933.5937500000,149711.8906250000,119686.9687500000,151530.8281250000,131225.3437500000,144792.8750000000,,,
0.5519999990,4,148097.2812500000,199168.0781250000,146084.7656250000,149857.2187500000,119805.5781250000,151644.1718750000,131333.9531250000,144848.0468750000,,,
0.5559999992,4,148567.3437500000,197708.1718750000,146835.5468750000,150392.2343750000,120267.0781250000,152085.4531250000,131761.3593750000,145130.2500000000,,,
0.5599999991,4,148735.9375000000,195369.7187500000,147221.3281250000,150600.2031250000,120431.2812500000,152247.8125000000,131911.3593750000,145255.2656250000,,,
0.5639999991,4,148375.9062500000,195366.9843750000,146673.5156250000,150181.0312500000,120085.4140625000,151914.2031250000,131592.5156250000,145056.2656250000,,,
0.5679999990,4,147994.8437500000,197710.6718750000,145981.6875000000,149733.2968750000,119711.1328125000,151555.0781250000,131248.6562500000,144818.7343750000,,,
0.5719999990,4,148112.1718750000,199179.2343750000,146127.3906250000,149857.4218750000,119820.6250000000,151657.3750000000,131352.1875000000,144864.7343750000,,,
0.5759999990,4,148570.9062500000,197739.6093750000,146861.5000000000,150385.0468750000,120268.9531250000,152087.2343750000,131763.6093750000,145132.9843750000,,,
0.5799999991,4,148768.1250000000,195414.5312500000,147266.0625000000,150602.9218750000,120461.0546875000,152278.4375000000,131944.6875000000,145284.5781250000,,,
0.5839999991,4,148400.8750000000,195374.9218750000,146707.7031250000,150182.4062500000,120101.6406250000,151939.0625000000,131610.4062500000,145076.8437500000,,,
0.5879999991,4,147997.9062500000,197684.6250000000,145984.2812500000,149732.9687500000,119704.2968750000,151559.3906250000,131236.0468750000,144820.0156250000,,,
0.5919999990,4,148101.2187500000,199151.2343750000,146096.0312500000,149853.3437500000,119795.9218750000,151650.2187500000,131319.4687500000,144855.3750000000,,,
0.5959999990,4,148569.9843750000,197757.7187500000,146845.1406250000,150376.5937500000,120258.6796875000,152079.0000000000,131748.6250000000,145132.2812500000,,,
0.5999999992,4,148740.2812500000,195453.0781250000,147245.1718750000,150591.4062500000,120431.4687500000,152242.7656250000,131912.8593750000,145254.2500000000,,,
0.6039999991,4,148417.7968750000,195398.0937500000,146718.5468750000,150202.6562500000,120123.7656250000,151943.9218750000,131631.2500000000,145087.1093750000,,,
0.6079999991,4,148062.2500000000,197681.5468750000,146021.1718750000,149766.0156250000,119773.0156250000,151615.6718750000,131306.2500000000,144880.2968750000,,,
0.6119999990,4,148110.6875000000,199150.5312500000,146095.8906250000,149864.2343750000,119812.0937500000,151655.0625000000,131336.0937500000,144865.9687500000,,,
0.6159999990,4,148573.5000000000,197782.3125000000,146827.6562500000,150375.7031250000,120258.7890625000,152086.2343750000,131742.5937500000,145138.1875000000,,,
0.6199999989,4,148777.8593750000,195495.8906250000,147260.1093750000,150618.1250000000,120463.2031250000,152276.7187500000,131940.1093750000,145288.7343750000,,,
0.6239999991,4,148410.6093750000,195403.1406250000,146707.1718750000,150202.8750000000,120114.3281250000,151938.6093750000,131628.2500000000,145077.9218750000,,,
0.6279999991,4,148034.8437500000,197661.8281250000,145985.1718750000,149753.6718750000,119749.5468750000,151589.4062500000,131291.1718750000,144852.0468750000,,,
0.6319999991,4,148121.4218750000,199151.0625000000,146092.7343750000,149860.6718750000,119832.6406250000,151671.5312500000,131362.5000000000,144879.8125000000,,,
0.6359999990,4,148578.7343750000,197812.8281250000,146835.0781250000,150373.1875000000,120277.3203125000,152104.0468750000,131769.8906250000,145154.9218750000,,,
0.6399999990,5,148792.1250000000,195526.7812500000,147274.5156250000,150619.8437500000,120491.6562500000,152302.2343750000,131974.4062500000,145314.0312500000,,,
0.6439999989,5,148435.0000000000,195432.3437500000,146741.0781250000,150226.2812500000,120152.8125000000,151968.7812500000,131645.1718750000,145109.3750000000,,,
0.6479999989,5,148012.3906250000,197665.6406250000,145971.8906250000,149758.3437500000,119732.6171875000,151575.2812500000,131263.0156250000,144837.0781250000,,,
0.6519999988,5,148112.0000000000,199150.6875000000,146068.9687500000,149861.6562500000,119824.2968750000,151653.5625000000,131368.1718750000,144870.2812500000,,,
0.6559999988,5,148563.3125000000,197826.2187500000,146807.3437500000,150368.9531250000,120262.9453125000,152076.8437500000,131776.7812500000,145137.2500000000,,,
0.6599999988,5,148783.6562500000,195535.3750000000,147258.0156250000,150603.6406250000,120481.4375000000,152287.8906250000,131981.1718750000,145304.8281250000,,,
0.6639999989,5,148460.7187500000,195414.3750000000,146754.7812500000,150217.3750000000,120165.6093750000,151988.7656250000,131691.1718750000,145135.4687500000,,,
0.6679999989,5,148068.4687500000,197642.4062500000,146013.9218750000,149750.3750000000,119779.7968750000,151622.2968750000,131332.0468750000,144893.5468750000,,,
0.6719999989,5,148112.7343750000,199140.0781250000,146072.0468750000,149857.4218750000,119822.5546875000,151658.9062500000,131365.4687500000,144878.6250000000,,,
0.6759999988,5,148561.4375000000,197829.7343750000,146795.2812500000,150376.4375000000,120254.1484375000,152076.5312500000,131755.1093750000,145139.1250000000,,,
0.6799999988,5,148773.7343750000,195533.3593750000,147247.5312500000,150607.7968750000,120462.1562500000,152275.8906250000,131951.7812500000,145291.4687500000,,,
0.6839999990,5,148448.3593750000,195384.1250000000,146748.4531250000,150210.6406250000,120153.0859375000,151973.2031250000,131673.7968750000,145115.2812500000,,,
0.6879999989,5,148039.2031250000,197585.7031250000,145995.0937500000,149748.5625000000,119755.5000000000,151590.1406250000,131306.5625000000,144857.3281250000,,,
0.6919999989,5,148127.3125000000,199113.8750000000,146076.4218750000,149852.3906250000,119842.8359375000,151669.6406250000,131378.5000000000,144887.7968750000,,,
0.6959999988,5,148607.7031250000,197843.4687500000,146833.2812500000,150377.6093750000,120315.8359375000,152111.1562500000,131807.7187500000,145177.7500000000,,,
0.6999999988,5,148798.9531250000,195554.1406250000,147275.9843750000,150641.0625000000,120493.1875000000,152294.7812500000,131972.1093750000,145316.8437500000,,,
0.7039999987,5,148458.8437500000,195379.9375000000,146755.1875000000,150238.8281250000,120160.1406250000,151980.3906250000,131668.6406250000,145128.7500000000,,,
0.7079999989,5,148074.2187500000,197579.2968750000,146033.0000000000,149760.8437500000,119792.4062500000,151615.7187500000,131323.2500000000,144892.7968750000,,,
0.7119999989,5,148151.1406250000,199122.9531250000,146111.5937500000,149861.3750000000,119865.2265625000,151688.3750000000,131391.4531250000,144916.3593750000,,,
0.7159999989,5,148594.6875000000,197859.0156250000,146838.1093750000,150367.6093750000,120296.2578125000,152103.3437500000,131791.2500000000,145175.1406250000,,,
0.7199999988,5,148785.9375000000,195549.9687500000,147273.6250000000,150629.7656250000,120481.0390625000,152281.7187500000,131962.1250000000,145306.0156250000,,,
0.7239999988,5,148454.4687500000,195349.3593750000,146760.6875000000,150249.0312500000,120154.0234375000,151977.9531250000,131674.8125000000,145120.7187500000,,,
0.7279999990,5,148064.4687500000,197553.6875000000,146012.5781250000,149773.8750000000,119773.0156250000,151619.5625000000,131325.2031250000,144886.1406250000,,,
0.7319999989,5,148151.3281250000,199134.5468750000,146090.9375000000,149867.5156250000,119862.8125000000,151693.3750000000,131398.7031250000,144920.2500000000,,,
0.7359999989,5,148585.6562500000,197890.3437500000,146814.5625000000,150378.0468750000,120288.7734375000,152096.9687500000,131788.2968750000,145169.4375000000,,,
0.7399999988,5,148795.0625000000,195559.0312500000,147270.5468750000,150616.1718750000,120494.3906250000,152296.8125000000,131982.8281250000,145315.0000000000,,,
0.7439999988,5,148479.6250000000,195344.0781250000,146797.7500000000,150237.6250000000,120189.6171875000,152003.0000000000,131706.3281250000,145148.7343750000,,,
0.7479999987,5,148064.7187500000,197551.8593750000,146047.8906250000,149775.0781250000,119788.7031250000,151613.1250000000,131338.2187500000,144888.7343750000,,,
0.7519999989,5,148138.2343750000,199152.0937500000,146109.4062500000,149859.7656250000,119859.2734375000,151677.1718750000,131399.4218750000,144910.3906250000,,,
0.7559999989,5,148558.2500000000,197917.1718750000,146813.2031250000,150358.9218750000,120263.8046875000,152067.6406250000,131766.8906250000,145145.2968750000,,,
0.7599999988,5,148783.3593750000,195563.5312500000,147266.5937500000,150621.0312500000,120480.9296875000,152288.2343750000,131971.4062500000,145306.3906250000,,,
0.7639999988,5,148478.1250000000,195312.4531250000,146791.2656250000,150256.8906250000,120184.1953125000,152012.2812500000,131703.7031250000,145148.7812500000,,,
0.7679999988,6,148094.8125000000,197519.1406250000,146062.0468750000,149788.1718750000,119810.5625000000,151645.3593750000,131353.8593750000,144914.4375000000,,,
0.7719999987,6,148145.8593750000,199158.5000000000,146110.8281250000,149867.8125000000,119853.7500000000,151684.5937500000,131380.7343750000,144914.1718750000,,,
0.7759999987,6,148581.2031250000,197951.2968750000,146825.8281250000,150372.1406250000,120283.1718750000,152088.8906250000,131780.4531250000,145159.0312500000,,,
0.7799999986,6,148809.8593750000,195592.0156250000,147302.4375000000,150642.5625000000,120506.5703125000,152303.0937500000,131993.8593750000,145320.8750000000,,,
0.7839999986,6,148481.6875000000,195310.3281250000,146821.2656250000,150288.2968750000,120190.9531250000,151996.2968750000,131707.8750000000,145139.2031250000,,,
0.7879999985,6,148053.1875000000,197504.0781250000,146034.9062500000,149795.9687500000,119766.9765625000,151599.2031250000,131320.1093750000,144871.3906250000,,,
0.7919999987,6,148148.7968750000,199165.5468750000,146098.1718750000,149870.1406250000,119861.6875000000,151685.7031250000,131403.0937500000,144915.2656250000,,,
0.7959999987,6,148603.4687500000,197970.3281250000,146831.0625000000,150389.8437500000,120309.2656250000,152113.1562500000,131809.4843750000,145184.7812500000,,,
0.7999999986,6,148795.4062500000,195581.0468750000,147281.2187500000,150638.5937500000,120501.9609375000,152292.5781250000,131991.0937500000,145306.8750000000,,,
0.8039999986,6,148495.6093750000,195277.2656250000,146816.4375000000,150278.5625000000,120210.3750000000,152017.1406250000,131726.0937500000,145153.1562500000,,,
0.8079999986,6,148086.3593750000,197473.8593750000,146055.9375000000,149797.9062500000,119809.4921875000,151627.3281250000,131357.7968750000,144897.8906250000,,,
0.8119999988,6,148135.2031250000,199153.1406250000,146090.2343750000,149871.6875000000,119855.7578125000,151667.1718750000,131399.5937500000,144897.9375000000,,,
0.8159999987,6,148566.4531250000,197965.9687500000,146785.0312500000,150374.2031250000,120273.4062500000,152073.2031250000,131780.0625000000,145144.2500000000,,,
0.8199999987,6,148801.3593750000,195582.0937500000,147267.2656250000,150642.9062500000,120501.6093750000,152295.3437500000,131986.7812500000,145313.2031250000,,,
0.8239999986,6,148505.1093750000,195264.6562500000,146823.3125000000,150284.5625000000,120218.5859375000,152021.2187500000,131705.1406250000,145165.5156250000,,,
0.8279999986,6,148100.6250000000,197459.9375000000,146071.8593750000,149798.6562500000,119829.4765625000,151637.9062500000,131343.5781250000,144920.7968750000,,,
0.8319999985,6,148183.2500000000,199178.1093750000,146122.0468750000,149880.1718750000,119905.6796875000,151718.5312500000,131434.0468750000,144961.5625000000,,,
0.8359999987,6,148609.5000000000,198027.3906250000,146818.2968750000,150380.0468750000,120323.5390625000,152120.2656250000,131827.0781250000,145202.4531250000,,,
0.8399999987,6,148818.2031250000,195633.2187500000,147282.8750000000,150666.2500000000,120523.7656250000,152319.4218750000,132014.0781250000,145341.2343750000,,,
0.8439999986,6,148507.7187500000,195286.1093750000,146824.1093750000,150315.0156250000,120219.6796875000,152029.0000000000,131735.0468750000,145169.2500000000,,,
0.8479999986,6,148123.6406250000,197489.6250000000,146085.4062500000,149842.4531250000,119848.1953125000,151668.9687500000,131397.6562500000,144944.5781250000,,,
0.8519999986,6,148172.3281250000,199218.3437500000,146119.8750000000,149887.0625000000,119899.0000000000,151703.0000000000,131440.8906250000,144946.6562500000,,,
0.8559999987,6,148553.5781250000,198055.2187500000,146771.0000000000,150369.5625000000,120261.9296875000,152063.8437500000,131764.9843750000,145143.8750000000,,,
0.8599999987,6,148809.0312500000,195641.7187500000,147254.7500000000,150635.0312500000,120509.8203125000,152307.0625000000,131997.9062500000,145322.1875000000,,,
0.8639999987,6,148525.2187500000,195266.2656250000,146836.4531250000,150295.2187500000,120232.9296875000,152042.7343750000,131747.5156250000,145177.5312500000,,,
0.8679999986,6,148099.9062500000,197454.4687500000,146084.5468750000,149804.7187500000,119823.1171875000,151642.2812500000,131371.7500000000,144915.5625000000,,,
0.8719999986,6,148140.9218750000,199197.6406250000,146097.2343750000,149876.5781250000,119864.8281250000,151675.9375000000,131406.9843750000,144916.2656250000,,,
0.8759999985,6,148588.7187500000,198075.8750000000,146800.6406250000,150376.2968750000,120303.4765625000,152095.0625000000,131804.6562500000,145175.6250000000,,,
0.8799999987,6,148827.0312500000,195656.9062500000,147292.5625000000,150676.4843750000,120533.9062500000,152327.9843750000,132015.6875000000,145345.4375000000,,,
0.8839999987,6,148526.3750000000,195246.8437500000,146855.4687500000,150329.0625000000,120244.7343750000,152043.9687500000,131749.6093750000,145182.2500000000,,,
0.8879999986,6,148107.9218750000,197427.3437500000,146094.2343750000,149826.9531250000,119839.6640625000,151648.5312500000,131376.5000000000,144925.9375000000,,,
0.8919999986,6,148138.9843750000,199195.0000000000,146096.2656250000,149863.7343750000,119871.1796875000,151670.4687500000,131406.2187500000,144916.7656250000,,,
0.8959999986,7,148564.4375000000,198089.1250000000,146778.8906250000,150371.1250000000,120287.2734375000,152068.7187500000,131786.3593750000,145155.7031250000,,,
0.8999999985,7,148832.0781250000,195668.7500000000,147290.4687500000,150677.8906250000,120548.4921875000,152315.5937500000,132034.5468750000,145343.0000000000,,,
0.9039999985,7,148549.1718750000,195253.3593750000,146872.3906250000,150332.7187500000,120268.6328125000,152060.9218750000,131784.4843750000,145206.9843750000,,,
0.9079999984,7,148103.1562500000,197419.5468750000,146086.7500000000,149843.4218750000,119836.3437500000,151639.8125000000,131388.1562500000,144921.9531250000,,,
0.9119999984,7,148143.5468750000,199193.7656250000,146076.6093750000,149900.4687500000,119869.6562500000,151676.4687500000,131415.2187500000,144923.3906250000,,,
0.9159999983,7,148584.4531250000,198114.6406250000,146775.3593750000,150401.0781250000,120300.7109375000,152087.7656250000,131806.3437500000,145175.5000000000,,,
0.9199999985,7,148848.3750000000,195686.8906250000,147297.9218750000,150693.5312500000,120558.4687500000,152343.6718750000,132040.4218750000,145365.9375000000,,,
0.9239999985,7,148569.5625000000,195238.0000000000,146895.5156250000,150368.0312500000,120291.0546875000,152087.0937500000,131792.4843750000,145228.2343750000,,,
0.9279999984,7,148124.8593750000,197393.4375000000,146118.4218750000,149880.4062500000,119859.6250000000,151663.2187500000,131402.5312500000,144945.8750000000,,,
0.9319999984,7,148155.7500000000,199191.6562500000,146108.9843750000,149923.0625000000,119890.0625000000,151682.7812500000,131430.2187500000,144934.1562500000,,,
0.9359999984,7,148599.9218750000,198129.2812500000,146795.0156250000,150418.5468750000,120319.5703125000,152102.4843750000,131819.8906250000,145189.4687500000,33029,0.9364674992,0.0000000000
0.9399999985,7,148848.1093750000,195680.5625000000,147308.9531250000,150727.5937500000,120559.7031250000,152340.6718750000,132040.9843750000,145359.8125000000,,,
0.9439999985,7,148534.9062500000,195199.2968750000,146884.1406250000,150387.3281250000,120256.1328125000,152049.1875000000,131766.9218750000,145185.1562500000,,,
0.9479999985,7,148132.4687500000,197355.1406250000,146123.5156250000,149895.8281250000,119866.1640625000,151669.0468750000,131412.5468750000,144946.2968750000,,,
0.9519999984,7,148168.1718750000,199184.7343750000,146108.0156250000,149946.3437500000,119896.4531250000,151708.0156250000,131440.5781250000,144951.6718750000,,,
0.9559999984,7,148567.4375000000,198143.9531250000,146763.3437500000,150420.6093750000,120285.6640625000,152082.0781250000,131786.7656250000,145164.5312500000,,,
0.9599999983,7,148831.9375000000,195686.2968750000,147280.9531250000,150730.4843750000,120544.8750000000,152328.9687500000,132027.6250000000,145343.3281250000,,,
0.9639999985,7,148559.2968750000,195186.8906250000,146896.3437500000,150409.0781250000,120281.5625000000,152076.2500000000,131792.2968750000,145206.1250000000,,,
0.9679999985,7,148133.5625000000,197342.9687500000,146136.4218750000,149906.5156250000,119866.3281250000,151675.3437500000,131412.4687500000,144950.1562500000,,,
0.9719999984,7,148143.5937500000,199197.5000000000,146092.3750000000,149926.5937500000,119868.7187500000,151686.3437500000,131406.3750000000,144930.7187500000,,,
0.9759999984,7,148585.0468750000,198182.8750000000,146775.8125000000,150420.6875000000,120303.3125000000,152098.5937500000,131798.2187500000,145183.6718750000,,,
0.9799999984,7,148841.1093750000,195718.7812500000,147298.2968750000,150735.2656250000,120557.5625000000,152341.2343750000,132031.8906250000,145358.3437500000,,,
0.9839999985,7,148564.8750000000,195195.4062500000,146913.7031250000,150411.3593750000,120289.3906250000,152087.6875000000,131790.5468750000,145219.0781250000,,,
0.9879999985,7,148140.4375000000,197341.5468750000,146145.9375000000,149916.8593750000,119877.2734375000,151682.7812500000,131412.5156250000,144960.5625000000,,,
0.9919999985,7,148135.9531250000,199208.2812500000,146089.8593750000,149939.8437500000,119870.3750000000,151671.6406250000,131396.7656250000,144923.4687500000,,,
0.9959999984,7,148580.4062500000,198211.8906250000,146771.1718750000,150436.7812500000,120305.1406250000,152083.8437500000,131793.3906250000,145179.3593750000,,,
0.9999999984,7,148860.7187500000,195743.9062500000,147304.5312500000,150757.2187500000,120576.9296875000,152350.6718750000,132050.4531250000,145375.2343750000,,,
1.0039999983,7,148559.5781250000,195190.3125000000,146905.1718750000,150423.9687500000,120284.6484375000,152074.0625000000,131790.1093750000,145210.9062500000,,,
1.0079999985,7,148125.4218750000,197322.4218750000,146118.2968750000,149917.1875000000,119860.0000000000,151667.9375000000,131397.1406250000,144947.3125000000,,,
1.0119999985,7,148145.0781250000,199215.9531250000,146077.7343750000,149938.2656250000,119878.7734375000,151682.9062500000,131405.0625000000,144937.4218750000,,,
1.0159999984,7,148582.9531250000,198246.3593750000,146760.0625000000,150426.8125000000,120307.5781250000,152091.5468750000,131793.2500000000,145188.2656250000,,,
1.0199999984,7,148869.1406250000,195766.1406250000,147304.0468750000,150751.1093750000,120588.4296875000,152361.1875000000,132055.9218750000,145387.5468750000,,,
1.0239999983,8,148580.5312500000,195179.5781250000,146916.4375000000,150435.0156250000,120309.0234375000,152091.3906250000,131802.6406250000,145232.1406250000,,,
1.0279999983,8,148131.2031250000,197297.2031250000,146121.0000000000,149926.2812500000,119873.4062500000,151670.5156250000,131401.4687500000,144952.5156250000,,,
1.0319999983,8,148138.6875000000,199221.8750000000,146068.2968750000,149932.5000000000,119881.4531250000,151672.7656250000,131405.8437500000,144933.3750000000,,,
1.0359999982,8,148563.0781250000,198270.6875000000,146734.3125000000,150424.2343750000,120295.0234375000,152067.4062500000,131779.1250000000,145170.7812500000,,,
1.0399999982,8,148838.4062500000,195765.7656250000,147267.6250000000,150743.0312500000,120563.3281250000,152330.5312500000,132027.9531250000,145356.8906250000,,,
1.0439999981,8,148580.9062500000,195154.1718750000,146908.6093750000,150439.0625000000,120316.3750000000,152095.1875000000,131804.1250000000,145230.8281250000,,,
1.0479999983,8,148134.5156250000,197283.5000000000,146134.0937500000,149921.9531250000,119882.3125000000,151673.4687500000,131412.7500000000,144958.1250000000,,,
1.0519999983,8,148145.4531250000,199241.1406250000,146085.8125000000,149932.0937500000,119892.5312500000,151679.1093750000,131417.8281250000,144943.1875000000,,,
1.0559999982,8,148596.3906250000,198312.0000000000,146770.9843750000,150434.6093750000,120334.3984375000,152099.0312500000,131818.7968750000,145204.4375000000,,,
1.0599999982,8,148840.8906250000,195780.9531250000,147280.9218750000,150759.5000000000,120565.6875000000,152330.2031250000,132027.5781250000,145356.4687500000,,,
1.0639999982,8,148556.7968750000,195117.5312500000,146902.8906250000,150444.5625000000,120291.7031250000,152068.9375000000,131767.0468750000,145203.0937500000,,,
1.0679999983,8,148127.7187500000,197247.3125000000,146132.3437500000,149938.5156250000,119870.7031250000,151668.4218750000,131389.9843750000,144950.0000000000,,,
1.0719999983,8,148126.1718750000,199237.1718750000,146066.9062500000,149932.5000000000,119863.4609375000,151661.0000000000,131393.3593750000,144925.7500000000,,,
1.0759999983,8,148545.4218750000,198317.1406250000,146724.0625000000,150405.7812500000,120272.3046875000,152050.8281250000,131764.2812500000,145156.0468750000,,,
1.0799999982,8,148851.0312500000,195774.2187500000,147278.3750000000,150744.4843750000,120573.2500000000,152340.6718750000,132038.8437500000,145365.0781250000,,,
1.0839999982,8,148605.6093750000,195124.0312500000,146945.8906250000,150454.1562500000,120336.2812500000,152117.1406250000,131820.4218750000,145252.6562500000,,,
1.0879999981,8,148126.2187500000,197266.3281250000,146151.5468750000,149928.6718750000,119873.4921875000,151666.2031250000,131392.9687500000,144950.4062500000,,,
1.0919999983,8,148113.1562500000,199309.1562500000,146065.6093750000,149920.0781250000,119857.9843750000,151654.6093750000,131375.4687500000,144917.4062500000,,,
1.0959999983,8,148538.8750000000,198398.8750000000,146714.1406250000,150415.1093750000,120273.7812500000,152055.0937500000,131761.9062500000,145152.5937500000,,,
1.0999999982,8,148832.9062500000,195789.6718750000,147265.7968750000,150751.7812500000,120563.2734375000,152334.9843750000,132031.6250000000,145349.9687500000,,,
1.1039999982,8,148581.1718750000,195059.6250000000,146932.9843750000,150451.1250000000,120319.5703125000,152106.1406250000,131816.1875000000,145231.8750000000,,,
1.1079999981,8,148114.0937500000,197229.6406250000,146146.1093750000,149916.7812500000,119866.7578125000,151665.2656250000,131402.9687500000,144945.7968750000,,,
1.1119999983,8,148116.8593750000,199331.3906250000,146076.0000000000,149915.7968750000,119870.9140625000,151654.8750000000,131396.6875000000,144926.5625000000,,,
1.1159999983,8,148518.7031250000,198431.0781250000,146691.2187500000,150408.8125000000,120257.2343750000,152034.5781250000,131742.7500000000,145143.1250000000,,,
1.1199999982,8,148807.9531250000,195762.8281250000,147208.7187500000,150739.2031250000,120535.1406250000,152315.7968750000,131999.3281250000,145334.0156250000,,,
1.1239999982,8,148567.9531250000,194969.7812500000,146881.7031250000,150451.6406250000,120305.2734375000,152092.7500000000,131791.4062500000,145221.2812500000,,,
1.1279999982,8,148121.6093750000,197156.7187500000,146115.5781250000,149923.4687500000,119865.5468750000,151671.8593750000,131388.7031250000,144958.1093750000,,,
1.1319999981,8,148096.6562500000,199333.6718750000,146041.3125000000,149899.2187500000,119838.7578125000,151634.9843750000,131356.8281250000,144912.7656250000,,,
1.1359999983,8,148524.6093750000,198451.2500000000,146683.4375000000,150388.3750000000,120258.7656250000,152032.5625000000,131737.3281250000,145141.4375000000,,,
1.1399999983,8,148836.6250000000,195725.7812500000,147234.1406250000,150744.2968750000,120562.7109375000,152322.8125000000,132016.4218750000,145340.9375000000,,,
1.1439999982,8,148598.7968750000,194886.8593750000,146917.1875000000,150467.0937500000,120327.1562500000,152104.7343750000,131804.5156250000,145233.2656250000,,,
1.1479999982,8,148134.6718750000,197103.7343750000,146155.4687500000,149942.0468750000,119872.1718750000,151688.0000000000,131394.6718750000,144964.2500000000,,,
1.1519999981,9,148079.2812500000,199336.8125000000,146056.4687500000,149899.4062500000,119818.9296875000,151629.8281250000,131341.7343750000,144897.9687500000,,,
1.1559999981,9,148506.1093750000,198484.4062500000,146682.0156250000,150379.6562500000,120234.9687500000,152018.5937500000,131708.2343750000,145127.4062500000,,,
1.1599999981,9,148810.8281250000,195721.2187500000,147219.1718750000,150725.5781250000,120536.8515625000,152310.5156250000,131990.1562500000,145325.4375000000,,,
1.1639999980,9,148566.7656250000,194832.8125000000,146904.8750000000,150447.1093750000,120298.1406250000,152090.4687500000,131783.5468750000,145209.5312500000,,,
1.1679999980,9,148108.5468750000,197061.4218750000,146154.2812500000,149922.2343750000,119848.4375000000,151658.3750000000,131372.1406250000,144938.6562500000,,,
1.1719999979,9,148085.5625000000,199352.2968750000,146073.9843750000,149904.0937500000,119821.6953125000,151635.4687500000,131343.9843750000,144901.0312500000,,,
1.1759999981,9,148525.8906250000,198502.4843750000,146695.4687500000,150384.4062500000,120249.5625000000,152049.3750000000,131725.8437500000,145139.5312500000,,,
1.1799999981,9,148838.0781250000,195693.5156250000,147236.1562500000,150740.3750000000,120558.6562500000,152344.0156250000,132009.7031250000,145335.1093750000,,,
1.1839999980,9,148592.4218750000,194765.0156250000,146931.4531250000,150467.0156250000,120318.9531250000,152121.7500000000,131798.0781250000,145221.9531250000,,,
1.1879999980,9,148127.5156250000,197012.9218750000,146187.0312500000,149929.5000000000,119864.5859375000,151683.1562500000,131383.8437500000,144951.3750000000,,,
1.1919999979,9,148081.7968750000,199361.2812500000,146096.7812500000,149888.3437500000,119816.9453125000,151632.2968750000,131334.6250000000,144897.4375000000,,,
1.1959999981,9,148500.8437500000,198553.2031250000,146693.7656250000,150366.4843750000,120227.8125000000,152028.0000000000,131702.2187500000,145121.5312500000,,,
1.1999999981,9,148824.5625000000,195710.1093750000,147221.0000000000,150739.3593750000,120547.6093750000,152338.4375000000,131995.2187500000,145327.5000000000,,,
1.2039999980,9,148608.9687500000,194738.7812500000,146933.5000000000,150470.8437500000,120342.1015625000,152139.9062500000,131816.0000000000,145237.7812500000,,,
1.2079999980,9,148138.0156250000,197020.5156250000,146202.0781250000,149932.7656250000,119881.4531250000,151693.8750000000,131397.6250000000,144962.3593750000,,,
1.2119999980,9,148084.0625000000,199431.2187500000,146102.2031250000,149901.0625000000,119822.7421875000,151638.8750000000,131339.5000000000,144902.9531250000,,,
1.2159999979,9,148513.4218750000,198634.4218750000,146697.9218750000,150378.7187500000,120246.9609375000,152039.2656250000,131718.6093750000,145129.2812500000,,,
1.2199999981,9,148836.6875000000,195736.3281250000,147222.0156250000,150747.8437500000,120569.8984375000,152345.9843750000,132015.1250000000,145334.2031250000,,,
1.2239999981,9,148603.8750000000,194707.4843750000,146930.7031250000,150483.6093750000,120340.3515625000,152130.3281250000,131809.3281250000,145229.9375000000,,,
1.2279999980,9,148133.6250000000,196994.5468750000,146200.2656250000,149942.9843750000,119876.3359375000,151687.2812500000,131387.9687500000,144963.9687500000,,,
1.2319999980,9,148094.9218750000,199456.5000000000,146109.4375000000,149890.5312500000,119835.4296875000,151643.7968750000,131348.2500000000,144920.9218750000,,,
1.2359999979,9,148536.4062500000,198683.7812500000,146716.8750000000,150364.0625000000,120271.4218750000,152055.8750000000,131737.7656250000,145156.7656250000,,,
1.2399999981,9,148857.2343750000,195751.3125000000,147240.3906250000,150747.9687500000,120584.9218750000,152358.0156250000,132021.5312500000,145355.9531250000,,,
1.2439999981,9,148592.2343750000,194662.7187500000,146915.5781250000,150482.8437500000,120321.1484375000,152116.2187500000,131781.5000000000,145219.2187500000,,,
1.2479999980,9,148122.5781250000,196955.8437500000,146193.3125000000,149941.1718750000,119863.9140625000,151674.2500000000,131368.9531250000,144951.3906250000,,,
1.2519999980,9,148067.6093750000,199475.6093750000,146094.9218750000,149886.4218750000,119807.9062500000,151614.7343750000,131317.8593750000,144891.3125000000,,,
1.2559999980,9,148508.2187500000,198723.2500000000,146692.9062500000,150374.5312500000,120242.8046875000,152027.5156250000,131709.9687500000,145127.0000000000,,,
1.2599999979,9,148848.0312500000,195739.3281250000,147225.2968750000,150757.1250000000,120579.3671875000,152356.5000000000,132018.2968750000,145343.7812500000,,,
1.2639999981,9,148618.9687500000,194614.2968750000,146948.9375000000,150499.9218750000,120357.1484375000,152141.9218750000,131818.3593750000,145238.0156250000,,,
1.2679999981,9,148143.7812500000,196930.2343750000,146226.7656250000,149963.1562500000,119890.5781250000,151692.4375000000,131391.2656250000,144969.5312500000,,,
1.2719999980,9,148086.0156250000,199510.6406250000,146123.8125000000,149890.9218750000,119832.6406250000,151630.4687500000,131335.9062500000,144914.1093750000,,,
1.2759999980,9,148515.3281250000,198780.5781250000,146700.2812500000,150365.7656250000,120256.2421875000,152029.0781250000,131712.1406250000,145139.1562500000,,,
1.2799999979,10,148848.2187500000,195742.6562500000,147198.6875000000,150754.1406250000,120579.1484375000,152354.5625000000,131998.5468750000,145351.7500000000,,,
1.2839999979,10,148631.0937500000,194560.0625000000,146929.2031250000,150510.0625000000,120369.4609375000,152151.0937500000,131820.5000000000,145254.9687500000,,,
1.2879999978,10,148148.5625000000,196880.3437500000,146209.5625000000,149959.2187500000,119892.6953125000,151696.5312500000,131395.3750000000,144979.1562500000,,,
1.2919999978,10,148082.2656250000,199514.9062500000,146096.1406250000,149886.8437500000,119823.3593750000,151635.4687500000,131330.1250000000,144918.1093750000,,,
1.2959999978,10,148493.3593750000,198808.1250000000,146655.7187500000,150360.4218750000,120231.6953125000,152015.9843750000,131695.4375000000,145119.8593750000,,,
1.2999999977,10,148843.6250000000,195731.7031250000,147176.1875000000,150750.0312500000,120578.6171875000,152348.9531250000,132014.9375000000,145334.8437500000,,,
1.3039999979,10,148622.4843750000,194505.8906250000,146908.2031250000,150494.9843750000,120358.7031250000,152151.6562500000,131820.5625000000,145241.0468750000,,,
1.3079999979,10,148125.6250000000,196841.9218750000,146197.6093750000,149948.5937500000,119871.8281250000,151686.0000000000,131378.5781250000,144960.7500000000,,,
1.3119999978,10,148054.6250000000,199535.3750000000,146085.9375000000,149870.1406250000,119800.9921875000,151606.8906250000,131308.3125000000,144895.3593750000,,,
1.3159999978,10,148497.7343750000,198860.3437500000,146659.7500000000,150341.7812500000,120238.4296875000,152020.3125000000,131697.5781250000,145130.8125000000,,,
1.3199999977,10,148841.3750000000,195730.2343750000,147176.3906250000,150743.2031250000,120574.8359375000,152352.3906250000,132005.8750000000,145339.4531250000,,,
1.3239999979,10,148615.4218750000,194438.5625000000,146916.3281250000,150498.2812500000,120353.3906250000,152147.4687500000,131811.5781250000,145236.3750000000,,,
1.3279999979,10,148122.7031250000,196798.0156250000,146210.4062500000,149941.1406250000,119870.1640625000,151681.2812500000,131373.7812500000,144959.7968750000,,,
1.3319999978,10,148032.0156250000,199556.8593750000,146080.1718750000,149862.7031250000,119776.2343750000,151589.9218750000,131279.4843750000,144876.6718750000,,,
1.3359999978,10,148469.5625000000,198902.7500000000,146636.4062500000,150339.6406250000,120206.3750000000,151997.6875000000,131657.0312500000,145101.5937500000,,,
1.3399999978,10,148847.2187500000,195719.8593750000,147156.6250000000,150754.9218750000,120578.2656250000,152357.0781250000,132000.1093750000,145333.7968750000,,,
1.3439999977,10,148628.5468750000,194374.7500000000,146907.6718750000,150524.4843750000,120362.5078125000,152159.1406250000,131814.8750000000,145238.4531250000,,,
1.3479999979,10,148141.2656250000,196753.9062500000,146213.5625000000,149973.6250000000,119881.0234375000,151700.2031250000,131382.7500000000,144972.8593750000,,,
1.3519999979,10,148061.1718750000,199606.2343750000,146103.6406250000,149892.3281250000,119799.6484375000,151614.4062500000,131300.0000000000,144904.1406250000,,,
1.3559999978,10,148482.9843750000,198982.8437500000,146650.5781250000,150361.0625000000,120217.2421875000,152008.4218750000,131670.2968750000,145113.7187500000,,,
1.3599999978,10,148842.2031250000,195730.0156250000,147143.1562500000,150763.2031250000,120569.2265625000,152350.9687500000,131989.8125000000,145328.4375000000,,,
1.3639999977,10,148639.5625000000,194316.5000000000,146903.7187500000,150527.9218750000,120370.6093750000,152160.1875000000,131815.5468750000,145244.1250000000,,,
1.3679999979,10,148136.1718750000,196699.0937500000,146211.8437500000,149967.6406250000,119875.8203125000,151684.6562500000,131368.6093750000,144962.7500000000,,,
1.3719999979,10,148062.0312500000,199629.7968750000,146103.1562500000,149891.2812500000,119804.2343750000,151606.6250000000,131297.1250000000,144905.2343750000,,,
1.3759999978,10,148492.3750000000,199053.2968750000,146644.3593750000,150357.9843750000,120229.5546875000,152012.8281250000,131677.0156250000,145125.1250000000,,,
1.3799999978,10,148852.9062500000,195804.1562500000,147152.1250000000,150754.4843750000,120583.6562500000,152360.8125000000,132002.6250000000,145338.6250000000,,,
1.3839999977,10,148636.9375000000,194354.3437500000,146913.5156250000,150512.6406250000,120370.0703125000,152170.2187500000,131815.1093750000,145246.5937500000,,,
1.3879999977,10,148132.2031250000,196713.3906250000,146218.2500000000,149967.0156250000,119874.9687500000,151694.6875000000,131368.3906250000,144967.0000000000,,,
1.3919999979,10,148047.8437500000,199641.5156250000,146095.5000000000,149876.8437500000,119790.9062500000,151606.7656250000,131286.3906250000,144902.2812500000,,,
1.3959999979,10,148477.1406250000,199073.2812500000,146634.2656250000,150344.0625000000,120215.4453125000,152005.9843750000,131661.7968750000,145120.5156250000,,,
1.3999999978,10,148852.0000000000,195775.2343750000,147145.5781250000,150757.9843750000,120587.5234375000,152364.2187500000,131997.6718750000,145344.5312500000,,,
1.4039999978,10,148641.1562500000,194263.8125000000,146918.3750000000,150522.5937500000,120381.3906250000,152174.2343750000,131814.3437500000,145249.4218750000,,,
1.4079999977,11,148152.5000000000,196642.4531250000,146244.5468750000,149979.7343750000,119898.9453125000,151710.4375000000,131380.5468750000,144985.8437500000,,,
1.4119999977,11,148081.5156250000,199650.4375000000,146137.3281250000,149881.5625000000,119827.2187500000,151638.2187500000,131310.3750000000,144937.0468750000,,,
1.4159999976,11,148488.5625000000,199119.0781250000,146649.5000000000,150351.7031250000,120223.4921875000,152026.7968750000,131659.4687500000,145139.2656250000,,,
1.4199999976,11,148856.2656250000,195773.9062500000,147138.2500000000,150761.4062500000,120587.1484375000,152374.8593750000,131991.2343750000,145350.7187500000,,,
1.4239999976,11,148656.3593750000,194208.1875000000,146913.2500000000,150535.8437500000,120387.9609375000,152192.5625000000,131815.8593750000,145267.7343750000,,,
1.4279999975,11,148153.0937500000,196590.2812500000,146234.4375000000,149970.9687500000,119892.0468750000,151711.6093750000,131367.7187500000,144992.6250000000,,,
1.4319999977,11,148060.0468750000,199652.7031250000,146114.0781250000,149870.5468750000,119797.2890625000,151615.4062500000,131277.2812500000,144925.0312500000,,,
1.4359999977,11,148492.5000000000,199155.4687500000,146641.1093750000,150340.7812500000,120224.2421875000,152015.9375000000,131652.7031250000,145144.8906250000,,,
1.4399999976,11,148876.3281250000,195788.0937500000,147148.1250000000,150759.7187500000,120605.0078125000,152385.2500000000,131998.3437500000,145371.6718750000,,,
1.4439999976,11,148664.9375000000,194172.2187500000,146929.1718750000,150542.4687500000,120400.5703125000,152195.6718750000,131818.7656250000,145273.9375000000,,,
1.4479999975,11,148157.4375000000,196555.2812500000,146254.9531250000,149979.7343750000,119904.4453125000,151717.8125000000,131376.0625000000,144997.0468750000,,,
1.4519999977,11,148048.0000000000,199666.8125000000,146127.6250000000,149870.2187500000,119796.6171875000,151610.5156250000,131279.9531250000,144915.5312500000,,,
1.4559999977,11,148470.2343750000,199204.6406250000,146641.7500000000,150323.1875000000,120211.1562500000,152009.4687500000,131648.2343750000,145127.4062500000,,,
1.4599999976,11,148878.6406250000,195800.4531250000,147149.0312500000,150755.6718750000,120612.8671875000,152396.9687500000,132010.8593750000,145373.5781250000,,,
1.4639999976,11,148698.4375000000,194136.5156250000,146946.7968750000,150545.7343750000,120429.4296875000,152230.7500000000,131849.3437500000,145305.3906250000,,,
1.4679999975,11,148175.5937500000,196528.2968750000,146267.7656250000,149978.3593750000,119911.9765625000,151738.0312500000,131384.2968750000,145015.3437500000,,,
1.4719999975,11,148049.9687500000,199696.0937500000,146124.6562500000,149858.7343750000,119788.1953125000,151612.0000000000,131266.2031250000,144917.3906250000,,,
1.4759999977,11,148476.6250000000,199258.2187500000,146633.4843750000,150323.4375000000,120214.1875000000,152007.5312500000,131642.5937500000,145129.6562500000,,,
1.4799999977,11,148873.3750000000,195815.3437500000,147137.5312500000,150752.1562500000,120609.3281250000,152381.5781250000,132000.7500000000,145361.3437500000,,,
1.4839999976,11,148693.5000000000,194096.2812500000,146945.5625000000,150568.7187500000,120432.3046875000,152215.7656250000,131844.1562500000,145290.8281250000,,,
1.4879999976,11,148200.7656250000,196491.0468750000,146300.5468750000,150016.7187500000,119943.9765625000,151753.5312500000,131399.0312500000,145035.0781250000,,,
1.4919999975,11,148057.4531250000,199706.6562500000,146150.0000000000,149887.3906250000,119796.4843750000,151614.1406250000,131258.7187500000,144930.9375000000,,,
1.4959999977,11,148453.9375000000,199297.9218750000,146626.0625000000,150328.6875000000,120189.5078125000,151985.8125000000,131617.1093750000,145112.2187500000,,,
1.4999999977,11,148867.9375000000,195832.3125000000,147129.1406250000,150763.2812500000,120600.9296875000,152383.0781250000,131994.0156250000,145357.4531250000,,,
1.5039999976,11,148671.2968750000,194058.6250000000,146934.6718750000,150550.5625000000,120409.4453125000,152205.2656250000,131826.1406250000,145270.6875000000,,,
1.5079999976,11,148138.7187500000,196431.5468750000,146257.4687500000,149979.0312500000,119880.9765625000,151707.1875000000,131353.5000000000,144978.6718750000,,,
1.5119999975,11,148007.2968750000,199690.0625000000,146108.7500000000,149839.1875000000,119742.1718750000,151575.4843750000,131226.2656250000,144882.2968750000,,,
1.5159999975,11,148439.0781250000,199325.7812500000,146603.5000000000,150298.1718750000,120162.0703125000,151975.1093750000,131599.2812500000,145098.0000000000,,,
1.5199999977,11,148849.9687500000,195846.5000000000,147098.4843750000,150735.6406250000,120570.0078125000,152365.8281250000,131967.0625000000,145340.6875000000,,,
1.5239999976,11,148680.9218750000,194026.3593750000,146916.6562500000,150550.2187500000,120409.2890625000,152212.9218750000,131822.9687500000,145280.7656250000,,,
1.5279999976,11,148177.2031250000,196386.7812500000,146268.0468750000,149998.4843750000,119919.4609375000,151738.4375000000,131380.4843750000,145017.7031250000,,,
1.5319999976,11,148051.7656250000,199682.3125000000,146122.9375000000,149869.2500000000,119794.6328125000,151619.0000000000,131263.7812500000,144934.0468750000,,,
1.5359999975,12,148458.9531250000,199352.8281250000,146608.5156250000,150317.4531250000,120200.4765625000,151999.5781250000,131623.5000000000,145124.6093750000,,,
1.5399999975,12,148871.0625000000,195842.0625000000,147114.6250000000,150767.3906250000,120613.7500000000,152392.3593750000,131999.1875000000,145358.2812500000,,,
1.5439999974,12,148713.3906250000,193971.5625000000,146947.6250000000,150593.6406250000,120460.7031250000,152248.3125000000,131867.1718750000,145304.0000000000,,,
1.5479999974,12,148179.8906250000,196361.0156250000,146293.9531250000,150019.1562500000,119930.8046875000,151744.5156250000,131391.9687500000,145014.9062500000,,,
1.5519999973,12,148021.1250000000,199744.6093750000,146139.6718750000,149859.2187500000,119771.9375000000,151584.2343750000,131244.4687500000,144899.3593750000,,,
1.5559999973,12,148447.2343750000,199449.2500000000,146629.4375000000,150307.6406250000,120192.1640625000,151978.5937500000,131616.5312500000,145108.4687500000,,,
1.5599999975,12,148866.6406250000,195873.2968750000,147113.2812500000,150757.9531250000,120606.5078125000,152378.0781250000,131992.1093750000,145348.1250000000,,,
1.5639999975,12,148704.0468750000,193907.8125000000,146941.0000000000,150580.0156250000,120449.3359375000,152227.5937500000,131858.8593750000,145287.8750000000,,,
1.5679999974,12,148170.6718750000,196280.2187500000,146299.2343750000,150014.5468750000,119919.7578125000,151729.2656250000,131385.0156250000,145006.6562500000,,,
1.5719999974,12,148008.8437500000,199726.1093750000,146143.1875000000,149859.0156250000,119753.7265625000,151578.7812500000,131230.3906250000,144897.4375000000,,,
1.5759999973,12,148436.5312500000,199478.7500000000,146625.1250000000,150311.6093750000,120178.1093750000,151985.3281250000,131607.1093750000,145110.4531250000,,,
1.5799999975,12,148864.2343750000,195876.2812500000,147113.1250000000,150763.7187500000,120604.8984375000,152393.6093750000,131991.4218750000,145354.9062500000,,,
1.5839999975,12,148705.7656250000,193859.4687500000,146942.1875000000,150587.7968750000,120449.0625000000,152247.2812500000,131853.6250000000,145298.5000000000,,,
1.5879999974,12,148158.6406250000,196230.7343750000,146299.6562500000,149997.9531250000,119909.3203125000,151724.1562500000,131370.8125000000,145000.3125000000,,,
1.5919999974,12,148000.7187500000,199730.2187500000,146145.1718750000,149834.2031250000,119751.6093750000,151569.6875000000,131227.0625000000,144894.7968750000,,,
1.5959999973,12,148431.4843750000,199524.8281250000,146618.4218750000,150288.6406250000,120182.1875000000,151973.7656250000,131609.3906250000,145110.0000000000,,,
1.5999999973,12,148881.4218750000,195892.3750000000,147109.3437500000,150753.3906250000,120634.4062500000,152400.5937500000,132019.1250000000,145374.3593750000,,,
1.6039999975,12,148723.7031250000,193817.5468750000,146944.9687500000,150583.7656250000,120479.1562500000,152258.7343750000,131884.8281250000,145320.1718750000,,,
1.6079999974,12,148178.2812500000,196181.0312500000,146304.2968750000,150002.2343750000,119935.6640625000,151747.3593750000,131398.1875000000,145028.1875000000,,,
1.6119999974,12,148002.3281250000,199732.8750000000,146139.5625000000,149830.7031250000,119757.2421875000,151580.7500000000,131236.4062500000,144906.2343750000,,,
1.6159999974,12,148410.4062500000,199568.1250000000,146595.2343750000,150271.7968750000,120162.9296875000,151965.9687500000,131595.7968750000,145095.9062500000,,,
1.6199999973,12,148852.7500000000,195920.0468750000,147076.8281250000,150735.9062500000,120600.3125000000,152391.9062500000,131990.7968750000,145348.5468750000,,,
1.6239999975,12,148693.6406250000,193788.0468750000,146912.1718750000,150574.2187500000,120437.5859375000,152246.3906250000,131850.8125000000,145283.6406250000,,,
1.6279999975,12,148156.6875000000,196112.5781250000,146277.3125000000,150005.8125000000,119902.0000000000,151735.6093750000,131373.4062500000,144998.8437500000,,,
1.6319999974,12,147989.2187500000,199673.9687500000,146113.7031250000,149834.2812500000,119734.0703125000,151572.1562500000,131216.7343750000,144888.4218750000,,,
1.6359999974,12,148414.7656250000,199558.0468750000,146589.7500000000,150283.3593750000,120159.3046875000,151968.5625000000,131590.1562500000,145099.0468750000,,,
1.6399999973,12,148858.4062500000,195944.7500000000,147079.9687500000,150747.4062500000,120601.2031250000,152386.7500000000,131989.4843750000,145352.0625000000,,,
1.6439999973,12,148724.7343750000,193808.8906250000,146937.4062500000,150595.9687500000,120471.1093750000,152266.0781250000,131879.0781250000,145314.0781250000,,,
1.6479999975,12,148175.8125000000,196117.8593750000,146301.7031250000,150019.2968750000,119928.2578125000,151746.2656250000,131392.4843750000,145015.2343750000,,,
1.6519999974,12,147991.8125000000,199706.4687500000,146124.0625000000,149834.5468750000,119741.6328125000,151568.5468750000,131221.5156250000,144886.9218750000,,,
1.6559999974,12,148400.6406250000,199625.5781250000,146571.5312500000,150268.1718750000,120147.1562500000,151955.0937500000,131578.4687500000,145081.7187500000,,,
1.6599999974,12,148855.2968750000,195984.7187500000,147056.7968750000,150735.9843750000,120601.8203125000,152388.4062500000,131988.5937500000,145343.7187500000,,,
1.6639999973,13,148722.8437500000,193778.1718750000,146915.6250000000,150611.0156250000,120467.9765625000,152269.5937500000,131875.3281250000,145304.8906250000,,,
1.6679999973,13,148171.5000000000,196063.9531250000,146283.5937500000,150022.9218750000,119920.1562500000,151742.7500000000,131384.7500000000,145004.9062500000,,,
1.6719999972,13,147976.1562500000,199699.9062500000,146100.5156250000,149810.8906250000,119724.7343750000,151550.9218750000,131206.2500000000,144869.7187500000,,,
1.6759999972,13,148389.8281250000,199678.3125000000,146568.6406250000,150242.4843750000,120131.9453125000,151942.8906250000,131571.5156250000,145075.4218750000,,,
1.6799999971,13,148839.7656250000,196018.0000000000,147050.8125000000,150726.8593750000,120580.1484375000,152372.0000000000,131982.1875000000,145333.5781250000,,,
1.6839999971,13,148706.7812500000,193816.8593750000,146960.0781250000,150595.1875000000,120450.5937500000,152245.5312500000,131870.3750000000,145294.3125000000,,,
1.6879999973,13,148167.8281250000,196148.2500000000,146354.3593750000,150020.9375000000,119916.3750000000,151738.3593750000,131390.7031250000,145013.1718750000,,,
1.6919999972,13,147990.9375000000,199817.5156250000,146151.7187500000,149825.2343750000,119745.3359375000,151566.5312500000,131233.7500000000,144900.5468750000,,,
1.6959999972,13,148395.4062500000,199766.7656250000,146541.0312500000,150259.5625000000,120148.5781250000,151947.1093750000,131584.4687500000,145090.7968750000,,,
1.6999999972,13,148835.1875000000,195990.1406250000,146957.7968750000,150723.9062500000,120585.2656250000,152368.9062500000,131975.9375000000,145332.6406250000,,,
1.7039999971,13,148709.3125000000,193716.0312500000,146896.5937500000,150593.5312500000,120459.2031250000,152248.8593750000,131869.9687500000,145294.6406250000,,,
1.7079999973,13,148169.7812500000,196041.8281250000,146323.5625000000,150016.4531250000,119924.3984375000,151736.1718750000,131391.5468750000,145010.8593750000,,,
1.7119999973,13,147989.0312500000,199775.7343750000,146143.9375000000,149824.1406250000,119746.3515625000,151558.2187500000,131229.6093750000,144894.6875000000,,,
1.7159999972,13,148392.1093750000,199781.0468750000,146546.8281250000,150253.9062500000,120145.8437500000,151940.9062500000,131582.7343750000,145082.3437500000,,,
1.7199999972,13,148839.9843750000,195986.6562500000,146978.0000000000,150730.0625000000,120589.6093750000,152369.6093750000,131980.3125000000,145328.4375000000,,,
1.7239999971,13,148718.5937500000,193653.2343750000,146918.7656250000,150609.7343750000,120465.5625000000,152259.0781250000,131872.3750000000,145298.1718750000,,,
1.7279999971,13,148159.5937500000,195971.3593750000,146334.1562500000,150016.9375000000,119911.8203125000,151731.0000000000,131378.4843750000,145000.7812500000,,,
1.7319999973,13,147966.0312500000,199779.7812500000,146137.1718750000,149810.4531250000,119715.9375000000,151541.3125000000,131200.8125000000,144878.5468750000,,,
1.7359999972,13,148378.0468750000,199839.2968750000,146531.4531250000,150247.7968750000,120123.4453125000,151927.7968750000,131555.3750000000,145073.5156250000,,,
1.7399999972,13,148838.8281250000,196008.5625000000,146966.0625000000,150739.0156250000,120584.5703125000,152369.0000000000,131967.0312500000,145326.6093750000,,,
1.7439999972,13,148710.5468750000,193595.6718750000,146907.7656250000,150611.9062500000,120456.3593750000,152254.0000000000,131866.6875000000,145288.6562500000,,,
1.7479999971,13,148146.7656250000,195913.2656250000,146337.1875000000,150001.7031250000,119899.3437500000,151723.5156250000,131372.8750000000,144991.2031250000,,,
1.7519999973,13,147954.0468750000,199795.3906250000,146149.1875000000,149796.4062500000,119706.7109375000,151537.4062500000,131196.8125000000,144875.1718750000,,,
1.7559999973,13,148364.7031250000,199904.2812500000,146536.4531250000,150227.4843750000,120113.1484375000,151926.7187500000,131552.7187500000,145073.1406250000,,,
1.7599999972,13,148839.3593750000,196031.2343750000,146964.4531250000,150737.3750000000,120586.1796875000,152377.1406250000,131976.7187500000,145332.9687500000,,,
1.7639999972,13,148724.4843750000,193546.2968750000,146919.7343750000,150612.0312500000,120469.7734375000,152267.5468750000,131881.9062500000,145300.1875000000,,,
1.7679999971,13,148155.6406250000,195851.9218750000,146351.3750000000,150021.2343750000,119903.4531250000,151723.4062500000,131381.7968750000,144993.0000000000,,,
1.7719999971,13,147946.3281250000,199789.6562500000,146155.8125000000,149801.6406250000,119692.1953125000,151520.0156250000,131184.9531250000,144859.9375000000,,,
1.7759999973,13,148353.9062500000,199943.9843750000,146536.0156250000,150214.7031250000,120098.6875000000,151901.3437500000,131537.2656250000,145049.4843750000,,,
1.7799999972,13,148847.2812500000,196048.2968750000,146971.2812500000,150724.7656250000,120591.8125000000,152370.2500000000,131979.9687500000,145326.8593750000,,,
1.7839999972,13,148749.3750000000,193493.4062500000,146947.7187500000,150627.0312500000,120494.5546875000,152277.1875000000,131898.7500000000,145310.5781250000,,,
1.7879999971,13,148197.6406250000,195801.2656250000,146412.3750000000,150049.6562500000,119948.1093750000,151752.2187500000,131411.5468750000,145025.9687500000,,,
1.7919999971,14,147953.9687500000,199815.5312500000,146199.7968750000,149808.8750000000,119708.8593750000,151521.7968750000,131196.6250000000,144866.8750000000,,,
1.7959999971,14,148349.1718750000,200029.5000000000,146554.5468750000,150203.0000000000,120105.1484375000,151904.8437500000,131547.4375000000,145053.5937500000,,,
1.7999999970,14,148854.0312500000,196092.5468750000,146973.1718750000,150715.9531250000,120605.1953125000,152393.1562500000,131996.6406250000,145345.1406250000,,,
1.8039999970,14,148735.1093750000,193462.8750000000,146929.7187500000,150619.2500000000,120487.2890625000,152282.5937500000,131896.6875000000,145307.2500000000,,,
1.8079999969,14,148168.7656250000,195743.1093750000,146376.6718750000,150030.4843750000,119921.4218750000,151747.9531250000,131393.2031250000,145011.5781250000,,,
1.8119999969,14,147941.3593750000,199803.1718750000,146173.7656250000,149797.0468750000,119692.2812500000,151527.8593750000,131185.3593750000,144873.8281250000,,,
1.8159999971,14,148349.1406250000,200067.2343750000,146547.0625000000,150217.3281250000,120100.3750000000,151914.5156250000,131543.9687500000,145067.5312500000,,,
1.8199999970,14,148848.4062500000,196115.9062500000,146962.1093750000,150727.0000000000,120596.0468750000,152391.2812500000,131989.3750000000,145341.4375000000,,,
1.8239999970,14,148761.9843750000,193432.5937500000,146938.9062500000,150645.6406250000,120504.2656250000,152306.6562500000,131914.2500000000,145326.6406250000,,,
1.8279999970,14,148207.4375000000,195701.3437500000,146412.8750000000,150065.6250000000,119954.8984375000,151777.9218750000,131425.6250000000,145044.3125000000,,,
1.8319999969,14,147952.5468750000,199803.2968750000,146191.3281250000,149807.9687500000,119700.4062500000,151535.8125000000,131194.1093750000,144886.0625000000,,,
1.8359999971,14,148354.6406250000,200114.0625000000,146553.8750000000,150209.8437500000,120106.2265625000,151916.6093750000,131550.6250000000,145077.1718750000,,,
1.8399999971,14,148853.6562500000,196160.9218750000,146968.4687500000,150719.0312500000,120606.7812500000,152395.7656250000,131996.7812500000,145353.2968750000,,,
1.8439999970,14,148760.6406250000,193429.2500000000,146932.5312500000,150638.6718750000,120510.2187500000,152305.8750000000,131915.0312500000,145333.9531250000,,,
1.8479999970,14,148189.6250000000,195669.4531250000,146394.0781250000,150047.6406250000,119944.5390625000,151762.1406250000,131411.4218750000,145034.8125000000,,,
1.8519999969,14,147952.5000000000,199804.5937500000,146189.1093750000,149801.6406250000,119708.2890625000,151531.5781250000,131198.5625000000,144888.6250000000,,,
1.8559999969,14,148350.7968750000,200162.0468750000,146551.4687500000,150208.1250000000,120101.5312500000,151905.5000000000,131544.0000000000,145069.5468750000,,,
1.8599999971,14,148861.1250000000,196194.9218750000,146964.0468750000,150731.9531250000,120608.2265625000,152392.6562500000,131998.3906250000,145348.1718750000,,,
1.8639999970,14,148787.3593750000,193409.2343750000,146951.3593750000,150661.4375000000,120536.2109375000,152320.5000000000,131943.1093750000,145342.4687500000,,,
1.8679999970,14,148234.1562500000,195623.0000000000,146434.8437500000,150067.0156250000,119989.8671875000,151789.6093750000,131449.7656250000,145057.1093750000,,,
1.8719999969,14,147946.3437500000,199787.1562500000,146194.3125000000,149810.5937500000,119700.7031250000,151511.7343750000,131182.3750000000,144862.8906250000,,,
1.8759999969,14,148338.6718750000,200185.5937500000,146533.8125000000,150213.9375000000,120088.8984375000,151886.6562500000,131527.3437500000,145043.5625000000,,,
1.8799999971,14,148855.5937500000,196227.6562500000,146950.5781250000,150733.5937500000,120605.2265625000,152378.1093750000,131990.4218750000,145333.5312500000,,,
1.8839999971,14,148773.0937500000,193396.5000000000,146924.3281250000,150652.0000000000,120521.2187500000,152298.3437500000,131920.1250000000,145323.3437500000,,,
1.8879999970,14,148202.2343750000,195570.0468750000,146386.4375000000,150059.5781250000,119953.7421875000,151759.0000000000,131416.4531250000,145030.0625000000,,,
1.8919999970,14,147955.2031250000,199764.9531250000,146183.4687500000,149807.7031250000,119704.4843750000,151523.0781250000,131190.1406250000,144883.7812500000,,,
1.8959999969,14,148347.0937500000,200219.0937500000,146544.0156250000,150212.0625000000,120096.0312500000,151894.0781250000,131535.6093750000,145066.1875000000,,,
1.8999999969,14,148858.9218750000,196266.5625000000,146955.7343750000,150725.5156250000,120606.5390625000,152388.8750000000,131997.5000000000,145350.0468750000,,,
1.9039999971,14,148781.1875000000,193396.5000000000,146943.7187500000,150650.2812500000,120529.7187500000,152315.5156250000,131938.8750000000,145336.1250000000,,,
1.9079999970,14,148224.5156250000,195541.8281250000,146415.5000000000,150067.9843750000,119973.1093750000,151782.4531250000,131442.1562500000,145050.1093750000,,,
1.9119999970,14,147948.9218750000,199757.8437500000,146173.5937500000,149791.7343750000,119691.2890625000,151515.5625000000,131180.0156250000,144876.2656250000,,,
1.9159999969,14,148330.9843750000,200251.6406250000,146509.2031250000,150187.5781250000,120074.5468750000,151877.0468750000,131511.6718750000,145047.0937500000,,,
1.9199999969,15,148847.3125000000,196294.0000000000,146913.2968750000,150717.7500000000,120595.2734375000,152371.0625000000,131980.0781250000,145327.1406250000,,,
1.9239999969,15,148781.8281250000,193381.3125000000,146906.9687500000,150660.8593750000,120528.8359375000,152313.5312500000,131931.9531250000,145328.5625000000,,,
1.9279999968,15,148217.2500000000,195499.7812500000,146392.7812500000,150073.6875000000,119967.7968750000,151780.1406250000,131436.1406250000,145043.4843750000,,,
1.9319999968,15,147950.7500000000,199746.8906250000,146169.7656250000,149797.5000000000,119701.1015625000,151524.3906250000,131197.3437500000,144884.9375000000,,,
1.9359999967,15,148327.8906250000,200291.8125000000,146511.9062500000,150191.7343750000,120077.5000000000,151880.5312500000,131528.6250000000,145053.6406250000,,,
1.9399999967,15,148842.9062500000,196338.3437500000,146918.7656250000,150713.4062500000,120592.8281250000,152375.8281250000,131987.7187500000,145332.6718750000,,,
1.9439999969,15,148787.2031250000,193366.0468750000,146911.2343750000,150667.5312500000,120536.6406250000,152323.5000000000,131941.2656250000,145337.5000000000,,,
1.9479999968,15,148215.8906250000,195448.9843750000,146390.0468750000,150080.8750000000,119968.1171875000,151776.1250000000,131435.0468750000,145038.2500000000,,,
1.9519999968,15,147943.7187500000,199731.9062500000,146167.8906250000,149805.1562500000,119696.4375000000,151511.8437500000,131193.8125000000,144871.1250000000,,,
1.9559999967,15,148330.9531250000,200330.4062500000,146516.7343750000,150190.1250000000,120088.2578125000,151872.2187500000,131541.4687500000,145047.8281250000,,,
1.9599999967,15,148860.5625000000,196364.7656250000,146927.8906250000,150728.4531250000,120611.6875000000,152382.6250000000,132007.8281250000,145340.3750000000,,,
1.9639999969,15,148796.1875000000,193338.6718750000,146924.6250000000,150678.0156250000,120544.0937500000,152319.2343750000,131951.3437500000,145333.9531250000,,,
1.9679999969,15,148217.9843750000,195399.2968750000,146409.5000000000,150080.1093750000,119966.4296875000,151769.1093750000,131437.1406250000,145036.0781250000,,,
1.9719999968,15,147936.4218750000,199718.5937500000,146179.1718750000,149793.1093750000,119681.9765625000,151496.2343750000,131180.0781250000,144866.6875000000,,,
1.9759999968,15,148312.9531250000,200376.2968750000,146511.9843750000,150178.2187500000,120058.6171875000,151855.7500000000,131510.7187500000,145039.6093750000,,,
1.9799999967,15,148843.4375000000,196415.1562500000,146910.1093750000,150712.1718750000,120588.8046875000,152367.8906250000,131985.1406250000,145329.2343750000,,,
1.9839999967,15,148794.0312500000,193329.0937500000,146906.3281250000,150669.0312500000,120537.9531250000,152317.7656250000,131945.4375000000,145334.3281250000,,,
1.9879999969,15,148224.3593750000,195357.5468750000,146388.0156250000,150081.9062500000,119971.5546875000,151772.6875000000,131443.3281250000,145043.1250000000,,,
1.9919999968,15,147943.7812500000,199721.7343750000,146156.1406250000,149802.2812500000,119690.8281250000,151503.0156250000,131188.7656250000,144880.3437500000,,,
1.9959999968,15,148322.5625000000,200437.9687500000,146501.5468750000,150192.5156250000,120071.3593750000,151861.8125000000,131524.0937500000,145054.1250000000,,,
1.9999999967,15,148842.5781250000,196464.3750000000,146892.8906250000,150720.1562500000,120589.5625000000,152364.7812500000,131989.8906250000,145330.2656250000,,,
2.0039999967,15,148795.6718750000,193328.7187500000,146894.3125000000,150682.0937500000,120540.9296875000,152322.5156250000,131953.1718750000,145332.8281250000,,,
2.0079999969,15,148217.4687500000,195317.6562500000,146378.5937500000,150082.1875000000,119964.2031250000,151774.7812500000,131440.2500000000,145033.4687500000,,,
2.0119999968,15,147925.0312500000,199703.3437500000,146141.5000000000,149781.7031250000,119669.0546875000,151492.3125000000,131173.3906250000,144858.2500000000,,,
2.0159999968,15,148295.3593750000,200468.6562500000,146469.6093750000,150153.6250000000,120039.5468750000,151842.8281250000,131497.0625000000,145024.5937500000,,,
2.0199999968,15,148836.0625000000,196498.4218750000,146870.6250000000,150699.5000000000,120584.0625000000,152361.4062500000,131983.7656250000,145318.1093750000,,,
2.0239999967,15,148805.2968750000,193311.7656250000,146890.6406250000,150684.8906250000,120553.0000000000,152332.0312500000,131961.7812500000,145337.2343750000,,,
2.0279999967,15,148244.0468750000,195279.8125000000,146408.2968750000,150098.8281250000,119992.1484375000,151795.5156250000,131460.0468750000,145056.6718750000,,,
2.0319999969,15,147952.7656250000,199698.4062500000,146186.5312500000,149796.5468750000,119698.5859375000,151514.0156250000,131197.1406250000,144887.9375000000,,,
2.0359999968,15,148293.6093750000,200509.3906250000,146498.0312500000,150148.9062500000,120038.8515625000,151834.5937500000,131494.4375000000,145024.0000000000,,,
2.0399999968,15,148825.3593750000,196546.4531250000,146875.2968750000,150693.4218750000,120569.7656250000,152350.6718750000,131969.0781250000,145307.0312500000,,,
2.0439999967,15,148799.8281250000,193308.4062500000,146883.0937500000,150678.5625000000,120541.7343750000,152328.9531250000,131953.4062500000,145327.5781250000,,,
2.0479999967,16,148233.7187500000,195230.6406250000,146392.8750000000,150101.2968750000,119978.8750000000,151788.2968750000,131456.1250000000,145038.3593750000,,,
2.0519999966,16,147932.7500000000,199663.0781250000,146166.5156250000,149800.5156250000,119679.3515625000,151497.7031250000,131186.7031250000,144865.3281250000,,,
2.0559999966,16,148292.2500000000,200527.2343750000,146493.1093750000,150164.1875000000,120040.9687500000,151840.0937500000,131505.1093750000,145029.2812500000,,,
2.0599999966,16,148834.2656250000,196584.8437500000,146892.4843750000,150705.9375000000,120584.7031250000,152361.5625000000,131992.8906250000,145321.6562500000,,,
2.0639999965,16,148823.4375000000,193319.5156250000,146921.0156250000,150696.4531250000,120573.1953125000,152357.0000000000,131991.0937500000,145355.9843750000,,,
2.0679999965,16,148249.6562500000,195203.8437500000,146418.6718750000,150124.3125000000,119998.2656250000,151817.9375000000,131476.2968750000,145068.6093750000,,,
2.0719999967,16,147932.8593750000,199644.9375000000,146163.9218750000,149795.3593750000,119678.7343750000,151512.0312500000,131186.8281250000,144882.3281250000,,,
2.0759999966,16,148290.1250000000,200550.9218750000,146482.4062500000,150153.2500000000,120034.1250000000,151847.4687500000,131499.3125000000,145039.2343750000,,,
2.0799999966,16,148835.0468750000,196617.9375000000,146878.2187500000,150705.2500000000,120578.9375000000,152369.0937500000,131987.9843750000,145327.5000000000,,,
2.0839999965,16,148815.0937500000,193311.3437500000,146898.5781250000,150694.5937500000,120557.3437500000,152351.9843750000,131977.5781250000,145347.1250000000,,,
2.0879999965,16,148243.2187500000,195153.0781250000,146407.7031250000,150111.1406250000,119990.3515625000,151807.5000000000,131476.4375000000,145052.3750000000,,,
2.0919999967,16,147930.8281250000,199593.8281250000,146168.0156250000,149791.4375000000,119680.4531250000,151502.9687500000,131196.7343750000,144867.4218750000,,,
2.0959999966,16,148289.8593750000,200540.7187500000,146493.6718750000,150151.0156250000,120038.4218750000,151835.6875000000,131509.5000000000,145026.0937500000,,,
2.0999999966,16,148860.6875000000,196648.2656250000,146913.1718750000,150717.7500000000,120610.2109375000,152387.1718750000,132022.2656250000,145341.6562500000,,,
2.1039999966,16,148847.1406250000,193317.9843750000,146947.9531250000,150722.1718750000,120598.5156250000,152374.5937500000,132019.6562500000,145366.1406250000,,,
2.1079999965,16,148270.6875000000,195117.5312500000,146439.4531250000,150143.5937500000,120018.7812500000,151833.5468750000,131502.5000000000,145074.8281250000,,,
2.1119999965,16,147940.1250000000,199565.2812500000,146176.2500000000,149799.4375000000,119686.5937500000,151512.4531250000,131202.5000000000,144879.8593750000,,,
2.1159999967,16,148277.2500000000,200563.5000000000,146480.6093750000,150133.4218750000,120023.0468750000,151829.2187500000,131494.4375000000,145021.0000000000,,,
2.1199999966,16,148827.4531250000,196684.8281250000,146881.7500000000,150694.6718750000,120578.8046875000,152356.2500000000,131990.7968750000,145311.4843750000,,,
2.1239999966,16,148820.0000000000,193319.8593750000,146924.6718750000,150697.8437500000,120569.3046875000,152348.5000000000,131989.0312500000,145338.2187500000,,,
2.1279999965,16,148262.5000000000,195069.0937500000,146437.9531250000,150125.3437500000,120012.0546875000,151814.8281250000,131493.9687500000,145056.1093750000,,,
2.1319999965,16,147952.2187500000,199528.0312500000,146184.5625000000,149809.1406250000,119699.8984375000,151513.6093750000,131211.6406250000,144879.2187500000,,,
2.1359999967,16,148303.9687500000,200584.9843750000,146503.8593750000,150157.7187500000,120054.3750000000,151843.8750000000,131521.6250000000,145041.9218750000,,,
2.1399999966,16,148848.3750000000,196743.9218750000,146903.5625000000,150694.2968750000,120601.8203125000,152366.0937500000,132013.2500000000,145333.3437500000,,,
2.1439999966,16,148819.2187500000,193347.5468750000,146913.0000000000,150700.0468750000,120567.6953125000,152345.0156250000,131990.1250000000,145340.0468750000,,,
2.1479999966,16,148242.7656250000,195046.9062500000,146399.2812500000,150118.2656250000,119987.0546875000,151798.7500000000,131473.7812500000,145041.3906250000,,,
2.1519999965,16,147910.6562500000,199501.6406250000,146126.9843750000,149779.9062500000,119650.2187500000,151481.2656250000,131172.5312500000,144849.3437500000,,,
2.1559999965,16,148242.2500000000,200595.4375000000,146426.3125000000,150119.4843750000,119981.7421875000,151797.2031250000,131462.9375000000,144992.9687500000,,,
2.1599999967,16,148799.9687500000,196776.0781250000,146834.7031250000,150681.3125000000,120544.2812500000,152330.5781250000,131967.8906250000,145291.9531250000,,,
2.1639999966,16,148822.8750000000,193350.6875000000,146888.5468750000,150719.8125000000,120565.3359375000,152345.9531250000,131993.5625000000,145338.3906250000,,,
2.1679999966,16,148284.6250000000,195007.6406250000,146421.3281250000,150165.3906250000,120027.2343750000,151831.0000000000,131516.1562500000,145073.8125000000,,,
2.1719999965,16,147952.8437500000,199473.3593750000,146162.8750000000,149809.2187500000,119697.9687500000,151512.5625000000,131220.1718750000,144885.6875000000,,,
2.1759999965,17,148288.9843750000,200623.3906250000,146477.2187500000,150151.3906250000,120033.6406250000,151829.6875000000,131512.7500000000,145037.3125000000,,,
2.1799999964,17,148825.0468750000,196824.1718750000,146867.6406250000,150712.5468750000,120567.9921875000,152341.6562500000,131985.4375000000,145314.4843750000,,,
2.1839999964,17,148840.3906250000,193358.9218750000,146916.5156250000,150728.5468750000,120584.5156250000,152348.1718750000,132002.5000000000,145352.0937500000,,,
2.1879999964,17,148288.1718750000,194969.8750000000,146440.7968750000,150149.7812500000,120032.3046875000,151823.9218750000,131514.2500000000,145076.3125000000,,,
2.1919999963,17,147949.9531250000,199434.8281250000,146165.0937500000,149802.3125000000,119693.6171875000,151505.3281250000,131211.7812500000,144884.4687500000,,,
2.1959999963,17,148277.3437500000,200628.2500000000,146465.8281250000,150132.5625000000,120023.9609375000,151818.3593750000,131501.1406250000,145029.0468750000,,,
2.1999999965,17,148832.3437500000,196850.6718750000,146870.2187500000,150696.4531250000,120582.8828125000,152350.5468750000,131999.5156250000,145322.8281250000,,,
2.2039999964,17,148848.7500000000,193312.9687500000,146892.9375000000,150721.7656250000,120602.1953125000,152367.0156250000,132024.6718750000,145359.3593750000,,,
2.2079999964,17,148304.8281250000,194826.4062500000,146401.4062500000,150163.9687500000,120060.8125000000,151842.0937500000,131547.0781250000,145086.7187500000,,,
2.2119999963,17,147960.3593750000,199302.3437500000,146156.8593750000,149816.6875000000,119711.4843750000,151511.9531250000,131233.2343750000,144891.1562500000,,,
2.2159999963,17,148268.5312500000,200577.2031250000,146483.7656250000,150121.4062500000,120016.8281250000,151805.1718750000,131497.1406250000,145022.9843750000,,,
2.2199999965,17,148821.2031250000,196917.9375000000,146930.2968750000,150682.1718750000,120567.2968750000,152333.6406250000,131990.2656250000,145314.4843750000,,,
2.2239999964,17,148846.0781250000,193369.2656250000,146926.7656250000,150719.8593750000,120589.6953125000,152360.2968750000,132015.7656250000,145355.8750000000,,,
2.2279999964,17,148290.7187500000,194828.4218750000,146399.9843750000,150148.8437500000,120035.3906250000,151836.5000000000,131522.1718750000,145075.7656250000,,,
2.2319999964,17,147940.2968750000,199292.9531250000,146138.8593750000,149796.1406250000,119687.0781250000,151503.4218750000,131211.2968750000,144875.5156250000,,,
2.2359999963,17,148258.2968750000,200601.2343750000,146471.3750000000,150121.8125000000,120005.4843750000,151801.7031250000,131490.4843750000,145015.7500000000,,,
2.2399999963,17,148816.3281250000,196970.7500000000,146932.7968750000,150693.6093750000,120560.7265625000,152335.6875000000,131984.2343750000,145317.0937500000,,,
2.2439999965,17,148840.3906250000,193405.9062500000,146933.8125000000,150728.5781250000,120583.3359375000,152365.3437500000,132010.4531250000,145359.5156250000,,,
2.2479999964,17,148286.3437500000,194814.6562500000,146406.4218750000,150161.3750000000,120032.7343750000,151840.7343750000,131525.3750000000,145076.9843750000,,,
2.2519999964,17,147934.9531250000,199264.3906250000,146131.0781250000,149799.0312500000,119680.3437500000,151501.4062500000,131209.8437500000,144873.5312500000,,,
2.2559999963,17,148249.7656250000,200620.8593750000,146453.2656250000,150112.1875000000,119992.5234375000,151793.4375000000,131477.0000000000,145011.8593750000,,,
2.2599999963,17,148800.8750000000,197020.3281250000,146898.5000000000,150682.2031250000,120547.0468750000,152317.2812500000,131968.8281250000,145298.5781250000,,,
2.2639999965,17,148838.1875000000,193432.5937500000,146919.8906250000,150723.1562500000,120589.9062500000,152358.6875000000,132013.8125000000,145349.5781250000,,,
2.2679999964,17,148285.9687500000,194789.3750000000,146402.3906250000,150147.3750000000,120039.7031250000,151839.3437500000,131525.1875000000,145071.6406250000,,,
2.2719999964,17,147926.8750000000,199227.8906250000,146122.4531250000,149783.4843750000,119678.6015625000,151496.5781250000,131203.3593750000,144865.3437500000,,,
2.2759999963,17,148241.0468750000,200622.3437500000,146451.0781250000,150106.4375000000,119990.0078125000,151785.9062500000,131472.4062500000,145003.5625000000,,,
2.2799999963,17,148814.4218750000,197064.3437500000,146926.6250000000,150689.1718750000,120564.9062500000,152326.9375000000,131986.1250000000,145311.8906250000,,,
2.2839999963,17,148862.5468750000,193456.5312500000,146949.0781250000,150739.1718750000,120617.2421875000,152375.4531250000,132045.1718750000,145367.6718750000,,,
2.2879999964,17,148302.6093750000,194768.6093750000,146416.9062500000,150153.1875000000,120058.3984375000,151847.2187500000,131547.1875000000,145081.0000000000,,,
2.2919999964,17,147927.5781250000,199196.5000000000,146116.7343750000,149774.3906250000,119681.6328125000,151489.9843750000,131204.1562500000,144862.0468750000,,,
2.2959999964,17,148230.4531250000,200638.2187500000,146432.3281250000,150091.1250000000,119982.7109375000,151774.0781250000,131466.7031250000,144994.0468750000,,,
2.2999999963,17,148788.7812500000,197111.4062500000,146889.3437500000,150664.5625000000,120539.5078125000,152307.0937500000,131966.4218750000,145289.2187500000,,,
2.3039999963,18,148842.6718750000,193485.3593750000,146914.1562500000,150722.0312500000,120593.3671875000,152361.7187500000,132023.7968750000,145347.9062500000,,,
2.3079999962,18,148301.6562500000,194753.4531250000,146396.9687500000,150165.2968750000,120052.6640625000,151847.8437500000,131545.5468750000,145075.5781250000,,,
2.3119999962,18,147935.8125000000,199188.8125000000,146109.7656250000,149791.7187500000,119680.4765625000,151493.4687500000,131210.5156250000,144870.6093750000,,,
2.3159999961,18,148234.6093750000,200677.2187500000,146427.8750000000,150092.6250000000,119977.7500000000,151771.3906250000,131471.9531250000,145001.7656250000,,,
2.3199999961,18,148803.1093750000,197177.5468750000,146906.5625000000,150667.6718750000,120548.4140625000,152312.8281250000,131982.8906250000,145305.5000000000,,,
2.3239999961,18,148842.7500000000,193512.0937500000,146922.2343750000,150733.5937500000,120585.4531250000,152357.5625000000,132023.2500000000,145350.6093750000,,,
2.3279999963,18,148303.0312500000,194735.7500000000,146398.6875000000,150173.7656250000,120048.9609375000,151847.8906250000,131548.5312500000,145080.7343750000,,,
2.3319999962,18,147925.6718750000,199169.4375000000,146101.0937500000,149789.5312500000,119669.8046875000,151482.4218750000,131205.6093750000,144859.8750000000,,,
2.3359999962,18,148214.1718750000,200692.4062500000,146414.0781250000,150085.3593750000,119957.8984375000,151751.0625000000,131454.1718750000,144978.3750000000,,,
2.3399999961,18,148771.9062500000,197203.4843750000,146883.6875000000,150655.8906250000,120520.6562500000,152285.5468750000,131957.6718750000,145270.9218750000,,,
2.3439999961,18,148834.3750000000,193503.7656250000,146919.3593750000,150724.8593750000,120587.3359375000,152350.6718750000,132029.3125000000,145334.2031250000,,,
2.3479999963,18,148303.3750000000,194679.9062500000,146409.9531250000,150168.3281250000,120060.6250000000,151848.8281250000,131563.8437500000,145071.5625000000,,,
2.3519999962,18,147924.8593750000,199129.1250000000,146110.5625000000,149782.1875000000,119680.7187500000,151480.5625000000,131219.0000000000,144855.3125000000,,,
2.3559999962,18,148211.5625000000,200702.5156250000,146409.2500000000,150078.0312500000,119964.4687500000,151747.9062500000,131461.8125000000,144975.0781250000,,,
2.3599999961,18,148774.5312500000,197214.7031250000,146869.0937500000,150654.7656250000,120525.8828125000,152291.5000000000,131960.4843750000,145272.0000000000,,,
2.3639999961,18,148839.3125000000,193460.5000000000,146907.6718750000,150720.5625000000,120592.4296875000,152358.0468750000,132035.0312500000,145334.0156250000,,,
2.3679999961,18,148292.4843750000,194591.7187500000,146394.5312500000,150164.7812500000,120048.9296875000,151841.8281250000,131554.4375000000,145054.2031250000,,,
2.3719999962,18,147911.4843750000,199069.9531250000,146102.7812500000,149777.6093750000,119664.1718750000,151473.4531250000,131207.7812500000,144840.5937500000,,,
2.3759999962,18,148186.5937500000,200704.1718750000,146410.1093750000,150063.3906250000,119938.5078125000,151730.3281250000,131445.2968750000,144955.5000000000,,,
2.3799999962,18,148751.5000000000,197236.8281250000,146876.6562500000,150642.4843750000,120504.3984375000,152265.9687500000,131948.5312500000,145248.9062500000,,,
2.3839999961,18,148844.3750000000,193445.1250000000,146934.8906250000,150734.2656250000,120596.0468750000,152352.9843750000,132036.7656250000,145331.2031250000,,,
2.3879999961,18,148312.9062500000,194552.2343750000,146437.5000000000,150199.1406250000,120057.8671875000,151849.4218750000,131557.4843750000,145069.0312500000,,,
2.3919999963,18,147903.5468750000,199056.5156250000,146118.0781250000,149787.1562500000,119645.3125000000,151461.2500000000,131186.1406250000,144832.1406250000,,,
2.3959999962,18,148179.4843750000,200746.5312500000,146415.7968750000,150068.1406250000,119922.1953125000,151722.8437500000,131427.4062500000,144949.1093750000,,,
2.3999999962,18,148747.1718750000,197285.9218750000,146869.7656250000,150650.8750000000,120489.3750000000,152266.9687500000,131930.2656250000,145248.2031250000,,,
2.4039999961,18,148837.0625000000,193440.7031250000,146912.3281250000,150742.5781250000,120580.6015625000,152360.8125000000,132020.2500000000,145331.7031250000,,,
2.4079999961,18,148311.3125000000,194498.9687500000,146419.2031250000,150195.9687500000,120058.8281250000,151863.4843750000,131564.0000000000,145074.7031250000,,,
2.4119999961,18,147920.1406250000,199024.3593750000,146128.8906250000,149798.9218750000,119666.8828125000,151485.5781250000,131213.2343750000,144853.4687500000,,,
2.4159999962,18,148198.6875000000,200770.7500000000,146436.1406250000,150082.4687500000,119942.8281250000,151747.2031250000,131453.4687500000,144973.4687500000,,,
2.4199999962,18,148780.4375000000,197346.4531250000,146905.8437500000,150663.2656250000,120524.9140625000,152302.7656250000,131969.8750000000,145282.7500000000,,,
2.4239999962,18,148863.9687500000,193472.9687500000,146953.6875000000,150739.8437500000,120610.4765625000,152384.5468750000,132050.5000000000,145353.0781250000,,,
2.4279999961,18,148321.1093750000,194484.7968750000,146449.3593750000,150193.1875000000,120068.8046875000,151874.3125000000,131570.5312500000,145079.8437500000,,,
2.4319999961,19,147921.9687500000,199017.1718750000,146149.2500000000,149800.1406250000,119666.9843750000,151491.3750000000,131208.8750000000,144857.8906250000,,,
2.4359999960,19,148195.3750000000,200812.0312500000,146448.7968750000,150078.7343750000,119940.1953125000,151744.4687500000,131449.4218750000,144976.2031250000,,,
2.4399999960,19,148770.9218750000,197409.5156250000,146916.7656250000,150653.3437500000,120520.4140625000,152293.8906250000,131967.8437500000,145278.3281250000,,,
2.4439999959,19,148872.6718750000,193495.9531250000,146974.6406250000,150747.3750000000,120626.3359375000,152396.5937500000,132071.1250000000,145362.8281250000,,,
2.4479999959,19,148342.5468750000,194464.0468750000,146472.9843750000,150205.1718750000,120094.5312500000,151893.8593750000,131598.6093750000,145102.0000000000,,,
2.4519999959,19,147943.5937500000,199007.8906250000,146165.6250000000,149796.4375000000,119695.0937500000,151508.8906250000,131237.9062500000,144884.6406250000,,,
2.4559999960,19,148198.6093750000,200848.3437500000,146450.5937500000,150071.0312500000,119950.9531250000,151746.8281250000,131460.7656250000,144985.1093750000,,,
2.4599999960,19,148770.9687500000,197455.9062500000,146904.2031250000,150658.5156250000,120525.7187500000,152293.8593750000,131974.4062500000,145278.6718750000,,,
2.4639999960,19,148873.5625000000,193505.5312500000,146952.5156250000,150765.4062500000,120629.3125000000,152394.8437500000,132076.6562500000,145359.5468750000,,,
2.4679999959,19,148347.9062500000,194431.4843750000,146460.4375000000,150225.6406250000,120102.4453125000,151893.2031250000,131606.4687500000,145098.3593750000,,,
2.4719999959,19,147934.5156250000,198982.1250000000,146155.4062500000,149806.1093750000,119685.9218750000,151495.6875000000,131231.0937500000,144870.1250000000,,,
2.4759999961,19,148191.5000000000,200875.0312500000,146443.7812500000,150073.7500000000,119942.1796875000,151731.1875000000,131452.2968750000,144975.3281250000,,,
2.4799999960,19,148775.5625000000,197515.2500000000,146904.9062500000,150652.4531250000,120526.9296875000,152289.5156250000,131971.6250000000,145281.5781250000,,,
2.4839999960,19,148888.9843750000,193537.6562500000,146959.4375000000,150763.8281250000,120639.1015625000,152401.8750000000,132080.2500000000,145372.7187500000,,,
2.4879999959,19,148369.4375000000,194413.9687500000,146467.5625000000,150227.6718750000,120119.0468750000,151908.7031250000,131625.9062500000,145119.2812500000,,,
2.4919999959,19,147952.7656250000,198961.0156250000,146152.1718750000,149822.2812500000,119696.1953125000,151506.3125000000,131247.1093750000,144885.6562500000,,,
2.4959999959,19,148205.1562500000,200889.2500000000,146431.1718750000,150080.6406250000,119946.3671875000,151744.2031250000,131465.7031250000,144990.2812500000,,,
2.4999999960,19,148787.3906250000,197552.9218750000,146892.8906250000,150665.7031250000,120531.5703125000,152301.1093750000,131987.0937500000,145297.9375000000,,,
2.5039999960,19,148898.0468750000,193545.5000000000,146956.4062500000,150782.7031250000,120642.0000000000,152408.5312500000,132088.5156250000,145383.4687500000,,,
2.5079999960,19,148379.8750000000,194375.0937500000,146475.5937500000,150246.9375000000,120125.1328125000,151916.6093750000,131628.5156250000,145129.4218750000,,,
2.5119999959,19,147948.2031250000,198915.0312500000,146156.6718750000,149820.9531250000,119697.4531250000,151502.2656250000,131242.5937500000,144883.7812500000,,,
2.5159999959,19,148197.8593750000,200886.1718750000,146429.0781250000,150068.5468750000,119947.4375000000,151739.4218750000,131462.2656250000,144989.8593750000,,,
2.5199999961,19,148792.2343750000,197580.9375000000,146889.9375000000,150658.8906250000,120542.7812500000,152303.6562500000,131996.9687500000,145304.0781250000,,,
2.5239999960,19,148901.6250000000,193554.5625000000,146951.4375000000,150780.8281250000,120647.7343750000,152411.1562500000,132097.0625000000,145383.9218750000,,,
2.5279999960,19,148362.2812500000,194325.8281250000,146450.4843750000,150228.1406250000,120106.9765625000,151901.0781250000,131619.2031250000,145106.6718750000,,,
2.5319999959,19,147927.1406250000,198864.3906250000,146124.8125000000,149789.1406250000,119671.8437500000,151478.8437500000,131228.5468750000,144860.9218750000,,,
2.5359999959,19,148176.3437500000,200884.5781250000,146403.2500000000,150046.5156250000,119919.9687500000,151703.9687500000,131439.1250000000,144963.7812500000,,,
2.5399999958,19,148761.0781250000,197618.9062500000,146870.1718750000,150634.6562500000,120502.8437500000,152260.1718750000,131953.6250000000,145265.5312500000,,,
2.5439999960,19,148881.9843750000,193572.6718750000,146939.6718750000,150764.3593750000,120623.6250000000,152382.1406250000,132067.4531250000,145354.6718750000,,,
2.5479999960,19,148366.8750000000,194314.6093750000,146455.4531250000,150237.8750000000,120108.8281250000,151895.7500000000,131614.0312500000,145103.7187500000,,,
2.5519999960,19,147936.9843750000,198851.8437500000,146129.5312500000,149808.2031250000,119676.4531250000,151483.5156250000,131225.8281250000,144866.1093750000,,,
2.5559999959,19,148164.1406250000,200910.7812500000,146391.5625000000,150040.4062500000,119905.0859375000,151696.5937500000,131425.4218750000,144952.4375000000,,,
2.5599999959,20,148744.9218750000,197668.1875000000,146853.4062500000,150630.1718750000,120488.6562500000,152251.0000000000,131946.8437500000,145251.7187500000,,,
2.5639999958,20,148881.4843750000,193579.6875000000,146931.6406250000,150770.2812500000,120622.9296875000,152382.1093750000,132071.9687500000,145353.1718750000,,,
2.5679999958,20,148368.6718750000,194266.9843750000,146444.6875000000,150243.7187500000,120108.4218750000,151893.1406250000,131614.6406250000,145101.0625000000,,,
2.5719999957,20,147940.3750000000,198808.0156250000,146117.4062500000,149805.0625000000,119677.8750000000,151477.1250000000,131227.2343750000,144864.1250000000,,,
2.5759999957,20,148174.2031250000,200917.8125000000,146388.1718750000,150049.6562500000,119911.6875000000,151693.7812500000,131430.7812500000,144955.9843750000,,,
2.5799999957,20,148752.0625000000,197668.6875000000,146846.4062500000,150631.1406250000,120488.9765625000,152249.7343750000,131942.9218750000,145254.4062500000,,,
2.5839999958,20,148897.4843750000,193545.7656250000,146932.9062500000,150778.0156250000,120636.2031250000,152395.6562500000,132078.9843750000,145364.5937500000,,,
2.5879999958,20,148391.4062500000,194194.8906250000,146465.9531250000,150254.5781250000,120134.4921875000,151910.6875000000,131638.9531250000,145115.7031250000,,,
2.5919999958,20,147932.5156250000,198738.5781250000,146133.7968750000,149794.0937500000,119676.1875000000,151470.3437500000,131227.2343750000,144854.4375000000,,,
2.5959999957,20,148147.5781250000,200908.0781250000,146387.5625000000,150019.8906250000,119890.4687500000,151674.4062500000,131413.2187500000,144934.6093750000,,,
2.5999999957,20,148734.3906250000,197720.2968750000,146844.4687500000,150613.7500000000,120478.8671875000,152238.3437500000,131937.6875000000,145242.0468750000,,,
2.6039999959,20,148879.3906250000,193572.5781250000,146930.0312500000,150760.4375000000,120623.4609375000,152380.9843750000,132076.1718750000,145351.6875000000,,,
2.6079999958,20,148364.7500000000,194170.2656250000,146456.9218750000,150234.3593750000,120110.1406250000,151891.8281250000,131624.9687500000,145096.8750000000,,,
2.6119999958,20,147920.1250000000,198717.1718750000,146126.3906250000,149795.1718750000,119664.1171875000,151465.8125000000,131225.8281250000,144849.4687500000,,,
2.6159999957,20,148139.7656250000,200921.6250000000,146379.2656250000,150017.9218750000,119884.8593750000,151671.5156250000,131416.2500000000,144935.7343750000,,,
2.6199999957,20,148725.9375000000,197756.1875000000,146835.5156250000,150604.1718750000,120473.5234375000,152231.6406250000,131936.2187500000,145239.0312500000,,,
2.6239999956,20,148882.9531250000,193588.7500000000,146935.6718750000,150764.3281250000,120630.4609375000,152384.8437500000,132078.1875000000,145350.4218750000,,,
2.6279999958,20,148384.5781250000,194142.7656250000,146476.8281250000,150251.0937500000,120134.8203125000,151907.9531250000,131638.1718750000,145109.5625000000,,,
2.6319999958,20,147935.1875000000,198667.0156250000,146138.5468750000,149805.2812500000,119685.2265625000,151475.0625000000,131235.2187500000,144861.5468750000,,,
2.6359999957,20,148146.2500000000,200905.6562500000,146383.0468750000,150023.6406250000,119891.1953125000,151676.2656250000,131411.7968750000,144941.6562500000,,,
2.6399999957,20,148723.3125000000,197782.9218750000,146844.3906250000,150610.9687500000,120468.3515625000,152225.2812500000,131927.1718750000,145229.9687500000,,,
2.6439999957,20,148876.6562500000,193597.2656250000,146944.6875000000,150766.4062500000,120619.6015625000,152377.7343750000,132070.3593750000,145335.4062500000,,,
2.6479999959,20,148375.7500000000,194101.0625000000,146478.8593750000,150253.7812500000,120117.4375000000,151903.6250000000,131626.0156250000,145090.6562500000,,,
2.6519999958,20,147929.6406250000,198617.9531250000,146142.4375000000,149810.4531250000,119669.7187500000,151474.3437500000,131225.0000000000,144847.0312500000,,,
2.6559999958,20,148143.2812500000,200903.5468750000,146395.6562500000,150032.5000000000,119882.6328125000,151678.7812500000,131409.9062500000,144934.2031250000,,,
2.6599999957,20,148728.6406250000,197806.9375000000,146855.5312500000,150618.9531250000,120470.6328125000,152237.9375000000,131933.0000000000,145237.4062500000,,,
2.6639999957,20,148895.5625000000,193605.1250000000,146959.3593750000,150788.2656250000,120639.4218750000,152397.2031250000,132092.1875000000,145354.6406250000,,,
2.6679999956,20,148404.1562500000,194066.8125000000,146502.7812500000,150279.3437500000,120149.7812500000,151927.1718750000,131661.3906250000,145120.8281250000,,,
2.6719999958,20,147940.5000000000,198585.3593750000,146146.2343750000,149824.3281250000,119683.1093750000,151483.3593750000,131239.1875000000,144865.4843750000,,,
2.6759999958,20,148132.4218750000,200903.1406250000,146378.9687500000,150015.2500000000,119873.5703125000,151662.2031250000,131399.4531250000,144931.4375000000,,,
2.6799999957,20,148713.1093750000,197847.3750000000,146836.0468750000,150590.1718750000,120454.4296875000,152212.3593750000,131912.9375000000,145225.4375000000,,,
2.6839999957,20,148885.0468750000,193639.8593750000,146943.7343750000,150763.5312500000,120625.6093750000,152382.1562500000,132070.2812500000,145344.0156250000,,,
2.6879999957,21,148392.2968750000,194051.8437500000,146487.2343750000,150264.0781250000,120135.6250000000,151913.1718750000,131637.5781250000,145104.7343750000,,,
2.6919999956,21,147939.7812500000,198551.0000000000,146144.4218750000,149804.6406250000,119684.7187500000,151471.2500000000,131238.9687500000,144857.2031250000,,,
2.6959999956,21,148148.0468750000,200908.0000000000,146390.5312500000,150021.5468750000,119891.3515625000,151667.0781250000,131420.5937500000,144940.6406250000,,,
2.6999999955,21,148732.1875000000,197893.7500000000,146855.0937500000,150605.0156250000,120476.5078125000,152229.2500000000,131941.3125000000,145240.1562500000,,,
2.7039999955,21,148926.7500000000,193677.0625000000,146995.0312500000,150787.0468750000,120674.0468750000,152420.8125000000,132126.1406250000,145380.9062500000,,,
2.7079999954,21,148419.7656250000,194042.5000000000,146528.6718750000,150273.6250000000,120168.4531250000,151940.5312500000,131678.9375000000,145128.6562500000,,,
2.7119999956,21,147926.3437500000,198506.4843750000,146132.1562500000,149796.1562500000,119671.7578125000,151468.9531250000,131233.4531250000,144845.8750000000,,,
2.7159999956,21,148125.2343750000,200894.3750000000,146364.4687500000,149993.9531250000,119872.1250000000,151652.0156250000,131407.8281250000,144923.4531250000,,,
2.7199999955,21,148715.8750000000,197921.2031250000,146842.2187500000,150586.9062500000,120465.9609375000,152215.7343750000,131938.3593750000,145231.4687500000,,,
2.7239999955,21,148899.9375000000,193688.5156250000,146971.8281250000,150781.7187500000,120648.7812500000,152397.1093750000,132104.9531250000,145359.8125000000,,,
2.7279999955,21,148412.6875000000,194004.4687500000,146515.6406250000,150287.4062500000,120159.7343750000,151937.7187500000,131670.6718750000,145122.0937500000,,,
2.7319999957,21,147945.7031250000,198459.5156250000,146153.1562500000,149814.9375000000,119691.4453125000,151497.2187500000,131252.3125000000,144868.6718750000,,,
2.7359999956,21,148136.3906250000,200896.7031250000,146385.5781250000,150019.1875000000,119879.7109375000,151674.6250000000,131416.0000000000,144940.4531250000,,,
2.7399999956,21,148717.8906250000,197969.6875000000,146853.1562500000,150596.7812500000,120465.4296875000,152229.2968750000,131939.1718750000,145235.5781250000,,,
2.7439999955,21,148890.1718750000,193720.7968750000,146961.1562500000,150776.0781250000,120638.2656250000,152399.9531250000,132097.0937500000,145345.3906250000,,,
2.7479999955,21,148399.4843750000,193979.6406250000,146488.8906250000,150286.9218750000,120143.5078125000,151934.7187500000,131659.0312500000,145100.0156250000,,,
2.7519999954,21,147925.5312500000,198404.2812500000,146110.0781250000,149802.0156250000,119665.9140625000,151477.1875000000,131231.2812500000,144837.0312500000,,,
2.7559999956,21,148117.0781250000,200870.4531250000,146341.7187500000,149995.3437500000,119855.6796875000,151650.4531250000,131391.4531250000,144915.2187500000,,,
2.7599999956,21,148709.8125000000,197989.4062500000,146817.9218750000,150587.9843750000,120451.0000000000,152215.1875000000,131918.7343750000,145229.3750000000,,,
2.7639999955,21,148900.4687500000,193745.9062500000,146954.9218750000,150787.4843750000,120642.3203125000,152404.2343750000,132097.8437500000,145363.2187500000,,,
2.7679999955,21,148426.2500000000,193976.9531250000,146509.7656250000,150306.2656250000,120169.4687500000,151955.1250000000,131685.4531250000,145136.2031250000,,,
2.7719999955,21,147956.7812500000,198395.3906250000,146140.0781250000,149829.3906250000,119701.2109375000,151505.0781250000,131265.5000000000,144876.8906250000,,,
2.7759999956,21,148132.4218750000,200891.2343750000,146368.1875000000,149995.3437500000,119876.5468750000,151669.3906250000,131416.0781250000,144939.1093750000,,,
2.7799999956,21,148712.2500000000,198052.2187500000,146850.5937500000,150573.7031250000,120459.4687500000,152223.7812500000,131937.7656250000,145237.2968750000,,,
2.7839999956,21,148906.1562500000,193807.8125000000,146994.2968750000,150773.4531250000,120655.1406250000,152415.1250000000,132119.3281250000,145365.1875000000,,,
2.7879999955,21,148420.6250000000,193977.0312500000,146530.6562500000,150282.0156250000,120170.7890625000,151953.7343750000,131689.7968750000,145119.3906250000,,,
2.7919999955,21,147940.4843750000,198363.0156250000,146146.6093750000,149806.5937500000,119688.7109375000,151489.3281250000,131257.6250000000,144851.0625000000,,,
2.7959999954,21,148098.9375000000,200891.5625000000,146362.4843750000,149986.3906250000,119848.4921875000,151638.6562500000,131394.5781250000,144899.8906250000,,,
2.7999999956,21,148677.4375000000,198092.3437500000,146832.1562500000,150576.0937500000,120426.3203125000,152188.0468750000,131909.7968750000,145192.2656250000,,,
2.8039999956,21,148876.1093750000,193833.4062500000,146971.4218750000,150780.9843750000,120621.8828125000,152377.7343750000,132089.0468750000,145321.5937500000,,,
2.8079999955,21,148408.8750000000,193954.5625000000,146521.9843750000,150301.8906250000,120153.7265625000,151934.0468750000,131674.4531250000,145096.6406250000,,,
2.8119999955,21,147940.5000000000,198309.0468750000,146140.8281250000,149827.1718750000,119685.0390625000,151486.6875000000,131254.6875000000,144847.4062500000,,,
2.8159999955,22,148123.9687500000,200875.1093750000,146370.0156250000,150011.1093750000,119866.6796875000,151661.4843750000,131410.7187500000,144927.8437500000,,,
2.8199999954,22,148705.5312500000,198128.1250000000,146852.3593750000,150593.6093750000,120449.6250000000,152210.2343750000,131923.8281250000,145225.2968750000,,,
2.8239999954,22,148906.4218750000,193860.6875000000,146996.2343750000,150804.7812500000,120649.2109375000,152398.6562500000,132103.9843750000,145353.0000000000,,,
2.8279999953,22,148444.4687500000,193933.6406250000,146546.9687500000,150326.6718750000,120187.6015625000,151960.2500000000,131698.6562500000,145129.3281250000,,,
2.8319999953,22,147962.0156250000,198273.5000000000,146150.5312500000,149844.3593750000,119704.9140625000,151499.7500000000,131270.0156250000,144865.8281250000,,,
2.8359999952,22,148119.5937500000,200877.8437500000,146365.2500000000,150015.4687500000,119864.2109375000,151646.8593750000,131407.0468750000,144921.8593750000,,,
2.8399999954,22,148702.2187500000,198160.1875000000,146845.7031250000,150600.2656250000,120448.4218750000,152206.7656250000,131924.8437500000,145223.6875000000,,,
2.8439999954,22,148913.3437500000,193880.3906250000,147002.0781250000,150806.3906250000,120661.4140625000,152415.8750000000,132123.0937500000,145364.9687500000,,,
2.8479999953,22,148442.2968750000,193915.2968750000,146554.6093750000,150324.1250000000,120194.8750000000,151974.8437500000,131716.0937500000,145135.5000000000,,,
2.8519999953,22,147966.6093750000,198239.7656250000,146155.9531250000,149821.4531250000,119718.3515625000,151521.7343750000,131290.2031250000,144884.1562500000,,,
2.8559999953,22,148114.3906250000,200877.8281250000,146363.6562500000,149980.7812500000,119865.2812500000,151653.7812500000,131412.4062500000,144930.9843750000,,,
2.8599999954,22,148692.7500000000,198200.2187500000,146842.8593750000,150572.3750000000,120444.1328125000,152205.6250000000,131925.7031250000,145226.7812500000,,,
2.8639999954,22,148907.5781250000,193918.3750000000,147000.7968750000,150784.9843750000,120661.5781250000,152414.2968750000,132125.7343750000,145366.9531250000,,,
2.8679999954,22,148448.8593750000,193901.9375000000,146549.3281250000,150317.0468750000,120202.5703125000,151984.3437500000,131720.7343750000,145146.0468750000,,,
2.8719999953,22,147965.6562500000,198199.7187500000,146144.7187500000,149827.1718750000,119717.6796875000,151519.1093750000,131287.8125000000,144880.6093750000,,,
2.8759999953,22,148104.8437500000,200863.2656250000,146342.0625000000,149983.7812500000,119857.8828125000,151647.2343750000,131407.7968750000,144918.7343750000,,,
2.8799999952,22,148678.4375000000,198235.6875000000,146816.9218750000,150575.4218750000,120431.6328125000,152194.1406250000,131919.3750000000,145208.9687500000,,,
2.8839999954,22,148899.3750000000,193961.5312500000,146987.4843750000,150804.3750000000,120650.1796875000,152408.5781250000,132121.8281250000,145351.5312500000,,,
2.8879999954,22,148451.5156250000,193893.8906250000,146551.9843750000,150347.0312500000,120201.1484375000,151983.6875000000,131726.0312500000,145136.1718750000,,,
2.8919999953,22,147964.8281250000,198149.3125000000,146145.2500000000,149845.5156250000,119714.6250000000,151515.8906250000,131290.3906250000,144872.7343750000,,,
2.8959999953,22,148108.2968750000,200825.2187500000,146342.3125000000,149986.9531250000,119857.1796875000,151646.6406250000,131409.6718750000,144919.7656250000,,,
2.8999999953,22,148687.5468750000,198254.2656250000,146827.7031250000,150567.0000000000,120433.9609375000,152197.3906250000,131921.8437500000,145217.0156250000,,,
2.9039999954,22,148919.4843750000,193993.3906250000,147002.3281250000,150799.0156250000,120663.8593750000,152418.1250000000,132132.5000000000,145365.3906250000,,,
2.9079999954,22,148484.3750000000,193888.5781250000,146567.8281250000,150348.3281250000,120232.6640625000,152006.6875000000,131751.5000000000,145161.5937500000,,,
2.9119999954,22,148000.9843750000,198110.5625000000,146149.9375000000,149853.6093750000,119747.3984375000,151546.2500000000,131317.6406250000,144903.5937500000,,,
2.9159999953,22,148117.9531250000,200819.0000000000,146336.4375000000,149992.1562500000,119862.6250000000,151649.5781250000,131410.8593750000,144929.9062500000,,,
2.9199999953,22,148687.2343750000,198300.2968750000,146831.0156250000,150565.2343750000,120432.7812500000,152194.0937500000,131912.8281250000,145222.2187500000,,,
2.9239999952,22,148914.6875000000,194045.8906250000,147013.2656250000,150806.1250000000,120660.2343750000,152419.6406250000,132121.3125000000,145367.7812500000,,,
2.9279999954,22,148479.1718750000,193900.7031250000,146581.3281250000,150356.3750000000,120226.2812500000,152008.1562500000,131741.3750000000,145161.2031250000,,,
2.9319999954,22,147974.3750000000,198084.0625000000,146138.7343750000,149835.6406250000,119722.1875000000,151525.8125000000,131291.3906250000,144882.6562500000,,,
2.9359999953,22,148120.7968750000,200815.5937500000,146329.5468750000,149980.3281250000,119867.5625000000,151664.6718750000,131417.2343750000,144942.6250000000,,,
2.9399999953,22,148689.5156250000,198345.4687500000,146830.6093750000,150554.4531250000,120439.4375000000,152205.7500000000,131924.7656250000,145236.4843750000,,,
2.9439999952,23,148917.1250000000,194099.0937500000,147019.5625000000,150795.6406250000,120669.4375000000,152426.2031250000,132136.3125000000,145380.5156250000,,,
