Time:250Hz,Epoch,Channel 1,Channel 2,Channel 3,Channel 4,Channel 5,Channel 6,Channel 7,Channel 8,Event Id,Event Date,Event Duration
0.0000000000,0,77221.9062500000,157509.0937500000,181015.8281250000,162201.9218750000,130526.1250000000,137687.4062500000,148656.3593750000,154811.7343750000,,,
0.0040000000,0,77193.9609375000,157503.5937500000,180996.8593750000,162163.7968750000,130498.5781250000,137653.0781250000,148620.0156250000,154776.8437500000,,,
0.0079999999,0,77063.6875000000,157437.1875000000,180908.5312500000,162016.2343750000,130370.0234375000,137541.3906250000,148531.6562500000,154658.3125000000,,,
0.0119999999,0,76984.7968750000,157370.4218750000,180840.2968750000,161947.1093750000,130290.8671875000,137462.9843750000,148466.1562500000,154577.4375000000,,,
0.0159999998,0,77088.6015625000,157411.6875000000,180904.3750000000,162065.0156250000,130393.3593750000,137535.5937500000,148555.1250000000,154667.6250000000,,,
0.0199999998,0,77185.5078125000,157463.4687500000,180972.5312500000,162178.2031250000,130481.8125000000,137615.4531250000,148637.0000000000,154761.5781250000,,,
0.0240000000,0,77170.8125000000,157472.5156250000,180976.5781250000,162161.0468750000,130470.6328125000,137597.5000000000,148624.2812500000,154757.7968750000,,,
0.0279999999,0,77080.2578125000,157436.2031250000,180926.1250000000,162046.1875000000,130387.7734375000,137507.0781250000,148543.3281250000,154678.2656250000,,,
0.0319999999,0,76985.4140625000,157352.7187500000,180837.2656250000,161966.2031250000,130291.5156250000,137400.5781250000,148444.8593750000,154575.8593750000,,,
0.0359999998,0,77032.5937500000,157345.5937500000,180851.7968750000,162051.7343750000,130337.3515625000,137420.3906250000,148485.6093750000,154614.8906250000,,,
0.0399999998,0,77150.2109375000,157407.1250000000,180938.7031250000,162178.0000000000,130458.6718750000,137511.7187500000,148580.6718750000,154720.1406250000,,,
0.0440000000,0,77164.6171875000,157451.3281250000,180971.7187500000,162158.1718750000,130476.8515625000,137533.8750000000,148592.4218750000,154752.6406250000,,,
0.0480000000,0,76993.4140625000,157354.5156250000,180841.3906250000,162011.9843750000,130302.2968750000,137386.0937500000,148445.7812500000,154587.9062500000,,,
0.0519999999,0,76899.9921875000,157273.3906250000,180758.8906250000,161936.2656250000,130208.1484375000,137291.7812500000,148349.7500000000,154496.7656250000,,,
0.0559999999,0,77002.2890625000,157310.6093750000,180821.9218750000,162027.9531250000,130310.5546875000,137363.3125000000,148427.2968750000,154581.7031250000,,,
0.0599999998,0,77141.7109375000,157394.8906250000,180927.1406250000,162171.5625000000,130449.8671875000,137468.1406250000,148545.7968750000,154707.3906250000,,,
0.0639999998,0,77100.2187500000,157385.2343750000,180903.0625000000,162143.6875000000,130406.2812500000,137429.7500000000,148501.5937500000,154674.9218750000,,,
0.0680000000,0,76975.8125000000,157321.2968750000,180818.4375000000,162012.6562500000,130284.6171875000,137329.3281250000,148393.3125000000,154563.6093750000,,,
0.0719999999,0,76909.0000000000,157269.5468750000,180766.2187500000,161932.3906250000,130223.6562500000,137260.0781250000,148324.6562500000,154499.3593750000,,,
0.0759999999,0,76972.4062500000,157284.0312500000,180802.2343750000,162015.0000000000,130286.6562500000,137295.7500000000,148361.2656250000,154556.0937500000,,,
0.0799999998,0,77086.8046875000,157351.4375000000,180885.6250000000,162139.4531250000,130397.1953125000,137393.5156250000,148448.3281250000,154668.2031250000,,,
0.0839999998,0,77070.0390625000,157357.2031250000,180885.8437500000,162133.4218750000,130382.6250000000,137376.2187500000,148422.2343750000,154660.0781250000,,,
0.0880000000,0,76940.5468750000,157296.7812500000,180802.1093750000,161999.8906250000,130256.6953125000,137265.9843750000,148309.3281250000,154549.4218750000,,,
0.0919999999,0,76868.6640625000,157245.5468750000,180744.2968750000,161925.1875000000,130186.3671875000,137204.6406250000,148242.6562500000,154481.6093750000,,,
0.0959999999,0,76951.2187500000,157278.3437500000,180796.1406250000,162017.5937500000,130266.6484375000,137273.0156250000,148302.8906250000,154559.7343750000,,,
0.0999999999,0,77081.9531250000,157355.7343750000,180894.1250000000,162157.0781250000,130400.0078125000,137367.9843750000,148405.2968750000,154679.6875000000,,,
0.1039999998,0,77068.9140625000,157366.7812500000,180895.0625000000,162138.1562500000,130386.6796875000,137361.5000000000,148393.7500000000,154674.1875000000,,,
0.1079999998,0,76922.4921875000,157287.5156250000,180791.0000000000,162009.3437500000,130240.0703125000,137240.9843750000,148276.1250000000,154541.6093750000,,,
0.1120000000,0,76853.9609375000,157233.5625000000,180735.6093750000,161942.0468750000,130176.4453125000,137174.3281250000,148213.1562500000,154472.8125000000,,,
0.1159999999,0,76941.1640625000,157265.5781250000,180789.5156250000,162036.3437500000,130264.1250000000,137241.3125000000,148271.5625000000,154550.4375000000,,,
0.1199999999,0,77057.4375000000,157331.2343750000,180871.2968750000,162148.3593750000,130377.5859375000,137327.3750000000,148360.9062500000,154655.2812500000,,,
0.1239999998,0,77044.0000000000,157341.9218750000,180872.3437500000,162123.8593750000,130363.5000000000,137321.5625000000,148354.5312500000,154652.3906250000,,,
0.1279999998,1,76929.5468750000,157287.6875000000,180797.2968750000,161983.7968750000,130253.5859375000,137234.1406250000,148264.9375000000,154549.2031250000,,,
0.1319999998,1,76850.2890625000,157226.4531250000,180731.7187500000,161911.2500000000,130175.2890625000,137161.7812500000,148189.2031250000,154465.8125000000,,,
0.1359999997,1,76926.4062500000,157250.5312500000,180777.5000000000,161993.7031250000,130248.8359375000,137214.2343750000,148244.1093750000,154530.4218750000,,,
0.1399999997,1,77074.8984375000,157343.9062500000,180890.2343750000,162123.9531250000,130396.3906250000,137333.7031250000,148369.0625000000,154672.3593750000,,,
0.1439999996,1,77081.2031250000,157373.0312500000,180908.1875000000,162149.1562500000,130402.3984375000,137341.8125000000,148377.6718750000,154681.2187500000,,,
0.1479999996,1,76926.6796875000,157289.2187500000,180797.2500000000,161987.6406250000,130246.6093750000,137220.1718750000,148247.1875000000,154538.3906250000,,,
0.1519999998,1,76839.4765625000,157220.6875000000,180725.1562500000,161895.9843750000,130162.0703125000,137148.0156250000,148164.3281250000,154454.0937500000,,,
0.1559999997,1,76910.1015625000,157240.3437500000,180764.3906250000,161971.7656250000,130233.4140625000,137202.2500000000,148212.4218750000,154515.3437500000,,,
0.1599999997,1,77032.9218750000,157310.9687500000,180853.6250000000,162110.5312500000,130355.6718750000,137299.8281250000,148315.1562500000,154632.9375000000,,,
0.1639999996,1,77034.0703125000,157333.6562500000,180866.4687500000,162115.2500000000,130357.2031250000,137301.8750000000,148323.9062500000,154642.2656250000,,,
0.1679999996,1,76900.2031250000,157267.5937500000,180777.0312500000,161984.0156250000,130226.3046875000,137190.9375000000,148213.1562500000,154524.4687500000,,,
0.1719999998,1,76821.4296875000,157213.8906250000,180715.8437500000,161903.6093750000,130149.3281250000,137124.7656250000,148137.6406250000,154456.8750000000,,,
0.1759999997,1,76926.5468750000,157260.3281250000,180783.6562500000,162004.7812500000,130254.7656250000,137204.3750000000,148223.4843750000,154547.7031250000,,,
0.1799999997,1,77029.8906250000,157319.7343750000,180854.3750000000,162153.3125000000,130347.8671875000,137288.7031250000,148315.9531250000,154641.6875000000,,,
0.1839999997,1,77009.3984375000,157315.5781250000,180843.1875000000,162152.5468750000,130322.6015625000,137269.6875000000,148306.1406250000,154623.3125000000,,,
0.1879999996,1,76895.5078125000,157262.2343750000,180769.3281250000,162011.3750000000,130212.9531250000,137183.0937500000,148212.5312500000,154521.2812500000,,,
0.1919999996,1,76815.5546875000,157203.1093750000,180707.9843750000,161935.6093750000,130136.7187500000,137117.1250000000,148138.0781250000,154445.5312500000,,,
0.1959999998,1,76893.6328125000,157231.3281250000,180753.5000000000,162030.1562500000,130214.1328125000,137180.2031250000,148198.3437500000,154514.0937500000,,,
0.1999999997,1,77025.2187500000,157308.8906250000,180846.7031250000,162164.0937500000,130342.8515625000,137289.0000000000,148310.1093750000,154637.6250000000,,,
0.2039999997,1,77040.1093750000,157341.1875000000,180869.4062500000,162155.2968750000,130357.7890625000,137309.2500000000,148328.6718750000,154658.5312500000,,,
0.2079999996,1,76924.9375000000,157279.0781250000,180787.0000000000,162031.6718750000,130247.9531250000,137207.7812500000,148238.2500000000,154537.7500000000,,,
0.2119999996,1,76851.6562500000,157220.0156250000,180724.9687500000,161938.9531250000,130176.5546875000,137139.2500000000,148172.1875000000,154459.3125000000,,,
0.2159999998,1,76924.6640625000,157248.8125000000,180769.1093750000,162029.2187500000,130241.1953125000,137205.5000000000,148232.5625000000,154525.8593750000,,,
0.2199999997,1,77034.2578125000,157303.2343750000,180841.3906250000,162137.6562500000,130345.3437500000,137294.2031250000,148327.2812500000,154617.2968750000,,,
0.2239999997,1,77053.6015625000,157334.4843750000,180870.7656250000,162140.3906250000,130366.9375000000,137317.5937500000,148349.4062500000,154641.3593750000,,,
0.2279999997,1,76941.9375000000,157283.3906250000,180799.0468750000,162010.5468750000,130257.6875000000,137237.8750000000,148263.9843750000,154540.1093750000,,,
0.2319999996,1,76866.2187500000,157230.9218750000,180738.2343750000,161929.2968750000,130183.4765625000,137181.2187500000,148204.8906250000,154470.5000000000,,,
0.2359999996,1,76950.3906250000,157269.1250000000,180789.0468750000,162014.6718750000,130268.5546875000,137254.6406250000,148273.4218750000,154546.0625000000,,,
0.2399999998,1,77079.6171875000,157354.7031250000,180883.1875000000,162151.6562500000,130389.4921875000,137381.9531250000,148390.7968750000,154671.3750000000,,,
0.2439999997,1,77089.3515625000,157378.6093750000,180898.6406250000,162165.3281250000,130394.7500000000,137399.2656250000,148414.3125000000,154682.6875000000,,,
0.2479999997,1,76976.3515625000,157329.4687500000,180826.5937500000,162031.4375000000,130281.5859375000,137307.9062500000,148327.8750000000,154580.1718750000,,,
0.2519999996,1,76904.6328125000,157275.5781250000,180767.1875000000,161949.8750000000,130210.3515625000,137241.7656250000,148269.1093750000,154501.9062500000,,,
0.2559999996,2,76995.8750000000,157309.0937500000,180821.5781250000,162033.5781250000,130300.4453125000,137319.2031250000,148348.7343750000,154577.5000000000,,,
0.2599999995,2,77128.7031250000,157392.4218750000,180919.3437500000,162167.9687500000,130425.7578125000,137455.5625000000,148462.1406250000,154710.5312500000,,,
0.2639999995,2,77119.7421875000,157405.8281250000,180920.2812500000,162157.8750000000,130412.1328125000,137461.8593750000,148460.7656250000,154705.5000000000,,,
0.2679999995,2,77002.1796875000,157353.6718750000,180843.5156250000,162028.4843750000,130296.1250000000,137372.2031250000,148370.1718750000,154598.2031250000,,,
0.2719999994,2,76916.5625000000,157295.0000000000,180772.0000000000,161927.9062500000,130210.4296875000,137304.0625000000,148290.7968750000,154515.6250000000,,,
0.2759999994,2,76982.5781250000,157302.2968750000,180799.7968750000,162002.6562500000,130273.4609375000,137349.9375000000,148331.5781250000,154560.9218750000,,,
0.2799999996,2,77127.4375000000,157388.9062500000,180907.9375000000,162153.1250000000,130416.6093750000,137477.9531250000,148450.4687500000,154702.6562500000,,,
0.2839999995,2,77183.5781250000,157456.5781250000,180973.1718750000,162180.9375000000,130480.5312500000,137525.6406250000,148512.5937500000,154768.0156250000,,,
0.2879999995,2,77031.9843750000,157375.2812500000,180860.6562500000,162056.8437500000,130325.0390625000,137401.1875000000,148390.4687500000,154614.7812500000,,,
0.2919999994,2,76905.6484375000,157277.3593750000,180752.9687500000,161944.9843750000,130195.4375000000,137300.0781250000,148270.1250000000,154488.6562500000,,,
0.2959999994,2,76985.0156250000,157302.5625000000,180803.8750000000,162024.9218750000,130277.3203125000,137357.3593750000,148333.6562500000,154562.2968750000,,,
0.2999999996,2,77129.7187500000,157386.1250000000,180910.8906250000,162184.2968750000,130421.3046875000,137473.0781250000,148458.6562500000,154697.3906250000,,,
0.3039999995,2,77136.1328125000,157408.8906250000,180922.9687500000,162180.7812500000,130427.9062500000,137478.3281250000,148467.0781250000,154707.1250000000,,,
0.3079999995,2,77026.6406250000,157364.7187500000,180854.6250000000,162038.2500000000,130323.1875000000,137387.8281250000,148372.0781250000,154612.3437500000,,,
0.3119999995,2,76949.6640625000,157312.9218750000,180795.3906250000,161945.3125000000,130251.1484375000,137310.6406250000,148296.8593750000,154535.3125000000,,,
0.3159999994,2,76979.4921875000,157297.3593750000,180797.0625000000,162014.9687500000,130273.3281250000,137320.2968750000,148308.8750000000,154553.5781250000,,,
0.3199999994,2,77102.3593750000,157360.9531250000,180882.3593750000,162158.6875000000,130390.6484375000,137420.8281250000,148407.6875000000,154670.5625000000,,,
0.3239999996,2,77130.5234375000,157396.6875000000,180917.2812500000,162183.2187500000,130419.7734375000,137439.8750000000,148443.0937500000,154702.4062500000,,,
0.3279999995,2,77006.7421875000,157348.0312500000,180842.8125000000,162044.4531250000,130299.8046875000,137340.9218750000,148335.8125000000,154598.5000000000,,,
0.3319999995,2,76902.7500000000,157279.2031250000,180763.5000000000,161951.3750000000,130200.7500000000,137247.2031250000,148239.7812500000,154503.2500000000,,,
0.3359999994,2,76960.2890625000,157286.2656250000,180789.7343750000,162023.4687500000,130257.2343750000,137283.1406250000,148285.1093750000,154552.6875000000,,,
0.3399999994,2,77087.3671875000,157351.3593750000,180875.2656250000,162151.2031250000,130380.8281250000,137382.6250000000,148385.4218750000,154669.0468750000,,,
0.3439999996,2,77108.4531250000,157382.1718750000,180900.6250000000,162178.0156250000,130402.7421875000,137397.0000000000,148402.5937500000,154693.7656250000,,,
0.3479999995,2,76990.3281250000,157336.3437500000,180827.0000000000,162043.3125000000,130289.3437500000,137300.6093750000,148305.2656250000,154592.9687500000,,,
0.3519999995,2,76875.6328125000,157256.8906250000,180735.2343750000,161937.7187500000,130176.0937500000,137197.9843750000,148203.5468750000,154484.0000000000,,,
0.3559999994,2,76931.7187500000,157258.5468750000,180759.2187500000,162014.3593750000,130231.9921875000,137230.6875000000,148242.2500000000,154523.2343750000,,,
0.3599999994,2,77064.2500000000,157321.1250000000,180850.2812500000,162150.8750000000,130363.5000000000,137327.6406250000,148348.2812500000,154641.3281250000,,,
0.3639999994,2,77104.5859375000,157365.8750000000,180896.5468750000,162174.9843750000,130406.0156250000,137362.9218750000,148384.6718750000,154683.3593750000,,,
0.3679999996,2,76982.1171875000,157316.3281250000,180821.7343750000,162055.9218750000,130282.9843750000,137270.9687500000,148281.9531250000,154575.2187500000,,,
0.3719999995,2,76872.8750000000,157241.8125000000,180734.1875000000,161962.9375000000,130172.8750000000,137179.2968750000,148183.5468750000,154470.0781250000,,,
0.3759999995,2,76932.3671875000,157252.4375000000,180760.9531250000,162013.4687500000,130231.2968750000,137223.5468750000,148227.0468750000,154517.2812500000,,,
0.3799999994,2,77068.7812500000,157319.7031250000,180852.3593750000,162148.7031250000,130367.1796875000,137323.5156250000,148333.9375000000,154636.8281250000,,,
0.3839999994,3,77090.8828125000,157352.0312500000,180879.6406250000,162169.7031250000,130386.8671875000,137349.7968750000,148366.5000000000,154663.5625000000,,,
0.3879999993,3,76976.7031250000,157307.9062500000,180810.0937500000,162038.0156250000,130274.2656250000,137261.9062500000,148273.3125000000,154566.5312500000,,,
0.3919999993,3,76872.2578125000,157236.2343750000,180727.4218750000,161922.6406250000,130174.7578125000,137166.0156250000,148173.8281250000,154464.3125000000,,,
0.3959999993,3,76933.7031250000,157243.3750000000,180758.4843750000,161981.8906250000,130237.6015625000,137205.8437500000,148210.8125000000,154511.8437500000,,,
0.3999999992,3,77058.7734375000,157312.2031250000,180849.6562500000,162137.7656250000,130356.8750000000,137311.0937500000,148315.9531250000,154635.6250000000,,,
0.4039999992,3,77090.0468750000,157350.8437500000,180885.1718750000,162165.2500000000,130388.5312500000,137332.9062500000,148350.2968750000,154667.8281250000,,,
0.4079999994,3,76966.6406250000,157294.8906250000,180805.5312500000,162032.0781250000,130268.0468750000,137225.9375000000,148248.2031250000,154554.4375000000,,,
0.4119999993,3,76877.5625000000,157241.7656250000,180738.8281250000,161925.5937500000,130179.1796875000,137158.0781250000,148172.7343750000,154476.8125000000,,,
0.4159999993,3,76938.6093750000,157258.5468750000,180772.2812500000,161989.1406250000,130239.1328125000,137207.0468750000,148212.5625000000,154531.0937500000,,,
0.4199999992,3,77063.3125000000,157316.8593750000,180855.9843750000,162133.4687500000,130360.5000000000,137301.5781250000,148311.2656250000,154642.8593750000,,,
0.4239999992,3,77097.3203125000,157355.5156250000,180893.4062500000,162163.3437500000,130392.8984375000,137332.1718750000,148347.8750000000,154680.1250000000,,,
0.4279999994,3,76986.7578125000,157314.4843750000,180827.8281250000,162043.5000000000,130284.8359375000,137241.7031250000,148258.8593750000,154582.6718750000,,,
0.4319999993,3,76885.7500000000,157249.9687500000,180751.5156250000,161928.9531250000,130187.8437500000,137154.7500000000,148170.5000000000,154489.4687500000,,,
0.4359999993,3,76944.1093750000,157261.0781250000,180781.9843750000,161994.2812500000,130248.6796875000,137195.3906250000,148214.7343750000,154538.8750000000,,,
0.4399999992,3,77063.1250000000,157314.6406250000,180859.2812500000,162145.9375000000,130364.1718750000,137287.0625000000,148310.5625000000,154640.8750000000,,,
0.4439999992,3,77102.2812500000,157360.9062500000,180899.6875000000,162172.9843750000,130401.5937500000,137326.2812500000,148350.4843750000,154685.3750000000,,,
0.4479999992,3,77000.1406250000,157329.6875000000,180838.8281250000,162063.9531250000,130300.6093750000,137250.6875000000,148264.8593750000,154596.8906250000,,,
0.4519999993,3,76885.8281250000,157255.5000000000,180750.7187500000,161965.8906250000,130187.3125000000,137156.8906250000,148166.6406250000,154484.5781250000,,,
0.4559999993,3,76939.6328125000,157259.5156250000,180775.3593750000,162006.5156250000,130239.7187500000,137200.3437500000,148208.7187500000,154526.1406250000,,,
0.4599999993,3,77062.3984375000,157318.5312500000,180856.4375000000,162143.2656250000,130358.0078125000,137300.5312500000,148308.0937500000,154640.2656250000,,,
0.4639999992,3,77104.6171875000,157366.7812500000,180901.9843750000,162175.8750000000,130398.8828125000,137346.1718750000,148350.6875000000,154691.0937500000,,,
0.4679999992,3,76995.7421875000,157327.4062500000,180837.8281250000,162068.6718750000,130294.4609375000,137257.7187500000,148267.2031250000,154593.5937500000,,,
0.4719999994,3,76888.2421875000,157252.8437500000,180752.4531250000,161972.4843750000,130188.2187500000,137160.6562500000,148173.6093750000,154482.1250000000,,,
0.4759999993,3,76929.6015625000,157245.9531250000,180765.0625000000,162014.3281250000,130229.3359375000,137186.6406250000,148197.9218750000,154510.9843750000,,,
0.4799999993,3,77049.9765625000,157298.5781250000,180842.6250000000,162132.3437500000,130345.1328125000,137280.7031250000,148293.6406250000,154622.9062500000,,,
0.4839999992,3,77101.5000000000,157352.1875000000,180892.5468750000,162165.0312500000,130395.6328125000,137324.4062500000,148343.3437500000,154680.2812500000,,,
0.4879999992,3,77004.1640625000,157326.1406250000,180838.2656250000,162057.1406250000,130300.1796875000,137246.4843750000,148268.2500000000,154594.3906250000,,,
0.4919999992,3,76887.3828125000,157262.2812500000,180752.8593750000,161944.8281250000,130182.6171875000,137163.9218750000,148162.2656250000,154496.3593750000,,,
0.4959999993,3,76936.8125000000,157264.0000000000,180771.7968750000,162006.6562500000,130233.4140625000,137192.4062500000,148191.3437500000,154529.2656250000,,,
0.4999999993,3,77065.1875000000,157316.8906250000,180854.6406250000,162140.0625000000,130358.9687500000,137283.0625000000,148295.8437500000,154635.9687500000,,,
0.5039999993,3,77093.7500000000,157350.2812500000,180886.0625000000,162180.7031250000,130381.6875000000,137317.4843750000,148330.9531250000,154672.7656250000,,,
0.5079999992,3,76990.9687500000,157319.5468750000,180827.0156250000,162056.4843750000,130281.7500000000,137244.8437500000,148252.9062500000,154585.0000000000,,,
0.5119999992,4,76886.6562500000,157254.5312500000,180747.0625000000,161937.7187500000,130180.9218750000,137158.2343750000,148158.9687500000,154485.8125000000,,,
0.5159999991,4,76922.8671875000,157244.5000000000,180753.1718750000,161981.4687500000,130216.9453125000,137179.4062500000,148170.9062500000,154510.3593750000,,,
0.5199999991,4,77047.0312500000,157300.2031250000,180833.1406250000,162120.8906250000,130338.5625000000,137276.3593750000,148271.3593750000,154621.8906250000,,,
0.5239999990,4,77096.4843750000,157348.3593750000,180880.6875000000,162164.9531250000,130386.3046875000,137319.6718750000,148328.9375000000,154672.9062500000,,,
0.5279999990,4,76990.0859375000,157310.0781250000,180819.1562500000,162050.6093750000,130280.4062500000,137235.7500000000,148248.9062500000,154578.0625000000,,,
0.5319999990,4,76888.8593750000,157250.1250000000,180743.8437500000,161940.6406250000,130180.2812500000,137153.5937500000,148158.1093750000,154482.5000000000,,,
0.5359999991,4,76932.0937500000,157251.2031250000,180758.7343750000,161987.9843750000,130223.4921875000,137183.2343750000,148186.4062500000,154513.9843750000,,,
0.5399999991,4,77079.8281250000,157327.1093750000,180862.1250000000,162133.5468750000,130368.7343750000,137303.6718750000,148314.8906250000,154649.6718750000,,,
0.5439999991,4,77135.2187500000,157382.9062500000,180915.5937500000,162195.4843750000,130426.5390625000,137352.0000000000,148370.3750000000,154704.5000000000,,,
0.5479999990,4,77006.0468750000,157325.4687500000,180828.8906250000,162074.7343750000,130298.0000000000,137249.1406250000,148264.5156250000,154582.1875000000,,,
0.5519999990,4,76881.0546875000,157239.9062500000,180731.2656250000,161940.2968750000,130173.2812500000,137148.0156250000,148154.2968750000,154461.8906250000,,,
0.5559999992,4,76923.6484375000,157235.1718750000,180749.5781250000,161987.3125000000,130214.0468750000,137183.3750000000,148184.0468750000,154495.9062500000,,,
0.5599999991,4,77073.6875000000,157315.8750000000,180858.1406250000,162141.9375000000,130360.2812500000,137313.2187500000,148313.3906250000,154637.4375000000,,,
0.5639999991,4,77120.9765625000,157363.0312500000,180902.3906250000,162190.7812500000,130406.3906250000,137355.7500000000,148362.0468750000,154685.6718750000,,,
0.5679999990,4,77017.4687500000,157330.4687500000,180840.6406250000,162073.8125000000,130304.0625000000,137281.4062500000,148284.9531250000,154595.4218750000,,,
0.5719999990,4,76913.3203125000,157272.6875000000,180765.2968750000,161959.7656250000,130199.7031250000,137210.4062500000,148199.6562500000,154502.6093750000,,,
0.5759999990,4,76975.1171875000,157291.6250000000,180800.7343750000,162014.2656250000,130261.3906250000,137265.3437500000,148250.0781250000,154556.7968750000,,,
0.5799999991,4,77089.3515625000,157343.4687500000,180872.1093750000,162155.3281250000,130369.1093750000,137361.8750000000,148344.3906250000,154659.7812500000,,,
0.5839999991,4,77146.3515625000,157400.6562500000,180924.2187500000,162195.2968750000,130424.0156250000,137425.2187500000,148405.2031250000,154724.3437500000,,,
0.5879999991,4,77053.0859375000,157372.4375000000,180868.0312500000,162094.6093750000,130333.5468750000,137352.4218750000,148346.4375000000,154634.0312500000,,,
0.5919999990,4,76917.9296875000,157279.8750000000,180759.5625000000,161976.9687500000,130199.3515625000,137240.2656250000,148233.5156250000,154497.9375000000,,,
0.5959999990,4,76941.4531250000,157259.2187500000,180757.1718750000,161983.8750000000,130221.4765625000,137252.5781250000,148238.3593750000,154508.8125000000,,,
0.5999999992,4,77103.7031250000,157351.9687500000,180875.8906250000,162142.7187500000,130380.8046875000,137394.4062500000,148374.6250000000,154668.5000000000,,,
0.6039999991,4,77191.1718750000,157437.4531250000,180957.1875000000,162202.2968750000,130467.2500000000,137482.4375000000,148461.0468750000,154765.2500000000,,,
0.6079999991,4,77095.6015625000,157403.8281250000,180896.2968750000,162093.9531250000,130375.1718750000,137396.1250000000,148379.3750000000,154668.5625000000,,,
0.6119999990,4,76934.9687500000,157287.3125000000,180760.3125000000,161965.4531250000,130209.2734375000,137257.9687500000,148239.0312500000,154498.3437500000,,,
0.6159999990,4,76967.5000000000,157273.9218750000,180771.2343750000,162011.1562500000,130242.1640625000,137280.1093750000,148269.4843750000,154521.5937500000,,,
0.6199999989,4,77107.1093750000,157345.4843750000,180868.6718750000,162155.8593750000,130379.7812500000,137391.8906250000,148388.8125000000,154654.1250000000,,,
0.6239999991,4,77173.3359375000,157405.2500000000,180928.9375000000,162201.4062500000,130446.0859375000,137443.8906250000,148449.5000000000,154724.2187500000,,,
0.6279999991,4,77082.2968750000,157378.7500000000,180877.5000000000,162086.8281250000,130357.6796875000,137362.7343750000,148384.7656250000,154639.7031250000,,,
0.6319999991,4,76943.7343750000,157293.7187500000,180776.3750000000,161965.9687500000,130217.1875000000,137246.4218750000,148260.8906250000,154512.2187500000,,,
0.6359999990,4,76976.8593750000,157288.7343750000,180790.7812500000,162006.7812500000,130253.1328125000,137262.6562500000,148261.4843750000,154541.5000000000,,,
0.6399999990,5,77124.1718750000,157360.6718750000,180893.0000000000,162144.5468750000,130400.4921875000,137376.1406250000,148376.7656250000,154679.0781250000,,,
0.6439999989,5,77178.1640625000,157407.7656250000,180935.4062500000,162196.3125000000,130447.0000000000,137421.1718750000,148447.8437500000,154726.8437500000,,,
0.6479999989,5,77034.7968750000,157337.4843750000,180836.3593750000,162080.0625000000,130298.8046875000,137299.8593750000,148329.4531250000,154596.5468750000,,,
0.6519999988,5,76930.4296875000,157275.0156250000,180763.5625000000,161966.8750000000,130199.9687500000,137212.2500000000,148228.2187500000,154507.8125000000,,,
0.6559999988,5,76967.8203125000,157273.4375000000,180775.8125000000,162009.1718750000,130240.0156250000,137230.3125000000,148243.1093750000,154535.8437500000,,,
0.6599999988,5,77102.4687500000,157335.8281250000,180865.0312500000,162149.5937500000,130374.1015625000,137334.4062500000,148351.7343750000,154661.7187500000,,,
0.6639999989,5,77151.2343750000,157377.1875000000,180909.6875000000,162202.2968750000,130423.3671875000,137372.6562500000,148392.7812500000,154707.4843750000,,,
0.6679999989,5,77037.1328125000,157331.3281250000,180842.3125000000,162097.9062500000,130312.0859375000,137279.7187500000,148292.2187500000,154607.8281250000,,,
0.6719999989,5,76917.5312500000,157266.2500000000,180757.6562500000,161956.5000000000,130194.6875000000,137184.2500000000,148185.2031250000,154502.3125000000,,,
0.6759999988,5,76935.6875000000,157248.8750000000,180753.1718750000,161986.8125000000,130212.6015625000,137186.7968750000,148192.4375000000,154508.7812500000,,,
0.6799999988,5,77072.7734375000,157305.4062500000,180841.3750000000,162135.6093750000,130347.1171875000,137286.8437500000,148300.8593750000,154628.7812500000,,,
0.6839999990,5,77145.0625000000,157366.4062500000,180905.6562500000,162198.4375000000,130416.6093750000,137346.1562500000,148368.4218750000,154697.7968750000,,,
0.6879999989,5,77033.6406250000,157328.2343750000,180838.6562500000,162078.7500000000,130305.6718750000,137261.7500000000,148280.6406250000,154601.2343750000,,,
0.6919999989,5,76906.5078125000,157253.4531250000,180744.3750000000,161943.1718750000,130181.5390625000,137160.4375000000,148162.5937500000,154485.1562500000,,,
0.6959999988,5,76942.2343750000,157254.9375000000,180759.7968750000,161971.0625000000,130216.7031250000,137184.9843750000,148177.9531250000,154521.0312500000,,,
0.6999999988,5,77079.3515625000,157319.5468750000,180850.7500000000,162117.0000000000,130349.1562500000,137291.7812500000,148279.8593750000,154643.2656250000,,,
0.7039999987,5,77120.9531250000,157349.7968750000,180882.2968750000,162162.9687500000,130387.3203125000,137319.8437500000,148326.0781250000,154674.7500000000,,,
0.7079999989,5,77025.5703125000,157317.8906250000,180827.0000000000,162066.5156250000,130293.9296875000,137242.5937500000,148257.9375000000,154589.5937500000,,,
0.7119999989,5,76914.6093750000,157254.3906250000,180745.3437500000,161953.3593750000,130183.9531250000,137147.2343750000,148160.7343750000,154484.6875000000,,,
0.7159999989,5,76932.0703125000,157239.8593750000,180741.5625000000,161975.8906250000,130199.5156250000,137156.0937500000,148160.8281250000,154498.2187500000,,,
0.7199999988,5,77069.7734375000,157304.5000000000,180835.3281250000,162111.6875000000,130334.3984375000,137267.8125000000,148272.5312500000,154626.8750000000,,,
0.7239999988,5,77138.4921875000,157364.9843750000,180896.4687500000,162174.2656250000,130402.3984375000,137331.9062500000,148335.0625000000,154696.1093750000,,,
0.7279999990,5,77043.2187500000,157335.2656250000,180840.6406250000,162083.5781250000,130309.7265625000,137259.0000000000,148261.4843750000,154609.2812500000,,,
0.7319999989,5,76923.8359375000,157264.0468750000,180754.2500000000,161962.3750000000,130192.5156250000,137158.8593750000,148166.4062500000,154496.1406250000,,,
0.7359999989,5,76942.4218750000,157254.5781250000,180758.6718750000,161982.3281250000,130208.2031250000,137171.3750000000,148167.4687500000,154515.7500000000,,,
0.7399999988,5,77073.7968750000,157312.2500000000,180844.1875000000,162109.4687500000,130335.8203125000,137271.5312500000,148268.3437500000,154632.7968750000,,,
0.7439999988,5,77140.3437500000,157361.9062500000,180897.7500000000,162175.9218750000,130399.9843750000,137325.4531250000,148331.4687500000,154691.6250000000,,,
0.7479999987,5,77050.7578125000,157336.1718750000,180846.0312500000,162079.0156250000,130314.2812500000,137251.0937500000,148261.9062500000,154612.0937500000,,,
0.7519999989,5,76932.7656250000,157270.0625000000,180758.8593750000,161957.2812500000,130199.5390625000,137152.0468750000,148154.3593750000,154500.4843750000,,,
0.7559999989,5,76940.8671875000,157246.7031250000,180747.1093750000,161974.7968750000,130204.5859375000,137152.6093750000,148146.7968750000,154502.7656250000,,,
0.7599999988,5,77080.3437500000,157312.8750000000,180840.4843750000,162120.3750000000,130340.0625000000,137271.4062500000,148269.6093750000,154632.2187500000,,,
0.7639999988,5,77162.9765625000,157373.4375000000,180910.7656250000,162193.5468750000,130424.4140625000,137335.8593750000,148346.3281250000,154708.3281250000,,,
0.7679999988,6,77055.8515625000,157336.2500000000,180846.8437500000,162085.6718750000,130318.0390625000,137252.6562500000,148266.9218750000,154614.2500000000,,,
0.7719999987,6,76927.7265625000,157262.9062500000,180754.7031250000,161952.0937500000,130192.0312500000,137150.6718750000,148163.0468750000,154496.7031250000,,,
0.7759999987,6,76941.6406250000,157243.1562500000,180748.0000000000,161979.3281250000,130203.1328125000,137156.9218750000,148163.0468750000,154503.2343750000,,,
0.7799999986,6,77067.8671875000,157294.3281250000,180824.7968750000,162120.4062500000,130324.9062500000,137254.9531250000,148259.6875000000,154616.4375000000,,,
0.7839999986,6,77151.5546875000,157358.9531250000,180895.1406250000,162183.7343750000,130407.7343750000,137323.2500000000,148334.9218750000,154697.0937500000,,,
0.7879999985,6,77067.3593750000,157342.3125000000,180850.3593750000,162090.3906250000,130323.0859375000,137264.2343750000,148269.8750000000,154628.9375000000,,,
0.7919999987,6,76932.4140625000,157261.2968750000,180748.9687500000,161965.2343750000,130190.1796875000,137149.5468750000,148154.9687500000,154491.5000000000,,,
0.7959999987,6,76937.4843750000,157236.6875000000,180739.0468750000,161973.6875000000,130194.7890625000,137146.7812500000,148147.7031250000,154490.8125000000,,,
0.7999999986,6,77058.2421875000,157286.7500000000,180817.1250000000,162098.0625000000,130314.4687500000,137237.1718750000,148240.1093750000,154597.0312500000,,,
0.8039999986,6,77106.4375000000,157322.6093750000,180856.7187500000,162160.3125000000,130358.2734375000,137280.2968750000,148284.9218750000,154645.8593750000,,,
0.8079999986,6,77021.6250000000,157298.0156250000,180808.8281250000,162062.4218750000,130275.6093750000,137216.4218750000,148221.9218750000,154571.0625000000,,,
0.8119999988,6,76911.7109375000,157240.8437500000,180733.1406250000,161935.6093750000,130168.5859375000,137128.7031250000,148128.7187500000,154470.4843750000,,,
0.8159999987,6,76936.8437500000,157232.1406250000,180738.3437500000,161953.3281250000,130194.5234375000,137148.3906250000,148146.2343750000,154487.4218750000,,,
0.8199999987,6,77064.0312500000,157285.3437500000,180817.4218750000,162101.4687500000,130318.7343750000,137245.3281250000,148248.7500000000,154599.6250000000,,,
0.8239999986,6,77141.0390625000,157345.9062500000,180883.2187500000,162178.2656250000,130396.0937500000,137310.0156250000,148309.6562500000,154678.7187500000,,,
0.8279999986,6,77030.0234375000,157308.2031250000,180816.3125000000,162062.0625000000,130282.6640625000,137229.1250000000,148222.0625000000,154583.7500000000,,,
0.8319999985,6,76897.5781250000,157234.2187500000,180722.5156250000,161919.5625000000,130152.5781250000,137128.0156250000,148112.4062500000,154463.3906250000,,,
0.8359999987,6,76912.2500000000,157214.7187500000,180717.9843750000,161945.5468750000,130167.8125000000,137126.2343750000,148115.5937500000,154468.7812500000,,,
0.8399999987,6,77051.1015625000,157273.9687500000,180807.6875000000,162099.1093750000,130302.1875000000,137232.7812500000,148232.5937500000,154590.1562500000,,,
0.8439999986,6,77141.7656250000,157344.9218750000,180883.6718750000,162181.3437500000,130390.3828125000,137309.6406250000,148324.4843750000,154680.5781250000,,,
0.8479999986,6,77057.2968750000,157323.2812500000,180835.5000000000,162089.2968750000,130305.8906250000,137244.3906250000,148266.2031250000,154602.9218750000,,,
0.8519999986,6,76930.7578125000,157253.0625000000,180745.8593750000,161949.4687500000,130185.0312500000,137139.6562500000,148149.4531250000,154484.4843750000,,,
0.8559999987,6,76929.3046875000,157227.7343750000,180731.3125000000,161961.4843750000,130181.5937500000,137136.2500000000,148135.1718750000,154482.4687500000,,,
0.8599999987,6,77068.8906250000,157296.1250000000,180827.0000000000,162116.1093750000,130317.1015625000,137255.3906250000,148248.8750000000,154614.1093750000,,,
0.8639999987,6,77154.5859375000,157365.5781250000,180901.1875000000,162189.9218750000,130401.5078125000,137330.2812500000,148327.6875000000,154699.6718750000,,,
0.8679999986,6,77069.5078125000,157339.7968750000,180851.6093750000,162090.8437500000,130319.0859375000,137253.4218750000,148262.6406250000,154618.4062500000,,,
0.8719999986,6,76931.4765625000,157252.1093750000,180743.5156250000,161948.9531250000,130180.7343750000,137137.9531250000,148146.9062500000,154481.3906250000,,,
0.8759999985,6,76937.2421875000,157227.3906250000,180732.2500000000,161971.6718750000,130186.1562500000,137137.9843750000,148137.4531250000,154482.2812500000,,,
0.8799999987,6,77067.1718750000,157283.7187500000,180817.0625000000,162104.3593750000,130314.4687500000,137236.8750000000,148236.2500000000,154599.9687500000,,,
0.8839999987,6,77153.3203125000,157352.1562500000,180889.3281250000,162189.6406250000,130395.1250000000,137317.5625000000,148321.2968750000,154689.6093750000,,,
0.8879999986,6,77064.0859375000,157326.1718750000,180836.8593750000,162090.6093750000,130305.3828125000,137243.3906250000,148258.9687500000,154607.1406250000,,,
0.8919999986,6,76926.4375000000,157244.3593750000,180736.7968750000,161949.0625000000,130171.3750000000,137128.1718750000,148141.2968750000,154476.7343750000,,,
0.8959999986,7,76924.0468750000,157214.7500000000,180718.0937500000,161943.9687500000,130172.2109375000,137121.3593750000,148124.7656250000,154466.9843750000,,,
0.8999999985,7,77058.1875000000,157275.9531250000,180805.3281250000,162091.6250000000,130302.9687500000,137232.7968750000,148234.8750000000,154591.3593750000,,,
0.9039999985,7,77145.8906250000,157338.8906250000,180875.8906250000,162180.2500000000,130391.0234375000,137304.5312500000,148313.2812500000,154673.7656250000,,,
0.9079999984,7,77051.5312500000,157311.6875000000,180822.7343750000,162088.5625000000,130296.1796875000,137231.7343750000,148234.2031250000,154593.3437500000,,,
0.9119999984,7,76924.4531250000,157241.9531250000,180734.6406250000,161946.7343750000,130171.4062500000,137126.6406250000,148133.0000000000,154476.2500000000,,,
0.9159999983,7,76925.6328125000,157216.9843750000,180720.4843750000,161943.8437500000,130172.3984375000,137121.0156250000,148127.4531250000,154470.0468750000,,,
0.9199999985,7,77058.8828125000,157272.7187500000,180804.5468750000,162086.4218750000,130302.3750000000,137223.8750000000,148229.9687500000,154588.8125000000,,,
0.9239999985,7,77172.2031250000,157360.9375000000,180899.7812500000,162177.8125000000,130415.1875000000,137325.3437500000,148326.2656250000,154704.3906250000,,,
0.9279999984,7,77094.9609375000,157346.3906250000,180859.6093750000,162097.2656250000,130338.1015625000,137264.9687500000,148272.3437500000,154633.4531250000,,,
0.9319999984,7,76941.0000000000,157251.7343750000,180741.8906250000,161941.2812500000,130183.9296875000,137134.0156250000,148153.6562500000,154484.9687500000,,,
0.9359999984,7,76939.2578125000,157224.8125000000,180726.5156250000,161958.5312500000,130180.0390625000,137132.2187500000,148144.6250000000,154476.5156250000,,,
0.9399999985,7,77063.8437500000,157279.4218750000,180807.9218750000,162084.0625000000,130298.9140625000,137235.4531250000,148236.7812500000,154592.0625000000,,,
0.9439999985,7,77171.2109375000,157355.7031250000,180897.9375000000,162168.9531250000,130405.7187500000,137321.9531250000,148333.8437500000,154695.5156250000,,,
0.9479999985,7,77110.2734375000,157360.2968750000,180876.4218750000,162090.5468750000,130347.7890625000,137281.7187500000,148292.6718750000,154652.7343750000,,,
0.9519999984,7,76950.7890625000,157261.9375000000,180753.5781250000,161943.3281250000,130190.7968750000,137144.2656250000,148151.2656250000,154492.8125000000,,,
0.9559999984,7,76933.1406250000,157213.0625000000,180721.3906250000,161949.7031250000,130173.5468750000,137117.9218750000,148122.1718750000,154460.2031250000,,,
0.9599999983,7,77075.2968750000,157270.4375000000,180812.9843750000,162083.9531250000,130313.0781250000,137221.6250000000,148240.5937500000,154585.1875000000,,,
0.9639999985,7,77168.6640625000,157345.8281250000,180893.1093750000,162187.5468750000,130399.2578125000,137310.8593750000,148324.4687500000,154687.2812500000,,,
0.9679999985,7,77100.9375000000,157345.4843750000,180866.9062500000,162099.1562500000,130336.0078125000,137266.9531250000,148269.3750000000,154639.9375000000,,,
0.9719999984,7,76950.7343750000,157261.2343750000,180758.1875000000,161953.0625000000,130189.3750000000,137144.2968750000,148142.7187500000,154500.9687500000,,,
0.9759999984,7,76929.5468750000,157211.3750000000,180720.4531250000,161944.3750000000,130170.0859375000,137114.3593750000,148115.5156250000,154465.6562500000,,,
0.9799999984,7,77063.4140625000,157267.1562500000,180803.8125000000,162082.9843750000,130301.8125000000,137221.0000000000,148217.8906250000,154586.1562500000,,,
0.9839999985,7,77152.4375000000,157335.5625000000,180879.3750000000,162172.7031250000,130390.7031250000,137298.7031250000,148306.0625000000,154676.4375000000,,,
0.9879999985,7,77087.0468750000,157338.5156250000,180855.1875000000,162096.6406250000,130332.6328125000,137254.1250000000,148273.8281250000,154628.0625000000,,,
0.9919999985,7,76960.9531250000,157273.0625000000,180764.4375000000,161953.7656250000,130204.3437500000,137145.5156250000,148159.9062500000,154508.5156250000,,,
0.9959999984,7,76944.5390625000,157234.1406250000,180736.2812500000,161950.8437500000,130184.0937500000,137123.0156250000,148127.5312500000,154481.2812500000,,,
0.9999999984,7,77089.7265625000,157304.3906250000,180834.7500000000,162088.3593750000,130323.7812500000,137242.8593750000,148255.4531250000,154616.3281250000,,,
1.0039999983,7,77159.0937500000,157350.8437500000,180886.2656250000,162177.4375000000,130389.0078125000,137299.1875000000,148311.9062500000,154678.8906250000,,,
1.0079999985,7,77086.8046875000,157332.8437500000,180848.2031250000,162091.0937500000,130318.1484375000,137249.3593750000,148250.2656250000,154616.8125000000,,,
1.0119999985,7,76970.8828125000,157268.7656250000,180767.0468750000,161968.8593750000,130203.6171875000,137150.0781250000,148159.7968750000,154504.5156250000,,,
1.0159999984,7,76965.4921875000,157241.9531250000,180749.5000000000,161957.7343750000,130199.8359375000,137135.1093750000,148145.7187500000,154494.7500000000,,,
1.0199999984,7,77089.7265625000,157294.5000000000,180827.6562500000,162088.7031250000,130318.6328125000,137236.7500000000,148243.7343750000,154609.2812500000,,,
1.0239999983,8,77164.7734375000,157345.1875000000,180884.8281250000,162166.6406250000,130387.7734375000,137299.4531250000,148312.9843750000,154679.1875000000,,,
1.0279999983,8,77102.2031250000,157342.2968750000,180858.0312500000,162085.2656250000,130327.1875000000,137252.6718750000,148271.4687500000,154630.2343750000,,,
1.0319999983,8,76962.9687500000,157264.7500000000,180757.8750000000,161944.3750000000,130191.1953125000,137135.3593750000,148145.0000000000,154496.7343750000,,,
1.0359999982,8,76944.7812500000,157230.2500000000,180732.5781250000,161934.2812500000,130173.5781250000,137118.8125000000,148119.1406250000,154476.7343750000,,,
1.0399999982,8,77064.9453125000,157278.3437500000,180808.6250000000,162056.9218750000,130292.6093750000,137216.4218750000,148213.2812500000,154588.6562500000,,,
1.0439999981,8,77184.1718750000,157366.9687500000,180907.7500000000,162167.0000000000,130410.5234375000,137324.2187500000,148317.6250000000,154709.4375000000,,,
1.0479999983,8,77118.1875000000,157350.2656250000,180870.9843750000,162099.8593750000,130345.3437500000,137264.8593750000,148267.7812500000,154641.6093750000,,,
1.0519999983,8,76961.5703125000,157258.3593750000,180754.2812500000,161949.2812500000,130185.8046875000,137139.3281250000,148134.7812500000,154494.7187500000,,,
1.0559999982,8,76948.0781250000,157219.7343750000,180727.6250000000,161927.8281250000,130173.6796875000,137119.8593750000,148110.4531250000,154470.8281250000,,,
1.0599999982,8,77080.6875000000,157272.6875000000,180811.5937500000,162072.9531250000,130305.5156250000,137221.2343750000,148217.2812500000,154586.3750000000,,,
1.0639999982,8,77160.2421875000,157331.7968750000,180875.3750000000,162160.7968750000,130378.5234375000,137294.8125000000,148292.5937500000,154667.9218750000,,,
1.0679999983,8,77105.6328125000,157332.0781250000,180854.0312500000,162099.4843750000,130324.2656250000,137252.9531250000,148262.5781250000,154621.1562500000,,,
1.0719999983,8,76961.5468750000,157260.1093750000,180753.2812500000,161943.1718750000,130185.5937500000,137139.9687500000,148141.8593750000,154491.7500000000,,,
1.0759999983,8,76926.8359375000,157229.3125000000,180721.8437500000,161926.5312500000,130163.9453125000,137122.8125000000,148125.2031250000,154469.4531250000,,,
1.0799999982,8,77068.1406250000,157287.7031250000,180810.3125000000,162058.0468750000,130299.1015625000,137234.3281250000,148226.5156250000,154593.0781250000,,,
1.0839999982,8,77180.5468750000,157361.4687500000,180894.7187500000,162156.0000000000,130403.3906250000,137319.8906250000,148307.3437500000,154693.9062500000,,,
1.0879999981,8,77103.7031250000,157334.2968750000,180843.9687500000,162088.5156250000,130320.5859375000,137251.9531250000,148245.0156250000,154614.8593750000,,,
1.0919999983,8,76974.0703125000,157261.9375000000,180750.6093750000,161946.4687500000,130191.4140625000,137144.6718750000,148142.6093750000,154488.5312500000,,,
1.0959999983,8,76957.2265625000,157226.7656250000,180726.3906250000,161928.2500000000,130173.6328125000,137123.3750000000,148123.4531250000,154464.6250000000,,,
1.0999999982,8,77090.4765625000,157285.5625000000,180814.9531250000,162076.7656250000,130305.7265625000,137228.5937500000,148226.4218750000,154586.5312500000,,,
1.1039999982,8,77197.4218750000,157359.0312500000,180899.2812500000,162181.4062500000,130410.6015625000,137321.4218750000,148322.8281250000,154688.8281250000,,,
1.1079999981,8,77141.4921875000,157354.3906250000,180874.2031250000,162107.3437500000,130354.6015625000,137281.7187500000,148277.8125000000,154642.5468750000,,,
1.1119999983,8,77007.5156250000,157281.8593750000,180779.1718750000,161963.7656250000,130219.6562500000,137175.8593750000,148166.0468750000,154521.3125000000,,,
1.1159999983,8,76961.2500000000,157228.8593750000,180727.9687500000,161926.7031250000,130172.7968750000,137135.4062500000,148120.2656250000,154474.5000000000,,,
1.1199999982,8,77086.7265625000,157285.0000000000,180811.2500000000,162062.3437500000,130298.6718750000,137231.7812500000,148221.3281250000,154585.8593750000,,,
1.1239999982,8,77190.8750000000,157362.2968750000,180897.2968750000,162165.0156250000,130398.3750000000,137320.3750000000,148316.7656250000,154689.4218750000,,,
1.1279999982,8,77127.7343750000,157346.8593750000,180861.3593750000,162097.4218750000,130334.6953125000,137269.2500000000,148275.4843750000,154634.2500000000,,,
1.1319999981,8,76995.3437500000,157267.5156250000,180764.0468750000,161960.9218750000,130204.0468750000,137159.8437500000,148165.8437500000,154508.1093750000,,,
1.1359999983,8,76965.1640625000,157222.1562500000,180728.1875000000,161944.2656250000,130174.2500000000,137127.7187500000,148126.1718750000,154471.6875000000,,,
1.1399999983,8,77087.3984375000,157279.5781250000,180808.7031250000,162077.8437500000,130294.2500000000,137221.4531250000,148215.2656250000,154581.3906250000,,,
1.1439999982,8,77186.3984375000,157346.7968750000,180885.4375000000,162175.6093750000,130391.5625000000,137301.8750000000,148305.7656250000,154674.8593750000,,,
1.1479999982,8,77134.6015625000,157338.2343750000,180860.6875000000,162103.5625000000,130340.8671875000,137264.3125000000,148274.1718750000,154632.0781250000,,,
1.1519999981,9,77006.0468750000,157264.3750000000,180771.7343750000,161981.5000000000,130215.1796875000,137158.7500000000,148160.5781250000,154512.8906250000,,,
1.1559999981,9,76976.9453125000,157226.7968750000,180739.0468750000,161952.8750000000,130188.6796875000,137129.7500000000,148115.9687500000,154480.4218750000,,,
1.1599999981,9,77094.6875000000,157279.4687500000,180816.9375000000,162077.9687500000,130304.7656250000,137219.5000000000,148215.8906250000,154583.1093750000,,,
1.1639999980,9,77194.5234375000,157342.0781250000,180892.7343750000,162168.8437500000,130403.1484375000,137295.0312500000,148312.4218750000,154672.2656250000,,,
1.1679999980,9,77148.8984375000,157342.1250000000,180871.5937500000,162088.8906250000,130358.4062500000,137268.0468750000,148281.4687500000,154638.1406250000,,,
1.1719999979,9,77008.3203125000,157269.4687500000,180770.6093750000,161960.5156250000,130213.7812500000,137165.7187500000,148155.9375000000,154510.6562500000,,,
1.1759999981,9,76969.1875000000,157223.0937500000,180727.8906250000,161943.5625000000,130174.8125000000,137127.6406250000,148115.3906250000,154469.1406250000,33029,1.1786364214,0.0000000000
1.1799999981,9,77088.6015625000,157286.2656250000,180809.6875000000,162064.9843750000,130292.7500000000,137228.1562500000,148219.7812500000,154586.7031250000,,,
1.1839999980,9,77193.3671875000,157356.8906250000,180891.4531250000,162175.3125000000,130394.5078125000,137307.8750000000,148315.5312500000,154679.4687500000,,,
1.1879999980,9,77139.4296875000,157339.1875000000,180861.5625000000,162103.1562500000,130341.2968750000,137259.0625000000,148268.1406250000,154626.7968750000,,,
1.1919999979,9,77022.9453125000,157279.3437500000,180783.3593750000,161967.7031250000,130227.5156250000,137167.7343750000,148167.7343750000,154526.3437500000,,,
1.1959999981,9,77004.2968750000,157250.8750000000,180760.8750000000,161952.9843750000,130208.8750000000,137147.0781250000,148152.2187500000,154501.7031250000,,,
1.1999999981,9,77107.5625000000,157287.3593750000,180822.7031250000,162065.0781250000,130311.3359375000,137217.8906250000,148236.2187500000,154584.0468750000,,,
1.2039999980,9,77207.6406250000,157359.5156250000,180901.9062500000,162166.0312500000,130409.7968750000,137308.0156250000,148319.4218750000,154684.2968750000,,,
1.2079999980,9,77144.5546875000,157342.9062500000,180864.9218750000,162115.2343750000,130343.4140625000,137262.5000000000,148259.4687500000,154633.0781250000,,,
1.2119999980,9,77028.0625000000,157282.7812500000,180784.2343750000,161978.3281250000,130228.4296875000,137165.9843750000,148159.7968750000,154526.7031250000,,,
1.2159999979,9,76984.9062500000,157231.8125000000,180738.3750000000,161930.8750000000,130188.0625000000,137120.0625000000,148120.6718750000,154475.6250000000,,,
1.2199999981,9,77088.9531250000,157277.1875000000,180806.3437500000,162056.9218750000,130289.1796875000,137206.7812500000,148203.2343750000,154574.2031250000,,,
1.2239999981,9,77195.5703125000,157353.5000000000,180891.9218750000,162162.4062500000,130392.3359375000,137298.8437500000,148303.5468750000,154682.0468750000,,,
1.2279999980,9,77147.6093750000,157347.7968750000,180870.8437500000,162112.3593750000,130347.4921875000,137261.5312500000,148274.3906250000,154643.1562500000,,,
1.2319999980,9,77030.0468750000,157280.9531250000,180789.1406250000,162002.3125000000,130233.8437500000,137164.5156250000,148180.8281250000,154528.1250000000,,,
1.2359999979,9,76983.2421875000,157229.8281250000,180740.4062500000,161942.6562500000,130185.2187500000,137118.6718750000,148127.1250000000,154476.3750000000,,,
1.2399999981,9,77100.2421875000,157278.0000000000,180813.6093750000,162057.1875000000,130300.1484375000,137207.9062500000,148224.4687500000,154574.0156250000,,,
1.2439999981,9,77196.0000000000,157337.7656250000,180884.8281250000,162166.5625000000,130392.8984375000,137286.3125000000,148311.2656250000,154661.0468750000,,,
1.2479999980,9,77142.2187500000,157321.8750000000,180852.1250000000,162098.3593750000,130335.5546875000,137244.5781250000,148274.7812500000,154614.5937500000,,,
1.2519999980,9,77012.1562500000,157252.8906250000,180759.9687500000,161956.6562500000,130205.4687500000,137139.3281250000,148166.4218750000,154497.3750000000,,,
1.2559999980,9,76982.8437500000,157221.6250000000,180730.2968750000,161933.7812500000,130176.3125000000,137110.3281250000,148123.7500000000,154467.4687500000,,,
1.2599999979,9,77108.3125000000,157287.4062500000,180819.2187500000,162072.9531250000,130302.4531250000,137208.5000000000,148212.1875000000,154586.1406250000,,,
1.2639999981,9,77221.2890625000,157368.2812500000,180909.7343750000,162182.8750000000,130414.7578125000,137302.8593750000,148311.9375000000,154697.8281250000,,,
1.2679999981,9,77160.8046875000,157348.2500000000,180872.3437500000,162108.9218750000,130352.6640625000,137256.2500000000,148273.0937500000,154638.4062500000,,,
1.2719999980,9,77019.8046875000,157261.2656250000,180769.2500000000,161964.1718750000,130214.7187500000,137138.4375000000,148157.5781250000,154503.2500000000,,,
1.2759999980,9,76973.3203125000,157210.4062500000,180725.1718750000,161923.4531250000,130170.0078125000,137095.2812500000,148108.9687500000,154458.3281250000,,,
1.2799999979,10,77090.0468750000,157263.0000000000,180803.5468750000,162057.6093750000,130283.8437500000,137190.9531250000,148204.3593750000,154564.1093750000,,,
1.2839999979,10,77200.4218750000,157335.6093750000,180887.5312500000,162171.1875000000,130391.3437500000,137277.4687500000,148297.4218750000,154665.2031250000,,,
1.2879999978,10,77153.2421875000,157330.4375000000,180865.0312500000,162106.8281250000,130346.7421875000,137241.1718750000,148256.1406250000,154626.4531250000,,,
1.2919999978,10,77025.0859375000,157264.9062500000,180774.7187500000,161957.3750000000,130219.9531250000,137135.7031250000,148139.9062500000,154507.8437500000,,,
1.2959999978,10,76994.0546875000,157231.1875000000,180739.6406250000,161908.2500000000,130190.2578125000,137105.6718750000,148114.1250000000,154474.2343750000,,,
1.2999999977,10,77094.8515625000,157268.6093750000,180800.6562500000,162022.1562500000,130286.1484375000,137188.7343750000,148195.2656250000,154568.9687500000,,,
1.3039999979,10,77197.5781250000,157329.3593750000,180877.0468750000,162148.8906250000,130384.7734375000,137276.7343750000,148278.1875000000,154661.9062500000,,,
1.3079999979,10,77146.8046875000,157319.1406250000,180849.0156250000,162087.7343750000,130334.5625000000,137231.7500000000,148239.5937500000,154613.7656250000,,,
1.3119999978,10,77014.7890625000,157256.9687500000,180759.8593750000,161955.3906250000,130205.4140625000,137128.5156250000,148131.4531250000,154498.2343750000,,,
1.3159999978,10,76972.4375000000,157221.2187500000,180722.0156250000,161915.4843750000,130165.6875000000,137096.4062500000,148091.7031250000,154461.2968750000,,,
1.3199999977,10,77080.9062500000,157263.2812500000,180790.7812500000,162032.6718750000,130274.3984375000,137177.0156250000,148173.8906250000,154558.8593750000,,,
1.3239999979,10,77190.5781250000,157328.6406250000,180875.1718750000,162142.1875000000,130384.0781250000,137260.4843750000,148272.1250000000,154658.4218750000,,,
1.3279999979,10,77164.5859375000,157347.8750000000,180875.8593750000,162109.9531250000,130358.7265625000,137252.6718750000,148267.8125000000,154643.2343750000,,,
1.3319999978,10,77026.2421875000,157281.9218750000,180780.4062500000,161979.1093750000,130219.2812500000,137146.5625000000,148154.0625000000,154522.2968750000,,,
1.3359999978,10,76978.7109375000,157229.4843750000,180729.7343750000,161926.2656250000,130169.7109375000,137103.7656250000,148105.0000000000,154467.5468750000,,,
1.3399999978,10,77089.7578125000,157267.5937500000,180796.4687500000,162047.4531250000,130278.5546875000,137186.3437500000,148188.9531250000,154559.8750000000,,,
1.3439999977,10,77206.5156250000,157346.8593750000,180888.8125000000,162169.2031250000,130393.0625000000,137282.0156250000,148288.3125000000,154672.7187500000,,,
1.3479999979,10,77161.2890625000,157339.0937500000,180867.3125000000,162115.6250000000,130347.7343750000,137242.2968750000,148257.8906250000,154634.6250000000,,,
1.3519999979,10,77043.1406250000,157277.2500000000,180786.4062500000,161979.9062500000,130230.3593750000,137143.0000000000,148158.6718750000,154525.5156250000,,,
1.3559999978,10,77003.8984375000,157240.1250000000,180747.8437500000,161928.8437500000,130190.4218750000,137109.1562500000,148117.8281250000,154487.3281250000,,,
1.3599999978,10,77098.5000000000,157271.7812500000,180801.7343750000,162038.9687500000,130281.7734375000,137178.1875000000,148187.8593750000,154562.3437500000,,,
1.3639999977,10,77197.8203125000,157337.9531250000,180880.6406250000,162143.3906250000,130377.6640625000,137263.0000000000,148269.8593750000,154662.7968750000,,,
1.3679999979,10,77170.7812500000,157350.8437500000,180880.8750000000,162096.6093750000,130351.1093750000,137244.8750000000,148258.8593750000,154651.3437500000,,,
1.3719999979,10,77047.2421875000,157281.0781250000,180794.1406250000,161966.3125000000,130233.1250000000,137135.4062500000,148168.0156250000,154531.9218750000,,,
1.3759999978,10,77000.7578125000,157230.9531250000,180746.5312500000,161927.9531250000,130189.5859375000,137098.3750000000,148123.1093750000,154478.4687500000,,,
1.3799999978,10,77088.1171875000,157264.9062500000,180798.8906250000,162031.9687500000,130270.1093750000,137187.9218750000,148182.8125000000,154561.3281250000,,,
1.3839999977,10,77198.7890625000,157329.3906250000,180879.2656250000,162152.9375000000,130376.5625000000,137278.7812500000,148274.1250000000,154662.3593750000,,,
1.3879999977,10,77178.5390625000,157341.6250000000,180878.1093750000,162122.6875000000,130357.3593750000,137261.0156250000,148263.3906250000,154648.6562500000,,,
1.3919999979,10,77057.2968750000,157285.1093750000,180796.9843750000,161997.7031250000,130238.9453125000,137163.3281250000,148164.1718750000,154540.3437500000,,,
1.3959999979,10,76994.3750000000,157227.7343750000,180737.9375000000,161928.8125000000,130178.5625000000,137103.3906250000,148102.1875000000,154474.9062500000,,,
1.3999999978,10,77091.6093750000,157260.5625000000,180794.5156250000,162032.3281250000,130276.1171875000,137170.9531250000,148182.5937500000,154556.4375000000,,,
1.4039999978,10,77214.3437500000,157342.6718750000,180888.0468750000,162154.7343750000,130395.6328125000,137271.8593750000,148290.3125000000,154671.0468750000,,,
1.4079999977,11,77175.0234375000,157343.4375000000,180872.4843750000,162127.2968750000,130357.1484375000,137246.8593750000,148260.4062500000,154642.2656250000,,,
1.4119999977,11,77043.1093750000,157274.5937500000,180781.8281250000,161981.2500000000,130230.2812500000,137143.0000000000,148148.9687500000,154524.9218750000,,,
1.4159999976,11,76994.3750000000,157231.6250000000,180739.4218750000,161914.9687500000,130183.8203125000,137103.3593750000,148101.8437500000,154480.7812500000,,,
1.4199999976,11,77089.2187500000,157270.7812500000,180802.0000000000,162030.2500000000,130275.8203125000,137182.9062500000,148169.6406250000,154568.8593750000,,,
1.4239999976,11,77201.5234375000,157340.9531250000,180888.5781250000,162158.0312500000,130385.5546875000,137272.1562500000,148267.1406250000,154673.4687500000,,,
1.4279999975,11,77171.6171875000,157339.1250000000,180874.3125000000,162121.1875000000,130355.0312500000,137245.8125000000,148253.9687500000,154642.2500000000,,,
1.4319999977,11,77044.4765625000,157266.6875000000,180781.7500000000,161973.4218750000,130229.0156250000,137146.7500000000,148150.8906250000,154521.7812500000,,,
1.4359999977,11,76992.1250000000,157217.0000000000,180732.7656250000,161918.0625000000,130177.1718750000,137102.9843750000,148094.4843750000,154467.7656250000,,,
1.4399999976,11,77092.6250000000,157259.1093750000,180797.5468750000,162033.3125000000,130276.8984375000,137182.8125000000,148165.3750000000,154557.5156250000,,,
1.4439999976,11,77221.2109375000,157345.9062500000,180898.5312500000,162159.7500000000,130405.6640625000,137289.4531250000,148285.2812500000,154679.1562500000,,,
1.4479999975,11,77196.5078125000,157349.2343750000,180890.7812500000,162131.4531250000,130383.8359375000,137260.8281250000,148277.5312500000,154651.5781250000,,,
1.4519999977,11,77056.0390625000,157277.5625000000,180794.1562500000,161987.9843750000,130244.3046875000,137153.3593750000,148160.5000000000,154530.1562500000,,,
1.4559999977,11,76991.0781250000,157230.2343750000,180739.8437500000,161927.8750000000,130178.9140625000,137111.1718750000,148097.3593750000,154478.7343750000,,,
1.4599999976,11,77075.7265625000,157256.8906250000,180786.8437500000,162029.2656250000,130262.4921875000,137174.5937500000,148157.1406250000,154548.1875000000,,,
1.4639999976,11,77194.2812500000,157333.1250000000,180876.9062500000,162148.7500000000,130380.0546875000,137270.1406250000,148267.0156250000,154661.1093750000,,,
1.4679999975,11,77165.9843750000,157333.9218750000,180863.1718750000,162104.7656250000,130352.7187500000,137243.7187500000,148252.9062500000,154633.7187500000,,,
1.4719999975,11,77049.2265625000,157274.1406250000,180783.1093750000,161978.5156250000,130239.1328125000,137154.4062500000,148151.8593750000,154526.5625000000,,,
1.4759999977,11,77002.0703125000,157227.5000000000,180739.4531250000,161936.5937500000,130193.9375000000,137109.0156250000,148105.1406250000,154476.5156250000,,,
1.4799999977,11,77099.0078125000,157266.3281250000,180798.7812500000,162053.3437500000,130289.0156250000,137185.2500000000,148178.9218750000,154562.1562500000,,,
1.4839999976,11,77233.3046875000,157347.9843750000,180896.5468750000,162173.2500000000,130423.7187500000,137287.6250000000,148297.6875000000,154680.6875000000,,,
1.4879999976,11,77194.1484375000,157345.0468750000,180876.2968750000,162135.7968750000,130381.2343750000,137253.4218750000,148270.6250000000,154647.1875000000,,,
1.4919999975,11,77038.7968750000,157267.8125000000,180768.0156250000,161971.2968750000,130223.1718750000,137140.7031250000,148134.2968750000,154517.8125000000,,,
1.4959999977,11,76981.4218750000,157218.2968750000,180720.6093750000,161909.9843750000,130169.0703125000,137091.9062500000,148079.8437500000,154462.5156250000,,,
1.4999999977,11,77073.9843750000,157256.1093750000,180781.0781250000,162011.9843750000,130260.9062500000,137166.9531250000,148157.7031250000,154546.6562500000,,,
1.5039999976,11,77202.8125000000,157339.1875000000,180883.0000000000,162139.9843750000,130389.6015625000,137273.5937500000,148269.5312500000,154669.5468750000,,,
1.5079999976,11,77181.7265625000,157348.0781250000,180880.5312500000,162120.8593750000,130368.1406250000,137257.5312500000,148256.6093750000,154654.6875000000,,,
1.5119999975,11,77048.2109375000,157272.1718750000,180782.2343750000,161987.9843750000,130233.5000000000,137141.6875000000,148143.3281250000,154523.9062500000,,,
1.5159999975,11,77008.0546875000,157239.9375000000,180745.6875000000,161935.7343750000,130192.5390625000,137107.8593750000,148103.5312500000,154488.1562500000,,,
1.5199999977,11,77125.9140625000,157298.8437500000,180826.5937500000,162055.0468750000,130311.0390625000,137197.9843750000,148197.0000000000,154590.8593750000,,,
1.5239999976,11,77237.0625000000,157360.8593750000,180908.0781250000,162187.7812500000,130418.8671875000,137281.4375000000,148293.3437500000,154680.5156250000,,,
1.5279999976,11,77192.0546875000,157352.4375000000,180885.1406250000,162140.0468750000,130371.6328125000,137254.5000000000,148260.4062500000,154648.5000000000,,,
1.5319999976,11,77052.2812500000,157280.3281250000,180787.6406250000,161987.4218750000,130232.4218750000,137149.6250000000,148138.4531250000,154526.4062500000,,,
1.5359999975,12,77008.4609375000,157240.3906250000,180747.7343750000,161916.8593750000,130190.6640625000,137112.8750000000,148100.2812500000,154482.2187500000,,,
1.5399999975,12,77104.6406250000,157275.6093750000,180805.7031250000,162030.4687500000,130286.2031250000,137184.0468750000,148179.1093750000,154560.1406250000,,,
1.5439999974,12,77217.8046875000,157339.0156250000,180889.5156250000,162154.4218750000,130400.1406250000,137271.8593750000,148274.7656250000,154663.0937500000,,,
1.5479999974,12,77200.6640625000,157349.2656250000,180886.7031250000,162118.7656250000,130384.5625000000,137266.5937500000,148270.7656250000,154652.9218750000,,,
1.5519999973,12,77066.1015625000,157278.5625000000,180790.4843750000,161979.4531250000,130252.7265625000,137162.7968750000,148163.9531250000,154534.0156250000,,,
1.5559999973,12,77003.2578125000,157227.1718750000,180738.1562500000,161929.3750000000,130189.9921875000,137112.3437500000,148096.6562500000,154478.6093750000,,,
1.5599999975,12,77088.4140625000,157256.2500000000,180790.1875000000,162039.2500000000,130273.8671875000,137170.2031250000,148155.0781250000,154550.3750000000,,,
1.5639999975,12,77205.7578125000,157328.3750000000,180876.0781250000,162154.4687500000,130387.7265625000,137267.1093750000,148266.6562500000,154659.5781250000,,,
1.5679999974,12,77193.2890625000,157346.7968750000,180877.5000000000,162125.9062500000,130373.3437500000,137262.4687500000,148271.5468750000,154654.6093750000,,,
1.5719999974,12,77067.6015625000,157290.3437500000,180792.7343750000,161979.5156250000,130246.5859375000,137163.3281250000,148164.7968750000,154544.6875000000,,,
1.5759999973,12,76996.5781250000,157227.8906250000,180727.4843750000,161914.5000000000,130174.7812500000,137093.0312500000,148089.5781250000,154468.7031250000,,,
1.5799999975,12,77103.1093750000,157273.7343750000,180797.1093750000,162019.3906250000,130280.9218750000,137177.9218750000,148171.6562500000,154561.2187500000,,,
1.5839999975,12,77228.3203125000,157354.0625000000,180893.6718750000,162145.5156250000,130403.6562500000,137285.4218750000,148278.7343750000,154678.2187500000,,,
1.5879999974,12,77211.3125000000,157363.2968750000,180892.6562500000,162123.5156250000,130388.1796875000,137272.5468750000,148274.2500000000,154665.5312500000,,,
1.5919999974,12,77105.6875000000,157321.8750000000,180827.2812500000,162004.2656250000,130288.5625000000,137186.5000000000,148187.5625000000,154580.3437500000,,,
1.5959999973,12,77016.2656250000,157247.0156250000,180749.2656250000,161946.8750000000,130196.3515625000,137104.4375000000,148098.9375000000,154489.3125000000,,,
1.5999999973,12,77086.9375000000,157266.7343750000,180790.5937500000,162040.5625000000,130260.5859375000,137165.4531250000,148156.5000000000,154554.3437500000,,,
1.6039999975,12,77197.5546875000,157329.7656250000,180870.4218750000,162135.6718750000,130368.4921875000,137258.2812500000,148254.6718750000,154654.5781250000,,,
1.6079999974,12,77185.4296875000,157341.1875000000,180871.8125000000,162105.8906250000,130356.6640625000,137250.7968750000,148251.7812500000,154645.5781250000,,,
1.6119999974,12,77065.6406250000,157280.7343750000,180789.1718750000,161975.2656250000,130240.0703125000,137152.8125000000,148149.6562500000,154535.0625000000,,,
1.6159999974,12,77002.6406250000,157228.9375000000,180732.7187500000,161912.3281250000,130177.9453125000,137095.5781250000,148090.1718750000,154468.5156250000,,,
1.6199999973,12,77099.4921875000,157271.0312500000,180794.1406250000,162017.5781250000,130271.2890625000,137173.0156250000,148168.1406250000,154553.9531250000,,,
1.6239999975,12,77225.8203125000,157349.3750000000,180889.5625000000,162146.2343750000,130395.8203125000,137277.2187500000,148275.7031250000,154672.0468750000,,,
1.6279999975,12,77223.8906250000,157362.1875000000,180895.9843750000,162122.1562500000,130396.2812500000,137272.7343750000,148284.5468750000,154668.1875000000,,,
1.6319999974,12,77104.5078125000,157303.1093750000,180813.0468750000,161990.2187500000,130278.1796875000,137175.5937500000,148187.1562500000,154557.3593750000,,,
1.6359999974,12,77009.3984375000,157228.1093750000,180732.1250000000,161908.9687500000,130181.1093750000,137094.9062500000,148095.0468750000,154467.7968750000,,,
1.6399999973,12,77099.2500000000,157262.0625000000,180790.3750000000,162006.7656250000,130272.4921875000,137163.7968750000,148163.6562500000,154547.7187500000,,,
1.6439999973,12,77227.1093750000,157346.6875000000,180891.0937500000,162140.2031250000,130398.9375000000,137275.8750000000,148273.0156250000,154671.8281250000,,,
1.6479999975,12,77198.7031250000,157344.6562500000,180876.1562500000,162118.3437500000,130370.3671875000,137253.9687500000,148254.7187500000,154646.6250000000,,,
1.6519999974,12,77073.0703125000,157271.2187500000,180784.8593750000,161979.6250000000,130248.7031250000,137143.9375000000,148147.5937500000,154525.2968750000,,,
1.6559999974,12,77009.5859375000,157219.4687500000,180728.4218750000,161913.8281250000,130187.1718750000,137085.4218750000,148086.8125000000,154464.6875000000,,,
1.6599999974,12,77096.8125000000,157257.6406250000,180783.0312500000,162021.7500000000,130270.5078125000,137155.7656250000,148157.5781250000,154546.1718750000,,,
1.6639999973,13,77217.1328125000,157332.9375000000,180872.9062500000,162137.3281250000,130388.3125000000,137253.2656250000,148266.2031250000,154657.6093750000,,,
1.6679999973,13,77215.3671875000,157356.7500000000,180887.2031250000,162119.8906250000,130385.5234375000,137259.1093750000,148275.4531250000,154663.2812500000,,,
1.6719999972,13,77093.1875000000,157304.9843750000,180809.5000000000,161985.2031250000,130264.7187500000,137168.1406250000,148171.1406250000,154561.1406250000,,,
1.6759999972,13,77035.9765625000,157268.2968750000,180767.2031250000,161926.4218750000,130212.1484375000,137124.1250000000,148109.6250000000,154514.2187500000,,,
1.6799999971,13,77108.4531250000,157286.1250000000,180807.5000000000,162018.4218750000,130283.4375000000,137167.5937500000,148160.8437500000,154564.9375000000,,,
1.6839999971,13,77218.3125000000,157343.3437500000,180886.9687500000,162162.3281250000,130390.2734375000,137251.0937500000,148253.0625000000,154664.2187500000,,,
1.6879999973,13,77212.7890625000,157360.5625000000,180894.3437500000,162154.1718750000,130384.3671875000,137253.0468750000,148256.9843750000,154666.5000000000,,,
1.6919999972,13,77090.6953125000,157298.9687500000,180808.1562500000,162012.3593750000,130265.6562500000,137154.9843750000,148157.0625000000,154554.7031250000,,,
1.6959999972,13,77017.3359375000,157239.5937500000,180745.5312500000,161926.4843750000,130193.7187500000,137090.8125000000,148089.2812500000,154480.7187500000,,,
1.6999999972,13,77085.9218750000,157256.1718750000,180781.2031250000,162002.2343750000,130258.7109375000,137143.0781250000,148139.6250000000,154537.1562500000,,,
1.7039999971,13,77209.9687500000,157331.7187500000,180875.7500000000,162132.1562500000,130379.8906250000,137249.2656250000,148247.4531250000,154656.2812500000,,,
1.7079999973,13,77214.9843750000,157351.9687500000,180891.8437500000,162135.5625000000,130384.2890625000,137252.1875000000,148257.7031250000,154658.7187500000,,,
1.7119999973,13,77090.2656250000,157286.8437500000,180804.1875000000,161998.5781250000,130260.1562500000,137148.3906250000,148154.1406250000,154540.1562500000,,,
1.7159999972,13,77014.8671875000,157229.8750000000,180740.9687500000,161921.9531250000,130185.0859375000,137086.7343750000,148081.6406250000,154467.8437500000,,,
1.7199999972,13,77090.8515625000,157259.2812500000,180787.6406250000,162001.1093750000,130259.9453125000,137153.8125000000,148138.5000000000,154537.2968750000,,,
1.7239999971,13,77221.7187500000,157338.7500000000,180885.2500000000,162146.0000000000,130389.8125000000,137260.2187500000,148249.0937500000,154657.0781250000,,,
1.7279999971,13,77225.7187500000,157366.1875000000,180903.5625000000,162152.6406250000,130397.3515625000,137266.4687500000,148258.3437500000,154672.7500000000,,,
1.7319999973,13,77094.2343750000,157297.7187500000,180809.7656250000,162004.8593750000,130269.5156250000,137155.2031250000,148158.1093750000,154549.7656250000,,,
1.7359999972,13,76995.4218750000,157217.9375000000,180723.8125000000,161917.9531250000,130170.2734375000,137073.1875000000,148069.7343750000,154452.4218750000,,,
1.7399999972,13,77079.3515625000,157249.1875000000,180778.0937500000,162001.2343750000,130254.2265625000,137138.5156250000,148133.0625000000,154533.4843750000,,,
1.7439999972,13,77213.2968750000,157334.0625000000,180882.7500000000,162138.7031250000,130385.6015625000,137250.1562500000,148248.2812500000,154664.3750000000,,,
1.7479999971,13,77217.5390625000,157352.7812500000,180896.2812500000,162137.4843750000,130388.4765625000,137253.7812500000,148255.7500000000,154670.1093750000,,,
1.7519999973,13,77089.1640625000,157286.9375000000,180805.2656250000,162006.0937500000,130260.5859375000,137153.5625000000,148147.2968750000,154551.9375000000,,,
1.7559999973,13,77011.3046875000,157231.1875000000,180741.0312500000,161917.8437500000,130180.5234375000,137092.0937500000,148077.0781250000,154478.1406250000,,,
1.7599999972,13,77083.3203125000,157249.8593750000,180780.9062500000,162011.2968750000,130249.0234375000,137143.3437500000,148129.3281250000,154536.3750000000,,,
1.7639999972,13,77215.3906250000,157329.5781250000,180877.7187500000,162143.0937500000,130379.3515625000,137248.9218750000,148241.3906250000,154656.2968750000,,,
1.7679999971,13,77211.2890625000,157346.4687500000,180882.6250000000,162125.0468750000,130374.1796875000,137247.5468750000,148245.6250000000,154653.7812500000,,,
1.7719999971,13,77092.1718750000,157292.2343750000,180803.5781250000,161998.0937500000,130256.6171875000,137154.4531250000,148147.9218750000,154549.4375000000,,,
1.7759999973,13,77019.4843750000,157246.1406250000,180748.5937500000,161920.1250000000,130186.8828125000,137094.6718750000,148080.5937500000,154488.2656250000,,,
1.7799999972,13,77087.6640625000,157267.6718750000,180789.6562500000,162009.3125000000,130256.1093750000,137147.0468750000,148131.9531250000,154545.3593750000,,,
1.7839999972,13,77213.0000000000,157339.8281250000,180883.8750000000,162148.2968750000,130381.2890625000,137244.5312500000,148233.4843750000,154662.6562500000,,,
1.7879999971,13,77224.8593750000,157366.4375000000,180905.7187500000,162158.2031250000,130395.3671875000,137251.0625000000,148246.8906250000,154676.2500000000,,,
1.7919999971,14,77099.9218750000,157293.9062500000,180813.7500000000,162013.9531250000,130272.7109375000,137145.9843750000,148150.1250000000,154551.5312500000,,,
1.7959999971,14,77022.7265625000,157234.2031250000,180749.3437500000,161924.2031250000,130194.9296875000,137082.5468750000,148080.8125000000,154477.1250000000,,,
1.7999999970,14,77107.6718750000,157265.7343750000,180801.5312500000,162006.1250000000,130277.1093750000,137149.3125000000,148143.0937500000,154552.2812500000,,,
1.8039999970,14,77258.9531250000,157360.0468750000,180918.5312500000,162155.5937500000,130425.5390625000,137271.4062500000,148272.2968750000,154692.6250000000,,,
1.8079999969,14,77270.7812500000,157389.1250000000,180939.9375000000,162166.2968750000,130433.0546875000,137281.6406250000,148289.5156250000,154704.9843750000,,,
1.8119999969,14,77116.4453125000,157304.4687500000,180823.2343750000,162023.5000000000,130276.0937500000,137158.8750000000,148153.9062500000,154561.7500000000,,,
1.8159999971,14,77013.9531250000,157234.8906250000,180739.6093750000,161908.0312500000,130176.9531250000,137080.9843750000,148061.6875000000,154476.3281250000,,,
1.8199999970,14,77083.0468750000,157260.4062500000,180784.1250000000,161991.9218750000,130248.9218750000,137138.5000000000,148122.2031250000,154541.9062500000,,,
1.8239999970,14,77208.8203125000,157335.5937500000,180878.7343750000,162125.1875000000,130372.8671875000,137245.7343750000,148229.6250000000,154662.3593750000,,,
1.8279999970,14,77213.5390625000,157352.6718750000,180891.5000000000,162128.2656250000,130376.8046875000,137254.3906250000,148241.5312500000,154666.3906250000,,,
1.8319999969,14,77096.8671875000,157292.3437500000,180813.0781250000,162003.2812500000,130262.1171875000,137158.8593750000,148146.4375000000,154558.4218750000,,,
1.8359999971,14,77021.9531250000,157237.8125000000,180752.1875000000,161925.2812500000,130185.6171875000,137095.6406250000,148079.0156250000,154487.3750000000,,,
1.8399999971,14,77083.4218750000,157247.7187500000,180782.2031250000,161991.4687500000,130242.8593750000,137136.0312500000,148116.3750000000,154534.9375000000,,,
1.8439999970,14,77212.3828125000,157315.8750000000,180875.1093750000,162137.1406250000,130367.3359375000,137231.2187500000,148223.5625000000,154647.5625000000,,,
1.8479999970,14,77233.7343750000,157353.4218750000,180904.9843750000,162145.6406250000,130387.8281250000,137255.3593750000,148252.0625000000,154674.9687500000,,,
1.8519999969,14,77122.2343750000,157305.8125000000,180829.9687500000,162018.3750000000,130276.8984375000,137169.4218750000,148163.6562500000,154574.7656250000,,,
1.8559999969,14,77026.2109375000,157230.6250000000,180747.4062500000,161933.7500000000,130182.6718750000,137079.5625000000,148077.1406250000,154472.4062500000,,,
1.8599999971,14,77092.2734375000,157248.1250000000,180785.3593750000,162001.3125000000,130248.9218750000,137129.3281250000,148123.6406250000,154530.0781250000,,,
1.8639999970,14,77227.9140625000,157328.1093750000,180885.7343750000,162136.0937500000,130382.4921875000,137240.6406250000,148239.3281250000,154655.0156250000,,,
1.8679999970,14,77252.2968750000,157368.2812500000,180917.7031250000,162142.9062500000,130409.6640625000,137265.9218750000,148261.3750000000,154686.6562500000,,,
1.8719999969,14,77132.9375000000,157320.0000000000,180838.3437500000,162004.3750000000,130290.7343750000,137177.6562500000,148163.2031250000,154585.9687500000,,,
1.8759999969,14,77029.9453125000,157239.2968750000,180748.5625000000,161923.7187500000,130186.3671875000,137085.4218750000,148072.4218750000,154477.9062500000,,,
1.8799999971,14,77095.4453125000,157252.8437500000,180784.5000000000,161991.2656250000,130253.6406250000,137130.6406250000,148118.6562500000,154529.0000000000,,,
1.8839999971,14,77250.8203125000,157354.8437500000,180907.3281250000,162132.5000000000,130407.1718750000,137260.0312500000,148250.3750000000,154680.3593750000,,,
1.8879999970,14,77279.1171875000,157391.1875000000,180938.6250000000,162157.3125000000,130431.4687500000,137278.7968750000,148281.6875000000,154701.2500000000,,,
1.8919999970,14,77150.6406250000,157315.2812500000,180842.9531250000,162014.7812500000,130304.1484375000,137161.5625000000,148175.5937500000,154572.0000000000,,,
1.8959999969,14,77063.0937500000,157250.4531250000,180774.3125000000,161924.0156250000,130215.8750000000,137085.2500000000,148090.7812500000,154487.9687500000,,,
1.8999999969,14,77128.5156250000,157276.7343750000,180815.9687500000,161999.1718750000,130279.7109375000,137140.7812500000,148136.0312500000,154550.7343750000,,,
1.9039999971,14,77261.6328125000,157360.8750000000,180916.4687500000,162153.1875000000,130410.7343750000,137261.5625000000,148244.6406250000,154680.8906250000,,,
1.9079999970,14,77266.9140625000,157382.3593750000,180928.9375000000,162160.7500000000,130416.7734375000,137269.6562500000,148262.0937500000,154690.6093750000,,,
1.9119999970,14,77139.9140625000,157317.0000000000,180839.8125000000,162022.9687500000,130294.3281250000,137167.1406250000,148164.1250000000,154574.9218750000,,,
1.9159999969,14,77051.5859375000,157262.0625000000,180772.0000000000,161928.2812500000,130206.6718750000,137102.5781250000,148085.8750000000,154501.5937500000,,,
1.9199999969,15,77106.0390625000,157279.2031250000,180804.0625000000,161988.3281250000,130256.0781250000,137156.9531250000,148126.4062500000,154558.9375000000,,,
1.9239999969,15,77236.7109375000,157351.5781250000,180896.3281250000,162126.0468750000,130384.0781250000,137260.6718750000,148240.4218750000,154677.8125000000,,,
1.9279999968,15,77253.8281250000,157376.2812500000,180913.7968750000,162148.2812500000,130398.5859375000,137270.1875000000,148264.7031250000,154689.9687500000,,,
1.9319999968,15,77135.8125000000,157316.6718750000,180835.0468750000,162015.8593750000,130283.1171875000,137165.9843750000,148164.5000000000,154579.4531250000,,,
1.9359999967,15,77058.2656250000,157257.3437500000,180774.1875000000,161930.4531250000,130210.0546875000,137093.2500000000,148089.6406250000,154497.0312500000,,,
1.9399999967,15,77105.6640625000,157264.7187500000,180795.9062500000,161986.0781250000,130255.5703125000,137128.5937500000,148115.4843750000,154536.2968750000,,,
1.9439999969,15,77238.4609375000,157341.0781250000,180893.5156250000,162118.2656250000,130385.0390625000,137238.2500000000,148227.3593750000,154662.0625000000,,,
1.9479999968,15,77265.2265625000,157376.5937500000,180924.7812500000,162146.3437500000,130411.4609375000,137266.7812500000,148263.9531250000,154688.5156250000,,,
1.9519999968,15,77131.2500000000,157308.4687500000,180831.3593750000,162014.7500000000,130280.2187500000,137159.8125000000,148158.2187500000,154565.2968750000,,,
1.9559999967,15,77037.6953125000,157241.8125000000,180757.3906250000,161922.5937500000,130189.0234375000,137078.9531250000,148074.0000000000,154475.9531250000,,,
1.9599999967,15,77107.0312500000,157265.6093750000,180798.5156250000,161990.2656250000,130258.5468750000,137135.5937500000,148123.9687500000,154537.1875000000,,,
1.9639999969,15,77235.6953125000,157331.9843750000,180888.2812500000,162132.4218750000,130384.9375000000,137234.3906250000,148232.0312500000,154649.2968750000,,,
1.9679999969,15,77253.9609375000,157358.1718750000,180911.1562500000,162148.1718750000,130403.4140625000,137253.0468750000,148261.1562500000,154670.7031250000,,,
1.9719999968,15,77134.6562500000,157297.3906250000,180829.8906250000,162008.7187500000,130284.8906250000,137157.2187500000,148170.1875000000,154559.6875000000,,,
1.9759999968,15,77039.6796875000,157227.4375000000,180754.0312500000,161900.6250000000,130189.5078125000,137075.1406250000,148084.5937500000,154468.2500000000,,,
1.9799999967,15,77109.5781250000,157251.5468750000,180798.6093750000,161967.7656250000,130259.1406250000,137132.1875000000,148133.6562500000,154534.5781250000,,,
1.9839999967,15,77242.9609375000,157322.2343750000,180890.3125000000,162106.3593750000,130390.0000000000,137237.4375000000,148243.9218750000,154646.7031250000,,,
1.9879999969,15,77263.0781250000,157353.3750000000,180914.2500000000,162139.3125000000,130407.2265625000,137257.6718750000,148263.6250000000,154670.3750000000,,,
1.9919999968,15,77147.4218750000,157305.9687500000,180838.5468750000,162021.2500000000,130293.6562500000,137161.9687500000,148162.9062500000,154572.2343750000,,,
1.9959999968,15,77046.0859375000,157241.3593750000,180757.9218750000,161912.0000000000,130192.4296875000,137079.8593750000,148069.9531250000,154479.9218750000,,,
1.9999999967,15,77087.3437500000,157245.2500000000,180775.3593750000,161958.8593750000,130228.7500000000,137113.7656250000,148097.4687500000,154517.9531250000,,,
2.0039999967,15,77230.2265625000,157327.7812500000,180882.2500000000,162103.2968750000,130370.1015625000,137229.4218750000,148219.7812500000,154650.7500000000,,,
2.0079999969,15,77268.9531250000,157376.7812500000,180925.9687500000,162143.3593750000,130409.9843750000,137267.2656250000,148264.2500000000,154693.7656250000,,,
2.0119999968,15,77143.2656250000,157324.4062500000,180843.7812500000,162013.1718750000,130287.1953125000,137168.4843750000,148160.7656250000,154587.9531250000,,,
2.0159999968,15,77045.3906250000,157257.4218750000,180768.1718750000,161910.6562500000,130194.2812500000,137086.6250000000,148076.1406250000,154495.0781250000,,,
2.0199999968,15,77100.3515625000,157268.3437500000,180799.5781250000,161977.5312500000,130249.1875000000,137133.4062500000,148115.7031250000,154546.3593750000,,,
2.0239999967,15,77241.8359375000,157344.8593750000,180903.2812500000,162119.7656250000,130388.6093750000,137249.8906250000,148233.9375000000,154672.9062500000,,,
2.0279999967,15,77268.3125000000,157364.3906250000,180927.6250000000,162143.4218750000,130415.9687500000,137259.6250000000,148262.1562500000,154684.2500000000,,,
2.0319999969,15,77154.7968750000,157310.9375000000,180849.0937500000,162014.0625000000,130306.0234375000,137165.6718750000,148162.3281250000,154578.8593750000,,,
2.0359999968,15,77062.6093750000,157254.3906250000,180777.8593750000,161915.5468750000,130213.0859375000,137097.4843750000,148082.4218750000,154497.6406250000,,,
2.0399999968,15,77105.6328125000,157257.8281250000,180794.5312500000,161975.8906250000,130253.1328125000,137126.8750000000,148115.4843750000,154528.2500000000,,,
2.0439999967,15,77239.6406250000,157334.6250000000,180892.3281250000,162118.0468750000,130383.9140625000,137236.3906250000,148223.9375000000,154653.7187500000,,,
2.0479999967,16,77281.9062500000,157381.1250000000,180937.5781250000,162153.8281250000,130426.0234375000,137275.3125000000,148268.2187500000,154694.3906250000,,,
2.0519999966,16,77165.0468750000,157330.5156250000,180862.0468750000,162036.9062500000,130310.8750000000,137180.0468750000,148172.0937500000,154587.7187500000,,,
2.0559999966,16,77056.4140625000,157256.2187500000,180774.5781250000,161923.7812500000,130203.2421875000,137086.9687500000,148076.2187500000,154481.5312500000,,,
2.0599999966,16,77099.1406250000,157251.6406250000,180787.6406250000,161965.0468750000,130244.2812500000,137115.5625000000,148107.3437500000,154508.6250000000,,,
2.0639999965,16,77245.3203125000,157337.6250000000,180898.2812500000,162110.7187500000,130389.7343750000,137238.4375000000,148229.6250000000,154651.7968750000,,,
2.0679999965,16,77279.1718750000,157373.1093750000,180932.0781250000,162150.3437500000,130423.9062500000,137268.0468750000,148266.3906250000,154682.9375000000,,,
2.0719999967,16,77186.6406250000,157336.9531250000,180876.6875000000,162039.2187500000,130335.0468750000,137196.5625000000,148197.4531250000,154599.5781250000,,,
2.0759999966,16,77080.0703125000,157269.4687500000,180798.6093750000,161936.8906250000,130231.4296875000,137108.1406250000,148102.1875000000,154505.9375000000,,,
2.0799999966,16,77110.0625000000,157262.4218750000,180807.8906250000,161980.9843750000,130258.6328125000,137128.7812500000,148119.7812500000,154533.0781250000,,,
2.0839999965,16,77237.4609375000,157324.4843750000,180897.4218750000,162125.6562500000,130385.3671875000,137223.5468750000,148222.4375000000,154648.5000000000,,,
2.0879999965,16,77281.1875000000,157373.0781250000,180941.9062500000,162162.6250000000,130428.8671875000,137264.4062500000,148265.5000000000,154699.0625000000,,,
2.0919999967,16,77182.3203125000,157344.1406250000,180881.7343750000,162036.4531250000,130333.8906250000,137195.2812500000,148188.4687500000,154616.6562500000,,,
2.0959999966,16,77071.7812500000,157282.6406250000,180800.9687500000,161926.1093750000,130223.7578125000,137113.0156250000,148089.3593750000,154522.7812500000,,,
2.0999999966,16,77107.5156250000,157280.1250000000,180815.1875000000,161982.7500000000,130260.6406250000,137131.1250000000,148111.8125000000,154549.5156250000,,,
2.1039999966,16,77238.9921875000,157350.9531250000,180908.4843750000,162122.5000000000,130390.1875000000,137227.8437500000,148220.0937500000,154670.1406250000,,,
2.1079999965,16,77285.9296875000,157399.5000000000,180952.6875000000,162163.8906250000,130436.0312500000,137269.3906250000,148263.1250000000,154717.1093750000,,,
2.1119999965,16,77192.8046875000,157362.5156250000,180893.0625000000,162046.0312500000,130346.9531250000,137203.7031250000,148196.6093750000,154630.8125000000,,,
2.1159999967,16,77077.6562500000,157286.2812500000,180803.0625000000,161930.2343750000,130231.8046875000,137113.6875000000,148097.3906250000,154522.0781250000,,,
2.1199999966,16,77113.0625000000,157285.6406250000,180819.5156250000,161978.4843750000,130267.0546875000,137139.0312500000,148111.6093750000,154556.7031250000,,,
2.1239999966,16,77230.9453125000,157337.7343750000,180895.2500000000,162118.8750000000,130382.1718750000,137222.1562500000,148210.8750000000,154652.0625000000,,,
2.1279999965,16,77278.7421875000,157373.6250000000,180934.5781250000,162154.4687500000,130427.7656250000,137261.9062500000,148265.3437500000,154691.8906250000,,,
2.1319999965,16,77177.3828125000,157328.8593750000,180869.4531250000,162043.6093750000,130329.7890625000,137178.9375000000,148187.9843750000,154594.0781250000,,,
2.1359999967,16,77069.2343750000,157260.1875000000,180787.9062500000,161930.9375000000,130223.0390625000,137091.9062500000,148091.7343750000,154491.5312500000,,,
2.1399999966,16,77109.1171875000,157268.3750000000,180809.7500000000,161980.8750000000,130261.9531250000,137128.0312500000,148116.0781250000,154530.7656250000,,,
2.1439999966,16,77246.5312500000,157351.5937500000,180912.5625000000,162133.7656250000,130396.9765625000,137246.3437500000,148228.1718750000,154664.6406250000,,,
2.1479999966,16,77279.0625000000,157385.1250000000,180944.3593750000,162174.4843750000,130428.6250000000,137274.7500000000,148261.0000000000,154695.3750000000,,,
2.1519999965,16,77158.9531250000,157326.8125000000,180863.4218750000,162041.9531250000,130309.0781250000,137176.6562500000,148163.9375000000,154584.2812500000,,,
2.1559999965,16,77054.4843750000,157259.6562500000,180784.4843750000,161921.5156250000,130207.4765625000,137090.2968750000,148073.7031250000,154490.4062500000,,,
2.1599999967,16,77098.9843750000,157269.8750000000,180807.5468750000,161982.1718750000,130252.8593750000,137125.8906250000,148103.5312500000,154534.7500000000,,,
2.1639999966,16,77208.5000000000,157313.2968750000,180874.6562500000,162129.9062500000,130358.4062500000,137206.2187500000,148193.0937500000,154625.8593750000,,,
2.1679999966,16,77257.5000000000,157355.3281250000,180921.2968750000,162172.2500000000,130408.3203125000,137242.7031250000,148244.1093750000,154675.9843750000,,,
2.1719999965,16,77168.1328125000,157335.2656250000,180875.5625000000,162058.3593750000,130322.1953125000,137178.5156250000,148175.7343750000,154607.5937500000,,,
2.1759999965,17,77056.7109375000,157262.9531250000,180788.9375000000,161938.9531250000,130214.1562500000,137083.7812500000,148076.5000000000,154498.1875000000,,,
2.1799999964,17,77094.9062500000,157265.3906250000,180803.6562500000,161981.2812500000,130251.9765625000,137113.9062500000,148098.8906250000,154531.5312500000,,,
2.1839999964,17,77230.1953125000,157332.3125000000,180895.6250000000,162119.7343750000,130385.5000000000,137221.1875000000,148210.6875000000,154654.3906250000,,,
2.1879999964,17,77296.2343750000,157392.0000000000,180956.9687500000,162171.5000000000,130450.4375000000,137276.7656250000,148273.4218750000,154720.4531250000,,,
2.1919999963,17,77189.3984375000,157356.0000000000,180889.3593750000,162059.3125000000,130343.6796875000,137192.5937500000,148188.6875000000,154624.4375000000,,,
2.1959999963,17,77059.5000000000,157270.6562500000,180787.5937500000,161930.3125000000,130214.8515625000,137087.8281250000,148080.7812500000,154500.7812500000,,,
2.1999999965,17,77094.9843750000,157270.7500000000,180802.9062500000,161966.2656250000,130249.9140625000,137119.4062500000,148104.5468750000,154532.2500000000,,,
2.2039999964,17,77234.1093750000,157344.6562500000,180903.0625000000,162118.6093750000,130388.8750000000,137232.0000000000,148219.4062500000,154663.0000000000,,,
2.2079999964,17,77280.1953125000,157380.7500000000,180940.8593750000,162151.4375000000,130436.4296875000,137266.1718750000,148269.8281250000,154701.0156250000,,,
2.2119999963,17,77176.5781250000,157345.3281250000,180878.4062500000,162053.8125000000,130332.5234375000,137188.2031250000,148189.3593750000,154612.3125000000,,,
2.2159999963,17,77047.6171875000,157262.4218750000,180778.7187500000,161927.9062500000,130204.7968750000,137074.9843750000,148072.7968750000,154487.7812500000,,,
2.2199999965,17,77078.4375000000,157252.2968750000,180787.4843750000,161959.9843750000,130236.3125000000,137092.9843750000,148084.5625000000,154505.9375000000,,,
2.2239999964,17,77223.3281250000,157327.4531250000,180889.7500000000,162109.8593750000,130378.7890625000,137214.1562500000,148205.0781250000,154638.4687500000,,,
2.2279999964,17,77290.7031250000,157387.0625000000,180951.5625000000,162173.9375000000,130443.8593750000,137276.7968750000,148272.2343750000,154706.5625000000,,,
2.2319999964,17,77193.2890625000,157355.3750000000,180895.5312500000,162064.4218750000,130348.0781250000,137201.0781250000,148198.0468750000,154620.4687500000,,,
2.2359999963,17,77075.2734375000,157282.6406250000,180810.3125000000,161948.8593750000,130231.1328125000,137108.0468750000,148093.3906250000,154509.7500000000,,,
2.2399999963,17,77104.5859375000,157276.0937500000,180819.9062500000,161979.1093750000,130261.4218750000,137127.8437500000,148110.7500000000,154532.5625000000,,,
2.2439999965,17,77225.4453125000,157331.1093750000,180897.7187500000,162118.9843750000,130381.1015625000,137223.7343750000,148211.3750000000,154638.9218750000,,,
2.2479999964,17,77260.5312500000,157368.8437500000,180931.1406250000,162168.6093750000,130415.2734375000,137256.4531250000,148243.6250000000,154682.6718750000,,,
2.2519999964,17,77161.0781250000,157334.8281250000,180873.0468750000,162055.9062500000,130321.7421875000,137174.0625000000,148164.1406250000,154599.6250000000,,,
2.2559999963,17,77055.7734375000,157276.6875000000,180795.9531250000,161940.8281250000,130220.0312500000,137089.2187500000,148076.5937500000,154503.8906250000,,,
2.2599999963,17,77085.0859375000,157277.0937500000,180806.2812500000,161973.5625000000,130247.8984375000,137115.7187500000,148090.6250000000,154533.2656250000,,,
2.2639999965,17,77233.6328125000,157354.6562500000,180910.9687500000,162126.2500000000,130394.4843750000,137231.0312500000,148207.8125000000,154670.2968750000,,,
2.2679999964,17,77296.7109375000,157406.5625000000,180967.1718750000,162183.6875000000,130455.5859375000,137280.8125000000,148271.3750000000,154727.8125000000,,,
2.2719999964,17,77199.5625000000,157371.6875000000,180908.2343750000,162083.7968750000,130359.3437500000,137205.3593750000,148203.3906250000,154642.6718750000,,,
2.2759999963,17,77073.1250000000,157291.2500000000,180809.5781250000,161968.8125000000,130234.7578125000,137096.9218750000,148098.2656250000,154517.2812500000,,,
2.2799999963,17,77082.8906250000,157264.9062500000,180796.4687500000,161965.1875000000,130246.1796875000,137096.0625000000,148098.5468750000,154516.3125000000,,,
2.2839999963,17,77199.2421875000,157318.7968750000,180873.6093750000,162089.1250000000,130361.1953125000,137194.9375000000,148192.1250000000,154629.5312500000,,,
2.2879999964,17,77265.6015625000,157377.7812500000,180937.5312500000,162154.5000000000,130428.2265625000,137258.7343750000,148254.2656250000,154702.8906250000,,,
2.2919999964,17,77174.2968750000,157352.3281250000,180885.8906250000,162048.5156250000,130338.1796875000,137194.6875000000,148184.3906250000,154623.2343750000,,,
2.2959999964,17,77049.7656250000,157275.4843750000,180789.6875000000,161922.5625000000,130215.6562500000,137089.7812500000,148080.3750000000,154501.2656250000,,,
2.2999999963,17,77079.4843750000,157267.1562500000,180799.0781250000,161964.6562500000,130246.0781250000,137106.3906250000,148096.7187500000,154522.1875000000,,,
2.3039999963,18,77231.2656250000,157344.8593750000,180907.8125000000,162123.8906250000,130395.8203125000,137225.3750000000,148222.2187500000,154660.0625000000,,,
2.3079999962,18,77297.9218750000,157398.5625000000,180966.3906250000,162182.8281250000,130462.9062500000,137273.7031250000,148287.6406250000,154717.7187500000,,,
2.3119999962,18,77190.2578125000,157353.7968750000,180897.8906250000,162067.7812500000,130355.8359375000,137186.4062500000,148202.1562500000,154618.8593750000,,,
2.3159999961,18,77063.5781250000,157284.5156250000,180806.6093750000,161936.0000000000,130230.0625000000,137092.4218750000,148090.9218750000,154507.8906250000,,,
2.3199999961,18,77070.7421875000,157257.2968750000,180795.0000000000,161964.8906250000,130237.1718750000,137090.8125000000,148085.6875000000,154504.5468750000,,,
2.3239999961,18,77209.2500000000,157329.1562500000,180893.3437500000,162108.4687500000,130373.3750000000,137211.7500000000,148198.0156250000,154640.9843750000,,,
2.3279999963,18,77279.7656250000,157387.9687500000,180953.7343750000,162170.9062500000,130445.8437500000,137266.4687500000,148264.8437500000,154707.8750000000,,,
2.3319999962,18,77168.5859375000,157342.7187500000,180880.1875000000,162054.4218750000,130334.8828125000,137179.2968750000,148181.5781250000,154607.6250000000,,,
2.3359999962,18,77037.8515625000,157261.2656250000,180782.6875000000,161941.7187500000,130204.2890625000,137076.2187500000,148068.5468750000,154486.3593750000,,,
2.3399999961,18,77063.7343750000,157253.8906250000,180791.0312500000,161970.3437500000,130233.0937500000,137091.0781250000,148077.9062500000,154509.3125000000,,,
2.3439999961,18,77197.9531250000,157317.7812500000,180881.1406250000,162105.7812500000,130366.3437500000,137196.0625000000,148184.8750000000,154633.2656250000,,,
2.3479999963,18,77261.4687500000,157366.1406250000,180932.5625000000,162157.6406250000,130427.8203125000,137245.1406250000,148243.4531250000,154690.9062500000,,,
2.3519999962,18,77162.2265625000,157326.9218750000,180870.5312500000,162049.4687500000,130330.9375000000,137167.7343750000,148170.3437500000,154599.8125000000,,,
2.3559999962,18,77041.7421875000,157264.2343750000,180788.5312500000,161922.3750000000,130211.8515625000,137076.4843750000,148072.0156250000,154498.0000000000,,,
2.3599999961,18,77052.4765625000,157248.0937500000,180784.6406250000,161944.4218750000,130222.7656250000,137083.6406250000,148074.4218750000,154505.2187500000,,,
2.3639999961,18,77174.1093750000,157298.8906250000,180863.2500000000,162079.0468750000,130343.2500000000,137182.6250000000,148172.9687500000,154612.2343750000,,,
2.3679999961,18,77238.1328125000,157351.8437500000,180917.0156250000,162131.0000000000,130408.9140625000,137238.4843750000,148230.9062500000,154677.4062500000,,,
2.3719999962,18,77157.9921875000,157337.2187500000,180875.7500000000,162037.8437500000,130330.1093750000,137180.6093750000,148171.2343750000,154611.8593750000,,,
2.3759999962,18,77033.9375000000,157265.7968750000,180784.2187500000,161920.6406250000,130208.6093750000,137075.6562500000,148065.7343750000,154494.1406250000,,,
2.3799999962,18,77040.1093750000,157241.0156250000,180772.1718750000,161938.6406250000,130214.2890625000,137074.6562500000,148060.9375000000,154493.3281250000,,,
2.3839999961,18,77176.5234375000,157308.3906250000,180863.6093750000,162073.9843750000,130346.9531250000,137185.1406250000,148180.7187500000,154618.3437500000,,,
2.3879999961,18,77239.4531250000,157360.2656250000,180915.3125000000,162129.9531250000,130408.0000000000,137243.6718750000,148245.0625000000,154680.5156250000,,,
2.3919999963,18,77146.9375000000,157325.0156250000,180858.7968750000,162034.1250000000,130317.3984375000,137167.4687500000,148173.9843750000,154590.5625000000,,,
2.3959999962,18,77016.6640625000,157245.7656250000,180761.8125000000,161907.3906250000,130187.0390625000,137057.0156250000,148066.2968750000,154467.0781250000,,,
2.3999999962,18,77023.0234375000,157227.0625000000,180754.9687500000,161926.0000000000,130191.7890625000,137063.6093750000,148057.7656250000,154471.5468750000,,,
2.4039999961,18,77174.7578125000,157305.0625000000,180865.7031250000,162074.1875000000,130345.8281250000,137185.7812500000,148178.7968750000,154610.2968750000,,,
2.4079999961,18,77233.9765625000,157352.4531250000,180916.5312500000,162147.8437500000,130401.4843750000,137236.1562500000,148235.0625000000,154669.2031250000,,,
2.4119999961,18,77154.1015625000,157328.7187500000,180870.4687500000,162057.2343750000,130323.9921875000,137173.5781250000,148171.9531250000,154602.4687500000,,,
2.4159999962,18,77027.6328125000,157250.9375000000,180774.5000000000,161927.5781250000,130203.1093750000,137066.2343750000,148057.2343750000,154484.7656250000,,,
2.4199999962,18,77045.4687500000,157240.2031250000,180778.6562500000,161950.6718750000,130222.5234375000,137078.4375000000,148062.8437500000,154499.7343750000,,,
2.4239999962,18,77186.0234375000,157319.3281250000,180883.2343750000,162101.0156250000,130361.1953125000,137192.4687500000,148181.3906250000,154632.9375000000,,,
2.4279999961,18,77252.2968750000,157374.6093750000,180941.9531250000,162171.1250000000,130426.4531250000,137249.5468750000,148243.0000000000,154700.3437500000,,,
2.4319999961,19,77177.0625000000,157354.6562500000,180900.0781250000,162072.5781250000,130353.9531250000,137191.2343750000,148183.5625000000,154637.6562500000,,,
2.4359999960,19,77061.1093750000,157283.0468750000,180812.6718750000,161950.5625000000,130241.7031250000,137088.9218750000,148086.2031250000,154524.8437500000,,,
2.4399999960,19,77068.5156250000,157265.1718750000,180803.9062500000,161978.6562500000,130246.7968750000,137090.3750000000,148082.5468750000,154521.2187500000,,,
2.4439999959,19,77196.6953125000,157334.5468750000,180895.0156250000,162107.3437500000,130370.2343750000,137200.6718750000,148193.5781250000,154641.1718750000,,,
2.4479999959,19,77265.8437500000,157397.8125000000,180956.0937500000,162164.0781250000,130437.0781250000,137268.7187500000,148259.9531250000,154715.6250000000,,,
2.4519999959,19,77174.8906250000,157362.2812500000,180897.4531250000,162056.6718750000,130346.9531250000,137197.3750000000,148185.3437500000,154633.9062500000,,,
2.4559999960,19,77064.7343750000,157294.3281250000,180817.0156250000,161938.2343750000,130240.6562500000,137104.8593750000,148090.7656250000,154529.4375000000,,,
2.4599999960,19,77067.4687500000,157275.4531250000,180808.3750000000,161939.8906250000,130241.6796875000,137109.4531250000,148083.8125000000,154529.0312500000,,,
2.4639999960,19,77204.9296875000,157354.6250000000,180908.8750000000,162081.3750000000,130374.8515625000,137226.4687500000,148193.8437500000,154663.1406250000,,,
2.4679999959,19,77297.6796875000,157430.9062500000,180987.6562500000,162165.4687500000,130466.2343750000,137300.3125000000,148282.3593750000,154752.8593750000,,,
2.4719999959,19,77214.3203125000,157383.7656250000,180926.4531250000,162080.6250000000,130385.8437500000,137217.4843750000,148221.4687500000,154658.3125000000,,,
2.4759999961,19,77071.5468750000,157283.5312500000,180809.1250000000,161952.2812500000,130239.1562500000,137104.0312500000,148100.5000000000,154517.2031250000,,,
2.4799999960,19,77066.8515625000,157259.3906250000,180792.4531250000,161956.1250000000,130232.6953125000,137101.4062500000,148087.9687500000,154512.2343750000,,,
2.4839999960,19,77198.3281250000,157331.6718750000,180889.4375000000,162093.6718750000,130365.4375000000,137210.7812500000,148196.8750000000,154636.6718750000,,,
2.4879999959,19,77272.0625000000,157394.4531250000,180958.5312500000,162172.9531250000,130442.2500000000,137276.8437500000,148265.1562500000,154712.6250000000,,,
2.4919999959,19,77187.4453125000,157367.9375000000,180912.2343750000,162085.5937500000,130361.0625000000,137211.9375000000,148200.5937500000,154645.7656250000,,,
2.4959999959,19,77067.3359375000,157295.8906250000,180824.7187500000,161953.9687500000,130244.0078125000,137112.6093750000,148099.8750000000,154537.9687500000,,,
2.4999999960,19,77080.8203125000,157289.9687500000,180827.7656250000,161978.0312500000,130259.2734375000,137123.8281250000,148104.8906250000,154551.8281250000,,,
2.5039999960,19,77203.3437500000,157351.9687500000,180910.5781250000,162122.8281250000,130380.8046875000,137218.6875000000,148203.6875000000,154657.5000000000,,,
2.5079999960,19,77260.4765625000,157388.1875000000,180951.6562500000,162185.2031250000,130438.2031250000,137261.8281250000,148255.7187500000,154704.4687500000,,,
2.5119999959,19,77179.4765625000,157355.0000000000,180899.2031250000,162080.9531250000,130358.2734375000,137198.7343750000,148192.6875000000,154631.6250000000,,,
2.5159999959,19,77059.1796875000,157277.9531250000,180807.8906250000,161949.2812500000,130239.7968750000,137100.5625000000,148091.1093750000,154518.7031250000,,,
2.5199999961,19,77074.0390625000,157267.7812500000,180810.7656250000,161971.4062500000,130255.8359375000,137106.5781250000,148097.8750000000,154527.9531250000,,,
2.5239999960,19,77208.5781250000,157349.6406250000,180911.8906250000,162122.0937500000,130389.6015625000,137216.9218750000,148211.0781250000,154658.0468750000,,,
2.5279999960,19,77286.8203125000,157418.7031250000,180981.7500000000,162190.1406250000,130464.3515625000,137289.4843750000,148281.7031250000,154739.2031250000,,,
2.5319999959,19,77195.8906250000,157371.8750000000,180915.5000000000,162090.8437500000,130370.6406250000,137214.2656250000,148214.6250000000,154647.5781250000,,,
2.5359999959,19,77064.6484375000,157287.8437500000,180813.8281250000,161954.0625000000,130239.2656250000,137107.5156250000,148100.9062500000,154526.3437500000,,,
2.5399999958,19,77064.4609375000,157272.6562500000,180803.6562500000,161950.0000000000,130237.5468750000,137115.7968750000,148096.6406250000,154528.8906250000,,,
2.5439999960,19,77198.2812500000,157352.8281250000,180901.5625000000,162085.3281250000,130367.1796875000,137236.3906250000,148217.0937500000,154657.9062500000,,,
2.5479999960,19,77281.2421875000,157419.8281250000,180970.9218750000,162163.9687500000,130446.5156250000,137311.8437500000,148292.2968750000,154738.5156250000,,,
2.5519999960,19,77204.8750000000,157389.7968750000,180920.8750000000,162067.8593750000,130366.3750000000,137255.3125000000,148236.1875000000,154665.6875000000,,,
2.5559999959,19,77087.0468750000,157314.4218750000,180831.7656250000,161945.4687500000,130248.2500000000,137161.2656250000,148136.9687500000,154553.0625000000,,,
2.5599999959,20,77096.3281250000,157301.2031250000,180829.9218750000,161952.7343750000,130257.1250000000,137165.6718750000,148139.1718750000,154551.7500000000,,,
2.5639999958,20,77232.9062500000,157379.5937500000,180930.1562500000,162098.2812500000,130392.3671875000,137276.1718750000,148250.0781250000,154674.7500000000,,,
2.5679999958,20,77313.1562500000,157443.9687500000,180995.4843750000,162175.7187500000,130469.8828125000,137354.0156250000,148330.6875000000,154752.7500000000,,,
2.5719999957,20,77229.6875000000,157409.9843750000,180937.9843750000,162079.1562500000,130387.2968750000,137298.8906250000,148280.2812500000,154679.7656250000,,,
2.5759999957,20,77107.5937500000,157330.0625000000,180841.8281250000,161952.0781250000,130266.2968750000,137205.8750000000,148181.5000000000,154561.4062500000,,,
2.5799999957,20,77107.1875000000,157313.4062500000,180832.3906250000,161959.9375000000,130266.7578125000,137207.1093750000,148169.5312500000,154558.0000000000,,,
2.5839999958,20,77229.9531250000,157373.4375000000,180916.7968750000,162086.1250000000,130389.5468750000,137305.1718750000,148273.4218750000,154659.7812500000,,,
2.5879999958,20,77322.5703125000,157439.2343750000,180993.7656250000,162170.8906250000,130480.4765625000,137380.2656250000,148363.4843750000,154741.7500000000,,,
2.5919999958,20,77271.1562500000,157430.7812500000,180965.7968750000,162100.7500000000,130431.1718750000,137344.3593750000,148334.0156250000,154699.8906250000,,,
2.5959999957,20,77137.7968750000,157347.6093750000,180861.2187500000,161970.7343750000,130299.0781250000,137237.0625000000,148220.2031250000,154575.4375000000,,,
2.5999999957,20,77118.2656250000,157308.7968750000,180829.4062500000,161965.8906250000,130273.4921875000,137214.5156250000,148188.8281250000,154548.2031250000,,,
2.6039999959,20,77263.2968750000,157393.9531250000,180937.5781250000,162088.9687500000,130417.0390625000,137329.6875000000,148294.7968750000,154687.0156250000,,,
2.6079999958,20,77350.8671875000,157470.3125000000,181016.2500000000,162192.9375000000,130505.6328125000,137414.0937500000,148376.7968750000,154779.4062500000,,,
2.6119999958,20,77275.8750000000,157447.1718750000,180971.7031250000,162119.5000000000,130430.6406250000,137369.4375000000,148338.2187500000,154719.9531250000,,,
2.6159999957,20,77139.1093750000,157355.8125000000,180865.0468750000,161955.4843750000,130296.9296875000,137247.4687500000,148218.5156250000,154587.9843750000,,,
2.6199999957,20,77105.1015625000,157298.5937500000,180820.9843750000,161942.9531250000,130262.4140625000,137202.8906250000,148174.7343750000,154537.4531250000,,,
2.6239999956,20,77230.4140625000,157361.0468750000,180910.6718750000,162080.5156250000,130384.3203125000,137301.0625000000,148274.5781250000,154649.4375000000,,,
2.6279999958,20,77330.1328125000,157439.8750000000,180996.2343750000,162177.5156250000,130481.0625000000,137385.0781250000,148360.0781250000,154748.5937500000,,,
2.6319999958,20,77264.2031250000,157424.6562500000,180957.3750000000,162105.5937500000,130414.7578125000,137329.3281250000,148308.0156250000,154696.5000000000,,,
2.6359999957,20,77127.6250000000,157338.0312500000,180851.9375000000,161967.2031250000,130278.7187500000,137210.3281250000,148188.2031250000,154569.3906250000,,,
2.6399999957,20,77123.9843750000,157317.5156250000,180841.0937500000,161970.5468750000,130275.9296875000,137201.5625000000,148176.2187500000,154561.7031250000,,,
2.6439999957,20,77249.1093750000,157384.8281250000,180931.2500000000,162102.4843750000,130401.0000000000,137294.6250000000,148274.7656250000,154673.8437500000,,,
2.6479999959,20,77331.5312500000,157447.3281250000,180998.3281250000,162177.8281250000,130482.3281250000,137360.0468750000,148348.9531250000,154753.6875000000,,,
2.6519999958,20,77252.6718750000,157413.6875000000,180947.9531250000,162100.5781250000,130404.1093750000,137301.7812500000,148289.9375000000,154686.7500000000,,,
2.6559999958,20,77122.7968750000,157331.5312500000,180851.9375000000,161963.5781250000,130279.2265625000,137199.2968750000,148176.0625000000,154568.0312500000,,,
2.6599999957,20,77109.0390625000,157306.1406250000,180834.5625000000,161962.5000000000,130267.2890625000,137184.7031250000,148151.6718750000,154554.2187500000,,,
2.6639999957,20,77229.7656250000,157373.9687500000,180921.4062500000,162088.8593750000,130388.2031250000,137278.0781250000,148244.9843750000,154667.5156250000,,,
2.6679999956,20,77321.6875000000,157441.1875000000,180996.4062500000,162182.2812500000,130478.5468750000,137351.8906250000,148324.6718750000,154753.0468750000,,,
2.6719999958,20,77254.5000000000,157415.4375000000,180952.8750000000,162106.7812500000,130411.5390625000,137296.7968750000,148274.0312500000,154690.6093750000,,,
2.6759999958,20,77135.1093750000,157343.0625000000,180863.9218750000,161977.5781250000,130293.8437500000,137193.8906250000,148168.2968750000,154582.8125000000,,,
2.6799999957,20,77124.8671875000,157320.0781250000,180847.4062500000,161982.3593750000,130284.1093750000,137170.7968750000,148145.7812500000,154570.9062500000,,,
2.6839999957,20,77234.1093750000,157367.6093750000,180919.6562500000,162110.1562500000,130393.3593750000,137246.5937500000,148234.7656250000,154663.7812500000,,,
2.6879999957,21,77313.5625000000,157425.2812500000,180984.2031250000,162193.9062500000,130473.2578125000,137315.1406250000,148307.9062500000,154742.9843750000,,,
2.6919999956,21,77232.4218750000,157387.7812500000,180927.8750000000,162103.9843750000,130393.1406250000,137251.9062500000,148236.1406250000,154670.7812500000,,,
2.6959999956,21,77099.0078125000,157302.2968750000,180827.6562500000,161956.2343750000,130259.5937500000,137148.5468750000,148120.6093750000,154550.8437500000,,,
2.6999999955,21,77076.9375000000,157269.6093750000,180802.2968750000,161951.0781250000,130237.8437500000,137125.4531250000,148098.3593750000,154527.1562500000,,,
2.7039999955,21,77198.8671875000,157338.4843750000,180889.0937500000,162087.6250000000,130359.1015625000,137224.3593750000,148198.0156250000,154638.3906250000,,,
2.7079999954,21,77290.1171875000,157409.8593750000,180964.1093750000,162182.4531250000,130448.5546875000,137302.7500000000,148278.9531250000,154726.7812500000,,,
2.7119999956,21,77231.6171875000,157387.7812500000,180930.2031250000,162111.9062500000,130389.7890625000,137251.8125000000,148234.4218750000,154672.7187500000,,,
2.7159999956,21,77102.2578125000,157301.7343750000,180831.5000000000,161975.5468750000,130260.7500000000,137135.5156250000,148121.7343750000,154548.2343750000,,,
2.7199999955,21,77087.1562500000,157273.2031250000,180809.0156250000,161947.1562500000,130243.8203125000,137114.6250000000,148103.4531250000,154528.2187500000,,,
2.7239999955,21,77201.5468750000,157333.3281250000,180888.3125000000,162081.1093750000,130356.5546875000,137202.4687500000,148193.2968750000,154627.6250000000,,,
2.7279999955,21,77284.6171875000,157388.7812500000,180954.8593750000,162164.3125000000,130438.8750000000,137267.4375000000,148263.3593750000,154702.1718750000,,,
2.7319999957,21,77229.8203125000,157373.6406250000,180924.1718750000,162090.3906250000,130386.4921875000,137228.2500000000,148221.3125000000,154659.8125000000,,,
2.7359999956,21,77115.1015625000,157307.2812500000,180840.5625000000,161960.7031250000,130276.3593750000,137136.2500000000,148125.1718750000,154554.8281250000,,,
2.7399999956,21,77080.3984375000,157264.0781250000,180804.2187500000,161946.9531250000,130242.6953125000,137102.5468750000,148083.4062500000,154517.5000000000,,,
2.7439999955,21,77205.9453125000,157336.1562500000,180900.0781250000,162085.3281250000,130367.6640625000,137208.6562500000,148184.2656250000,154639.3750000000,,,
2.7479999955,21,77294.5156250000,157403.5000000000,180975.2656250000,162172.8437500000,130453.3593750000,137284.6718750000,148267.9687500000,154726.5468750000,,,
2.7519999954,21,77244.4687500000,157394.8593750000,180952.8906250000,162113.9375000000,130404.4375000000,137244.9218750000,148233.0781250000,154687.4218750000,,,
2.7559999956,21,77101.2109375000,157300.7500000000,180840.5937500000,161976.4218750000,130262.6484375000,137121.8906250000,148107.9218750000,154549.6875000000,,,
2.7599999956,21,77082.2734375000,157271.1562500000,180813.2656250000,161960.2187500000,130243.5000000000,137101.3281250000,148083.0625000000,154527.2812500000,,,
2.7639999955,21,77200.8828125000,157332.9843750000,180895.3593750000,162089.0781250000,130361.3046875000,137191.8750000000,148176.0781250000,154635.2656250000,,,
2.7679999955,21,77314.9843750000,157414.6875000000,180987.6093750000,162188.9687500000,130476.1796875000,137283.6562500000,148276.6406250000,154741.5156250000,,,
2.7719999955,21,77233.1718750000,157382.6875000000,180931.2187500000,162121.8750000000,130387.6171875000,137230.3125000000,148206.8281250000,154673.3125000000,,,
2.7759999956,21,77099.1171875000,157298.9531250000,180828.7343750000,161996.3593750000,130256.1640625000,137118.3281250000,148093.3906250000,154552.1718750000,,,
2.7799999956,21,77073.6875000000,157255.2031250000,180794.6250000000,161969.3437500000,130230.6015625000,137089.2187500000,148076.4375000000,154513.5312500000,,,
2.7839999956,21,77194.4687500000,157323.7031250000,180880.3750000000,162077.4687500000,130348.6406250000,137193.5156250000,148181.5468750000,154630.1250000000,,,
2.7879999955,21,77284.7500000000,157391.7812500000,180953.0000000000,162166.6250000000,130437.5078125000,137268.8750000000,148264.2500000000,154717.7031250000,,,
2.7919999955,21,77220.2187500000,157361.2343750000,180910.4375000000,162107.9375000000,130370.8515625000,137215.3906250000,148214.5937500000,154654.3906250000,,,
2.7959999954,21,77086.5078125000,157277.8906250000,180810.9218750000,161969.3125000000,130237.6562500000,137107.6718750000,148097.4687500000,154534.0468750000,,,
2.7999999956,21,77074.7656250000,157256.6250000000,180796.0937500000,161950.4062500000,130225.2343750000,137097.9218750000,148077.3437500000,154522.1093750000,,,
2.8039999956,21,77190.4687500000,157315.8437500000,180875.9218750000,162082.0312500000,130338.7187500000,137188.2500000000,148169.0625000000,154622.5000000000,,,
2.8079999955,21,77308.0078125000,157402.4218750000,180971.5625000000,162208.8437500000,130454.3515625000,137284.8125000000,148272.0781250000,154729.9843750000,,,
2.8119999955,21,77252.7812500000,157391.1406250000,180940.0781250000,162136.3593750000,130396.3359375000,137248.4375000000,148230.7656250000,154683.4375000000,,,
2.8159999955,22,77104.3984375000,157295.5625000000,180823.8750000000,161986.1562500000,130248.8359375000,137123.2031250000,148102.1093750000,154542.4375000000,,,
2.8199999954,22,77070.1484375000,157247.8281250000,180781.9531250000,161941.0468750000,130215.8203125000,137083.7500000000,148065.6562500000,154501.2343750000,,,
2.8239999954,22,77154.7187500000,157276.4687500000,180828.5000000000,162041.1406250000,130298.6718750000,137146.2812500000,148132.5000000000,154571.1718750000,,,
2.8279999953,22,77249.5312500000,157346.7968750000,180906.2812500000,162141.8593750000,130392.2265625000,137232.0312500000,148212.1562500000,154669.6250000000,,,
2.8319999953,22,77206.4296875000,157339.9843750000,180886.1562500000,162088.2500000000,130349.9843750000,137198.7343750000,148180.4531250000,154632.7031250000,,,
2.8359999952,22,77078.9453125000,157263.0000000000,180791.0000000000,161950.0312500000,130225.2343750000,137089.9531250000,148069.4843750000,154512.9843750000,,,
2.8399999954,22,77077.3359375000,157253.3281250000,180787.9687500000,161943.1406250000,130225.6875000000,137085.2031250000,148061.8281250000,154511.4687500000,,,
2.8439999954,22,77200.5312500000,157323.0937500000,180877.2343750000,162067.1093750000,130348.1640625000,137180.0625000000,148162.5156250000,154624.2812500000,,,
2.8479999953,22,77285.5312500000,157383.9531250000,180943.7500000000,162168.8750000000,130430.1015625000,137254.6406250000,148229.3750000000,154706.2968750000,,,
2.8519999953,22,77224.9921875000,157357.1562500000,180903.2187500000,162109.7656250000,130368.7343750000,137209.5781250000,148184.2343750000,154645.5781250000,,,
2.8559999953,22,77104.5625000000,157281.8906250000,180812.7187500000,161980.2031250000,130249.0000000000,137110.3593750000,148092.5312500000,154532.0312500000,,,
2.8599999954,22,77086.2187500000,157260.8593750000,180792.1718750000,161948.8281250000,130228.9921875000,137094.3125000000,148074.8281250000,154515.1875000000,,,
2.8639999954,22,77198.4375000000,157325.5312500000,180872.7812500000,162068.9843750000,130340.1718750000,137186.6093750000,148164.5781250000,154619.6093750000,,,
2.8679999954,22,77298.1093750000,157395.1562500000,180954.3750000000,162174.4531250000,130439.3281250000,137265.1250000000,148252.2812500000,154712.2812500000,,,
2.8719999953,22,77256.0000000000,157386.9531250000,180933.7656250000,162121.2968750000,130398.5859375000,137230.9218750000,148223.2656250000,154675.5312500000,,,
2.8759999953,22,77136.8828125000,157314.0781250000,180844.5937500000,161972.8906250000,130278.5546875000,137129.5312500000,148118.6562500000,154561.9687500000,,,
2.8799999952,22,77111.4531250000,157281.9687500000,180817.0156250000,161951.1093750000,130249.1093750000,137103.9218750000,148087.2500000000,154533.1875000000,,,
2.8839999954,22,77225.1015625000,157342.5937500000,180894.5312500000,162068.7968750000,130358.4375000000,137199.1875000000,148179.8437500000,154636.4531250000,,,
2.8879999954,22,77327.6953125000,157410.6406250000,180972.7968750000,162173.3281250000,130459.1796875000,137284.5156250000,148274.9687500000,154728.6875000000,,,
2.8919999953,22,77267.7734375000,157388.4062500000,180936.4531250000,162112.6250000000,130401.1093750000,137234.9531250000,148230.1250000000,154679.5000000000,,,
2.8959999953,22,77137.0937500000,157314.4218750000,180842.9843750000,161968.4062500000,130272.5781250000,137133.6718750000,148122.1406250000,154565.5000000000,,,
2.8999999953,22,77102.8750000000,157277.2968750000,180812.3750000000,161938.3906250000,130242.2656250000,137102.9531250000,148087.4375000000,154532.0000000000,,,
2.9039999954,22,77212.3593750000,157338.8281250000,180892.8750000000,162058.6875000000,130352.1562500000,137195.3125000000,148175.1093750000,154635.7343750000,,,
2.9079999954,22,77312.3515625000,157408.8125000000,180970.7031250000,162166.3281250000,130451.9921875000,137280.6562500000,148264.0625000000,154731.2968750000,,,
2.9119999954,22,77263.1093750000,157393.5000000000,180938.3281250000,162111.3750000000,130401.1875000000,137240.6406250000,148228.7031250000,154686.4531250000,,,
2.9159999953,22,77138.2265625000,157309.9375000000,180840.0000000000,161973.2031250000,130274.8593750000,137133.2968750000,148125.0625000000,154561.0000000000,,,
2.9199999953,22,77095.3359375000,157264.8593750000,180796.0937500000,161946.4687500000,130228.6953125000,137095.8750000000,148083.7031250000,154517.1718750000,,,
2.9239999952,22,77206.3750000000,157320.6406250000,180872.4062500000,162068.7812500000,130338.5625000000,137181.4062500000,148167.7343750000,154618.7187500000,,,
2.9279999954,22,77307.9531250000,157392.9375000000,180952.6875000000,162167.8750000000,130439.1406250000,137263.8281250000,148252.5312500000,154717.8593750000,,,
2.9319999954,22,77256.1875000000,157375.8125000000,180920.9531250000,162104.9843750000,130389.7656250000,137221.7812500000,148212.1093750000,154669.3593750000,,,
2.9359999953,22,77137.0156250000,157304.0156250000,180833.8281250000,161973.5625000000,130274.3203125000,137124.7968750000,148107.6875000000,154554.0781250000,,,
2.9399999953,22,77101.5312500000,157268.5000000000,180801.2187500000,161942.4375000000,130240.3593750000,137093.4375000000,148078.9062500000,154520.0468750000,,,
2.9439999952,23,77223.4609375000,157336.6250000000,180888.3125000000,162068.7187500000,130361.8437500000,137193.1875000000,148184.9531250000,154636.0156250000,,,
2.9479999952,23,77319.1640625000,157401.1093750000,180960.4531250000,162171.6875000000,130453.7343750000,137274.0312500000,148273.0937500000,154722.9218750000,,,
2.9519999952,23,77265.1718750000,157383.0312500000,180928.6250000000,162120.8125000000,130398.0468750000,137235.7500000000,148232.8125000000,154679.0156250000,,,
2.9559999951,23,77130.1250000000,157301.0625000000,180829.2187500000,161968.3750000000,130265.9765625000,137121.7343750000,148115.5156250000,154555.6093750000,,,
2.9599999951,23,77087.0703125000,157254.4218750000,180787.7031250000,161925.2968750000,130223.5468750000,137083.8593750000,148069.7031250000,154509.0468750000,,,
