Time:250Hz,Epoch,Channel 1,Channel 2,Channel 3,Channel 4,Channel 5,Channel 6,Channel 7,Channel 8,Event Id,Event Date,Event Duration
0.0000000000,0,135070.4062500000,105334.9765625000,136179.6406250000,139723.0937500000,106841.2265625000,100716.5859375000,131135.0625000000,126988.9062500000,,,
0.0040000000,0,135218.7812500000,105640.1328125000,136310.6875000000,140101.5937500000,107062.2421875000,101058.1640625000,131377.9218750000,126879.6640625000,,,
0.0079999999,0,137045.9062500000,107737.9921875000,138155.4531250000,142288.5468750000,109036.6406250000,103195.8046875000,133381.1250000000,128247.1093750000,,,
0.0119999999,0,138037.3906250000,108728.1328125000,139175.7968750000,143234.4375000000,110039.8125000000,104168.8046875000,134376.3593750000,129204.9218750000,,,
0.0159999998,0,136821.7031250000,107248.8906250000,137966.3125000000,141640.4531250000,108691.6015625000,102638.2031250000,133001.5937500000,128429.8750000000,,,
0.0199999998,0,135064.1093750000,105333.7421875000,136178.7187500000,139690.4843750000,106834.2265625000,100695.8515625000,131134.7968750000,126978.6875000000,,,
0.0240000000,0,135193.1093750000,105624.2812500000,136286.0937500000,140053.2812500000,107030.6406250000,101016.5390625000,131350.7187500000,126857.1015625000,,,
0.0279999999,0,137013.5312500000,107707.2812500000,138126.6250000000,142261.3750000000,109002.6015625000,103147.7421875000,133346.5468750000,128215.7500000000,,,
0.0319999999,0,137992.7500000000,108663.4921875000,139133.2812500000,143238.2187500000,109995.5312500000,104121.6015625000,134333.9843750000,129157.8203125000,,,
0.0359999998,0,136785.2187500000,107190.1796875000,137930.5000000000,141649.2187500000,108659.0078125000,102607.6015625000,132966.7968750000,128387.8437500000,,,
0.0399999998,0,135048.5156250000,105304.5078125000,136165.0625000000,139711.4062500000,106824.5156250000,100691.1562500000,131122.3281250000,126964.6093750000,,,
0.0440000000,0,135154.5468750000,105566.8828125000,136246.8281250000,140052.2656250000,106994.7031250000,100985.8281250000,131314.6875000000,126827.3593750000,,,
0.0480000000,0,136989.3906250000,107680.6250000000,138095.6406250000,142256.0468750000,108976.3203125000,103144.9765625000,133320.2031250000,128204.8593750000,,,
0.0519999999,0,138058.7812500000,108755.6484375000,139188.0000000000,143305.8125000000,110058.7187500000,104210.6171875000,134391.6406250000,129229.6015625000,,,
0.0559999999,0,136878.5937500000,107313.6953125000,138013.7812500000,141743.4687500000,108746.5312500000,102716.6015625000,133046.2187500000,128487.0312500000,,,
0.0599999998,0,135111.9531250000,105384.1406250000,136221.0781250000,139762.8281250000,106879.7109375000,100758.4296875000,131170.5312500000,127040.0312500000,,,
0.0639999998,0,135172.4375000000,105596.9453125000,136257.4687500000,140057.0312500000,107001.8046875000,100996.6875000000,131315.9062500000,126858.2031250000,,,
0.0680000000,0,136971.9375000000,107671.3671875000,138071.5312500000,142212.7812500000,108948.3671875000,103101.8203125000,133288.9375000000,128190.5390625000,,,
0.0719999999,0,138018.9531250000,108708.2812500000,139147.5000000000,143250.1562500000,110012.1875000000,104139.4375000000,134335.4843750000,129182.2031250000,,,
0.0759999999,0,136874.0781250000,107293.1250000000,138006.7343750000,141751.8750000000,108739.1562500000,102694.4453125000,133028.3281250000,128471.6093750000,,,
0.0799999998,0,135133.2187500000,105391.0625000000,136244.5156250000,139793.5625000000,106904.9843750000,100767.3046875000,131176.4062500000,127051.1640625000,,,
0.0839999998,0,135199.6406250000,105609.4765625000,136292.1250000000,140085.5937500000,107037.2109375000,101011.9765625000,131340.3906250000,126881.7265625000,,,
0.0880000000,0,136971.9062500000,107646.3984375000,138080.0312500000,142222.4375000000,108953.7031250000,103103.2734375000,133291.0312500000,128191.1250000000,,,
0.0919999999,0,138031.2500000000,108705.0078125000,139164.9062500000,143257.2812500000,110029.5390625000,104167.5703125000,134352.4531250000,129191.2187500000,,,
0.0959999999,0,136885.0468750000,107296.7187500000,138018.2656250000,141731.4375000000,108750.5000000000,102714.0312500000,133038.7343750000,128474.5000000000,,,
0.0999999999,0,135129.3281250000,105380.2812500000,136237.4687500000,139746.7031250000,106895.7500000000,100769.0781250000,131170.4218750000,127038.3984375000,,,
0.1039999998,0,135191.4843750000,105597.6484375000,136281.7656250000,140039.6875000000,107024.0703125000,101009.4062500000,131314.9687500000,126867.3515625000,,,
0.1079999998,0,136966.8906250000,107642.2656250000,138077.3281250000,142189.4687500000,108948.4218750000,103096.6953125000,133263.9375000000,128180.1562500000,,,
0.1120000000,0,138031.5156250000,108703.9375000000,139170.2187500000,143253.2031250000,110031.6328125000,104167.0625000000,134337.3281250000,129183.0859375000,,,
0.1159999999,0,136899.3281250000,107321.8515625000,138038.9375000000,141754.4218750000,108771.1250000000,102737.7109375000,133051.6875000000,128481.3671875000,,,
0.1199999999,0,135147.4375000000,105414.0234375000,136268.3906250000,139765.5312500000,106922.3359375000,100786.4296875000,131195.0937500000,127052.8281250000,,,
0.1239999998,0,135161.0156250000,105573.8281250000,136252.4062500000,140019.4531250000,106993.4921875000,100974.8046875000,131289.4843750000,126837.8984375000,,,
0.1279999998,1,136913.1875000000,107595.1953125000,138021.6718750000,142175.5000000000,108893.3828125000,103040.3984375000,133214.7968750000,128125.2500000000,,,
0.1319999998,1,137996.0000000000,108685.7265625000,139132.0468750000,143258.5937500000,109994.9375000000,104129.6953125000,134306.9687500000,129142.3750000000,,,
0.1359999997,1,136877.8593750000,107310.3671875000,138013.6718750000,141756.9375000000,108748.1640625000,102712.6875000000,133026.7968750000,128454.0078125000,,,
0.1399999997,1,135102.7031250000,105376.7109375000,136211.3437500000,139744.7500000000,106874.7500000000,100754.2968750000,131147.0781250000,127008.5703125000,,,
0.1439999996,1,135133.8125000000,105552.6093750000,136221.3906250000,140005.7812500000,106967.3984375000,100952.2421875000,131262.0937500000,126811.2109375000,,,
0.1479999996,1,136919.1406250000,107611.6640625000,138022.3125000000,142165.1718750000,108898.4531250000,103060.7031250000,133221.4218750000,128135.8984375000,,,
0.1519999998,1,138013.7343750000,108714.3984375000,139146.1562500000,143258.3906250000,110015.0312500000,104170.6796875000,134328.1562500000,129162.1718750000,,,
0.1559999997,1,136907.9843750000,107349.3437500000,138043.2812500000,141777.9375000000,108780.9140625000,102764.0781250000,133065.0000000000,128483.6796875000,,,
0.1599999997,1,135126.7343750000,105397.3906250000,136237.3593750000,139756.8125000000,106896.4765625000,100771.0390625000,131170.9843750000,127029.4921875000,,,
0.1639999996,1,135135.4218750000,105545.8281250000,136221.2343750000,139985.2656250000,106963.0468750000,100949.5937500000,131254.4843750000,126814.1640625000,,,
0.1679999996,1,136893.8750000000,107560.6171875000,137996.6718750000,142119.1406250000,108869.1328125000,103016.3437500000,133182.6875000000,128102.5859375000,,,
0.1719999998,1,137991.3593750000,108665.8515625000,139119.7656250000,143227.9218750000,109989.3046875000,104123.8515625000,134306.4375000000,129129.0468750000,,,
0.1759999997,1,136907.5000000000,107326.1406250000,138036.5468750000,141775.5468750000,108775.6328125000,102741.3359375000,133064.5937500000,128470.9375000000,,,
0.1799999997,1,135127.0000000000,105373.4687500000,136230.5468750000,139754.8593750000,106890.7656250000,100762.8515625000,131163.9531250000,127024.5781250000,,,
0.1839999997,1,135114.2031250000,105497.7343750000,136200.6875000000,139981.5781250000,106939.0156250000,100918.2109375000,131231.7343750000,126789.9140625000,,,
0.1879999996,1,136901.9218750000,107563.0312500000,138007.3437500000,142139.0781250000,108878.1484375000,103032.2421875000,133200.1875000000,128115.7812500000,,,
0.1919999996,1,138039.1250000000,108719.9218750000,139172.8750000000,143279.0312500000,110042.6328125000,104190.5859375000,134357.0156250000,129178.1796875000,,,
0.1959999998,1,136952.8906250000,107380.0781250000,138087.1406250000,141820.5625000000,108827.5859375000,102811.9296875000,133112.7656250000,128517.9531250000,,,
0.1999999997,1,135154.6250000000,105411.7656250000,136257.3906250000,139780.1562500000,106922.5234375000,100819.6406250000,131201.4531250000,127061.2187500000,,,
0.2039999997,1,135120.7968750000,105516.1093750000,136196.3750000000,139957.2812500000,106940.5703125000,100949.0781250000,131239.4062500000,126812.8203125000,,,
0.2079999996,1,136883.5468750000,107550.3984375000,137973.0312500000,142102.0000000000,108849.6328125000,103026.7734375000,133174.8125000000,128106.9609375000,,,
0.2119999996,1,138023.0312500000,108710.2968750000,139145.2500000000,143244.6875000000,110018.0078125000,104182.9375000000,134336.8750000000,129165.6796875000,,,
0.2159999998,1,136944.4687500000,107380.7812500000,138066.9375000000,141808.7031250000,108809.8593750000,102805.4375000000,133101.3750000000,128509.6171875000,,,
0.2199999997,1,135145.5625000000,105412.9453125000,136243.1250000000,139779.5000000000,106908.4140625000,100802.2812500000,131188.3906250000,127048.8593750000,,,
0.2239999997,1,135110.7656250000,105523.6953125000,136193.0468750000,139958.2812500000,106935.7734375000,100935.9687500000,131237.7656250000,126802.1718750000,,,
0.2279999997,1,136876.7187500000,107569.2812500000,137978.5312500000,142099.9375000000,108852.3437500000,103023.4453125000,133186.5625000000,128104.4687500000,,,
0.2319999996,1,137990.3125000000,108694.6328125000,139115.0937500000,143219.7656250000,109989.3593750000,104155.3125000000,134317.9062500000,129135.9375000000,,,
0.2359999996,1,136939.9843750000,107390.3515625000,138063.0312500000,141807.1718750000,108811.0625000000,102811.9296875000,133104.7500000000,128504.6015625000,,,
0.2399999998,1,135136.7968750000,105413.8828125000,136233.2500000000,139765.0000000000,106899.8281250000,100805.4765625000,131179.4062500000,127042.1250000000,,,
0.2439999997,1,135091.2656250000,105513.8281250000,136164.4218750000,139931.8593750000,106905.6484375000,100919.6328125000,131204.0468750000,126786.4296875000,,,
0.2479999997,1,136859.7031250000,107558.5000000000,137949.8906250000,142079.9375000000,108825.3046875000,103004.8359375000,133154.6093750000,128085.1796875000,,,
0.2519999996,1,138025.8437500000,108740.9531250000,139148.4062500000,143254.0156250000,110024.4453125000,104195.3359375000,134349.4843750000,129164.3125000000,,,
0.2559999996,2,136975.9531250000,107436.7265625000,138099.9531250000,141844.1875000000,108849.2343750000,102856.4296875000,133148.2031250000,128534.0468750000,,,
0.2599999995,2,135158.4843750000,105445.2656250000,136259.9375000000,139785.7031250000,106927.4062500000,100829.8828125000,131215.4218750000,127058.2187500000,,,
0.2639999995,2,135070.9218750000,105490.1953125000,136150.2343750000,139910.2031250000,106894.7578125000,100908.8203125000,131203.3281250000,126766.8203125000,,,
0.2679999995,2,136825.7500000000,107522.4531250000,137917.2500000000,142040.5781250000,108797.9218750000,102994.2656250000,133135.7343750000,128058.8125000000,,,
0.2719999994,2,138023.7812500000,108745.9921875000,139144.4062500000,143249.2656250000,110023.9843750000,104215.9296875000,134351.9531250000,129167.4218750000,,,
0.2759999994,2,136996.3437500000,107462.6640625000,138123.5312500000,141856.3906250000,108870.2343750000,102883.9453125000,133162.3281250000,128551.7500000000,,,
0.2799999996,2,135144.4375000000,105419.9765625000,136242.4531250000,139785.5937500000,106909.4296875000,100817.9765625000,131186.1875000000,127041.1875000000,,,
0.2839999995,2,135065.3125000000,105476.2500000000,136140.3125000000,139909.9687500000,106884.6484375000,100901.4218750000,131179.8593750000,126761.9687500000,,,
0.2879999995,2,136827.6562500000,107507.8593750000,137919.2812500000,142057.3750000000,108797.0937500000,102984.2890625000,133136.3750000000,128059.8906250000,,,
0.2919999994,2,138024.1406250000,108724.9687500000,139158.0312500000,143252.7500000000,110029.0000000000,104205.3906250000,134368.2031250000,129160.2109375000,,,
0.2959999994,2,137012.7343750000,107471.7812500000,138144.5468750000,141886.3593750000,108885.6015625000,102904.6796875000,133191.8906250000,128562.4531250000,,,
0.2999999996,2,135172.2968750000,105446.2109375000,136263.6875000000,139820.2968750000,106927.1640625000,100851.1015625000,131216.0468750000,127070.6093750000,,,
0.3039999995,2,135061.6093750000,105467.9062500000,136130.9531250000,139901.4375000000,106871.1328125000,100900.4218750000,131178.2812500000,126763.9531250000,,,
0.3079999995,2,136795.7968750000,107482.9687500000,137881.5468750000,142006.9687500000,108758.6015625000,102961.6796875000,133097.8750000000,128033.7343750000,,,
0.3119999995,2,137989.7812500000,108707.7500000000,139106.6406250000,143226.9218750000,109985.8437500000,104185.3828125000,134320.9687500000,129126.7343750000,,,
0.3159999994,2,136990.8125000000,107461.8906250000,138113.6875000000,141867.7343750000,108864.2265625000,102893.8984375000,133170.7343750000,128534.5859375000,,,
0.3199999994,2,135192.7656250000,105490.5156250000,136290.9687500000,139820.2500000000,106959.8828125000,100887.3593750000,131252.4218750000,127086.0859375000,,,
0.3239999996,2,135083.9218750000,105509.2421875000,136162.1718750000,139890.6562500000,106902.9921875000,100921.7500000000,131208.1562500000,126785.3281250000,,,
0.3279999995,2,136811.5937500000,107500.8359375000,137908.5781250000,142007.5156250000,108783.3046875000,102965.9453125000,133114.0000000000,128046.9062500000,,,
0.3319999995,2,137978.7187500000,108695.5703125000,139100.8593750000,143219.2187500000,109983.5156250000,104169.4453125000,134306.1093750000,129114.2109375000,,,
0.3359999994,2,137002.9062500000,107478.0859375000,138129.6562500000,141887.9843750000,108884.5859375000,102905.1328125000,133171.7968750000,128542.0156250000,,,
0.3399999994,2,135198.0781250000,105495.4296875000,136299.9843750000,139823.5000000000,106970.3750000000,100887.7109375000,131257.8906250000,127087.5859375000,,,
0.3439999996,2,135066.2500000000,105490.0312500000,136144.7968750000,139879.7343750000,106885.6718750000,100905.9765625000,131194.4218750000,126768.9687500000,,,
0.3479999995,2,136775.0000000000,107468.7031250000,137866.5000000000,141981.4687500000,108742.6406250000,102931.7421875000,133078.4843750000,128013.4609375000,,,
0.3519999995,2,137976.5468750000,108705.6562500000,139096.0000000000,143211.4218750000,109979.0859375000,104172.1015625000,134308.5000000000,129111.7734375000,,,
0.3559999994,2,136997.2968750000,107487.9609375000,138122.7812500000,141877.8281250000,108879.2187500000,102910.0703125000,133170.7343750000,128537.0000000000,,,
0.3599999994,2,135209.7656250000,105519.8906250000,136315.3281250000,139820.8125000000,106985.2890625000,100909.3281250000,131249.5937500000,127099.9531250000,,,
0.3639999994,2,135060.9062500000,105488.4218750000,136139.0312500000,139864.6093750000,106883.4921875000,100907.0781250000,131164.6562500000,126765.5312500000,,,
0.3679999996,2,136766.1562500000,107457.1640625000,137854.9375000000,141968.5937500000,108736.1796875000,102941.2343750000,133071.6718750000,128010.3437500000,,,
0.3719999995,2,137991.4375000000,108712.1718750000,139107.6718750000,143228.7500000000,109996.0625000000,104209.4921875000,134338.7031250000,129127.2187500000,,,
0.3759999995,2,137040.8593750000,107522.1562500000,138165.1875000000,141927.7343750000,108924.5781250000,102975.1406250000,133238.0468750000,128572.0859375000,,,
0.3799999994,2,135230.8593750000,105535.3906250000,136337.1093750000,139867.1406250000,107008.5937500000,100950.1250000000,131307.1875000000,127115.5625000000,,,
0.3839999994,3,135048.2187500000,105473.7031250000,136131.3281250000,139860.1093750000,106873.3828125000,100910.5625000000,131188.1718750000,126758.9609375000,,,
0.3879999993,3,136725.2812500000,107415.1640625000,137818.3281250000,141925.5156250000,108694.3593750000,102903.4765625000,133029.6250000000,127976.0937500000,,,
0.3919999993,3,137954.4531250000,108682.8828125000,139074.3593750000,143178.0312500000,109960.7421875000,104173.4687500000,134289.3125000000,129090.8750000000,,,
0.3959999993,3,137040.8906250000,107542.5156250000,138167.6093750000,141908.6406250000,108931.0703125000,102988.5000000000,133231.7500000000,128570.9843750000,,,
0.3999999992,3,135245.4687500000,105563.9062500000,136358.4062500000,139843.7968750000,107033.7812500000,100979.1250000000,131324.5312500000,127129.6406250000,,,
0.4039999992,3,135036.5000000000,105462.2734375000,136120.7343750000,139841.2812500000,106866.4921875000,100903.0000000000,131171.0625000000,126744.0468750000,,,
0.4079999994,3,136725.5937500000,107426.7500000000,137814.3125000000,141929.4375000000,108700.8515625000,102920.1562500000,133019.4218750000,127979.5000000000,,,
0.4119999993,3,137997.8750000000,108738.1328125000,139124.7031250000,143231.3437500000,110015.2187500000,104242.2968750000,134332.9843750000,129138.2187500000,,,
0.4159999993,3,137056.7187500000,107560.2968750000,138190.4062500000,141940.5937500000,108951.4765625000,103023.5546875000,133255.7500000000,128591.1796875000,,,
0.4199999992,3,135213.5625000000,105540.5390625000,136317.3437500000,139855.5781250000,106992.2890625000,100970.9921875000,131299.7500000000,127104.6484375000,,,
0.4239999992,3,135013.1718750000,105451.6015625000,136094.5312500000,139824.5937500000,106836.7968750000,100907.7500000000,131166.0468750000,126731.7890625000,,,
0.4279999994,3,136703.7031250000,107414.7890625000,137799.2343750000,141893.6718750000,108677.7343750000,102918.5703125000,133030.2343750000,127970.7031250000,,,
0.4319999993,3,137984.8593750000,108740.2812500000,139108.2031250000,143222.3437500000,109998.5859375000,104246.5078125000,134332.2656250000,129133.2578125000,,,
0.4359999993,3,137093.4375000000,107612.1953125000,138220.7343750000,141986.9687500000,108986.9687500000,103072.9062500000,133284.8125000000,128619.4765625000,,,
0.4399999992,3,135279.9375000000,105608.3750000000,136386.2656250000,139905.5468750000,107060.2265625000,101030.8046875000,131360.5625000000,127153.1406250000,,,
0.4439999992,3,135046.3125000000,105484.6718750000,136123.2812500000,139856.7343750000,106863.4296875000,100934.9218750000,131189.4062500000,126758.6171875000,,,
0.4479999992,3,136710.5781250000,107421.1718750000,137795.9375000000,141914.8125000000,108671.2656250000,102918.3828125000,133021.3281250000,127974.6718750000,,,
0.4519999993,3,137959.8906250000,108705.4921875000,139076.0468750000,143210.4843750000,109959.1562500000,104211.8281250000,134298.1718750000,129103.4296875000,,,
0.4559999993,3,137060.5468750000,107564.6718750000,138188.2656250000,141979.1562500000,108947.5625000000,103044.5546875000,133258.2500000000,128580.4531250000,,,
0.4599999993,3,135233.2968750000,105544.2187500000,136340.6250000000,139895.8281250000,107013.6640625000,101003.6406250000,131310.2968750000,127107.7031250000,,,
0.4639999992,3,134990.0468750000,105405.4375000000,136076.0781250000,139812.9843750000,106810.8906250000,100884.8671875000,131125.1406250000,126703.6562500000,,,
0.4679999992,3,136668.1718750000,107359.1562500000,137762.0625000000,141861.5468750000,108632.0000000000,102883.0859375000,132979.4375000000,127935.7265625000,,,
0.4719999994,3,137964.5156250000,108698.4375000000,139088.7812500000,143205.6875000000,109972.2734375000,104231.9453125000,134316.8125000000,129105.0078125000,,,
0.4759999993,3,137106.6093750000,107600.4765625000,138241.6875000000,142009.1250000000,109001.9843750000,103100.3437500000,133313.8593750000,128616.7109375000,,,
0.4799999993,3,135276.4062500000,105582.3828125000,136386.1406250000,139920.4843750000,107060.2265625000,101057.5781250000,131368.5781250000,127143.7265625000,,,
0.4839999992,3,134990.4687500000,105407.5546875000,136067.2968750000,139816.2812500000,106810.9140625000,100909.7890625000,131134.5625000000,126710.9531250000,,,
0.4879999992,3,136636.7812500000,107324.9062500000,137731.2656250000,141820.6406250000,108607.9687500000,102872.2812500000,132959.1562500000,127914.4609375000,,,
0.4919999992,3,137918.7031250000,108653.4843750000,139040.9531250000,143147.9062500000,109930.8593750000,104214.6718750000,134279.5312500000,129071.8828125000,,,
0.4959999993,3,137076.7500000000,107587.6796875000,138202.1562500000,141973.7968750000,108969.6953125000,103110.3281250000,133288.1875000000,128600.3828125000,,,
0.4999999993,3,135263.6250000000,105593.5156250000,136365.7031250000,139919.8125000000,107039.4921875000,101067.9531250000,131342.7812500000,127140.7500000000,,,
0.5039999993,3,134986.8750000000,105410.1875000000,136072.6406250000,139829.5781250000,106803.2734375000,100898.4687500000,131123.7968750000,126702.3984375000,,,
0.5079999992,3,136641.7500000000,107336.6015625000,137741.1406250000,141814.3906250000,108606.9765625000,102870.2421875000,132956.3125000000,127913.6562500000,,,
0.5119999992,4,137944.9843750000,108690.4453125000,139069.9062500000,143168.7968750000,109953.1796875000,104232.8593750000,134293.8281250000,129085.6953125000,,,
0.5159999991,4,137108.2187500000,107624.4296875000,138241.5781250000,141988.8125000000,109002.0625000000,103124.4296875000,133316.7031250000,128607.5703125000,,,
0.5199999991,4,135278.8125000000,105606.4687500000,136390.5625000000,139888.5156250000,107058.3750000000,101071.7890625000,131360.3125000000,127130.3984375000,,,
0.5239999990,4,134987.6562500000,105420.9140625000,136070.6562500000,139753.5937500000,106801.9062500000,100899.0546875000,131111.3281250000,126696.1171875000,,,
0.5279999990,4,136606.3437500000,107306.8593750000,137689.5625000000,141761.8437500000,108563.5781250000,102829.2265625000,132879.3593750000,127878.3046875000,,,
0.5319999990,4,137924.4843750000,108676.7968750000,139037.8437500000,143143.1562500000,109929.9765625000,104211.9609375000,134259.1406250000,129064.1328125000,,,
0.5359999991,4,137127.6093750000,107664.9062500000,138250.4843750000,142023.4687500000,109020.8984375000,103163.0312500000,133345.8281250000,128628.2187500000,,,
0.5399999991,4,135293.5312500000,105638.7343750000,136401.2343750000,139930.5156250000,107078.3281250000,101110.1171875000,131392.9375000000,127148.4765625000,,,
0.5439999991,4,134964.9375000000,105404.0703125000,136052.7968750000,139768.7812500000,106787.8203125000,100900.0781250000,131119.6718750000,126679.6250000000,,,
0.5479999990,4,136595.1562500000,107304.5468750000,137689.2343750000,141775.7968750000,108559.5781250000,102848.1640625000,132926.4687500000,127876.9843750000,,,
0.5519999990,4,137934.6250000000,108694.7656250000,139056.0000000000,143173.6250000000,109945.5859375000,104251.7421875000,134306.2187500000,129079.8750000000,,,
0.5559999992,4,137132.0000000000,107661.6328125000,138262.9062500000,142039.7812500000,109035.3281250000,103187.3828125000,133362.7031250000,128632.0312500000,,,
0.5599999991,4,135280.9843750000,105618.5625000000,136391.5312500000,139925.2812500000,107073.4218750000,101113.5000000000,131384.8281250000,127138.8203125000,,,
0.5639999991,4,134940.1875000000,105375.1562500000,136028.4062500000,139734.0625000000,106768.4531250000,100884.4375000000,131095.8750000000,126662.1640625000,,,
0.5679999990,4,136562.2031250000,107262.1718750000,137657.9843750000,141734.4062500000,108531.7968750000,102821.3437500000,132885.0781250000,127849.9531250000,,,
0.5719999990,4,137913.8906250000,108670.8125000000,139034.1406250000,143146.7812500000,109928.2031250000,104243.5546875000,134278.7500000000,129063.7812500000,,,
0.5759999990,4,137135.2968750000,107657.5546875000,138268.0625000000,142041.5781250000,109041.3359375000,103205.5937500000,133363.0937500000,128634.0937500000,,,
0.5799999991,4,135269.3437500000,105592.9765625000,136379.5937500000,139932.4531250000,107060.4140625000,101113.2031250000,131371.4843750000,127125.9687500000,,,
0.5839999991,4,134916.6562500000,105328.2968750000,136000.6562500000,139735.0937500000,106738.5468750000,100873.0156250000,131068.9765625000,126640.8359375000,,,
0.5879999991,4,136550.5781250000,107231.2421875000,137641.6250000000,141731.7812500000,108512.3515625000,102820.7812500000,132871.8593750000,127840.5078125000,,,
0.5919999990,4,137944.2656250000,108690.3359375000,139059.5781250000,143211.0156250000,109951.6484375000,104285.7187500000,134302.7031250000,129090.6640625000,,,
0.5959999990,4,137157.7812500000,107669.0859375000,138286.9375000000,142097.8281250000,109058.2031250000,103227.5625000000,133365.5625000000,128650.0781250000,,,
0.5999999992,4,135267.5781250000,105578.9765625000,136377.3593750000,139936.4375000000,107053.6250000000,101105.5859375000,131363.0312500000,127118.1640625000,,,
0.6039999991,4,134884.6562500000,105285.3281250000,135970.6093750000,139686.0781250000,106701.1093750000,100828.0312500000,131034.8046875000,126605.1953125000,,,
0.6079999991,4,136525.6406250000,107201.0390625000,137620.0625000000,141699.2656250000,108489.0390625000,102794.3593750000,132851.6562500000,127809.8281250000,,,
0.6119999990,4,137926.8281250000,108668.8828125000,139050.8281250000,143156.4687500000,109942.7968750000,104276.0156250000,134304.9062500000,129063.8359375000,,,
0.6159999990,4,137153.2500000000,107678.6093750000,138285.7812500000,142067.9375000000,109058.7109375000,103241.4609375000,133391.9375000000,128636.1640625000,,,
0.6199999989,4,135273.8281250000,105607.5703125000,136384.9218750000,139920.5625000000,107062.9609375000,101138.2265625000,131382.6406250000,127123.1250000000,,,
0.6239999991,4,134865.6718750000,105285.2500000000,135955.4062500000,139644.1093750000,106684.3125000000,100836.1328125000,131018.6562500000,126593.9296875000,,,
0.6279999991,4,136498.4062500000,107180.2265625000,137598.1250000000,141640.2656250000,108464.0937500000,102788.6484375000,132828.0468750000,127790.8359375000,,,
0.6319999991,4,137918.0000000000,108657.1875000000,139039.0000000000,143152.7656250000,109931.5859375000,104284.4921875000,134291.0156250000,129059.9531250000,,,
0.6359999990,4,137138.8906250000,107653.0234375000,138266.2031250000,142068.2031250000,109043.7500000000,103244.5703125000,133372.6718750000,128627.2578125000,,,
0.6399999990,5,135226.0781250000,105545.7734375000,136336.2812500000,139876.2812500000,107018.0390625000,101095.7734375000,131333.1250000000,127078.4140625000,,,
0.6439999989,5,134827.6406250000,105240.9921875000,135912.7812500000,139618.2812500000,106648.6953125000,100803.6484375000,130980.6250000000,126555.8125000000,,,
0.6479999989,5,136500.9687500000,107189.3984375000,137594.6875000000,141674.1406250000,108467.8203125000,102803.7187500000,132834.0312500000,127795.4453125000,,,
0.6519999988,5,137974.1718750000,108737.0937500000,139098.6875000000,143226.0625000000,109996.6796875000,104360.8750000000,134364.8437500000,129118.2343750000,,,
0.6559999988,5,137236.3437500000,107778.5468750000,138372.3906250000,142157.3437500000,109150.7109375000,103359.9062500000,133490.3906250000,128728.4296875000,,,
0.6599999988,5,135284.9843750000,105610.4687500000,136401.0468750000,139928.9062500000,107080.5312500000,101163.5234375000,131403.5781250000,127147.1015625000,,,
0.6639999989,5,134830.6718750000,105232.8359375000,135915.7500000000,139620.2343750000,106651.4296875000,100809.9843750000,130989.2656250000,126578.2656250000,,,
0.6679999989,5,136498.8125000000,107169.4453125000,137588.7031250000,141663.8125000000,108462.6718750000,102797.6562500000,132826.6562500000,127807.0390625000,,,
0.6719999989,5,137985.4843750000,108717.4062500000,139101.8125000000,143252.1406250000,110002.3125000000,104361.7890625000,134361.3437500000,129130.3046875000,,,
0.6759999988,5,137222.2656250000,107720.2890625000,138353.6250000000,142172.5000000000,109129.9531250000,103317.0937500000,133453.2187500000,128704.0468750000,,,
0.6799999988,5,135284.2656250000,105580.6640625000,136402.2500000000,139924.6718750000,107072.7500000000,101136.6718750000,131379.7343750000,127141.8750000000,,,
0.6839999990,5,134810.8281250000,105197.2187500000,135891.7187500000,139589.0625000000,106620.8828125000,100785.0937500000,130958.9843750000,126562.4375000000,,,
0.6879999989,5,136482.6406250000,107146.1640625000,137567.4843750000,141645.6875000000,108437.0859375000,102781.9687500000,132804.7500000000,127788.2578125000,,,
0.6919999989,5,137997.0937500000,108731.9140625000,139111.2656250000,143246.5312500000,110007.5156250000,104376.1406250000,134371.5312500000,129133.9218750000,,,
0.6959999988,5,137250.2343750000,107760.3125000000,138375.8281250000,142175.6093750000,109153.4531250000,103362.5078125000,133487.3593750000,128734.2500000000,,,
0.6999999988,5,135279.3281250000,105582.3046875000,136385.4062500000,139914.4687500000,107063.5000000000,101145.8984375000,131380.4375000000,127144.9843750000,,,
0.7039999987,5,134817.0781250000,105208.4843750000,135899.6093750000,139581.3125000000,106630.6718750000,100789.9453125000,130949.8593750000,126567.5625000000,,,
0.7079999989,5,136492.1562500000,107161.4765625000,137581.0625000000,141644.1718750000,108451.0625000000,102784.0859375000,132790.2343750000,127793.3828125000,,,
0.7119999989,5,138023.7343750000,108761.8984375000,139139.9062500000,143264.5312500000,110038.7421875000,104400.3359375000,134399.4218750000,129150.9531250000,,,
0.7159999989,5,137297.9062500000,107815.6406250000,138423.7812500000,142214.8750000000,109205.4296875000,103414.2187500000,133539.9062500000,128767.3203125000,,,
0.7199999988,5,135290.0000000000,105590.6953125000,136397.1562500000,139928.0468750000,107079.1328125000,101158.0234375000,131392.1250000000,127140.3750000000,,,
0.7239999988,5,134777.6093750000,105159.7187500000,135856.7812500000,139548.3750000000,106591.4843750000,100742.4140625000,130922.1796875000,126522.3359375000,,,
0.7279999990,5,136450.5937500000,107118.9375000000,137532.4843750000,141604.2968750000,108405.8125000000,102741.7656250000,132769.9843750000,127754.6250000000,,,
0.7319999989,5,138013.2500000000,108761.6328125000,139122.6875000000,143267.3437500000,110026.7500000000,104388.7500000000,134388.2968750000,129142.6953125000,,,
0.7359999989,5,137319.0312500000,107847.0234375000,138443.8125000000,142244.7812500000,109231.1796875000,103434.4453125000,133556.7500000000,128784.4296875000,,,
0.7399999988,5,135308.3437500000,105638.4140625000,136405.1250000000,139930.5625000000,107096.4921875000,101188.5234375000,131403.0468750000,127163.9218750000,,,
0.7439999988,5,134764.9062500000,105180.9062500000,135833.2187500000,139524.1875000000,106574.6953125000,100741.2656250000,130903.4296875000,126517.4296875000,,,
0.7479999987,5,136448.9062500000,107142.3046875000,137527.9531250000,141603.7031250000,108404.5468750000,102742.7578125000,132763.7031250000,127753.8750000000,,,
0.7519999989,5,138038.5937500000,108809.1093750000,139145.3593750000,143285.5312500000,110052.6640625000,104418.0078125000,134408.9218750000,129164.7421875000,,,
0.7559999989,5,137338.7031250000,107884.4453125000,138457.7343750000,142266.3750000000,109249.7109375000,103462.2578125000,133575.0781250000,128798.8359375000,,,
0.7599999988,5,135302.1250000000,105624.7343750000,136403.9687500000,139939.8750000000,107093.1875000000,101174.1953125000,131395.9687500000,127146.0078125000,,,
0.7639999988,5,134754.0937500000,105142.5781250000,135831.6718750000,139513.5937500000,106566.7500000000,100715.5703125000,130884.0703125000,126492.5156250000,,,
0.7679999988,6,136450.8281250000,107110.1406250000,137537.1562500000,141593.2656250000,108409.7812500000,102734.6796875000,132761.8750000000,127743.8125000000,,,
0.7719999987,6,138076.4843750000,108821.4453125000,139194.8437500000,143306.0468750000,110099.8125000000,104459.7968750000,134447.7343750000,129192.9609375000,,,
0.7759999987,6,137419.5312500000,107954.2109375000,138546.1250000000,142318.5937500000,109338.5468750000,103550.5546875000,133638.1562500000,128874.5859375000,,,
0.7799999986,6,135360.2187500000,105679.5312500000,136460.1093750000,139974.5781250000,107150.9375000000,101238.4140625000,131434.5312500000,127204.6953125000,,,
0.7839999986,6,134762.2187500000,105155.5625000000,135838.4062500000,139502.4062500000,106573.3281250000,100720.1562500000,130884.7109375000,126504.1250000000,,,
0.7879999985,6,136446.8593750000,107119.2343750000,137534.0625000000,141576.2968750000,108404.5234375000,102729.3671875000,132752.6250000000,127741.5625000000,,,
0.7919999987,6,138081.2656250000,108842.2578125000,139198.0625000000,143298.1406250000,110099.4375000000,104470.5234375000,134449.4687500000,129197.3593750000,,,
0.7959999987,6,137424.0156250000,107967.3203125000,138552.2343750000,142340.1875000000,109337.7187500000,103561.6093750000,133658.2968750000,128869.2187500000,,,
0.7999999986,6,135356.9687500000,105672.5625000000,136465.2343750000,139989.3125000000,107146.1640625000,101235.7578125000,131446.4531250000,127187.2343750000,,,
0.8039999986,6,134724.5937500000,105117.3125000000,135803.5625000000,139482.4531250000,106534.1953125000,100696.1250000000,130852.1484375000,126467.9453125000,,,
0.8079999986,6,136379.0625000000,107056.8437500000,137466.5625000000,141524.7343750000,108336.3984375000,102685.2500000000,132690.7187500000,127683.7109375000,,,
0.8119999988,6,138040.3125000000,108808.7578125000,139154.6875000000,143284.1093750000,110058.7500000000,104447.7265625000,134412.1406250000,129160.3984375000,,,
0.8159999987,6,137400.0312500000,107952.5703125000,138519.9687500000,142332.3593750000,109311.3281250000,103551.4687500000,133629.8750000000,128849.0468750000,,,
0.8199999987,6,135346.5937500000,105676.1562500000,136441.2812500000,139988.1093750000,107130.2343750000,101242.7578125000,131429.9843750000,127181.6796875000,,,
0.8239999986,6,134720.4843750000,105111.6015625000,135791.2187500000,139479.0781250000,106523.4609375000,100698.6718750000,130841.3671875000,126464.3203125000,,,
0.8279999986,6,136372.0312500000,107037.9375000000,137450.5937500000,141522.2187500000,108320.1406250000,102675.3515625000,132671.7656250000,127675.6640625000,,,
0.8319999985,6,138035.1562500000,108787.2187500000,139142.9062500000,143292.7968750000,110049.3359375000,104445.9609375000,134402.4531250000,129150.8515625000,,,
0.8359999987,6,137417.5781250000,107946.1328125000,138538.6875000000,142363.3281250000,109332.6718750000,103579.0156250000,133650.0625000000,128855.0546875000,,,
0.8399999987,6,135368.3437500000,105675.3750000000,136469.9531250000,140012.3437500000,107161.0000000000,101284.0859375000,131448.4531250000,127198.5234375000,,,
0.8439999986,6,134733.8125000000,105108.7890625000,135807.0000000000,139490.3593750000,106543.4218750000,100729.8125000000,130865.3750000000,126479.0234375000,,,
0.8479999986,6,136372.0468750000,107024.2031250000,137447.9375000000,141508.2500000000,108324.2734375000,102693.6406250000,132688.9843750000,127681.3203125000,,,
0.8519999986,6,138026.8437500000,108771.0703125000,139129.7656250000,143263.4843750000,110041.8750000000,104454.3515625000,134405.4843750000,129149.1328125000,,,
0.8559999987,6,137417.6093750000,107947.3906250000,138533.9218750000,142328.3906250000,109330.0234375000,103588.0781250000,133656.6093750000,128858.2734375000,,,
0.8599999987,6,135377.7656250000,105688.1406250000,136482.8281250000,140017.2500000000,107172.4765625000,101299.6484375000,131480.0000000000,127203.2734375000,,,
0.8639999987,6,134717.9687500000,105090.5703125000,135793.2656250000,139470.0625000000,106523.7578125000,100719.0546875000,130841.8750000000,126465.6328125000,,,
0.8679999986,6,136326.0000000000,106973.0000000000,137398.9375000000,141452.5625000000,108268.1328125000,102648.3671875000,132615.9218750000,127641.4921875000,,,
0.8719999986,6,137981.1718750000,108724.2656250000,139081.8437500000,143231.4062500000,109990.2421875000,104419.7812500000,134353.6718750000,129103.3984375000,,,
0.8759999985,6,137407.3593750000,107938.9218750000,138523.9843750000,142364.8906250000,109320.9296875000,103604.6328125000,133659.1562500000,128840.0859375000,,,
0.8799999987,6,135372.1562500000,105686.3750000000,136477.7343750000,140030.3437500000,107168.3203125000,101315.1718750000,131487.5625000000,127192.4609375000,,,
0.8839999987,6,134701.7968750000,105083.7343750000,135782.9062500000,139459.5000000000,106514.3203125000,100719.0000000000,130849.2812500000,126449.0859375000,,,
0.8879999986,6,136311.1093750000,106972.8125000000,137392.1718750000,141454.5781250000,108265.5312500000,102654.8281250000,132634.3437500000,127629.7968750000,,,
0.8919999986,6,137994.1250000000,108757.4218750000,139103.9687500000,143255.1875000000,110018.8125000000,104456.0156250000,134392.5000000000,129118.6640625000,,,
0.8959999986,7,137441.7656250000,108000.8203125000,138559.9375000000,142409.7343750000,109364.3750000000,103664.9218750000,133706.2343750000,128877.0468750000,,,
0.8999999985,7,135420.0000000000,105758.2031250000,136520.2812500000,140091.9531250000,107214.9921875000,101385.5859375000,131534.8437500000,127241.4921875000,,,
0.9039999985,7,134718.4531250000,105110.9062500000,135794.8437500000,139468.0468750000,106524.6953125000,100753.2500000000,130859.3906250000,126469.8984375000,,,
0.9079999984,7,136276.2656250000,106934.0859375000,137353.3750000000,141409.7031250000,108221.2734375000,102625.4609375000,132589.7968750000,127602.4375000000,,,
0.9119999984,7,137951.3593750000,108708.8437500000,139054.3437500000,143208.3281250000,109963.4218750000,104414.3593750000,134331.0000000000,129079.2109375000,,,
0.9159999983,7,137412.7500000000,107970.9453125000,138527.9062500000,142368.1875000000,109330.8515625000,103638.1562500000,133664.6562500000,128843.8437500000,,,
0.9199999985,7,135402.2500000000,105736.2890625000,136507.1562500000,140047.7500000000,107204.3984375000,101369.4921875000,131516.1250000000,127220.4375000000,,,
0.9239999985,7,134689.5312500000,105070.8359375000,135769.0937500000,139432.7187500000,106505.6796875000,100719.0781250000,130829.7500000000,126440.1796875000,,,
0.9279999984,7,136236.0937500000,106884.6796875000,137315.8906250000,141365.9218750000,108191.6875000000,102583.1875000000,132551.6718750000,127564.4843750000,,,
0.9319999984,7,137946.9375000000,108698.8125000000,139056.5468750000,143205.0937500000,109975.5703125000,104411.2500000000,134316.4062500000,129071.4062500000,,,
0.9359999984,7,137449.0937500000,107993.7421875000,138573.9062500000,142409.1718750000,109385.1640625000,103675.6796875000,133666.7500000000,128872.2734375000,,,
0.9399999985,7,135434.5468750000,105752.3828125000,136538.0781250000,140087.3125000000,107239.7187500000,101401.9453125000,131550.2500000000,127246.8046875000,,,
0.9439999985,7,134712.5468750000,105082.0703125000,135785.9843750000,139449.5625000000,106522.4453125000,100743.8671875000,130869.2890625000,126462.9843750000,,,
0.9479999985,7,136265.0312500000,106900.8750000000,137340.0625000000,141384.8125000000,108212.7187500000,102607.1953125000,132595.5312500000,127592.2421875000,,,
0.9519999984,7,137952.5937500000,108688.0625000000,139056.5156250000,143198.7656250000,109973.3437500000,104416.3437500000,134354.9218750000,129075.1875000000,,,
0.9559999984,7,137457.8437500000,107986.3906250000,138577.7656250000,142402.5937500000,109387.1484375000,103685.6015625000,133735.7343750000,128873.1640625000,,,
0.9599999983,7,135434.0312500000,105736.1796875000,136539.5625000000,140072.7031250000,107242.5625000000,101404.3046875000,131564.6718750000,127238.4609375000,,,
0.9639999985,7,134687.5937500000,105047.5781250000,135767.7812500000,139412.8750000000,106504.6328125000,100723.2421875000,130839.6796875000,126436.9062500000,,,
0.9679999985,7,136233.5937500000,106876.4687500000,137317.2656250000,141347.4531250000,108189.0312500000,102582.4687500000,132556.2968750000,127562.5000000000,,,
0.9719999984,7,137924.1093750000,108667.5156250000,139035.9375000000,143166.0312500000,109950.5234375000,104392.0703125000,134319.7656250000,129047.2109375000,,,
0.9759999984,7,137445.2031250000,107983.8984375000,138573.2656250000,142391.0625000000,109379.5859375000,103682.5234375000,133714.9843750000,128857.3125000000,,,
0.9799999984,7,135450.3125000000,105768.7968750000,136558.3593750000,140103.2500000000,107257.5859375000,101435.5000000000,131567.9218750000,127257.9609375000,,,
0.9839999985,7,134688.0781250000,105052.7265625000,135763.6718750000,139424.5468750000,106497.0703125000,100731.4218750000,130823.6093750000,126444.7421875000,,,
0.9879999985,7,136225.3437500000,106863.9453125000,137300.9531250000,141337.7031250000,108170.1796875000,102583.9687500000,132536.0625000000,127558.9843750000,,,
0.9919999985,7,137945.7812500000,108695.2734375000,139052.8125000000,143203.8593750000,109966.7500000000,104432.4921875000,134340.0937500000,129064.3750000000,,,
0.9959999984,7,137487.4531250000,108045.0000000000,138609.5468750000,142445.0937500000,109414.9140625000,103740.9375000000,133756.3437500000,128898.4843750000,,,
0.9999999984,7,135460.4843750000,105790.1484375000,136565.4218750000,140110.6562500000,107264.2656250000,101452.3984375000,131582.2187500000,127266.7890625000,,,
1.0039999983,7,134670.6718750000,105056.1093750000,135746.8906250000,139410.1875000000,106482.3203125000,100719.5937500000,130809.8203125000,126426.9296875000,,,
1.0079999985,7,136205.2500000000,106870.0312500000,137284.2968750000,141321.7968750000,108156.6875000000,102570.3125000000,132516.8906250000,127539.0312500000,,,
1.0119999985,7,137965.2031250000,108747.9296875000,139072.5625000000,143213.5468750000,109990.9687500000,104457.9453125000,134360.3906250000,129081.8125000000,,,
1.0159999984,7,137552.1250000000,108133.7812500000,138673.0156250000,142507.5625000000,109482.1250000000,103804.3984375000,133815.5937500000,128955.7421875000,,,
1.0199999984,7,135502.9375000000,105849.3984375000,136604.2812500000,140135.6562500000,107303.9296875000,101488.9296875000,131599.6875000000,127302.9921875000,,,
1.0239999983,8,134693.9843750000,105086.0390625000,135768.0468750000,139413.9218750000,106500.0468750000,100734.4765625000,130818.2421875000,126445.4140625000,,,
1.0279999983,8,136218.6250000000,106887.7890625000,137293.4687500000,141313.7343750000,108162.6953125000,102580.8281250000,132530.6250000000,127550.1328125000,,,
1.0319999983,8,137986.0937500000,108771.7187500000,139087.6093750000,143233.4218750000,110005.6406250000,104481.6328125000,134376.8906250000,129100.1015625000,,,
1.0359999982,8,137540.3750000000,108119.9140625000,138654.9687500000,142508.5781250000,109467.7500000000,103798.6328125000,133804.2656250000,128939.8437500000,,,
1.0399999982,8,135504.9843750000,105857.7656250000,136603.5781250000,140157.5937500000,107306.5312500000,101499.4453125000,131618.1875000000,127302.9921875000,,,
1.0439999981,8,134692.2656250000,105092.0781250000,135764.2187500000,139415.6718750000,106500.8515625000,100745.4453125000,130825.0078125000,126448.4453125000,,,
1.0479999983,8,136203.0156250000,106878.4531250000,137278.4531250000,141293.9062500000,108155.4296875000,102580.9375000000,132518.3437500000,127540.9062500000,,,
1.0519999983,8,137981.9218750000,108777.4843750000,139087.1406250000,143219.7343750000,110012.4296875000,104493.9453125000,134377.5625000000,129095.9687500000,,,
1.0559999982,8,137577.8125000000,108172.2421875000,138695.7812500000,142532.5468750000,109515.6015625000,103856.8359375000,133847.1562500000,128972.7812500000,,,
1.0599999982,8,135526.9218750000,105884.9375000000,136625.1406250000,140154.6406250000,107333.9453125000,101535.1953125000,131637.9531250000,127328.2343750000,,,
1.0639999982,8,134681.6250000000,105065.8437500000,135752.8906250000,139389.8281250000,106491.0625000000,100735.8203125000,130807.0078125000,126442.2187500000,,,
1.0679999983,8,136169.3281250000,106817.6718750000,137240.9218750000,141251.9375000000,108117.3359375000,102546.9296875000,132470.9687500000,127508.0234375000,,,
1.0719999983,8,137957.7187500000,108728.8828125000,139056.0312500000,143196.2656250000,109983.8906250000,104482.4609375000,134344.0312500000,129070.3593750000,33029,1.0730240990,0.0000000000
1.0759999983,8,137587.6562500000,108171.7109375000,138700.3750000000,142538.5312500000,109520.9687500000,103884.1406250000,133849.2968750000,128980.5312500000,,,
1.0799999982,8,135594.3281250000,105959.5000000000,136695.5000000000,140178.5625000000,107397.5703125000,101619.2812500000,131699.1562500000,127393.4921875000,,,
1.0839999982,8,134698.3281250000,105081.9609375000,135766.7656250000,139406.2968750000,106502.6250000000,100756.2265625000,130820.1796875000,126459.4140625000,,,
1.0879999981,8,136156.8906250000,106806.0078125000,137222.5781250000,141269.5781250000,108101.5156250000,102537.9140625000,132452.2812500000,127493.8046875000,,,
1.0919999983,8,137953.6406250000,108724.0000000000,139044.4218750000,143208.3281250000,109979.0859375000,104486.8906250000,134313.5937500000,129062.3125000000,,,
1.0959999983,8,137577.8437500000,108150.0625000000,138681.5937500000,142543.3593750000,109512.7578125000,103882.3437500000,133839.4531250000,128965.9921875000,,,
1.0999999982,8,135553.0156250000,105890.3828125000,136639.9531250000,140192.5468750000,107355.4843750000,101580.1796875000,131661.4218750000,127349.7421875000,,,
1.1039999982,8,134684.5468750000,105056.7500000000,135745.7343750000,139383.4531250000,106488.0859375000,100753.6015625000,130803.2812500000,126451.0156250000,,,
1.1079999981,8,136155.8125000000,106811.9609375000,137218.1093750000,141248.9843750000,108098.7500000000,102544.7578125000,132460.4062500000,127500.0000000000,,,
1.1119999983,8,137952.3593750000,108738.0546875000,139039.4062500000,143209.8125000000,109975.3828125000,104486.2734375000,134350.3437500000,129060.6718750000,,,
1.1159999983,8,137590.8437500000,108182.6796875000,138693.0000000000,142569.7812500000,109525.9296875000,103898.0859375000,133868.4843750000,128972.9687500000,,,
1.1199999982,8,135543.6875000000,105898.6406250000,136630.2968750000,140203.0312500000,107349.2890625000,101572.5859375000,131662.9062500000,127336.3906250000,,,
1.1239999982,8,134665.3593750000,105058.2265625000,135725.7812500000,139393.9062500000,106475.4765625000,100736.9687500000,130796.2812500000,126429.8593750000,,,
1.1279999982,8,136140.7187500000,106809.4375000000,137206.5781250000,141247.4218750000,108093.1718750000,102532.3906250000,132447.6875000000,127484.6640625000,,,
1.1319999981,8,137953.3750000000,108751.4687500000,139048.3906250000,143215.5312500000,109989.1484375000,104493.2734375000,134348.5937500000,129057.3515625000,,,
1.1359999983,8,137605.9218750000,108212.8828125000,138710.5625000000,142582.8906250000,109553.3437500000,103926.7890625000,133881.1718750000,128988.0625000000,,,
1.1399999983,8,135569.2656250000,105934.4765625000,136649.3437500000,140213.6250000000,107383.2734375000,101614.4531250000,131684.7812500000,127365.8125000000,,,
1.1439999982,8,134689.2031250000,105081.3984375000,135736.7187500000,139376.1875000000,106495.6718750000,100773.2343750000,130804.7031250000,126461.7734375000,,,
1.1479999982,8,136145.7500000000,106796.7031250000,137195.6875000000,141223.6562500000,108089.6562500000,102541.5625000000,132428.6406250000,127492.4140625000,,,
1.1519999981,9,137957.7031250000,108730.3281250000,139040.0468750000,143212.5781250000,109987.0234375000,104507.1406250000,134340.5781250000,129058.4218750000,,,
1.1559999981,9,137629.5000000000,108205.9843750000,138724.3593750000,142606.3437500000,109570.3437500000,103955.0312500000,133902.7812500000,129004.3437500000,,,
1.1599999981,9,135580.1093750000,105912.6718750000,136655.1562500000,140222.2031250000,107389.2812500000,101628.9375000000,131694.7656250000,127373.8046875000,,,
1.1639999980,9,134666.9687500000,105031.2656250000,135716.2031250000,139349.2500000000,106475.3437500000,100757.5156250000,130792.4921875000,126443.3984375000,,,
1.1679999980,9,136147.2031250000,106794.5781250000,137195.7812500000,141209.3125000000,108093.6796875000,102565.8906250000,132449.9687500000,127505.9609375000,,,
1.1719999979,9,137994.6875000000,108771.9296875000,139065.4218750000,143240.7968750000,110022.6484375000,104567.3828125000,134383.8125000000,129107.6093750000,,,
1.1759999981,9,137653.4843750000,108230.6328125000,138741.1718750000,142620.5312500000,109593.9453125000,103997.3281250000,133925.7656250000,129032.5390625000,,,
1.1799999981,9,135586.4687500000,105921.7656250000,136659.2968750000,140218.0937500000,107393.8671875000,101653.1640625000,131710.7968750000,127384.2421875000,,,
1.1839999980,9,134645.7812500000,105010.8593750000,135693.2656250000,139337.9687500000,106449.7578125000,100755.1328125000,130781.7968750000,126426.8281250000,,,
1.1879999980,9,136090.8281250000,106731.2265625000,137139.4687500000,141172.5312500000,108031.2656250000,102523.0312500000,132399.7343750000,127450.6250000000,,,
1.1919999979,9,137933.4531250000,108705.3828125000,139005.7656250000,143190.1718750000,109956.4531250000,104514.3828125000,134333.3906250000,129039.4296875000,,,
1.1959999981,9,137632.2968750000,108213.7343750000,138717.1093750000,142603.0156250000,109570.6640625000,103987.7265625000,133917.2500000000,129001.9062500000,,,
1.1999999981,9,135580.0468750000,105918.1171875000,136648.3437500000,140215.3125000000,107387.5390625000,101647.5781250000,131707.4531250000,127366.1640625000,,,
1.2039999980,9,134642.3281250000,105017.8281250000,135680.9531250000,139339.0625000000,106446.2656250000,100743.6250000000,130778.3906250000,126413.7890625000,,,
1.2079999980,9,136089.8281250000,106744.3671875000,137133.9062500000,141169.4843750000,108035.7500000000,102516.2187500000,132405.6562500000,127442.1250000000,,,
1.2119999980,9,137934.4375000000,108727.0078125000,139003.8437500000,143177.4687500000,109964.2031250000,104528.7578125000,134341.9687500000,129038.7890625000,,,
1.2159999979,9,137656.7031250000,108266.1718750000,138741.0625000000,142628.7968750000,109600.7343750000,104035.0937500000,133943.6562500000,129027.0390625000,,,
1.2199999981,9,135595.0156250000,105956.8984375000,136662.8125000000,140238.7343750000,107402.7421875000,101673.9453125000,131718.8437500000,127382.1718750000,,,
1.2239999981,9,134628.8281250000,105022.9296875000,135666.3593750000,139326.6718750000,106427.6015625000,100739.5234375000,130754.6484375000,126406.7109375000,,,
1.2279999980,9,136069.1718750000,106738.0937500000,137109.7656250000,141158.0000000000,108006.2968750000,102499.7187500000,132373.4218750000,127424.8750000000,,,
1.2319999980,9,137962.8750000000,108777.2421875000,139031.0937500000,143213.5468750000,109991.3203125000,104562.9296875000,134372.0156250000,129063.7578125000,,,
1.2359999979,9,137707.5312500000,108334.8906250000,138789.9843750000,142689.8593750000,109652.3671875000,104094.3984375000,134001.5156250000,129070.6015625000,,,
1.2399999981,9,135637.7656250000,106019.0468750000,136708.0000000000,140285.3906250000,107452.8515625000,101744.7343750000,131772.7343750000,127424.7421875000,,,
1.2439999981,9,134654.0000000000,105051.7578125000,135694.3125000000,139346.3593750000,106462.2265625000,100784.2890625000,130794.7500000000,126434.4140625000,,,
1.2479999980,9,136052.1250000000,106723.3125000000,137089.5937500000,141123.6718750000,107994.9765625000,102496.6875000000,132363.2500000000,127416.6406250000,,,
1.2519999980,9,137901.8593750000,108716.4921875000,138966.7187500000,143146.5312500000,109934.2109375000,104514.0078125000,134317.9375000000,129010.8906250000,,,
1.2559999980,9,137659.2187500000,108286.0468750000,138743.0156250000,142643.2812500000,109609.8281250000,104057.4140625000,133962.2500000000,129023.4140625000,,,
1.2599999979,9,135621.1406250000,105998.7968750000,136692.7187500000,140263.1875000000,107437.1875000000,101727.1328125000,131762.6718750000,127402.8515625000,,,
1.2639999981,9,134617.0781250000,105011.5000000000,135655.5312500000,139304.9687500000,106418.5312500000,100748.0468750000,130756.8203125000,126394.0234375000,,,
1.2679999981,9,136014.0000000000,106681.4453125000,137050.1718750000,141087.1718750000,107949.8359375000,102465.0937500000,132325.3593750000,127374.9843750000,,,
1.2719999980,9,137900.0781250000,108712.6562500000,138966.8437500000,143165.9843750000,109930.2421875000,104520.9765625000,134313.2187500000,129000.4062500000,,,
1.2759999980,9,137676.0312500000,108302.8671875000,138764.2656250000,142667.1406250000,109628.6015625000,104090.6718750000,133984.2968750000,129031.1953125000,,,
1.2799999979,10,135637.5625000000,106001.4218750000,136715.5156250000,140280.8593750000,107456.8984375000,101764.6328125000,131784.9687500000,127414.7656250000,,,
1.2839999979,10,134637.6250000000,105015.2812500000,135682.1406250000,139311.4375000000,106444.7968750000,100791.3906250000,130771.0937500000,126420.9531250000,,,
1.2879999978,10,136034.7968750000,106680.5312500000,137072.7812500000,141101.9375000000,107977.3828125000,102501.5937500000,132344.0000000000,127404.9218750000,,,
1.2919999978,10,137932.0781250000,108719.4453125000,138998.7500000000,143195.8593750000,109966.6718750000,104561.3203125000,134341.4687500000,129036.9609375000,,,
1.2959999978,10,137719.8593750000,108326.4687500000,138804.9531250000,142730.6406250000,109673.2656250000,104137.8828125000,134014.8437500000,129073.4375000000,,,
1.2999999977,10,135678.9218750000,106040.7734375000,136748.5000000000,140343.4687500000,107495.1171875000,101810.8515625000,131815.0312500000,127456.0390625000,,,
1.3039999979,10,134643.6718750000,105021.4765625000,135684.0625000000,139339.5156250000,106446.9687500000,100792.8437500000,130770.3437500000,126427.0625000000,,,
1.3079999979,10,136026.0468750000,106673.9921875000,137065.6718750000,141100.4218750000,107963.5390625000,102487.8125000000,132332.0000000000,127394.1093750000,,,
1.3119999978,10,137937.0156250000,108730.2812500000,139004.7187500000,143203.0312500000,109968.3593750000,104570.2500000000,134358.5000000000,129036.2890625000,,,
1.3159999978,10,137755.6406250000,108365.6328125000,138840.1406250000,142758.1875000000,109706.0625000000,104177.2031250000,134057.8437500000,129102.4609375000,,,
1.3199999977,10,135696.4375000000,106054.8828125000,136768.3750000000,140347.3906250000,107509.1484375000,101824.9062500000,131826.3750000000,127472.1093750000,,,
1.3239999979,10,134632.5625000000,105002.5156250000,135674.7656250000,139331.3437500000,106429.9375000000,100776.8593750000,130765.9140625000,126419.0703125000,,,
1.3279999979,10,135997.4375000000,106637.4296875000,137038.6718750000,141049.1093750000,107929.5859375000,102461.8203125000,132306.3281250000,127376.4062500000,,,
1.3319999978,10,137926.6406250000,108715.1484375000,138993.9687500000,143167.5625000000,109950.0937500000,104563.7343750000,134338.7031250000,129034.2812500000,,,
1.3359999978,10,137753.5312500000,108361.6328125000,138836.3281250000,142744.2656250000,109695.5546875000,104178.3515625000,134051.1718750000,129099.6484375000,,,
1.3399999978,10,135696.7031250000,106043.1875000000,136764.9375000000,140342.7968750000,107501.9843750000,101825.0078125000,131825.2500000000,127464.9453125000,,,
1.3439999977,10,134614.8593750000,104965.6875000000,135656.7031250000,139287.9062500000,106407.4062500000,100750.7031250000,130736.6484375000,126395.3593750000,,,
1.3479999979,10,135971.0937500000,106592.0468750000,137013.5625000000,141020.3437500000,107900.0781250000,102421.0000000000,132264.9531250000,127341.5937500000,,,
1.3519999979,10,137904.8281250000,108682.4843750000,138978.2187500000,143169.3125000000,109931.2343750000,104531.2812500000,134304.4218750000,129001.4765625000,,,
1.3559999978,10,137737.6718750000,108335.9375000000,138836.0625000000,142746.0000000000,109689.9218750000,104151.6953125000,134023.5156250000,129074.5156250000,,,
1.3599999978,10,135694.0156250000,106043.1328125000,136777.7343750000,140359.3125000000,107508.4531250000,101817.6875000000,131817.5625000000,127462.2343750000,,,
1.3639999977,10,134601.5000000000,104967.5390625000,135654.9687500000,139291.3125000000,106401.4531250000,100757.4375000000,130728.8203125000,126395.7343750000,,,
1.3679999979,10,135936.4062500000,106576.7578125000,136988.5000000000,141001.3593750000,107870.3046875000,102409.2187500000,132241.8750000000,127325.2343750000,,,
1.3719999979,10,137849.0156250000,108641.4687500000,138926.4531250000,143130.1718750000,109875.0468750000,104495.6015625000,134254.7968750000,128960.0625000000,,,
1.3759999978,10,137717.5781250000,108331.4296875000,138816.9218750000,142733.2968750000,109670.3906250000,104158.0468750000,134019.4687500000,129061.2109375000,,,
1.3799999978,10,135692.9531250000,106051.9843750000,136780.9531250000,140344.0312500000,107510.0312500000,101830.9609375000,131828.2031250000,127461.0312500000,,,
1.3839999977,10,134591.6562500000,104953.8593750000,135644.5781250000,139265.7812500000,106388.3593750000,100738.0468750000,130714.4687500000,126380.8281250000,,,
1.3879999977,10,135934.7968750000,106568.9531250000,136983.2031250000,140981.5625000000,107863.3906250000,102398.0937500000,132227.4531250000,127316.8046875000,,,
1.3919999979,10,137871.9687500000,108654.5625000000,138951.6093750000,143125.2187500000,109897.6015625000,104508.7734375000,134270.1718750000,128973.0468750000,,,
1.3959999979,10,137748.4531250000,108350.0781250000,138847.0937500000,142755.3593750000,109700.4609375000,104181.8125000000,134036.5468750000,129078.6171875000,,,
1.3999999978,10,135725.5312500000,106072.1015625000,136811.2656250000,140363.1875000000,107543.1328125000,101866.7187500000,131846.9843750000,127486.0312500000,,,
1.4039999978,10,134616.0312500000,104970.6484375000,135668.8125000000,139266.9375000000,106412.5234375000,100765.6171875000,130724.2031250000,126406.0390625000,,,
1.4079999977,11,135927.0000000000,106555.5703125000,136978.5312500000,140963.2656250000,107858.5625000000,102393.8515625000,132192.6875000000,127311.0937500000,,,
1.4119999977,11,137829.9218750000,108612.5000000000,138911.1093750000,143075.1718750000,109859.6484375000,104475.6250000000,134212.1562500000,128928.9765625000,,,
1.4159999976,11,137723.5625000000,108340.7109375000,138819.5156250000,142721.1875000000,109673.7421875000,104171.0859375000,134025.9218750000,129055.4687500000,,,
1.4199999976,11,135719.5468750000,106089.3750000000,136803.7500000000,140361.0312500000,107532.4296875000,101874.0156250000,131870.2031250000,127482.5703125000,,,
1.4239999976,11,134597.2343750000,104957.7500000000,135652.2812500000,139239.9531250000,106391.4453125000,100755.9375000000,130738.1015625000,126387.2109375000,,,
1.4279999975,11,135903.0781250000,106529.4140625000,136949.1562500000,140923.7656250000,107829.8593750000,102380.0390625000,132207.4687500000,127293.5781250000,,,
1.4319999977,11,137834.5625000000,108616.7656250000,138908.7812500000,143072.0781250000,109860.0000000000,104488.1484375000,134245.2031250000,128941.7968750000,,,
1.4359999977,11,137731.1562500000,108346.7187500000,138823.4531250000,142728.9375000000,109682.7812500000,104192.2734375000,134037.5937500000,129067.6484375000,,,
1.4399999976,11,135722.4843750000,106090.6875000000,136809.9531250000,140365.1875000000,107543.6406250000,101894.5625000000,131874.5312500000,127486.8593750000,,,
1.4439999976,11,134572.1250000000,104944.3671875000,135632.3750000000,139235.0937500000,106375.8906250000,100746.4687500000,130710.5312500000,126369.0468750000,,,
1.4479999975,11,135852.3750000000,106495.9140625000,136906.0625000000,140893.3281250000,107785.2578125000,102338.1953125000,132148.4531250000,127247.4453125000,,,
1.4519999977,11,137808.3750000000,108617.1406250000,138887.0781250000,143063.2031250000,109840.3671875000,104477.5781250000,134194.3906250000,128914.5703125000,,,
1.4559999977,11,137749.9062500000,108393.2343750000,138847.5000000000,142755.3437500000,109707.5703125000,104218.9375000000,134023.5937500000,129074.3515625000,,,
1.4599999976,11,135754.5625000000,106151.2500000000,136839.5312500000,140407.4687500000,107575.0781250000,101929.5625000000,131861.7812500000,127508.1875000000,,,
1.4639999976,11,134595.8906250000,104996.7187500000,135652.2812500000,139263.0156250000,106396.0078125000,100775.4375000000,130704.1718750000,126388.3593750000,,,
1.4679999975,11,135872.6562500000,106539.7734375000,136923.4843750000,140909.0312500000,107797.6718750000,102360.6171875000,132192.0000000000,127266.9218750000,,,
1.4719999975,11,137820.9375000000,108647.8281250000,138897.7031250000,143073.6875000000,109845.7812500000,104487.5625000000,134248.2812500000,128922.9453125000,,,
1.4759999977,11,137770.9687500000,108432.5000000000,138866.5625000000,142781.2968750000,109725.8906250000,104244.3359375000,134089.0625000000,129092.5390625000,,,
1.4799999977,11,135765.3593750000,106163.0000000000,136850.6093750000,140415.5312500000,107584.1953125000,101938.3359375000,131904.5625000000,127519.0703125000,,,
1.4839999976,11,134583.1562500000,104972.5859375000,135643.6718750000,139243.5937500000,106382.4296875000,100749.9843750000,130702.9375000000,126371.9218750000,,,
1.4879999976,11,135851.0312500000,106504.3359375000,136909.1093750000,140885.4062500000,107780.6406250000,102332.1328125000,132150.7968750000,127236.8750000000,,,
1.4919999975,11,137831.6562500000,108654.0468750000,138908.0312500000,143085.0156250000,109855.6250000000,104508.7734375000,134241.2031250000,128926.9375000000,,,
1.4959999977,11,137809.2343750000,108470.3750000000,138899.2812500000,142812.1718750000,109756.8359375000,104297.2031250000,134111.1093750000,129124.8046875000,,,
1.4999999977,11,135784.8437500000,106178.6953125000,136862.9843750000,140434.4531250000,107593.1562500000,101967.1640625000,131917.2343750000,127536.8281250000,,,
1.5039999976,11,134572.4531250000,104959.0937500000,135620.3437500000,139234.0468750000,106360.1406250000,100749.2265625000,130691.5078125000,126373.1250000000,,,
1.5079999976,11,135818.9531250000,106476.5781250000,136867.1406250000,140856.9218750000,107744.2187500000,102313.0390625000,132113.9687500000,127214.2656250000,,,
1.5119999975,11,137819.0000000000,108653.1875000000,138897.3750000000,143087.6562500000,109852.5937500000,104520.7890625000,134236.0468750000,128913.7187500000,,,
1.5159999975,11,137820.2656250000,108492.9296875000,138919.9375000000,142844.8906250000,109784.8437500000,104334.3750000000,134138.4375000000,129134.0625000000,,,
1.5199999977,11,135803.6718750000,106214.6328125000,136893.5000000000,140461.6250000000,107627.7265625000,102012.2265625000,131947.1406250000,127560.1640625000,,,
1.5239999976,11,134584.3906250000,104984.1406250000,135646.9531250000,139244.2968750000,106381.9218750000,100773.1250000000,130711.5234375000,126387.8828125000,,,
1.5279999976,11,135828.7968750000,106496.1015625000,136886.9531250000,140870.6093750000,107756.9062500000,102332.1328125000,132129.7343750000,127226.7421875000,,,
1.5319999976,11,137835.0156250000,108668.4531250000,138922.0625000000,143107.8125000000,109870.0546875000,104536.9140625000,134260.4843750000,128926.9375000000,,,
1.5359999975,12,137844.9375000000,108510.8984375000,138949.0156250000,142894.1718750000,109808.7968750000,104351.0625000000,134168.2500000000,129151.7578125000,,,
1.5399999975,12,135827.1406250000,106229.7343750000,136918.1250000000,140514.2656250000,107648.8906250000,102022.3125000000,131974.4375000000,127580.4453125000,,,
1.5439999974,12,134575.6718750000,104968.3750000000,135632.1718750000,139240.4062500000,106371.8125000000,100762.7187500000,130702.6406250000,126387.2109375000,,,
1.5479999974,12,135790.7343750000,106451.3906250000,136844.3437500000,140820.8281250000,107724.3984375000,102296.1093750000,132093.2812500000,127199.3046875000,,,
1.5519999973,12,137800.2187500000,108640.3671875000,138884.1093750000,143064.4687500000,109842.7265625000,104516.8203125000,134226.9843750000,128900.5703125000,,,
1.5559999973,12,137834.0781250000,108518.2734375000,138932.8437500000,142864.2343750000,109804.3984375000,104367.2890625000,134164.2812500000,129148.1406250000,,,
1.5599999975,12,135821.2968750000,106244.2187500000,136904.8750000000,140478.2500000000,107647.0937500000,102049.5937500000,131975.4062500000,127585.2187500000,,,
1.5639999975,12,134578.2812500000,104991.1718750000,135630.5625000000,139232.0468750000,106374.4687500000,100790.8828125000,130707.8984375000,126401.2890625000,,,
1.5679999974,12,135791.5156250000,106460.1640625000,136843.6875000000,140846.1406250000,107718.8203125000,102304.2656250000,132092.3437500000,127200.0234375000,,,
1.5719999974,12,137812.7968750000,108653.7265625000,138898.2187500000,143092.2031250000,109848.4375000000,104529.9140625000,134241.5468750000,128900.0078125000,,,
1.5759999973,12,137852.8437500000,108532.5468750000,138959.9375000000,142855.9218750000,109824.5625000000,104385.7656250000,134190.1093750000,129144.8437500000,,,
1.5799999975,12,135835.7812500000,106243.2265625000,136926.2187500000,140473.3437500000,107664.1015625000,102054.6875000000,131995.8125000000,127573.9218750000,,,
1.5839999975,12,134576.5781250000,104967.0859375000,135632.6562500000,139208.1718750000,106375.6718750000,100775.1953125000,130707.7343750000,126378.3046875000,,,
1.5879999974,12,135781.2500000000,106435.0859375000,136830.7187500000,140784.9843750000,107709.8828125000,102288.6328125000,132076.5781250000,127183.9609375000,,,
1.5919999974,12,137810.7187500000,108648.7890625000,138886.3906250000,143055.8750000000,109845.8593750000,104529.1562500000,134228.4843750000,128901.4296875000,,,
1.5959999973,12,137915.5312500000,108607.5703125000,139007.4843750000,142924.9843750000,109881.2421875000,104456.6562500000,134237.9843750000,129213.4531250000,,,
1.5999999973,12,135920.3750000000,106336.7578125000,137005.6718750000,140545.8906250000,107745.2656250000,102144.8125000000,132073.1406250000,127666.4843750000,,,
1.6039999975,12,134611.7500000000,104999.8046875000,135664.0312500000,139253.8750000000,106404.7500000000,100814.2968750000,130737.8046875000,126424.4921875000,,,
1.6079999974,12,135767.4531250000,106418.5078125000,136811.4218750000,140796.1718750000,107688.2890625000,102280.5859375000,132057.9062500000,127175.8593750000,,,
1.6119999974,12,137797.0625000000,108642.4609375000,138865.2500000000,143073.0468750000,109829.3906250000,104534.0937500000,134221.9218750000,128886.3281250000,,,
1.6159999974,12,137890.8281250000,108589.6484375000,138971.8593750000,142944.4843750000,109857.2343750000,104457.6484375000,134226.0937500000,129184.4062500000,,,
1.6199999973,12,135886.1250000000,106309.5546875000,136949.1562500000,140562.6875000000,107707.8203125000,102131.7734375000,132039.9843750000,127629.2578125000,,,
1.6239999975,12,134576.2656250000,104967.1093750000,135603.7031250000,139233.3750000000,106367.7343750000,100785.2500000000,130692.1562500000,126387.1562500000,,,
1.6279999975,12,135744.7968750000,106397.4296875000,136767.5937500000,140770.0156250000,107664.5859375000,102265.9687500000,132032.1250000000,127157.5390625000,,,
1.6319999974,12,137794.4531250000,108629.6171875000,138843.3906250000,143071.1093750000,109823.7578125000,104540.9062500000,134200.6250000000,128886.8359375000,,,
1.6359999974,12,137897.7187500000,108579.3515625000,138961.7343750000,142948.5937500000,109855.4921875000,104462.9921875000,134219.8437500000,129190.0937500000,,,
1.6399999973,12,135907.5156250000,106325.8359375000,136959.0781250000,140578.4531250000,107719.9453125000,102156.6406250000,132062.7031250000,127653.8281250000,,,
1.6439999973,12,134583.8593750000,104980.2500000000,135603.2500000000,139207.0468750000,106363.4453125000,100804.6171875000,130709.7265625000,126407.1093750000,,,
1.6479999975,12,135731.0937500000,106372.5312500000,136747.6250000000,140744.6250000000,107645.3203125000,102254.4296875000,132030.3906250000,127147.9609375000,,,
1.6519999974,12,137771.5312500000,108593.8359375000,138812.7343750000,143053.6718750000,109797.8750000000,104509.6640625000,134199.7812500000,128859.0546875000,,,
1.6559999974,12,137900.4531250000,108580.7421875000,138956.9843750000,142964.3906250000,109862.4375000000,104464.5156250000,134236.1562500000,129181.8046875000,,,
1.6599999974,12,135912.2656250000,106327.7656250000,136957.2656250000,140594.5156250000,107732.4140625000,102162.1875000000,132076.3125000000,127647.2031250000,,,
1.6639999973,13,134570.0937500000,104958.3437500000,135586.4062500000,139209.1093750000,106360.4687500000,100784.9843750000,130709.8828125000,126380.5859375000,,,
1.6679999973,13,135714.4062500000,106363.6875000000,136723.1562500000,140719.3750000000,107632.3984375000,102230.5859375000,132016.9218750000,127124.7109375000,,,
1.6719999972,13,137761.1718750000,108602.7656250000,138792.2968750000,143036.8906250000,109786.7500000000,104500.6484375000,134185.8125000000,128844.1640625000,,,
1.6759999972,13,137900.2500000000,108593.9687500000,138946.6562500000,142946.6093750000,109859.7578125000,104467.8750000000,134229.9062500000,129176.7890625000,,,
1.6799999971,13,135920.3750000000,106347.6953125000,136951.0312500000,140574.0625000000,107734.7734375000,102177.1875000000,132074.2187500000,127659.3281250000,,,
1.6839999971,13,134575.5312500000,104980.3046875000,135575.7343750000,139195.5937500000,106357.0859375000,100802.0937500000,130703.1015625000,126402.7890625000,,,
1.6879999973,13,135693.7500000000,106354.1328125000,136691.7187500000,140704.3281250000,107604.6093750000,102223.1015625000,131987.8437500000,127121.1953125000,,,
1.6919999972,13,137742.1250000000,108579.0781250000,138770.4375000000,143000.2031250000,109766.6796875000,104487.3671875000,134159.9531250000,128835.4218750000,,,
1.6959999972,13,137903.0625000000,108580.2109375000,138952.6875000000,142950.5781250000,109871.1796875000,104477.0156250000,134233.6406250000,129182.0937500000,,,
1.6999999972,13,135924.4531250000,106329.0859375000,136967.9843750000,140600.0156250000,107754.7031250000,102186.3046875000,132083.9843750000,127660.2109375000,,,
1.7039999971,13,134554.0312500000,104932.5390625000,135567.7343750000,139207.3593750000,106348.1562500000,100780.5859375000,130683.1171875000,126378.2500000000,,,
1.7079999973,13,135662.3437500000,106308.3203125000,136672.0625000000,140688.4843750000,107583.0703125000,102199.8203125000,131967.1406250000,127090.3750000000,,,
1.7119999973,13,137738.8593750000,108586.1875000000,138776.9843750000,143026.6093750000,109773.3046875000,104502.2812500000,134177.0468750000,128829.2265625000,,,
1.7159999972,13,137921.8593750000,108619.5312500000,138977.7968750000,142989.7656250000,109893.7421875000,104505.3984375000,134270.5937500000,129191.0546875000,,,
1.7199999972,13,135930.5625000000,106346.3828125000,136973.4062500000,140616.2812500000,107754.2187500000,102187.4062500000,132098.6562500000,127658.0937500000,,,
1.7239999971,13,134553.5937500000,104937.0937500000,135563.4218750000,139204.8750000000,106336.8906250000,100769.1328125000,130683.0312500000,126373.9843750000,,,
1.7279999971,13,135651.7812500000,106296.4687500000,136654.5468750000,140673.2656250000,107561.8828125000,102172.4062500000,131939.1406250000,127075.5703125000,,,
1.7319999973,13,137720.1406250000,108563.0937500000,138754.9843750000,142994.5156250000,109747.5859375000,104473.8281250000,134145.5312500000,128809.1875000000,,,
1.7359999972,13,137910.8593750000,108617.3046875000,138966.5625000000,142975.3281250000,109878.6093750000,104501.3984375000,134256.0625000000,129182.4765625000,,,
1.7399999972,13,135957.9531250000,106386.3750000000,137006.5625000000,140640.3593750000,107782.8437500000,102233.6953125000,132122.7031250000,127691.1875000000,,,
1.7439999972,13,134575.7500000000,104955.0703125000,135601.2656250000,139217.7656250000,106364.3828125000,100806.6796875000,130705.3515625000,126406.0625000000,,,
1.7479999971,13,135630.5781250000,106262.3203125000,136646.3593750000,140645.2968750000,107542.5937500000,102159.1093750000,131909.9843750000,127066.6953125000,,,
1.7519999973,13,137647.5312500000,108474.1250000000,138695.0625000000,142919.3281250000,109676.1562500000,104402.2890625000,134066.1875000000,128735.9375000000,,,
1.7559999973,13,137871.2812500000,108568.2968750000,138947.8906250000,142936.3593750000,109846.4531250000,104464.9218750000,134213.0156250000,129131.4609375000,,,
1.7599999972,13,135960.6875000000,106391.9296875000,137031.5312500000,140632.1562500000,107793.8125000000,102235.7656250000,132133.2187500000,127679.9296875000,,,
1.7639999972,13,134590.0156250000,104977.5468750000,135617.5781250000,139230.9375000000,106377.5781250000,100814.9687500000,130729.4140625000,126409.3671875000,,,
1.7679999971,13,135623.8593750000,106260.7421875000,136626.1406250000,140606.6718750000,107529.0468750000,102141.7812500000,131922.6250000000,127052.2109375000,,,
1.7719999971,13,137633.0468750000,108469.7265625000,138661.5156250000,142888.0468750000,109653.5468750000,104380.4062500000,134065.6250000000,128717.8593750000,,,
1.7759999973,13,137851.5312500000,108556.5546875000,138890.6250000000,142921.2656250000,109812.6015625000,104441.2656250000,134191.4218750000,129109.3281250000,,,
1.7799999972,13,135968.4687500000,106405.7421875000,136997.2500000000,140647.1406250000,107788.4765625000,102245.7968750000,132132.9062500000,127690.3046875000,,,
1.7839999972,13,134614.2187500000,105011.0156250000,135617.6875000000,139241.0312500000,106398.7968750000,100849.9765625000,130746.4687500000,126443.6718750000,,,
1.7879999971,13,135630.7968750000,106278.2812500000,136630.3437500000,140616.2812500000,107537.2031250000,102165.0625000000,131922.2968750000,127072.1875000000,,,
1.7919999971,14,137613.7812500000,108455.5390625000,138641.6406250000,142864.5781250000,109632.3046875000,104379.8125000000,134035.9531250000,128706.1640625000,,,
1.7959999971,14,137863.4375000000,108578.0625000000,138917.2500000000,142926.4687500000,109827.9687500000,104481.2265625000,134209.2500000000,129120.5937500000,,,
1.7999999970,14,135999.9218750000,106443.9921875000,137052.7500000000,140688.1562500000,107823.2890625000,102302.7890625000,132173.0625000000,127717.8515625000,,,
1.8039999970,14,134635.9375000000,105036.2031250000,135664.4062500000,139286.6562500000,106414.6484375000,100884.6562500000,130767.7421875000,126462.2578125000,,,
1.8079999969,14,135644.0468750000,106299.2578125000,136664.8906250000,140641.1406250000,107539.4843750000,102185.2343750000,131924.6250000000,127083.4843750000,,,
1.8119999969,14,137633.4218750000,108479.4921875000,138686.0000000000,142902.1875000000,109651.6718750000,104402.7734375000,134045.1875000000,128718.9609375000,,,
1.8159999971,14,137860.0937500000,108569.7500000000,138934.3750000000,142944.4375000000,109827.9218750000,104474.9531250000,134198.2812500000,129109.9453125000,,,
1.8199999970,14,136011.2968750000,106450.0546875000,137077.4218750000,140717.2343750000,107838.9531250000,102308.1562500000,132185.5000000000,127724.7421875000,,,
1.8239999970,14,134648.0937500000,105036.3671875000,135687.7187500000,139292.2500000000,106438.6796875000,100889.2968750000,130786.2500000000,126475.4296875000,,,
1.8279999970,14,135636.1406250000,106278.1718750000,136667.7656250000,140626.7343750000,107546.8906250000,102171.0937500000,131929.0000000000,127079.3515625000,,,
1.8319999969,14,137588.5156250000,108432.8203125000,138647.6718750000,142853.5937500000,109616.9921875000,104359.4531250000,134016.5312500000,128677.8671875000,,,
1.8359999971,14,137851.4062500000,108570.1484375000,138935.6093750000,142911.8125000000,109830.3593750000,104470.0468750000,134202.2343750000,129100.8515625000,,,
1.8399999971,14,136053.3750000000,106503.8828125000,137130.1562500000,140725.5781250000,107887.7968750000,102351.7656250000,132225.5000000000,127765.8125000000,,,
1.8439999970,14,134667.7812500000,105069.4375000000,135707.6250000000,139297.1406250000,106454.8281250000,100914.1328125000,130793.4062500000,126503.7500000000,,,
1.8479999970,14,135631.2500000000,106276.9921875000,136667.0937500000,140632.2656250000,107543.9375000000,102171.0390625000,131898.6093750000,127080.5625000000,,,
1.8519999969,14,137592.1875000000,108435.0703125000,138654.4218750000,142867.6875000000,109624.5234375000,104367.0703125000,133992.8750000000,128678.9140625000,,,
1.8559999969,14,137865.1875000000,108586.5390625000,138944.5625000000,142931.6093750000,109840.7421875000,104494.1562500000,134213.2187500000,129110.6406250000,,,
1.8599999971,14,136056.9218750000,106507.9296875000,137126.2656250000,140739.7031250000,107885.8671875000,102370.1171875000,132243.0625000000,127766.9921875000,,,
1.8639999970,14,134690.8750000000,105094.2187500000,135727.8125000000,139296.1250000000,106472.3906250000,100953.4531250000,130833.7187500000,126524.6171875000,,,
1.8679999970,14,135630.1250000000,106283.3515625000,136655.1875000000,140594.2500000000,107528.0078125000,102187.6171875000,131921.4062500000,127082.2500000000,,,
1.8719999969,14,137576.4531250000,108433.6250000000,138625.6718750000,142824.6406250000,109591.7734375000,104365.8125000000,134006.0312500000,128663.2500000000,,,
1.8759999969,14,137868.0000000000,108607.0546875000,138936.1875000000,142938.8593750000,109835.6406250000,104513.2265625000,134224.2968750000,129108.6562500000,,,
1.8799999971,14,136082.6406250000,106550.2578125000,137143.5937500000,140782.3593750000,107911.2343750000,102413.7578125000,132270.0468750000,127789.5234375000,,,
1.8839999971,14,134709.2500000000,105118.3046875000,135744.8750000000,139340.7187500000,106494.5234375000,100977.5390625000,130853.1406250000,126543.5546875000,,,
1.8879999970,14,135635.2031250000,106290.0859375000,136666.9843750000,140602.5156250000,107542.1406250000,102193.9765625000,131929.9375000000,127088.4218750000,,,
1.8919999970,14,137585.4062500000,108446.3125000000,138642.1093750000,142840.4375000000,109613.2578125000,104384.0546875000,134020.2187500000,128671.3281250000,,,
1.8959999969,14,137903.4843750000,108648.9531250000,138980.7656250000,142969.4843750000,109883.1718750000,104565.5859375000,134267.0000000000,129146.0781250000,,,
1.8999999969,14,136102.5781250000,106574.1875000000,137172.4843750000,140775.2187500000,107939.6406250000,102441.5703125000,132290.7812500000,127815.0000000000,,,
1.9039999971,14,134706.5625000000,105123.9140625000,135747.6562500000,139313.8437500000,106499.6484375000,100983.6015625000,130848.3906250000,126549.2968750000,,,
1.9079999970,14,135613.9062500000,106276.7031250000,136647.8125000000,140566.8906250000,107524.8359375000,102172.3593750000,131901.4218750000,127075.3828125000,,,
1.9119999970,14,137533.3125000000,108392.9609375000,138592.2500000000,142788.2968750000,109566.2968750000,104328.8515625000,133958.5156250000,128618.0546875000,,,
1.9159999969,14,137870.8437500000,108614.2421875000,138949.7656250000,142946.4375000000,109857.5000000000,104528.9218750000,134228.7812500000,129095.6250000000,,,
1.9199999969,15,136130.1250000000,106607.0390625000,137199.0625000000,140821.8437500000,107971.4296875000,102468.5234375000,132318.0312500000,127824.3906250000,,,
1.9239999969,15,134727.9687500000,105133.1093750000,135765.5000000000,139350.9375000000,106518.0156250000,100991.0546875000,130869.3984375000,126556.8593750000,,,
1.9279999968,15,135610.5781250000,106251.2734375000,136637.0625000000,140577.2187500000,107515.5078125000,102153.3906250000,131909.1875000000,127061.1406250000,,,
1.9319999968,15,137536.6093750000,108390.1171875000,138584.7500000000,142782.6093750000,109560.3437500000,104324.5625000000,133972.4218750000,128618.2734375000,,,
1.9359999967,15,137874.3125000000,108619.7968750000,138947.3750000000,142935.5625000000,109854.3125000000,104528.3828125000,134241.4687500000,129099.7265625000,,,
1.9399999967,15,136131.4375000000,106609.8281250000,137199.1875000000,140810.6093750000,107970.7031250000,102474.8046875000,132327.9062500000,127829.1640625000,,,
1.9439999969,15,134733.3593750000,105149.4765625000,135768.7500000000,139342.4687500000,106520.0859375000,101014.3125000000,130880.2578125000,126576.6562500000,,,
1.9479999968,15,135589.9531250000,106243.4140625000,136613.4531250000,140542.5156250000,107488.2265625000,102149.2109375000,131878.1406250000,127057.7578125000,,,
1.9519999968,15,137518.5312500000,108382.6328125000,138568.5468750000,142764.3281250000,109541.4843750000,104328.9062500000,133943.7187500000,128609.0156250000,,,
1.9559999967,15,137891.7343750000,108635.1953125000,138968.7031250000,142963.5312500000,109877.7031250000,104566.9218750000,134239.5625000000,129118.7968750000,,,
1.9599999967,15,136142.7187500000,106601.4375000000,137214.3437500000,140846.9218750000,107988.1640625000,102490.4140625000,132331.1250000000,127837.0781250000,,,
1.9639999969,15,134723.6562500000,105121.3671875000,135764.5625000000,139354.8281250000,106515.5468750000,100995.0546875000,130872.6406250000,126564.5000000000,,,
1.9679999969,15,135553.2500000000,106192.1328125000,136582.9843750000,140499.7812500000,107457.8906250000,102106.8593750000,131863.3906250000,127022.1406250000,,,
1.9719999968,15,137488.3906250000,108354.1015625000,138545.0000000000,142717.3906250000,109519.1406250000,104296.4218750000,133944.8125000000,128578.7578125000,,,
1.9759999968,15,137877.9843750000,108642.5390625000,138956.3437500000,142932.5000000000,109866.2187500000,104557.6953125000,134250.1250000000,129104.6875000000,,,
1.9799999967,15,136160.4531250000,106643.8906250000,137230.5781250000,140845.9843750000,108005.4921875000,102524.4218750000,132344.0000000000,127861.2187500000,,,
1.9839999967,15,134735.3125000000,105138.1562500000,135776.7656250000,139358.0312500000,106524.4296875000,101014.0703125000,130882.9375000000,126580.0625000000,,,
1.9879999969,15,135566.3125000000,106201.4609375000,136597.0937500000,140530.4218750000,107461.9687500000,102118.6328125000,131855.4843750000,127033.1406250000,,,
1.9919999968,15,137490.6406250000,108341.3046875000,138544.0312500000,142704.2187500000,109509.9687500000,104297.4140625000,133908.9218750000,128576.6406250000,,,
1.9959999968,15,137871.2500000000,108614.2968750000,138942.5000000000,142916.5312500000,109849.1640625000,104552.6328125000,134220.8750000000,129091.3828125000,,,
1.9999999967,15,136156.1562500000,106629.0078125000,137213.8437500000,140830.2812500000,107983.7656250000,102514.2031250000,132350.2968750000,127848.5546875000,,,
2.0039999967,15,134741.2968750000,105143.8437500000,135772.2812500000,139335.1718750000,106517.7265625000,101015.3046875000,130881.3828125000,126583.4375000000,,,
2.0079999969,15,135536.3125000000,106168.1250000000,136565.0156250000,140468.9375000000,107430.4765625000,102076.5468750000,131806.2656250000,127004.4687500000,,,
2.0119999968,15,137454.8125000000,108304.9609375000,138508.1093750000,142689.2187500000,109476.3359375000,104250.4531250000,133882.4218750000,128540.5703125000,,,
2.0159999968,15,137870.5781250000,108613.8984375000,138947.3281250000,142944.2656250000,109853.1328125000,104539.4062500000,134246.6406250000,129083.0156250000,,,
2.0199999968,15,136182.7656250000,106652.6640625000,137255.7656250000,140866.9843750000,108025.2031250000,102531.7734375000,132386.2343750000,127869.6640625000,,,
2.0239999967,15,134761.7968750000,105167.8750000000,135806.5937500000,139358.0468750000,106551.1171875000,101030.3515625000,130909.2265625000,126606.2890625000,,,
2.0279999967,15,135561.4843750000,106199.9062500000,136594.7031250000,140489.8593750000,107462.4765625000,102102.7265625000,131841.9375000000,127034.7734375000,,,
2.0319999969,15,137481.2812500000,108332.9375000000,138539.0937500000,142707.5937500000,109506.0546875000,104276.2031250000,133902.7812500000,128565.1640625000,,,
2.0359999968,15,137915.6718750000,108659.0937500000,138998.7500000000,142983.0781250000,109902.2656250000,104582.9140625000,134279.2812500000,129116.4609375000,,,
2.0399999968,15,136220.5156250000,106683.6484375000,137289.4218750000,140930.3593750000,108061.6796875000,102563.3437500000,132400.9375000000,127889.6484375000,,,
2.0439999967,15,134779.2500000000,105169.3750000000,135818.5781250000,139384.4375000000,106564.5546875000,101035.5859375000,130893.2421875000,126613.0468750000,,,
2.0479999967,16,135546.9531250000,106176.6015625000,136570.4843750000,140485.1406250000,107437.2656250000,102076.3593750000,131796.8750000000,127017.9296875000,,,
2.0519999966,16,137466.9531250000,108322.4453125000,138513.1250000000,142716.9843750000,109483.7343750000,104253.5078125000,133869.2812500000,128550.8671875000,,,
2.0559999966,16,137909.5312500000,108669.8750000000,138976.6406250000,143003.0156250000,109890.0625000000,104580.1484375000,134253.6250000000,129114.7500000000,,,
2.0599999966,16,136249.6093750000,106742.6250000000,137313.6718750000,140948.5468750000,108094.5937500000,102608.0781250000,132431.1093750000,127928.2187500000,,,
2.0639999965,16,134799.7656250000,105212.3203125000,135836.3125000000,139392.4375000000,106590.0078125000,101070.6406250000,130930.6796875000,126644.4062500000,,,
2.0679999965,16,135545.4531250000,106183.3593750000,136573.2187500000,140467.7812500000,107446.1171875000,102081.5078125000,131804.2812500000,127027.1562500000,,,
2.0719999967,16,137442.9062500000,108304.2890625000,138496.2343750000,142669.4062500000,109469.8437500000,104230.8203125000,133849.5781250000,128535.3359375000,,,
2.0759999966,16,137883.8750000000,108649.6796875000,138962.3437500000,142953.3593750000,109874.5859375000,104547.9062500000,134246.8125000000,129086.9609375000,,,
2.0799999966,16,136256.4843750000,106763.2265625000,137327.5937500000,140934.2812500000,108106.1015625000,102606.6093750000,132454.6406250000,127931.3046875000,,,
2.0839999965,16,134833.9375000000,105265.8281250000,135875.9062500000,139401.5625000000,106619.8046875000,101089.7343750000,130961.9062500000,126679.3828125000,,,
2.0879999965,16,135547.8437500000,106199.1015625000,136569.2031250000,140458.7812500000,107431.3359375000,102063.0546875000,131798.2968750000,127030.8593750000,,,
2.0919999967,16,137433.1562500000,108288.5156250000,138473.1093750000,142651.2656250000,109441.7343750000,104199.5156250000,133828.3281250000,128517.3671875000,,,
2.0959999966,16,137905.9531250000,108658.5546875000,138970.6875000000,142974.2031250000,109881.6953125000,104562.8203125000,134249.2500000000,129097.2890625000,,,
2.0999999966,16,136294.5156250000,106791.4453125000,137350.9843750000,140983.7187500000,108127.9062500000,102641.8750000000,132468.6406250000,127960.8593750000,,,
2.1039999966,16,134867.2812500000,105299.2500000000,135897.3906250000,139446.3281250000,106645.3437500000,101129.2421875000,130985.3750000000,126711.7578125000,,,
2.1079999965,16,135577.4843750000,106233.1953125000,136600.1250000000,140472.3281250000,107466.3125000000,102099.6406250000,131835.5781250000,127066.2343750000,,,
2.1119999965,16,137425.1093750000,108294.6328125000,138473.9687500000,142645.9531250000,109446.9921875000,104204.9375000000,133837.8750000000,128515.0859375000,,,
2.1159999967,16,137891.8750000000,108673.5234375000,138960.3906250000,142994.7500000000,109882.9062500000,104562.9296875000,134254.0156250000,129087.6875000000,,,
2.1199999966,16,136289.9531250000,106804.7734375000,137356.3437500000,141013.1875000000,108145.2343750000,102647.8593750000,132489.7656250000,127957.8046875000,,,
2.1239999966,16,134828.0156250000,105264.1093750000,135867.7656250000,139424.6562500000,106625.1171875000,101095.5859375000,130972.1484375000,126677.6406250000,,,
2.1279999965,16,135523.5625000000,106187.7343750000,136549.9687500000,140440.6406250000,107425.6796875000,102053.6171875000,131800.9843750000,127019.9921875000,,,
2.1319999965,16,137421.0156250000,108314.9375000000,138471.2343750000,142643.0000000000,109451.4687500000,104214.9375000000,133844.5000000000,128520.1250000000,,,
2.1359999967,16,137907.3750000000,108701.7890625000,138981.9531250000,142987.9062500000,109906.2421875000,104589.8281250000,134279.9531250000,129103.3203125000,,,
2.1399999966,16,136305.4843750000,106827.6250000000,137378.2812500000,141003.0000000000,108164.1406250000,102667.7343750000,132512.2968750000,127968.0781250000,,,
2.1439999966,16,134847.0781250000,105284.1250000000,135886.6250000000,139449.0625000000,106640.4062500000,101114.6796875000,130989.5859375000,126688.9531250000,,,
2.1479999966,16,135534.5625000000,106186.3125000000,136555.4062500000,140470.0937500000,107424.6875000000,102057.4218750000,131801.3750000000,127018.5468750000,,,
2.1519999965,16,137412.5156250000,108287.6562500000,138454.2031250000,142628.3906250000,109429.5859375000,104200.2656250000,133824.6562500000,128499.4218750000,,,
2.1559999965,16,137921.8281250000,108708.5546875000,138984.7968750000,142978.8437500000,109907.1796875000,104607.7187500000,134283.2343750000,129111.3671875000,,,
2.1599999967,16,136335.1250000000,106854.2578125000,137392.5312500000,141015.4218750000,108178.4375000000,102701.8750000000,132525.5312500000,127998.7031250000,,,
2.1639999966,16,134864.3281250000,105300.0546875000,135896.0937500000,139444.7968750000,106647.2187500000,101131.3671875000,130993.4453125000,126713.6328125000,,,
2.1679999966,16,135529.2812500000,106183.6796875000,136550.3906250000,140427.2656250000,107415.8593750000,102051.1171875000,131787.3281250000,127024.8750000000,,,
2.1719999965,16,137395.3750000000,108271.5390625000,138437.0937500000,142594.0625000000,109411.8828125000,104177.5234375000,133790.2968750000,128486.4687500000,,,
2.1759999965,17,137902.7968750000,108690.6875000000,138969.5937500000,142968.8125000000,109890.9765625000,104578.9140625000,134248.2812500000,129089.3203125000,,,
2.1799999964,17,136354.3593750000,106877.0859375000,137423.2187500000,141036.7187500000,108204.3750000000,102712.9843750000,132545.6406250000,128012.1406250000,,,
2.1839999964,17,134883.7031250000,105319.3906250000,135926.4375000000,139455.3125000000,106673.2890625000,101140.1328125000,131018.6562500000,126730.3984375000,,,
2.1879999964,17,135491.5156250000,106143.9062500000,136510.0000000000,140408.0000000000,107382.6015625000,102016.3828125000,131760.9375000000,126994.8593750000,,,
2.1919999963,17,137367.4218750000,108239.7265625000,138410.2656250000,142591.0468750000,109392.6484375000,104165.2890625000,133789.2500000000,128462.7031250000,,,
2.1959999963,17,137899.8906250000,108678.1328125000,138968.2500000000,142987.7968750000,109898.1640625000,104595.5468750000,134274.3750000000,129080.9531250000,,,
2.1999999965,17,136343.5156250000,106847.5312500000,137408.1718750000,141046.0156250000,108201.2421875000,102726.6328125000,132550.7187500000,127993.5312500000,,,
2.2039999964,17,134859.6406250000,105272.1562500000,135898.8125000000,139451.2343750000,106652.6406250000,101139.8359375000,131000.3906250000,126703.4687500000,,,
2.2079999964,17,135481.0312500000,106106.6718750000,136507.9843750000,140390.6250000000,107373.4531250000,102015.2578125000,131748.7343750000,126979.1171875000,,,
2.2119999963,17,137372.5156250000,108227.9296875000,138420.4843750000,142584.9687500000,109396.4609375000,104178.2734375000,133788.1406250000,128463.6171875000,,,
2.2159999963,17,137954.8750000000,108723.9218750000,139034.1406250000,143025.9531250000,109958.6796875000,104659.1093750000,134333.6250000000,129130.2265625000,,,
2.2199999965,17,136420.8125000000,106923.2187500000,137491.7500000000,141104.6718750000,108280.1250000000,102807.4531250000,132622.9375000000,128069.8906250000,,,
2.2239999964,17,134887.7187500000,105300.4062500000,135920.2656250000,139472.4531250000,106676.5625000000,101162.6953125000,131011.0156250000,126736.2421875000,,,
2.2279999964,17,135498.6718750000,106134.3828125000,136515.4531250000,140391.7968750000,107384.6406250000,102025.6406250000,131751.0156250000,127004.4921875000,,,
2.2319999964,17,137347.8906250000,108214.4609375000,138381.7031250000,142557.9218750000,109362.0703125000,104145.3906250000,133754.4531250000,128443.6562500000,,,
2.2359999963,17,137913.0156250000,108701.3125000000,138972.0468750000,143005.1562500000,109903.6093750000,104617.9921875000,134264.7187500000,129089.9375000000,,,
2.2399999963,17,136384.8750000000,106909.4296875000,137445.0781250000,141094.1406250000,108238.8671875000,102772.9062500000,132577.2343750000,128033.7343750000,,,
2.2439999965,17,134890.1562500000,105319.3125000000,135926.0312500000,139467.9375000000,106678.9765625000,101165.5078125000,131027.9687500000,126738.3125000000,,,
2.2479999964,17,135465.1718750000,106097.2578125000,136480.3125000000,140353.2656250000,107347.9453125000,101995.9218750000,131721.2968750000,126976.5703125000,,,
2.2519999964,17,137316.1875000000,108176.3984375000,138350.2656250000,142528.9375000000,109330.2343750000,104119.0781250000,133731.3437500000,128412.3281250000,,,
2.2559999963,17,137889.4062500000,108682.5625000000,138950.5468750000,142989.0937500000,109880.6796875000,104604.3437500000,134265.7500000000,129060.8046875000,,,
2.2599999963,17,136375.8125000000,106911.6875000000,137436.1093750000,141106.1875000000,108228.8359375000,102777.1953125000,132586.3906250000,128018.0703125000,,,
2.2639999965,17,134878.3593750000,105319.3906250000,135917.0156250000,139471.4218750000,106669.1328125000,101166.2578125000,131023.1093750000,126726.5625000000,,,
2.2679999964,17,135462.8906250000,106112.9218750000,136490.6562500000,140335.9062500000,107355.0000000000,101992.9687500000,131734.9375000000,126972.5703125000,,,
2.2719999964,17,137333.5156250000,108213.9218750000,138383.9843750000,142518.9062500000,109356.9765625000,104125.4375000000,133756.3906250000,128426.8437500000,,,
2.2759999963,17,137905.4218750000,108709.3593750000,138973.7187500000,142998.1875000000,109899.5859375000,104612.9531250000,134283.0937500000,129073.5781250000,,,
2.2799999963,17,136395.1562500000,106934.1328125000,137454.6718750000,141113.9531250000,108245.0156250000,102792.5390625000,132600.3281250000,128038.6953125000,,,
2.2839999963,17,134884.4531250000,105328.5390625000,135910.0937500000,139473.7812500000,106659.2890625000,101169.7500000000,131015.2812500000,126742.4140625000,,,
2.2879999964,17,135453.6406250000,106110.5078125000,136464.1562500000,140342.7968750000,107325.2812500000,101990.5546875000,131705.3125000000,126978.7734375000,,,
2.2919999964,17,137303.7187500000,108185.6796875000,138340.9375000000,142520.1093750000,109314.5703125000,104109.5000000000,133712.7812500000,128404.8750000000,,,
2.2959999964,17,137916.2500000000,108724.0000000000,138979.7187500000,143008.2656250000,109910.9062500000,104636.8515625000,134292.1406250000,129085.0781250000,,,
2.2999999963,17,136409.8750000000,106949.7968750000,137470.0468750000,141116.7500000000,108266.3359375000,102814.6093750000,132618.3281250000,128054.6562500000,,,
2.3039999963,18,134877.2656250000,105318.1562500000,135906.1250000000,139450.0781250000,106660.2265625000,101162.9609375000,131005.5468750000,126743.1875000000,,,
2.3079999962,18,135441.2500000000,106087.5234375000,136454.1562500000,140316.3750000000,107318.1484375000,101966.6015625000,131690.6406250000,126968.2031250000,,,
2.3119999962,18,137312.9687500000,108179.2734375000,138351.4218750000,142529.5000000000,109329.7265625000,104102.9296875000,133726.0000000000,128401.7656250000,,,
2.3159999961,18,137943.1250000000,108724.3203125000,139005.1562500000,143057.4062500000,109939.0156250000,104647.0703125000,134316.6718750000,129090.5234375000,,,
2.3199999961,18,136446.4843750000,106955.7578125000,137497.6406250000,141167.3125000000,108296.6484375000,102834.9140625000,132647.0625000000,128070.2109375000,,,
2.3239999961,18,134884.9375000000,105293.6953125000,135908.1406250000,139457.9375000000,106657.0937500000,101149.1171875000,131003.2343750000,126732.8906250000,,,
2.3279999963,18,135401.7656250000,106015.8828125000,136411.3437500000,140290.9531250000,107264.3671875000,101905.8281250000,131637.0156250000,126913.8046875000,,,
2.3319999962,18,137270.2187500000,108131.9843750000,138303.6718750000,142482.0156250000,109270.0468750000,104058.5625000000,133667.8750000000,128355.0625000000,,,
2.3359999962,18,137940.4531250000,108743.9531250000,138999.3281250000,143040.5625000000,109922.1171875000,104654.5546875000,134308.2500000000,129087.7890625000,,,
2.3399999961,18,136458.7500000000,106995.6953125000,137519.0468750000,141168.6562500000,108299.8671875000,102853.8515625000,132662.0468750000,128082.5781250000,,,
2.3439999961,18,134894.1562500000,105327.5156250000,135929.8125000000,139468.3125000000,106661.6484375000,101159.7656250000,131021.7187500000,126747.8281250000,,,
2.3479999963,18,135409.1406250000,106052.2812500000,136428.9218750000,140284.4531250000,107269.3828125000,101914.2734375000,131653.1875000000,126936.8750000000,,,
2.3519999962,18,137268.8281250000,108147.5937500000,138310.7343750000,142480.0625000000,109266.9843750000,104054.8359375000,133668.8906250000,128365.6562500000,,,
2.3559999962,18,137919.4218750000,108735.1328125000,138989.1093750000,143021.1250000000,109901.4609375000,104629.1250000000,134286.5781250000,129074.0078125000,,,
2.3599999961,18,136446.0312500000,106994.1093750000,137512.8281250000,141171.6250000000,108290.5312500000,102839.9843750000,132649.0937500000,128076.7578125000,,,
2.3639999961,18,134886.9375000000,105330.8984375000,135922.0000000000,139469.2500000000,106656.8750000000,101155.5312500000,131011.7109375000,126748.7968750000,,,
2.3679999961,18,135380.3281250000,106026.5312500000,136399.7656250000,140249.6718750000,107245.1953125000,101883.3515625000,131623.7343750000,126913.8359375000,,,
2.3719999962,18,137248.0937500000,108132.6796875000,138292.7656250000,142443.7187500000,109252.7968750000,104031.5859375000,133644.7343750000,128347.3671875000,,,
2.3759999962,18,137917.4062500000,108736.8750000000,138981.7343750000,143018.1718750000,109904.4687500000,104628.9140625000,134282.1562500000,129066.1484375000,,,
2.3799999962,18,136454.7500000000,107001.5390625000,137513.2031250000,141179.4531250000,108298.0625000000,102849.4531250000,132661.5156250000,128074.3750000000,,,
2.3839999961,18,134884.2656250000,105306.0625000000,135914.8437500000,139468.4843750000,106650.9453125000,101146.6015625000,131014.5546875000,126734.2578125000,,,
2.3879999961,18,135376.8281250000,105998.1015625000,136394.3750000000,140251.1718750000,107237.0078125000,101878.7109375000,131627.0156250000,126901.6328125000,,,
2.3919999963,18,137256.3750000000,108128.6015625000,138296.4843750000,142477.7812500000,109252.0468750000,104048.1328125000,133664.5312500000,128349.3515625000,,,
2.3959999962,18,137936.8750000000,108749.6171875000,138996.0000000000,143062.8281250000,109911.7109375000,104665.2578125000,134312.3593750000,129082.9609375000,,,
2.3999999962,18,136476.4687500000,107026.8359375000,137530.1250000000,141200.7031250000,108309.1171875000,102893.9218750000,132685.0625000000,128100.9218750000,,,
2.4039999961,18,134904.1875000000,105346.0781250000,135932.5468750000,139478.1093750000,106659.6093750000,101190.9921875000,131033.6796875000,126768.8359375000,,,
2.4079999961,18,135365.0156250000,106003.9453125000,136381.2031250000,140222.7343750000,107211.9062500000,101883.6406250000,131612.1718750000,126909.0312500000,,,
2.4119999961,18,137203.4062500000,108078.6328125000,138242.9687500000,142417.2500000000,109188.6171875000,104006.2890625000,133612.8125000000,128308.1250000000,,,
2.4159999962,18,137921.8281250000,108742.8046875000,138988.2343750000,143051.2968750000,109898.2421875000,104661.1250000000,134308.7343750000,129068.9609375000,,,
2.4199999962,18,136498.0937500000,107045.1796875000,137559.6562500000,141237.7187500000,108335.7500000000,102919.8359375000,132716.6250000000,128117.4453125000,,,
2.4239999962,18,134914.7500000000,105344.6328125000,135945.4687500000,139481.8593750000,106675.4375000000,101199.9453125000,131050.1250000000,126777.1718750000,,,
2.4279999961,18,135353.2968750000,105979.5625000000,136369.2343750000,140214.7187500000,107205.7890625000,101863.5781250000,131604.8593750000,126892.2656250000,,,
2.4319999961,19,137212.9218750000,108088.6953125000,138247.5937500000,142415.9843750000,109203.0156250000,104011.3593750000,133626.0312500000,128314.0234375000,,,
2.4359999960,19,137974.5625000000,108804.0625000000,139036.4843750000,143075.8281250000,109953.7968750000,104706.0234375000,134360.6875000000,129112.4687500000,,,
2.4399999960,19,136529.9843750000,107083.0000000000,137590.4531250000,141257.9062500000,108370.1093750000,102938.1796875000,132748.5468750000,128138.5000000000,,,
2.4439999959,19,134912.6093750000,105349.2734375000,135941.3125000000,139497.9843750000,106668.8125000000,101182.1406250000,131043.2265625000,126771.4375000000,,,
2.4479999959,19,135345.0937500000,105977.0156250000,136355.8750000000,140217.0781250000,107186.1562500000,101847.7578125000,131586.7500000000,126887.7890625000,,,
2.4519999959,19,137203.6250000000,108087.6484375000,138235.4062500000,142415.4218750000,109185.1250000000,104000.7343750000,133612.5468750000,128306.1171875000,,,
2.4559999960,19,137931.9531250000,108779.5000000000,138990.5937500000,143065.9375000000,109908.0625000000,104675.9609375000,134321.2343750000,129075.2890625000,,,
2.4599999960,19,136530.9218750000,107114.9140625000,137591.9218750000,141285.8593750000,108373.8906250000,102963.6328125000,132756.8125000000,128149.1015625000,,,
2.4639999960,19,134938.1250000000,105393.8203125000,135974.0937500000,139528.6875000000,106696.7031250000,101218.2109375000,131068.0156250000,126805.2812500000,,,
2.4679999959,19,135360.1093750000,106004.7500000000,136374.6250000000,140207.8750000000,107198.5234375000,101861.8359375000,131587.0000000000,126914.8515625000,,,
2.4719999959,19,137192.4375000000,108083.7343750000,138216.0781250000,142369.1875000000,109163.0000000000,103991.8359375000,133584.6718750000,128308.8515625000,,,
2.4759999961,19,137921.7500000000,108779.7343750000,138977.1562500000,143041.5000000000,109893.9531250000,104680.3593750000,134316.7343750000,129071.7500000000,,,
2.4799999960,19,136528.2187500000,107120.5234375000,137585.0781250000,141269.7656250000,108366.3281250000,102972.5937500000,132756.7656250000,128144.6484375000,,,
2.4839999960,19,134924.6250000000,105381.0000000000,135953.5781250000,139499.3437500000,106678.2500000000,101213.1953125000,131056.9921875000,126788.4140625000,,,
2.4879999959,19,135335.6718750000,105969.9609375000,136344.5625000000,140177.3125000000,107168.9609375000,101841.3984375000,131575.5937500000,126882.4765625000,,,
2.4919999959,19,137188.5000000000,108070.6718750000,138215.3281250000,142366.4687500000,109158.8671875000,103987.5390625000,133591.9375000000,128290.8515625000,,,
2.4959999959,19,137955.7187500000,108799.1328125000,139015.3750000000,143074.7343750000,109931.5312500000,104721.4765625000,134355.6562500000,129093.1015625000,,,
2.4999999960,19,136588.4062500000,107168.6406250000,137654.8437500000,141317.8125000000,108431.0781250000,103045.9218750000,132822.7187500000,128200.4062500000,,,
2.5039999960,19,134966.3125000000,105412.8671875000,135999.7968750000,139540.6875000000,106719.4531250000,101262.7890625000,131088.5000000000,126834.6562500000,,,
2.5079999960,19,135324.2500000000,105941.8828125000,136337.9843750000,140183.4218750000,107155.6093750000,101822.5390625000,131555.6875000000,126876.1250000000,,,
2.5119999959,19,137166.8125000000,108032.3671875000,138203.4375000000,142338.7656250000,109138.9140625000,103960.5859375000,133573.5156250000,128268.5625000000,,,
2.5159999959,19,137937.7343750000,108781.5078125000,139003.5468750000,143055.1875000000,109910.9843750000,104702.9375000000,134334.1406250000,129069.7656250000,,,
2.5199999961,19,136576.5937500000,107167.2968750000,137638.9375000000,141308.2031250000,108409.7500000000,103034.5781250000,132793.2343750000,128184.3671875000,,,
2.5239999960,19,134970.7812500000,105430.0078125000,136009.4531250000,139528.2031250000,106720.3906250000,101269.2812500000,131065.3593750000,126836.7968750000,,,
2.5279999960,19,135327.8750000000,105965.6171875000,136340.2968750000,140167.3750000000,107150.5390625000,101837.2968750000,131536.2500000000,126885.0546875000,,,
2.5319999959,19,137172.5000000000,108047.6015625000,138198.7968750000,142352.6562500000,109125.3125000000,103963.8046875000,133557.7500000000,128275.6484375000,,,
2.5359999959,19,137952.7031250000,108804.0390625000,139006.6562500000,143071.8437500000,109905.2968750000,104713.5625000000,134341.7031250000,129081.8906250000,,,
2.5399999958,19,136589.5312500000,107182.7265625000,137648.2031250000,141325.7812500000,108404.3906250000,103041.0937500000,132814.7812500000,128190.4296875000,,,
2.5439999960,19,134958.8281250000,105411.4453125000,135995.4218750000,139537.3593750000,106691.2343750000,101244.8984375000,131086.3906250000,126817.5156250000,,,
2.5479999960,19,135308.8750000000,105936.1093750000,136325.1406250000,140149.7656250000,107121.5156250000,101798.6718750000,131527.7656250000,126858.0468750000,,,
2.5519999960,19,137153.7500000000,108031.5859375000,138176.7187500000,142340.6718750000,109101.4140625000,103947.4687500000,133530.4687500000,128254.1093750000,,,
2.5559999959,19,137950.6093750000,108806.1875000000,139000.1562500000,143089.7343750000,109906.1328125000,104723.4296875000,134338.2500000000,129074.9140625000,,,
2.5599999959,20,136593.0625000000,107184.0078125000,137648.7031250000,141356.6250000000,108420.9140625000,103057.9687500000,132828.6093750000,128190.0859375000,,,
2.5639999958,20,134975.9375000000,105435.7968750000,136005.6406250000,139561.2343750000,106723.3984375000,101287.2812500000,131107.0937500000,126842.5156250000,,,
2.5679999958,20,135321.9687500000,105961.0546875000,136327.2343750000,140175.8281250000,107144.5859375000,101846.7656250000,131525.4687500000,126889.3750000000,,,
2.5719999957,20,137155.3125000000,108045.0546875000,138171.2343750000,142349.5468750000,109106.4609375000,103977.9687500000,133559.8593750000,128269.5312500000,,,
2.5759999957,20,137974.2656250000,108848.6718750000,139019.0937500000,143110.1093750000,109928.1796875000,104776.8046875000,134389.4531250000,129109.3281250000,,,
2.5799999957,20,136608.6562500000,107213.7812500000,137658.8437500000,141367.2968750000,108428.2890625000,103095.5468750000,132856.0468750000,128210.1718750000,,,
2.5839999958,20,134962.4218750000,105424.8593750000,135985.2187500000,139535.8593750000,106692.2031250000,101285.7812500000,131105.9687500000,126833.0468750000,,,
2.5879999958,20,135286.0625000000,105921.0937500000,136289.9843750000,140114.5625000000,107090.4531250000,101815.0312500000,131523.5625000000,126853.9687500000,,,
2.5919999958,20,137138.7031250000,108018.1484375000,138166.9375000000,142306.5781250000,109084.3046875000,103963.5390625000,133537.5000000000,128241.4765625000,,,
2.5959999957,20,137972.2812500000,108832.3359375000,139031.3281250000,143099.9531250000,109928.0703125000,104774.4218750000,134360.5625000000,129085.5078125000,,,
2.5999999957,20,136633.9687500000,107237.0390625000,137688.3750000000,141396.3750000000,108450.7890625000,103124.0859375000,132842.6718750000,128218.8359375000,,,
2.6039999959,20,134978.6406250000,105445.2656250000,136006.0156250000,139545.9062500000,106702.0468750000,101304.9296875000,131101.5937500000,126842.6718750000,,,
2.6079999958,20,135296.4843750000,105934.1562500000,136302.1875000000,140119.6718750000,107090.7265625000,101832.0390625000,131538.7656250000,126867.1093750000,,,
2.6119999958,20,137158.8750000000,108042.1015625000,138181.5781250000,142343.8593750000,109087.3593750000,103992.6406250000,133559.4375000000,128271.6250000000,,,
2.6159999957,20,137984.0625000000,108848.5625000000,139042.2812500000,143130.8125000000,109924.6640625000,104799.9843750000,134366.7343750000,129107.7734375000,,,
2.6199999957,20,136646.1250000000,107244.9765625000,137708.0312500000,141398.2812500000,108456.6953125000,103156.6484375000,132869.4375000000,128239.1640625000,,,
2.6239999956,20,134983.7500000000,105438.3203125000,136014.4687500000,139534.6406250000,106703.8671875000,101333.6562500000,131126.3750000000,126860.0781250000,,,
2.6279999958,20,135284.1562500000,105910.5000000000,136296.4375000000,140086.3437500000,107081.0703125000,101829.4062500000,131516.1562500000,126863.3828125000,,,
2.6319999958,20,137127.0625000000,108010.0000000000,138150.7656250000,142297.2656250000,109065.2890625000,103967.3437500000,133527.7343750000,128243.3203125000,,,
2.6359999957,20,137972.6875000000,108839.7656250000,139026.0000000000,143124.6718750000,109927.9375000000,104796.1484375000,134377.4218750000,129089.7187500000,,,
2.6399999957,20,136656.1562500000,107263.3203125000,137708.3281250000,141420.4218750000,108481.5000000000,103176.7109375000,132887.5625000000,128242.2265625000,,,
2.6439999957,20,134976.7187500000,105437.5703125000,135999.5156250000,139541.3750000000,106710.9218750000,101328.0468750000,131120.1562500000,126851.2578125000,,,
2.6479999959,20,135246.3281250000,105880.3750000000,136247.6562500000,140064.0156250000,107055.6171875000,101801.7031250000,131500.1093750000,126835.2968750000,,,
2.6519999958,20,137094.1250000000,107982.9609375000,138110.6406250000,142270.0468750000,109045.8359375000,103948.2187500000,133497.7500000000,128215.1093750000,,,
2.6559999958,20,137963.3593750000,108845.2890625000,139010.7656250000,143099.4062500000,109930.3281250000,104808.0859375000,134385.0937500000,129085.2734375000,,,
2.6599999957,20,136664.7968750000,107287.1953125000,137718.2343750000,141421.7500000000,108505.1093750000,103204.5468750000,132941.0781250000,128253.7343750000,,,
2.6639999957,20,134998.3281250000,105476.1640625000,136018.5625000000,139549.8750000000,106746.3515625000,101372.3906250000,131155.3125000000,126878.5390625000,,,
2.6679999956,20,135261.4531250000,105910.8984375000,136257.9218750000,140062.7187500000,107082.0859375000,101837.7500000000,131505.7187500000,126854.9296875000,,,
2.6719999958,20,137094.9843750000,107996.2343750000,138107.7656250000,142256.9218750000,109057.1328125000,103970.4843750000,133506.9531250000,128221.0312500000,,,
2.6759999958,20,137966.6875000000,108856.1562500000,139015.4062500000,143094.0156250000,109947.9765625000,104830.2109375000,134384.5312500000,129086.9062500000,,,
2.6799999957,20,136690.1718750000,107321.4765625000,137741.6718750000,141450.7656250000,108543.0859375000,103248.9921875000,132940.7031250000,128274.0625000000,,,
2.6839999957,20,135006.2812500000,105486.4375000000,136029.3750000000,139556.1875000000,106766.1796875000,101392.5859375000,131152.6093750000,126879.8750000000,,,
2.6879999957,21,135244.5937500000,105887.5390625000,136249.5000000000,140030.9062500000,107078.8125000000,101828.1484375000,131486.0937500000,126832.5390625000,,,
2.6919999956,21,137092.4375000000,107992.5078125000,138114.7656250000,142240.0000000000,109070.4375000000,103977.3750000000,133477.5000000000,128208.8828125000,,,
2.6959999956,21,137964.7812500000,108848.3750000000,139023.5781250000,143108.4218750000,109961.8906250000,104832.2500000000,134343.8750000000,129065.8515625000,,,
2.6999999955,21,136680.5625000000,107305.1093750000,137739.9531250000,141454.2031250000,108540.0859375000,103240.1953125000,132936.9687500000,128247.2421875000,,,
2.7039999955,21,134990.7500000000,105465.4140625000,136016.4218750000,139552.7031250000,106747.0781250000,101372.7109375000,131152.9375000000,126855.6796875000,,,
2.7079999954,21,135199.6093750000,105833.7343750000,136201.8906250000,140004.1093750000,107022.5390625000,101771.5546875000,131442.5312500000,126783.9062500000,,,
2.7119999956,21,137040.0000000000,107932.9921875000,138055.1406250000,142212.4062500000,109002.1718750000,103912.9218750000,133433.4218750000,128152.5859375000,,,
2.7159999956,21,137938.4375000000,108830.3750000000,138986.2187500000,143086.5937500000,109918.3125000000,104806.5234375000,134338.6718750000,129041.4453125000,,,
2.7199999955,21,136671.5781250000,107304.8437500000,137725.9062500000,141457.6093750000,108526.1328125000,103239.3906250000,132925.7031250000,128241.7656250000,,,
2.7239999955,21,134981.0625000000,105448.9140625000,136007.1406250000,139563.7812500000,106741.3671875000,101371.2890625000,131131.8281250000,126853.5937500000,,,
2.7279999955,21,135190.5937500000,105815.4687500000,136194.0156250000,140010.1562500000,107019.3203125000,101768.3359375000,131428.5312500000,126786.8281250000,,,
2.7319999957,21,137020.1562500000,107910.8125000000,138034.6250000000,142199.9843750000,108989.3828125000,103903.3203125000,133420.9062500000,128145.2656250000,,,
2.7359999956,21,137926.2812500000,108816.1093750000,138968.1718750000,143078.1406250000,109911.6015625000,104811.3046875000,134333.2812500000,129039.2968750000,,,
2.7399999956,21,136667.7187500000,107284.1640625000,137719.3593750000,141439.7656250000,108527.5859375000,103244.5156250000,132918.9843750000,128239.4921875000,,,
2.7439999955,21,134972.3437500000,105433.2500000000,135998.6093750000,139547.6093750000,106739.5156250000,101365.6015625000,131118.1406250000,126844.2031250000,,,
2.7479999955,21,135157.0625000000,105780.1953125000,136160.4062500000,139985.1562500000,106991.8593750000,101739.1562500000,131394.0156250000,126757.9687500000,,,
2.7519999954,21,136983.9218750000,107863.6796875000,138000.8593750000,142177.4062500000,108956.4140625000,103864.9140625000,133366.5625000000,128109.3750000000,,,
2.7559999956,21,137928.1406250000,108809.1875000000,138972.2656250000,143105.2343750000,109917.6953125000,104809.8281250000,134315.5000000000,129031.0078125000,,,
2.7599999956,21,136697.2968750000,107328.5546875000,137742.4687500000,141471.2031250000,108557.2734375000,103281.8515625000,132949.8437500000,128268.2421875000,,,
2.7639999955,21,134996.9062500000,105469.8359375000,136018.4843750000,139557.9843750000,106761.1875000000,101391.9687500000,131149.3125000000,126871.5625000000,,,
2.7679999955,21,135174.0781250000,105803.7421875000,136178.7187500000,139975.4218750000,107009.2656250000,101749.5078125000,131408.8437500000,126774.9765625000,,,
2.7719999955,21,136983.4062500000,107867.9453125000,138000.7187500000,142144.7656250000,108961.3203125000,103863.3515625000,133369.1406250000,128105.5625000000,,,
2.7759999956,21,137928.8593750000,108813.5859375000,138976.0000000000,143081.7656250000,109928.2343750000,104811.5390625000,134325.9062500000,129022.2656250000,,,
2.7799999956,21,136714.7031250000,107348.9687500000,137766.6718750000,141498.7812500000,108585.5156250000,103301.2187500000,132965.7812500000,128269.5000000000,,,
2.7839999956,21,135006.3750000000,105481.4218750000,136030.6562500000,139579.7968750000,106777.7890625000,101404.3593750000,131146.3125000000,126872.5781250000,,,
2.7879999955,21,135154.0312500000,105778.6406250000,136154.7968750000,139958.1718750000,106988.3984375000,101729.2265625000,131373.5156250000,126751.8828125000,,,
2.7919999955,21,136958.0625000000,107839.4609375000,137973.4375000000,142105.0625000000,108933.3203125000,103835.8359375000,133339.4375000000,128078.4218750000,,,
2.7959999954,21,137918.2968750000,108804.3046875000,138965.3437500000,143057.5468750000,109915.8671875000,104797.3281250000,134314.0781250000,129002.8984375000,,,
2.7999999956,21,136723.9062500000,107364.1484375000,137768.5937500000,141494.7031250000,108586.9921875000,103306.0468750000,132959.8750000000,128269.8515625000,,,
2.8039999956,21,135016.6875000000,105491.8828125000,136036.1875000000,139577.7812500000,106776.2343750000,101403.9062500000,131140.8593750000,126877.0859375000,,,
2.8079999955,21,135130.3281250000,105751.0937500000,136127.0625000000,139928.6093750000,106950.5546875000,101691.4609375000,131338.5156250000,126729.9140625000,,,
2.8119999955,21,136925.2656250000,107810.2812500000,137936.0781250000,142091.9531250000,108889.2812500000,103795.8437500000,133300.3906250000,128050.2343750000,,,
2.8159999955,22,137907.3281250000,108807.7968750000,138950.3593750000,143075.2968750000,109900.5546875000,104793.0390625000,134300.2656250000,129000.0859375000,,,
2.8199999954,22,136745.0156250000,107397.9453125000,137793.8437500000,141560.8750000000,108617.5468750000,103334.9609375000,132987.4062500000,128298.5781250000,,,
2.8239999954,22,135036.3125000000,105527.2109375000,136058.7968750000,139595.7968750000,106810.7578125000,101434.9609375000,131169.3437500000,126913.0859375000,,,
2.8279999953,22,135146.1562500000,105782.9843750000,136147.5000000000,139920.4843750000,106987.4609375000,101720.4062500000,131365.6250000000,126765.4765625000,,,
2.8319999953,22,136932.3906250000,107819.7734375000,137947.0156250000,142073.8125000000,108915.2187500000,103802.6562500000,133305.9687500000,128068.2812500000,,,
2.8359999952,22,137920.5000000000,108817.1796875000,138964.6250000000,143055.7656250000,109924.6093750000,104799.5000000000,134300.5312500000,129013.7109375000,,,
2.8399999954,22,136759.9062500000,107411.7265625000,137803.1406250000,141544.2968750000,108633.7187500000,103346.1484375000,132993.0000000000,128310.2734375000,,,
2.8439999954,22,135038.5156250000,105524.6328125000,136054.2656250000,139601.0625000000,106808.0703125000,101429.2734375000,131168.0625000000,126913.0546875000,,,
2.8479999953,22,135136.1250000000,105761.1796875000,136128.0312500000,139917.7968750000,106963.9921875000,101697.2031250000,131350.2812500000,126753.2500000000,,,
2.8519999953,22,136931.8593750000,107809.2578125000,137937.4687500000,142085.1406250000,108900.7343750000,103798.7656250000,133306.9843750000,128064.4765625000,,,
2.8559999953,22,137960.1562500000,108844.1406250000,138997.6718750000,143108.3437500000,109954.4609375000,104846.7343750000,134356.7187500000,129049.7578125000,,,
2.8599999954,22,136815.1875000000,107437.9375000000,137859.7343750000,141569.6718750000,108683.3359375000,103405.5859375000,133061.0000000000,128357.6640625000,,,
2.8639999954,22,135065.0937500000,105508.6250000000,136081.5937500000,139605.7812500000,106829.9296875000,101449.8515625000,131194.2656250000,126927.5390625000,,,
2.8679999954,22,135146.2812500000,105728.9140625000,136139.4218750000,139902.8281250000,106973.8359375000,101703.5625000000,131353.7812500000,126756.4921875000,,,
2.8719999953,22,136919.4687500000,107753.6875000000,137924.9531250000,142050.5937500000,108892.9531250000,103783.3203125000,133292.5000000000,128043.6093750000,,,
2.8759999953,22,137943.7968750000,108795.2656250000,138982.8125000000,143092.2031250000,109950.4921875000,104825.9765625000,134341.5468750000,129017.7031250000,,,
2.8799999952,22,136817.6562500000,107425.3828125000,137867.8125000000,141595.8750000000,108706.6718750000,103407.5703125000,133058.2968750000,128343.1015625000,,,
2.8839999954,22,135103.5312500000,105553.8984375000,136126.7656250000,139652.1093750000,106887.4687500000,101494.8593750000,131232.3437500000,126958.9765625000,,,
2.8879999954,22,135149.2343750000,105742.1640625000,136147.1718750000,139904.0937500000,106987.0859375000,101703.4531250000,131362.2187500000,126760.1406250000,,,
2.8919999953,22,136913.7500000000,107765.7812500000,137920.7031250000,142038.4062500000,108890.8593750000,103772.4843750000,133286.9218750000,128040.4140625000,,,
2.8959999953,22,137953.7343750000,108825.1718750000,138990.5156250000,143087.0156250000,109960.4218750000,104835.0625000000,134352.4843750000,129029.9062500000,,,
2.8999999953,22,136834.5468750000,107469.2343750000,137875.7031250000,141594.6718750000,108717.5625000000,103427.3906250000,133069.5000000000,128369.0156250000,,,
2.9039999954,22,135084.2656250000,105538.2343750000,136103.2500000000,139629.3281250000,106867.2187500000,101473.3750000000,131209.0625000000,126947.0625000000,,,
2.9079999954,22,135113.0781250000,105700.3984375000,136103.2968750000,139882.4843750000,106946.9609375000,101672.3671875000,131335.1406250000,126734.1796875000,,,
2.9119999954,22,136904.6406250000,107751.8906250000,137903.4062500000,142038.1875000000,108876.7265625000,103774.1171875000,133289.5468750000,128037.8906250000,,,
2.9159999953,22,137984.0937500000,108854.3281250000,139015.3125000000,143125.4531250000,109985.5546875000,104880.2343750000,134391.4531250000,129058.5546875000,,,
2.9199999953,22,136910.1562500000,107534.5234375000,137951.3906250000,141677.4687500000,108785.4531250000,103507.9375000000,133160.8593750000,128438.5625000000,,,
2.9239999952,22,135153.2656250000,105596.8125000000,136160.8281250000,139684.0781250000,106916.2734375000,101542.5703125000,131277.6875000000,127020.7500000000,,,
2.9279999954,22,135149.8593750000,105718.2890625000,136134.8437500000,139904.5000000000,106969.6250000000,101698.7031250000,131352.2500000000,126772.0781250000,,,
2.9319999954,22,136889.4062500000,107713.6093750000,137886.1875000000,142012.9531250000,108853.2578125000,103747.1328125000,133255.2968750000,128023.9453125000,,,
2.9359999953,22,137944.7968750000,108795.9921875000,138971.5468750000,143077.0468750000,109939.8984375000,104829.8125000000,134332.8437500000,129015.6953125000,,,
2.9399999953,22,136878.2656250000,107485.5468750000,137912.3437500000,141653.5937500000,108746.5312500000,103463.7343750000,133112.3906250000,128393.8750000000,,,
2.9439999952,23,135132.7968750000,105579.8906250000,136144.6093750000,139674.1562500000,106901.7109375000,101522.5937500000,131257.9687500000,126996.4687500000,,,
