Time:250Hz,Epoch,Channel 1,Channel 2,Channel 3,Channel 4,Channel 5,Channel 6,Channel 7,Channel 8,Event Id,Event Date,Event Duration
0.0000000000,0,177981.6250000000,188977.9375000000,169962.3750000000,171254.0312500000,138354.4687500000,122611.4609375000,136389.5625000000,154714.2343750000,,,
0.0040000000,0,177280.7031250000,202412.3750000000,169006.9062500000,170119.4218750000,137258.2500000000,121518.1953125000,135108.5000000000,157457.2187500000,,,
0.0079999999,0,176938.8593750000,221388.2812500000,168690.2968750000,169725.8437500000,136969.8437500000,121179.6171875000,134709.3750000000,159176.3281250000,,,
0.0119999999,0,177381.0468750000,221583.5625000000,169333.4062500000,170435.4687500000,137711.0937500000,121912.5312500000,135554.8125000000,157861.5468750000,,,
0.0159999998,0,178025.7187500000,202854.3750000000,170132.0781250000,171364.3437500000,138581.5000000000,122816.3046875000,136599.3125000000,155235.8750000000,,,
0.0199999998,0,177981.1093750000,189126.3125000000,169967.6093750000,171200.8125000000,138354.2343750000,122630.3750000000,136388.8750000000,154743.4687500000,,,
0.0240000000,0,177260.2500000000,202356.9843750000,168989.2500000000,170058.1875000000,137239.6093750000,121524.1484375000,135098.0625000000,157426.6718750000,,,
0.0279999999,0,176901.1718750000,221315.2968750000,168654.0781250000,169655.4531250000,136933.7031250000,121166.7187500000,134685.5156250000,159127.5156250000,,,
0.0319999999,0,177342.3437500000,221690.7968750000,169295.3750000000,170407.0625000000,137672.8125000000,121887.0234375000,135524.9843750000,157826.9062500000,,,
0.0359999998,0,178004.7500000000,203124.8906250000,170112.3906250000,171367.5156250000,138560.6250000000,122802.1171875000,136585.7500000000,155221.1406250000,,,
0.0399999998,0,177984.4687500000,189298.1093750000,169971.9375000000,171229.2500000000,138357.6875000000,122644.8593750000,136401.5781250000,154722.6562500000,,,
0.0440000000,0,177283.6562500000,202229.0156250000,169012.4218750000,170094.5625000000,137261.7656250000,121552.1250000000,135124.1562500000,157382.9218750000,,,
0.0480000000,0,176935.6406250000,221079.5312500000,168688.9531250000,169694.2343750000,136969.0000000000,121194.7734375000,134721.0156250000,159106.4062500000,,,
0.0519999999,0,177376.3281250000,221665.5312500000,169331.2812500000,170428.5000000000,137710.4843750000,121915.6171875000,135564.1406250000,157864.2812500000,,,
0.0559999999,0,178031.7500000000,203362.4531250000,170142.0156250000,171396.5937500000,138594.3750000000,122826.5781250000,136616.2656250000,155290.5312500000,,,
0.0599999998,0,178016.0312500000,189405.0468750000,170015.8437500000,171264.1093750000,138406.1562500000,122673.0156250000,136450.0781250000,154747.6250000000,,,
0.0639999998,0,177309.2968750000,201998.2031250000,169052.4687500000,170129.4062500000,137306.3281250000,121574.3828125000,135181.0937500000,157332.2031250000,,,
0.0680000000,0,176945.8593750000,220702.5468750000,168701.2656250000,169706.9531250000,136985.3750000000,121198.0468750000,134743.2343750000,159044.0000000000,,,
0.0719999999,0,177366.4531250000,221479.5312500000,169314.5000000000,170406.4218750000,137699.1250000000,121894.5078125000,135546.5781250000,157865.1406250000,,,
0.0759999999,0,178015.7656250000,203580.0625000000,170118.5625000000,171356.8281250000,138577.5781250000,122797.5546875000,136592.1562500000,155358.3125000000,,,
0.0799999998,0,178019.6562500000,189755.4218750000,170014.0937500000,171246.7656250000,138411.2343750000,122677.2578125000,136449.1093750000,154805.0781250000,,,
0.0839999998,0,177354.9843750000,201991.0468750000,169098.3125000000,170155.0156250000,137354.7656250000,121627.6250000000,135228.9531250000,157346.2812500000,,,
0.0880000000,0,177007.6406250000,220620.1250000000,168763.8437500000,169754.3437500000,137048.1875000000,121257.9687500000,134808.9375000000,159100.3750000000,,,
0.0919999999,0,177430.2500000000,221551.0625000000,169377.4687500000,170463.4218750000,137763.9531250000,121953.4609375000,135614.8437500000,157966.7968750000,,,
0.0959999999,0,178055.5000000000,203880.2031250000,170152.5468750000,171382.5625000000,138614.6562500000,122833.6328125000,136633.9531250000,155462.2968750000,,,
0.0999999999,0,178060.0000000000,190116.5781250000,170046.2812500000,171276.4531250000,138449.2343750000,122722.7968750000,136489.9687500000,154889.5937500000,,,
0.1039999998,0,177404.7343750000,202137.9531250000,169138.6562500000,170186.3437500000,137400.7968750000,121681.8359375000,135272.5156250000,157402.7812500000,,,
0.1079999998,0,177012.8437500000,220700.3437500000,168759.5937500000,169734.6562500000,137046.8125000000,121263.5468750000,134806.6406250000,159126.3437500000,,,
0.1120000000,0,177406.6406250000,221744.1718750000,169346.8125000000,170424.5468750000,137733.7031250000,121932.9453125000,135586.5937500000,157977.2500000000,,,
0.1159999999,0,178039.4218750000,204218.6406250000,170133.1250000000,171359.3281250000,138595.7187500000,122824.1640625000,136617.5000000000,155479.9531250000,,,
0.1199999999,0,178035.7812500000,190374.8593750000,170028.5000000000,171247.5312500000,138433.2500000000,122701.2109375000,136482.7812500000,154869.6718750000,,,
0.1239999998,0,177335.7968750000,202165.4375000000,169074.1718750000,170126.3437500000,137342.6093750000,121625.7265625000,135229.7343750000,157318.6562500000,,,
0.1279999998,1,176935.6718750000,220773.8906250000,168682.9218750000,169667.5312500000,136978.3906250000,121212.3125000000,134749.9375000000,159072.7968750000,,,
0.1319999998,1,177348.5937500000,221960.7968750000,169291.8281250000,170365.7656250000,137685.0781250000,121898.0781250000,135544.9687500000,157940.3125000000,,,
0.1359999997,1,178011.6875000000,204390.1562500000,170111.4062500000,171341.8750000000,138578.5781250000,122816.5703125000,136605.9375000000,155425.4843750000,,,
0.1399999997,1,178027.1093750000,190390.7031250000,170023.0312500000,171257.0781250000,138433.2812500000,122715.6640625000,136494.2031250000,154828.2812500000,,,
0.1439999996,1,177340.3281250000,202233.5937500000,169083.2343750000,170144.3125000000,137353.2031250000,121642.4062500000,135252.9062500000,157337.8906250000,,,
0.1479999996,1,176947.5312500000,220932.4062500000,168699.8125000000,169683.7343750000,136994.2500000000,121224.0625000000,134780.8281250000,159088.3593750000,,,
0.1519999998,1,177341.3281250000,222171.2656250000,169285.6093750000,170369.3750000000,137681.1406250000,121895.2031250000,135560.5468750000,157944.8750000000,,,
0.1559999997,1,177995.0156250000,204610.7812500000,170098.6093750000,171328.2968750000,138568.5625000000,122803.7734375000,136617.6875000000,155423.9218750000,,,
0.1599999997,1,178030.0625000000,190488.2343750000,170031.0468750000,171254.4531250000,138440.4062500000,122718.4843750000,136512.8437500000,154822.1093750000,,,
0.1639999996,1,177353.1875000000,202253.5000000000,169098.6250000000,170152.3437500000,137367.0000000000,121653.5937500000,135271.1718750000,157331.5937500000,,,
0.1679999996,1,176981.6406250000,221026.5312500000,168732.6718750000,169716.8281250000,137027.0156250000,121260.5937500000,134811.8906250000,159123.9531250000,,,
0.1719999998,1,177393.3281250000,222323.1875000000,169336.4062500000,170411.3906250000,137730.4531250000,121943.3750000000,135603.2187500000,158012.0625000000,,,
0.1759999997,1,178060.2656250000,204715.6875000000,170162.9375000000,171392.7812500000,138632.2968750000,122868.5000000000,136680.4062500000,155508.5468750000,,,
0.1799999997,1,178059.1875000000,190472.7500000000,170057.9531250000,171295.4375000000,138472.4687500000,122752.3281250000,136552.0000000000,154869.7031250000,,,
0.1839999997,1,177369.6562500000,202259.4531250000,169109.8125000000,170169.7968750000,137385.8281250000,121680.0390625000,135297.2968750000,157376.0000000000,,,
0.1879999996,1,176979.7187500000,221217.0468750000,168728.8593750000,169710.6562500000,137029.5468750000,121263.1953125000,134823.4062500000,159165.9531250000,,,
0.1919999996,1,177391.3281250000,222584.1718750000,169333.1875000000,170407.9531250000,137734.4843750000,121951.4765625000,135623.3750000000,158053.2656250000,,,
0.1959999998,1,178050.1875000000,204868.9843750000,170153.1406250000,171376.9062500000,138630.9062500000,122873.7812500000,136695.9531250000,155525.3437500000,,,
0.1999999997,1,178068.7656250000,190452.2968750000,170071.3593750000,171298.7343750000,138490.4843750000,122767.2421875000,136582.1718750000,154872.0000000000,,,
0.2039999997,1,177381.0781250000,202280.8125000000,169125.4531250000,170171.6718750000,137401.2187500000,121682.7500000000,135319.1562500000,157383.7031250000,,,
0.2079999996,1,176971.8593750000,221463.0000000000,168723.4218750000,169682.5156250000,137023.1093750000,121258.2109375000,134820.3437500000,159198.1406250000,,,
0.2119999996,1,177366.5468750000,222883.7656250000,169313.3437500000,170380.0312500000,137712.7812500000,121934.2812500000,135606.2343750000,158063.5156250000,,,
0.2159999998,1,178038.8125000000,204989.9375000000,170145.5781250000,171372.9531250000,138620.2500000000,122867.7500000000,136690.5937500000,155505.9687500000,,,
0.2199999997,1,178064.4843750000,190353.7187500000,170066.2656250000,171305.2343750000,138484.2343750000,122772.8203125000,136581.5312500000,154845.8593750000,,,
0.2239999997,1,177357.7187500000,202185.2343750000,169099.1093750000,170155.9531250000,137374.5781250000,121669.2812500000,135296.8906250000,157360.3906250000,,,
0.2279999997,1,176939.2968750000,221485.1093750000,168689.1875000000,169667.2031250000,136984.4062500000,121217.3828125000,134789.9218750000,159165.5468750000,,,
0.2319999996,1,177329.6562500000,222912.3281250000,169275.9843750000,170356.3125000000,137674.2656250000,121885.8984375000,135573.7812500000,158022.3437500000,,,
0.2359999996,1,177999.5937500000,204908.9218750000,170112.3750000000,171339.9062500000,138587.0468750000,122825.3671875000,136656.3906250000,155447.2343750000,,,
0.2399999998,1,178024.2500000000,190090.0000000000,170034.9062500000,171278.6718750000,138453.3437500000,122736.4531250000,136546.7812500000,154768.2812500000,,,
0.2439999997,1,177323.7812500000,201890.3906250000,169072.3906250000,170134.7968750000,137348.1406250000,121639.5078125000,135269.0156250000,157295.7812500000,,,
0.2479999997,1,176899.2968750000,221326.0781250000,168652.3437500000,169635.9531250000,136950.2812500000,121180.9609375000,134751.8906250000,159118.7500000000,,,
0.2519999996,1,177303.4531250000,222877.3593750000,169249.7187500000,170321.9843750000,137648.3593750000,121857.2812500000,135536.0937500000,157996.1562500000,,,
0.2559999996,2,177979.2656250000,204871.4375000000,170084.0781250000,171314.4062500000,138561.8906250000,122806.2421875000,136621.9843750000,155421.5156250000,,,
0.2599999995,2,178011.8750000000,189958.8750000000,170017.6875000000,171248.2031250000,138439.0468750000,122729.4531250000,136527.2968750000,154737.8125000000,,,
0.2639999995,2,177311.5781250000,201765.4218750000,169056.6875000000,170113.1562500000,137332.9062500000,121626.4765625000,135249.0625000000,157271.0468750000,,,
0.2679999995,2,176911.7968750000,221348.5312500000,168663.0625000000,169639.0468750000,136958.1250000000,121188.5000000000,134750.5468750000,159135.5156250000,,,
0.2719999994,2,177313.1406250000,223033.7031250000,169259.4218750000,170325.6093750000,137657.0937500000,121860.3125000000,135537.0781250000,158021.7812500000,,,
0.2759999994,2,177986.6093750000,205108.9843750000,170090.0000000000,171321.4062500000,138571.7031250000,122801.2812500000,136620.2343750000,155440.9218750000,,,
0.2799999996,2,178020.3593750000,190100.6718750000,170025.2031250000,171265.8281250000,138455.4531250000,122718.0234375000,136532.9375000000,154722.3125000000,,,
0.2839999995,2,177329.3125000000,201618.6718750000,169076.8281250000,170131.5468750000,137361.2500000000,121623.9296875000,135267.3281250000,157202.7031250000,,,
0.2879999995,2,176920.1718750000,221146.1718750000,168667.7343750000,169641.8281250000,136971.9531250000,121177.7421875000,134750.7656250000,159084.1250000000,,,
0.2919999994,2,177300.8281250000,222985.5625000000,169239.1718750000,170311.6562500000,137645.9218750000,121833.8906250000,135509.3281250000,158011.2812500000,,,
0.2959999994,2,177966.4375000000,205267.6875000000,170068.9218750000,171303.3593750000,138555.0312500000,122771.1640625000,136591.2968750000,155457.5312500000,,,
0.2999999996,2,178005.6562500000,190244.2343750000,170013.9375000000,171264.0625000000,138448.6406250000,122709.6562500000,136515.4218750000,154714.1250000000,,,
0.3039999995,2,177333.7656250000,201613.4375000000,169082.8281250000,170148.6875000000,137373.3281250000,121648.8984375000,135267.8125000000,157192.0312500000,,,
0.3079999995,2,176920.8437500000,221159.7187500000,168670.1718750000,169649.8437500000,136978.2656250000,121195.1484375000,134746.8437500000,159093.0781250000,,,
0.3119999995,2,177286.0468750000,223206.9531250000,169226.3281250000,170307.3750000000,137636.7656250000,121826.0312500000,135495.4843750000,158037.6875000000,,,
0.3159999994,2,177951.0000000000,205636.0937500000,170057.9218750000,171287.2656250000,138551.2968750000,122757.1875000000,136584.6718750000,155474.4218750000,,,
0.3199999994,2,178000.3437500000,190441.7812500000,170015.7031250000,171255.3906250000,138458.6250000000,122702.6015625000,136526.5468750000,154698.7343750000,,,
0.3239999996,2,177328.3125000000,201591.8593750000,169080.5468750000,170138.5468750000,137377.2968750000,121634.6796875000,135274.3281250000,157162.3125000000,,,
0.3279999995,2,176897.3906250000,221124.9687500000,168644.8750000000,169620.2656250000,136958.5468750000,121160.3593750000,134730.1406250000,159068.1562500000,,,
0.3319999995,2,177273.8906250000,223253.1562500000,169214.0937500000,170285.6406250000,137630.7343750000,121808.5390625000,135487.1875000000,158032.6093750000,,,
0.3359999994,2,177946.2968750000,205769.8281250000,170050.1406250000,171284.8437500000,138551.0781250000,122745.6796875000,136579.0156250000,155472.0156250000,,,
0.3399999994,2,178001.5468750000,190578.2968750000,170013.2343750000,171258.8281250000,138466.3281250000,122699.5468750000,136528.4062500000,154690.5312500000,,,
0.3439999996,2,177341.5937500000,201611.2968750000,169093.5937500000,170149.7812500000,137398.8281250000,121643.2890625000,135294.2343750000,157160.8750000000,,,
0.3479999995,2,176909.5156250000,221188.1875000000,168657.4843750000,169637.7500000000,136973.7812500000,121168.0546875000,134746.7968750000,159093.7812500000,,,
0.3519999995,2,177275.2968750000,223447.8593750000,169211.0156250000,170293.7656250000,137627.3593750000,121805.1093750000,135482.7968750000,158070.1875000000,,,
0.3559999994,2,177948.4218750000,206110.3281250000,170047.5156250000,171293.4843750000,138545.9843750000,122752.0937500000,136572.8437500000,155517.0000000000,,,
0.3599999994,2,178010.8281250000,190904.8906250000,170020.6406250000,171292.2812500000,138471.2812500000,122722.6093750000,136536.5000000000,154723.8125000000,,,
0.3639999994,2,177327.4062500000,201765.0781250000,169077.6250000000,170174.6718750000,137381.7968750000,121651.9296875000,135283.9843750000,157159.7343750000,,,
0.3679999996,2,176898.6875000000,221324.8750000000,168645.0156250000,169648.3437500000,136959.5937500000,121177.0156250000,134740.7343750000,159108.8281250000,,,
0.3719999995,2,177270.0156250000,223670.5468750000,169206.0000000000,170304.9843750000,137620.3593750000,121815.7812500000,135489.6406250000,158097.2031250000,,,
0.3759999995,2,177952.2500000000,206411.3750000000,170051.7500000000,171302.6875000000,138549.9531250000,122774.2734375000,136590.6562500000,155543.9531250000,,,
0.3799999994,2,178015.5000000000,191096.8281250000,170029.6562500000,171297.9843750000,138482.3906250000,122747.6406250000,136561.3593750000,154731.3281250000,,,
0.3839999994,3,177314.0468750000,201739.6718750000,169069.1250000000,170174.0156250000,137375.4218750000,121658.9531250000,135295.2031250000,157141.9375000000,,,
0.3879999993,3,176875.5156250000,221270.5781250000,168622.1562500000,169643.8750000000,136934.0000000000,121180.1015625000,134733.6250000000,159109.2187500000,,,
0.3919999993,3,177253.6406250000,223731.1875000000,169189.3125000000,170299.4531250000,137597.8437500000,121828.7421875000,135485.0468750000,158128.0156250000,,,
0.3959999993,3,177934.5781250000,206580.9843750000,170037.1562500000,171296.1718750000,138530.8593750000,122777.7890625000,136595.4531250000,155575.1406250000,,,
0.3999999992,3,178000.0781250000,191200.1718750000,170013.7500000000,171295.9218750000,138466.3281250000,122750.9921875000,136573.9375000000,154740.5156250000,,,
0.4039999992,3,177337.1718750000,201683.0000000000,169094.0156250000,170190.3750000000,137398.4062500000,121698.1171875000,135345.1093750000,157173.8750000000,,,
0.4079999994,3,176903.9687500000,221193.8125000000,168656.7968750000,169650.8437500000,136965.2500000000,121215.5859375000,134792.5000000000,159163.3281250000,,,
0.4119999993,3,177281.8125000000,223774.5000000000,169223.5156250000,170298.2187500000,137628.8906250000,121851.7265625000,135539.6250000000,158189.7031250000,,,
0.4159999993,3,177954.9843750000,206716.1875000000,170059.2343750000,171294.1718750000,138552.2812500000,122797.2890625000,136636.7031250000,155611.9375000000,,,
0.4199999992,3,178022.5000000000,191202.6718750000,170043.5156250000,171304.9687500000,138496.5468750000,122781.6250000000,136626.1406250000,154742.5625000000,,,
0.4239999992,3,177350.0781250000,201510.5781250000,169116.8437500000,170188.4375000000,137422.6562500000,121719.1484375000,135396.2968750000,157166.9062500000,,,
0.4279999994,3,176906.7031250000,221013.1406250000,168663.8125000000,169640.9218750000,136975.9218750000,121219.4453125000,134825.4375000000,159173.0000000000,,,
0.4319999993,3,177273.0312500000,223738.0781250000,169216.7343750000,170278.2968750000,137624.6250000000,121838.8515625000,135553.7343750000,158211.4062500000,,,
0.4359999993,3,177967.2187500000,206741.6406250000,170072.1406250000,171299.4687500000,138567.5468750000,122810.2109375000,136669.3750000000,155633.0781250000,,,
0.4399999992,3,178045.6250000000,191067.6093750000,170070.0156250000,171318.4062500000,138528.5781250000,122807.4531250000,136655.2500000000,154782.1250000000,,,
0.4439999992,3,177346.4218750000,201331.7031250000,169112.5468750000,170181.2031250000,137425.0937500000,121709.4062500000,135381.8437500000,157263.4843750000,,,
0.4479999992,3,176893.6718750000,220995.4062500000,168647.7500000000,169616.5625000000,136960.8593750000,121196.7812500000,134817.2031250000,159297.5937500000,,,
0.4519999993,3,177267.8281250000,223820.3906250000,169207.9531250000,170274.9687500000,137614.3125000000,121832.1484375000,135559.6093750000,158326.2031250000,,,
0.4559999993,3,177975.4531250000,206815.8906250000,170087.8750000000,171302.2812500000,138578.3125000000,122816.4609375000,136692.6875000000,155757.5625000000,,,
0.4599999993,3,178049.3750000000,190976.3437500000,170076.0312500000,171324.8437500000,138530.4843750000,122816.3828125000,136678.3906250000,154913.1250000000,,,
0.4639999992,3,177350.1250000000,201087.5781250000,169107.4218750000,170189.7031250000,137416.0781250000,121726.5234375000,135396.6093750000,157354.2500000000,,,
0.4679999992,3,176892.1093750000,220774.8281250000,168639.8437500000,169626.3750000000,136948.4687500000,121204.3203125000,134798.7031250000,159321.7343750000,,,
0.4719999994,3,177251.6093750000,223672.5312500000,169187.7343750000,170268.3125000000,137589.9687500000,121813.9843750000,135519.5156250000,158312.3125000000,,,
0.4759999993,3,177954.6406250000,206715.3906250000,170057.0937500000,171289.0000000000,138547.3593750000,122794.6562500000,136649.2812500000,155775.9375000000,,,
0.4799999993,3,178057.8281250000,190863.6406250000,170078.5000000000,171317.9218750000,138530.2656250000,122820.5937500000,136671.0156250000,154965.2968750000,,,
0.4839999992,3,177352.2187500000,200837.2343750000,169118.4843750000,170193.2656250000,137422.0000000000,121724.5625000000,135398.5468750000,157331.1562500000,,,
0.4879999992,3,176896.6718750000,220569.3750000000,168651.6875000000,169637.9218750000,136954.6875000000,121207.1093750000,134797.5781250000,159246.9062500000,,,
0.4919999992,3,177246.5156250000,223588.5937500000,169187.7031250000,170268.7187500000,137584.3593750000,121810.4218750000,135508.5781250000,158243.8437500000,,,
0.4959999993,3,177935.6250000000,206708.0000000000,170046.5781250000,171281.6562500000,138530.7187500000,122772.8750000000,136636.8750000000,155737.0468750000,,,
0.4999999993,3,178023.9843750000,190765.4687500000,170051.3437500000,171316.3125000000,138499.4687500000,122791.0390625000,136649.4531250000,154907.6562500000,,,
0.5039999993,3,177343.7968750000,200620.5781250000,169110.0625000000,170201.4531250000,137414.1406250000,121716.7031250000,135391.7343750000,157241.9218750000,,,
0.5079999992,3,176885.4375000000,220384.4375000000,168637.3750000000,169632.2812500000,136941.1406250000,121195.6562500000,134780.8906250000,159116.4375000000,,,
0.5119999992,4,177251.8750000000,223486.2500000000,169188.5156250000,170268.0937500000,137585.8281250000,121819.8593750000,135508.4687500000,158146.9843750000,,,
0.5159999991,4,177957.0625000000,206651.8125000000,170058.4062500000,171298.2500000000,138542.3437500000,122797.3906250000,136641.1093750000,155698.6093750000,,,
0.5199999991,4,178054.7343750000,190653.6718750000,170080.0312500000,171329.8281250000,138526.4843750000,122812.0078125000,136661.9687500000,154882.2812500000,,,
0.5239999990,4,177368.0937500000,200374.4843750000,169136.1250000000,170216.7031250000,137436.9218750000,121731.4062500000,135401.1250000000,157173.3906250000,,,
0.5279999990,4,176898.5781250000,220176.8750000000,168648.4531250000,169633.0937500000,136949.0468750000,121196.9218750000,134779.2031250000,159032.2968750000,,,
0.5319999990,4,177260.1093750000,223390.3593750000,169194.5937500000,170264.7500000000,137589.0000000000,121810.9531250000,135499.1875000000,158089.3125000000,,,
0.5359999991,4,177964.4843750000,206653.7500000000,170066.0156250000,171296.2187500000,138546.1406250000,122783.8750000000,136633.3750000000,155672.9062500000,,,
0.5399999991,4,178081.5156250000,190634.3593750000,170108.3437500000,171356.1875000000,138553.0468750000,122821.9609375000,136683.5468750000,154877.4218750000,,,
0.5439999991,4,177404.5781250000,200238.0625000000,169172.9062500000,170240.3906250000,137473.1093750000,121759.9140625000,135439.6718750000,157157.9375000000,,,
0.5479999990,4,176919.5781250000,220096.0156250000,168668.9375000000,169647.5468750000,136966.3750000000,121212.1562500000,134800.9843750000,159012.2031250000,,,
0.5519999990,4,177266.2187500000,223460.3281250000,169200.3125000000,170257.8750000000,137590.8750000000,121819.8046875000,135509.3750000000,158087.5781250000,,,
0.5559999992,4,177975.7187500000,206835.9531250000,170079.1875000000,171292.0937500000,138555.4531250000,122803.2421875000,136653.3437500000,155707.1875000000,,,
0.5599999991,4,178095.4375000000,190739.6406250000,170122.9687500000,171361.7500000000,138565.2187500000,122859.8359375000,136706.0625000000,154911.9687500000,,,
0.5639999991,4,177409.4062500000,200185.1406250000,169176.4375000000,170247.2656250000,137475.3281250000,121785.7187500000,135452.1718750000,157154.0312500000,,,
0.5679999990,4,176925.4843750000,220059.7187500000,168670.9218750000,169634.9375000000,136967.3125000000,121226.9062500000,134813.6406250000,159004.2656250000,,,
0.5719999990,4,177269.2031250000,223554.9375000000,169197.4218750000,170245.1093750000,137587.5468750000,121824.5312500000,135518.5156250000,158101.1718750000,,,
0.5759999990,4,177976.3906250000,207024.4843750000,170077.5625000000,171281.1406250000,138557.1093750000,122814.2656250000,136670.6718750000,155739.9687500000,,,
0.5799999991,4,178099.8906250000,190842.5000000000,170130.7500000000,171353.8593750000,138578.3906250000,122873.3515625000,136734.3750000000,154935.5156250000,,,
0.5839999991,4,177416.5156250000,200148.0000000000,169184.1875000000,170221.4062500000,137489.4062500000,121810.4218750000,135477.9062500000,157152.5468750000,,,
0.5879999991,4,176933.8437500000,220032.2031250000,168679.7968750000,169613.7812500000,136982.3593750000,121261.4531250000,134843.4843750000,159003.5156250000,,,
0.5919999990,4,177278.3281250000,223621.1406250000,169207.6875000000,170241.3281250000,137602.7812500000,121850.3828125000,135551.1875000000,158115.4687500000,,,
0.5959999990,4,177986.0312500000,207182.2500000000,170087.3125000000,171284.3593750000,138568.7812500000,122834.7812500000,136699.4687500000,155768.9062500000,,,
0.5999999992,4,178085.9687500000,190959.8750000000,170116.7500000000,171337.9531250000,138567.2031250000,122880.4843750000,136745.3437500000,154934.0156250000,,,
0.6039999991,4,177406.7812500000,200124.4218750000,169177.4375000000,170233.9062500000,137486.5468750000,121830.4843750000,135498.8593750000,157125.1093750000,,,
0.6079999991,4,176938.2500000000,220029.0625000000,168682.5312500000,169652.9062500000,136988.5937500000,121294.1484375000,134863.4531250000,158993.3593750000,,,
0.6119999990,4,177279.2812500000,223760.4218750000,169205.1718750000,170261.4531250000,137602.5937500000,121876.0781250000,135553.8750000000,158128.5000000000,,,
0.6159999990,4,177956.7656250000,207415.4062500000,170058.6406250000,171275.3281250000,138544.9062500000,122830.3046875000,136679.0000000000,155766.3281250000,,,
0.6199999989,4,178059.5625000000,191069.3593750000,170098.9531250000,171344.7343750000,138554.5937500000,122873.1093750000,136743.3593750000,154900.2500000000,,,
0.6239999991,4,177408.7343750000,200065.6250000000,169189.5625000000,170251.7656250000,137498.0156250000,121833.2968750000,135521.0156250000,157088.1718750000,,,
0.6279999991,4,176965.0468750000,219959.6250000000,168720.7812500000,169678.3906250000,137024.4687500000,121314.8281250000,134898.9843750000,158989.8125000000,,,
0.6319999991,4,177284.4375000000,223757.0625000000,169224.8281250000,170272.6875000000,137621.4062500000,121877.5546875000,135564.2500000000,158130.8125000000,,,
0.6359999990,4,177933.0781250000,207492.3437500000,170038.5625000000,171270.7656250000,138520.3750000000,122804.1484375000,136654.4375000000,155751.7187500000,,,
0.6399999990,5,178028.7812500000,191106.8593750000,170060.0937500000,171320.2500000000,138511.2187500000,122854.1484375000,136696.2500000000,154865.2187500000,,,
0.6439999989,5,177388.2656250000,199904.7500000000,169164.9062500000,170242.8906250000,137468.5937500000,121820.3984375000,135490.0312500000,157027.0468750000,,,
0.6479999989,5,176965.2500000000,219793.1406250000,168716.5000000000,169687.5312500000,137011.5468750000,121301.7968750000,134895.5312500000,158960.1250000000,,,
0.6519999988,5,177298.7031250000,223691.6562500000,169228.3750000000,170279.7343750000,137615.0156250000,121875.6015625000,135566.7812500000,158140.3593750000,,,
0.6559999988,5,177936.4531250000,207494.4843750000,170038.3906250000,171241.2656250000,138512.7812500000,122791.2265625000,136635.0468750000,155751.5781250000,,,
0.6599999988,5,178037.7031250000,191062.1718750000,170076.7031250000,171309.3125000000,138520.9843750000,122835.6406250000,136686.2500000000,154838.7968750000,,,
0.6639999989,5,177423.4375000000,199738.4218750000,169198.8437500000,170265.4687500000,137501.1250000000,121838.6875000000,135499.2656250000,157020.5000000000,,,
0.6679999989,5,177010.2968750000,219652.7187500000,168758.8750000000,169728.4062500000,137054.7812500000,121335.9140625000,134914.3593750000,158997.3281250000,,,
0.6719999989,5,177315.7968750000,223701.0625000000,169242.0781250000,170303.6093750000,137630.9687500000,121879.8359375000,135559.4843750000,158174.4687500000,,,
0.6759999988,5,177935.4687500000,207645.6250000000,170035.2031250000,171260.6562500000,138512.2656250000,122780.6015625000,136613.0781250000,155773.3593750000,,,
0.6799999988,5,178028.7187500000,191142.9375000000,170065.2968750000,171326.0156250000,138514.4375000000,122821.8515625000,136663.0781250000,154840.1406250000,,,
0.6839999990,5,177425.9531250000,199679.5937500000,169203.9843750000,170296.1562500000,137507.6562500000,121831.8750000000,135494.8437500000,157018.2343750000,,,
0.6879999989,5,177019.7031250000,219605.4375000000,168765.4531250000,169755.7968750000,137060.5468750000,121335.9609375000,134911.6718750000,159011.0000000000,,,
0.6919999989,5,177329.0156250000,223757.0625000000,169249.7656250000,170316.9218750000,137636.8437500000,121888.7968750000,135555.4218750000,158211.5468750000,,,
0.6959999988,5,177932.9218750000,207760.0000000000,170026.3593750000,171253.6718750000,138503.2031250000,122767.4609375000,136593.9218750000,155794.5000000000,,,
0.6999999988,5,178028.7500000000,191169.3750000000,170061.4843750000,171324.4843750000,138511.8906250000,122807.8828125000,136652.0781250000,154831.4531250000,,,
0.7039999987,5,177445.1875000000,199581.3281250000,169222.3593750000,170312.7656250000,137526.3750000000,121835.0468750000,135503.9843750000,157020.6406250000,,,
0.7079999989,5,177040.6250000000,219545.3593750000,168786.9531250000,169771.6250000000,137080.7968750000,121341.4375000000,134915.6093750000,159040.7500000000,,,
0.7119999989,5,177315.9843750000,223770.0000000000,169233.4375000000,170299.5156250000,137620.3750000000,121873.2343750000,135528.6562500000,158228.5937500000,,,
0.7159999989,5,177904.5156250000,207796.5781250000,169997.0625000000,171224.7031250000,138473.6250000000,122745.0937500000,136560.3125000000,155784.5156250000,,,
0.7199999988,5,178003.3281250000,191141.7031250000,170039.8750000000,171303.6718750000,138487.8125000000,122792.6484375000,136625.5468750000,154803.5000000000,,,
0.7239999988,5,177413.3750000000,199412.8593750000,169195.3437500000,170269.0937500000,137495.9062500000,121816.4296875000,135473.7343750000,156969.5468750000,,,
0.7279999990,5,177006.5000000000,219391.7500000000,168747.2031250000,169711.4375000000,137037.5937500000,121317.3750000000,134869.3750000000,158992.0156250000,,,
0.7319999989,5,177295.5156250000,223712.9218750000,169207.5000000000,170256.2656250000,137590.1875000000,121849.7109375000,135491.8281250000,158201.4062500000,,,
0.7359999989,5,177896.6718750000,207822.0312500000,169983.9218750000,171197.3593750000,138454.2343750000,122725.5390625000,136527.9218750000,155780.0156250000,,,
0.7399999988,5,178002.4062500000,191095.2656250000,170035.8281250000,171287.6562500000,138478.4531250000,122781.8593750000,136604.0312500000,154795.3750000000,,,
0.7439999988,5,177418.2500000000,199214.7500000000,169199.7968750000,170277.2812500000,137496.2187500000,121810.2343750000,135467.5625000000,156940.1250000000,,,
0.7479999987,5,177011.9843750000,219217.0000000000,168756.4531250000,169727.3906250000,137042.6406250000,121309.0312500000,134874.7343750000,158972.6718750000,,,
0.7519999989,5,177296.7187500000,223635.6250000000,169211.8125000000,170265.7968750000,137590.1562500000,121838.3984375000,135489.5000000000,158198.6093750000,,,
0.7559999989,5,177879.2500000000,207785.4843750000,169972.6562500000,171191.1250000000,138440.5468750000,122702.7656250000,136519.0468750000,155763.8593750000,,,
0.7599999988,5,177974.0000000000,190981.5625000000,170016.1875000000,171271.5625000000,138459.7031250000,122755.0390625000,136590.9531250000,154748.7500000000,,,
0.7639999988,5,177388.1562500000,198969.0000000000,169173.8593750000,170260.6406250000,137471.9531250000,121784.0000000000,135443.2812500000,156872.3125000000,,,
0.7679999988,6,176977.5625000000,219004.7343750000,168727.3125000000,169701.4062500000,137011.1718750000,121272.5859375000,134834.1093750000,158905.5625000000,,,
0.7719999987,6,177253.7812500000,223531.8750000000,169174.9375000000,170232.9843750000,137549.4375000000,121791.9140625000,135439.5000000000,158139.9531250000,,,
0.7759999987,6,177841.6093750000,207750.8750000000,169935.1562500000,171169.1406250000,138401.8437500000,122668.9140625000,136473.5781250000,155721.8281250000,,,
0.7799999986,6,177950.3437500000,190833.3437500000,169989.8281250000,171264.2968750000,138434.0000000000,122735.8359375000,136562.2500000000,154701.8750000000,,,
0.7839999986,6,177356.0781250000,198703.2500000000,169140.0937500000,170253.9062500000,137441.3750000000,121757.2578125000,135413.7343750000,156814.2500000000,,,
0.7879999985,6,176953.4218750000,218848.8593750000,168696.4843750000,169691.5937500000,136984.2656250000,121257.6406250000,134810.2031250000,158892.7187500000,,,
0.7919999987,6,177224.4062500000,223551.7656250000,169142.9687500000,170215.3125000000,137519.5312500000,121761.0937500000,135416.5156250000,158148.1875000000,,,
0.7959999987,6,177810.9843750000,207858.1875000000,169909.0937500000,171143.1406250000,138374.0000000000,122633.3750000000,136452.3281250000,155715.9843750000,,,
0.7999999986,6,177930.1875000000,190812.0000000000,169974.3125000000,171251.2031250000,138416.3593750000,122723.2578125000,136554.9218750000,154673.5937500000,,,
0.8039999986,6,177342.2187500000,198542.8750000000,169125.8750000000,170231.2968750000,137422.9375000000,121752.9140625000,135404.9843750000,156777.9218750000,,,
0.8079999986,6,176930.8437500000,218735.0625000000,168674.3906250000,169652.5312500000,136956.2343750000,121236.3203125000,134790.8906250000,158859.5156250000,,,
0.8119999988,6,177218.3437500000,223548.7187500000,169134.4375000000,170181.2031250000,137506.7968750000,121766.6484375000,135406.1875000000,158147.8906250000,,,
0.8159999987,6,177815.3593750000,207918.7812500000,169910.9843750000,171125.5781250000,138371.2656250000,122649.4687500000,136448.9843750000,155735.2968750000,,,
0.8199999987,6,177926.8750000000,190767.6406250000,169977.7500000000,171239.1093750000,138415.8437500000,122717.0078125000,136554.5000000000,154657.6718750000,,,
0.8239999986,6,177342.8906250000,198338.6875000000,169132.4218750000,170230.2812500000,137426.2968750000,121740.6562500000,135407.2343750000,156740.0781250000,,,
0.8279999986,6,176923.8906250000,218553.4218750000,168667.7656250000,169654.2812500000,136946.5000000000,121210.0859375000,134778.2343750000,158826.2500000000,,,
0.8319999985,6,177203.8437500000,223483.8906250000,169121.0781250000,170184.0156250000,137491.7500000000,121725.4765625000,135383.6093750000,158124.0156250000,,,
0.8359999987,6,177816.2343750000,207938.7968750000,169916.9687500000,171123.8593750000,138377.1406250000,122626.5390625000,136445.0312500000,155724.2187500000,,,
0.8399999987,6,177957.2500000000,190740.5937500000,170010.1718750000,171247.9062500000,138449.6875000000,122741.1718750000,136577.1093750000,154660.3281250000,,,
0.8439999986,6,177369.2968750000,198117.3437500000,169164.4843750000,170234.2031250000,137461.7343750000,121769.2500000000,135436.8281250000,156723.3750000000,,,
0.8479999986,6,176930.7031250000,218279.4062500000,168675.8593750000,169641.0781250000,136961.3437500000,121221.8125000000,134789.2812500000,158814.6562500000,,,
0.8519999986,6,177198.5312500000,223296.4062500000,169115.6093750000,170154.4218750000,137492.7656250000,121730.2187500000,135381.2968750000,158131.0000000000,,,
0.8559999987,6,177813.8281250000,207838.3750000000,169910.9843750000,171113.2968750000,138376.0468750000,122634.9609375000,136443.0312500000,155742.0625000000,,,
0.8599999987,6,177955.5781250000,190591.9843750000,170008.2187500000,171252.7968750000,138451.2500000000,122744.8984375000,136584.8281250000,154662.2500000000,,,
0.8639999987,6,177360.3750000000,197797.8750000000,169152.2500000000,170233.0156250000,137454.1406250000,121762.0078125000,135434.9375000000,156697.2187500000,,,
0.8679999986,6,176912.7343750000,217972.5312500000,168658.0312500000,169637.1093750000,136943.5312500000,121202.0937500000,134775.6093750000,158783.6562500000,,,
0.8719999986,6,177173.1562500000,223113.9062500000,169090.6562500000,170146.1718750000,137464.1718750000,121699.4609375000,135358.8281250000,158102.6250000000,,,
0.8759999985,6,177771.4531250000,207760.4843750000,169868.6093750000,171095.1875000000,138329.5625000000,122585.7421875000,136399.9531250000,155699.1718750000,,,
0.8799999987,6,177919.3437500000,190442.4531250000,169966.1406250000,171226.0781250000,138408.4375000000,122709.8984375000,136540.0468750000,154605.7187500000,,,
0.8839999987,6,177337.6875000000,197431.7968750000,169127.4843750000,170211.2968750000,137426.4843750000,121744.0625000000,135408.7187500000,156624.8281250000,,,
0.8879999986,6,176868.2656250000,217581.2500000000,168608.3281250000,169599.2968750000,136894.2812500000,121161.7812500000,134730.8437500000,158699.2968750000,,,
0.8919999986,6,177128.5781250000,222893.6875000000,169038.7968750000,170104.1406250000,137413.8281250000,121654.9843750000,135309.9843750000,158049.9062500000,,,
0.8959999986,7,177737.1093750000,207721.2343750000,169831.5156250000,171053.4218750000,138294.5625000000,122552.6718750000,136369.9062500000,155685.4687500000,,,
0.8999999985,7,177888.5312500000,190389.5312500000,169941.1093750000,171208.0468750000,138382.9843750000,122679.9687500000,136524.1093750000,154594.6093750000,,,
0.9039999985,7,177319.9218750000,197298.0312500000,169112.3125000000,170218.5312500000,137412.4843750000,121724.6171875000,135401.9843750000,156607.9843750000,,,
0.9079999984,7,176881.6718750000,217546.0156250000,168622.1875000000,169617.2031250000,136905.8750000000,121168.9140625000,134744.2500000000,158722.2343750000,,,
0.9119999984,7,177156.6562500000,223073.6093750000,169069.2656250000,170128.1406250000,137441.6875000000,121679.3437500000,135335.5937500000,158115.1718750000,,,
0.9159999983,7,177775.6093750000,208121.1093750000,169869.6562500000,171089.5468750000,138331.8437500000,122589.5468750000,136401.3906250000,155786.8750000000,,,
0.9199999985,7,177935.1093750000,190816.1562500000,169983.6562500000,171239.2968750000,138431.6406250000,122733.9062500000,136566.3281250000,154703.7500000000,,,
0.9239999985,7,177350.2656250000,197616.1562500000,169142.1406250000,170243.7656250000,137451.2968750000,121768.6562500000,135435.1875000000,156690.0781250000,,,
0.9279999984,7,176915.0937500000,217935.8437500000,168651.9375000000,169639.4218750000,136944.2500000000,121219.4218750000,134776.7500000000,158813.1093750000,,,
0.9319999984,7,177188.3125000000,223667.0000000000,169093.6875000000,170152.1250000000,137473.7187500000,121730.3593750000,135367.5625000000,158228.9218750000,,,
0.9359999984,7,177807.2031250000,208832.7656250000,169899.1875000000,171110.6406250000,138365.5000000000,122637.9062500000,136441.6875000000,155891.4531250000,,,
0.9399999985,7,177952.6562500000,191347.2031250000,170002.5625000000,171270.8906250000,138454.7968750000,122758.8515625000,136601.2187500000,154739.3750000000,,,
0.9439999985,7,177380.4375000000,197819.7031250000,169170.0781250000,170268.0781250000,137481.0937500000,121805.8046875000,135475.0468750000,156684.1562500000,,,
0.9479999985,7,176922.2343750000,217972.6093750000,168658.4843750000,169641.2968750000,136947.3281250000,121218.6171875000,134789.2812500000,158758.3906250000,,,
0.9519999984,7,177166.8437500000,223636.0468750000,169074.4843750000,170127.4687500000,137452.3125000000,121687.7109375000,135352.2500000000,158136.7343750000,,,
0.9559999984,7,177772.6562500000,208812.1406250000,169865.2031250000,171075.8437500000,138333.9843750000,122586.2187500000,136411.2187500000,155813.1875000000,,,
0.9599999983,7,177933.4218750000,191322.2031250000,169984.7031250000,171238.5781250000,138440.9843750000,122736.8828125000,136588.0468750000,154699.3281250000,,,
0.9639999985,7,177357.5625000000,197637.4218750000,169151.9531250000,170244.8750000000,137468.1718750000,121785.2578125000,135464.4531250000,156635.7656250000,,,
0.9679999985,7,176911.0468750000,217750.4218750000,168651.5312500000,169625.5468750000,136946.7500000000,121223.6093750000,134792.7187500000,158738.9687500000,,,
0.9719999984,7,177160.9531250000,223515.9687500000,169070.5937500000,170112.1562500000,137454.5625000000,121703.9921875000,135361.4843750000,158148.4062500000,,,
0.9759999984,7,177770.0312500000,208826.7187500000,169861.4218750000,171068.9531250000,138334.0937500000,122603.4687500000,136417.8437500000,155842.1093750000,,,
0.9799999984,7,177930.2031250000,191371.3281250000,169985.5312500000,171246.2187500000,138442.8750000000,122750.5312500000,136594.8906250000,154720.5156250000,,,
0.9839999985,7,177376.5937500000,197605.8281250000,169177.8281250000,170273.7343750000,137493.2968750000,121811.6796875000,135492.9531250000,156666.7500000000,,,
0.9879999985,7,176932.0468750000,217752.7812500000,168674.4687500000,169649.4218750000,136965.7812500000,121239.8359375000,134809.4062500000,158772.6093750000,,,
0.9919999985,7,177173.0000000000,223626.2031250000,169081.6718750000,170136.5312500000,137461.3281250000,121706.5390625000,135365.2031250000,158177.0781250000,,,
0.9959999984,7,177787.7343750000,209038.7968750000,169876.2031250000,171097.6562500000,138346.6406250000,122616.0468750000,136432.5156250000,155874.9843750000,,,
0.9999999984,7,177962.5468750000,191515.3593750000,170012.4062500000,171283.0468750000,138469.3593750000,122781.0546875000,136624.1875000000,154758.4687500000,,,
1.0039999983,7,177395.8281250000,197590.5312500000,169189.1875000000,170286.5781250000,137506.6875000000,121835.9531250000,135511.1250000000,156686.1718750000,,,
1.0079999985,7,176935.8906250000,217719.5000000000,168672.9062500000,169646.7343750000,136966.2968750000,121250.2109375000,134817.9062500000,158784.5937500000,,,
1.0119999985,7,177190.7968750000,223713.4062500000,169096.0781250000,170137.8593750000,137473.6406250000,121734.8906250000,135382.4062500000,158216.0468750000,,,
1.0159999984,7,177822.4062500000,209243.1562500000,169911.6093750000,171115.0625000000,138377.8437500000,122657.4062500000,136467.1406250000,155935.5781250000,,,
1.0199999984,7,177986.4843750000,191644.6875000000,170043.9218750000,171298.3906250000,138500.3281250000,122808.2812500000,136660.8750000000,154786.5468750000,,,
1.0239999983,8,177430.1406250000,197527.4531250000,169232.5312500000,170336.3281250000,137550.2187500000,121873.4531250000,135560.1718750000,156696.0468750000,,,
1.0279999983,8,176950.2812500000,217596.0625000000,168688.4687500000,169681.5625000000,136983.8906250000,121267.8593750000,134840.2656250000,158784.3281250000,,,
1.0319999983,8,177193.7031250000,223695.4375000000,169098.8906250000,170145.2343750000,137477.5312500000,121738.9687500000,135388.6250000000,158229.5468750000,,,
1.0359999982,8,177825.3593750000,209356.3437500000,169914.5625000000,171119.7343750000,138380.7031250000,122660.8984375000,136465.5781250000,155960.1250000000,,,
1.0399999982,8,178010.0781250000,191742.1875000000,170065.9687500000,171323.4687500000,138521.7343750000,122833.1718750000,136669.1875000000,154815.5625000000,,,
1.0439999981,8,177446.6093750000,197411.0156250000,169248.5625000000,170347.4687500000,137566.1718750000,121893.7031250000,135567.0625000000,156689.1250000000,,,
1.0479999983,8,176961.4687500000,217414.1875000000,168703.0781250000,169684.3750000000,136995.1250000000,121278.9375000000,134845.5781250000,158766.6562500000,,,
1.0519999983,8,177197.1250000000,223636.1875000000,169100.5312500000,170149.3906250000,137477.6093750000,121738.1875000000,135379.7187500000,158235.6562500000,,,
1.0559999982,8,177821.9062500000,209448.5312500000,169909.9375000000,171122.0625000000,138375.3906250000,122647.5625000000,136451.3125000000,155975.6562500000,,,
1.0599999982,8,178005.2343750000,191777.2187500000,170065.4062500000,171331.7343750000,138518.5937500000,122826.3906250000,136664.6093750000,154802.9062500000,,,
1.0639999982,8,177443.5468750000,197239.4531250000,169249.5625000000,170354.3906250000,137561.9062500000,121894.2968750000,135564.8437500000,156645.7968750000,,,
1.0679999983,8,176970.7812500000,217217.4062500000,168715.5781250000,169684.4218750000,136998.5156250000,121285.3281250000,134848.0781250000,158755.8906250000,,,
1.0719999983,8,177190.6406250000,223596.9375000000,169096.5312500000,170132.4375000000,137464.1093750000,121731.9687500000,135363.4062500000,158244.9843750000,,,
1.0759999983,8,177795.7812500000,209609.2656250000,169883.5312500000,171093.1250000000,138344.4218750000,122632.1718750000,136419.8593750000,155985.0468750000,,,
1.0799999982,8,177987.8750000000,191850.5000000000,170048.2656250000,171316.9531250000,138501.5156250000,122829.5234375000,136651.3750000000,154794.9375000000,,,
1.0839999982,8,177451.8593750000,197137.5937500000,169259.3437500000,170379.3906250000,137570.1406250000,121925.1406250000,135576.1406250000,156638.6406250000,,,
1.0879999981,8,176958.3125000000,217078.0781250000,168699.4062500000,169684.6875000000,136981.9375000000,121275.9609375000,134832.5937500000,158740.3593750000,,,
1.0919999983,8,177174.4687500000,223503.0312500000,169080.2500000000,170114.4062500000,137450.1718750000,121712.7109375000,135353.4062500000,158232.9218750000,,,
1.0959999983,8,177793.5156250000,209548.2500000000,169882.0000000000,171084.8281250000,138345.1093750000,122623.1796875000,136426.9843750000,155984.0468750000,,,
1.0999999982,8,177984.1250000000,191805.0937500000,170044.7187500000,171316.7031250000,138497.9218750000,122811.1562500000,136654.7656250000,154780.4531250000,,,
1.1039999982,8,177428.5312500000,196963.7500000000,169239.4531250000,170343.8125000000,137550.4375000000,121887.6406250000,135564.8437500000,156588.6718750000,,,
1.1079999981,8,176933.3906250000,216944.4375000000,168677.0625000000,169658.7031250000,136959.4531250000,121256.9453125000,134816.6406250000,158708.7187500000,,,
1.1119999983,8,177157.7031250000,223498.7500000000,169059.5468750000,170109.6875000000,137429.2968750000,121693.5859375000,135330.3125000000,158230.5937500000,,,
1.1159999983,8,177791.5937500000,209626.6562500000,169874.2500000000,171078.5000000000,138337.7656250000,122614.0078125000,136409.1562500000,156004.4843750000,,,
1.1199999982,8,178010.3437500000,191886.7812500000,170069.4531250000,171319.3125000000,138524.0781250000,122839.7734375000,136668.0156250000,154819.7812500000,,,
1.1239999982,8,177458.0312500000,196918.2656250000,169263.1562500000,170372.7812500000,137578.1875000000,121918.5937500000,135582.5000000000,156616.9218750000,,,
1.1279999982,8,176949.5937500000,216934.8750000000,168683.5000000000,169678.1406250000,136969.6562500000,121267.4062500000,134817.6093750000,158733.1718750000,,,
1.1319999981,8,177165.4218750000,223602.2812500000,169062.3125000000,170112.1250000000,137434.9843750000,121707.8828125000,135335.8125000000,158259.9843750000,,,
1.1359999983,8,177794.2500000000,209755.8281250000,169876.4687500000,171080.8437500000,138342.4062500000,122632.3046875000,136424.7812500000,156015.2656250000,,,
1.1399999983,8,178001.1718750000,191837.2500000000,170059.1562500000,171318.5625000000,138519.7031250000,122840.8437500000,136682.7656250000,154786.0156250000,,,
1.1439999982,8,177449.1718750000,196693.3125000000,169254.3593750000,170365.3281250000,137576.2343750000,121917.6250000000,135599.5781250000,156571.7187500000,,,
1.1479999982,8,176950.6093750000,216771.9531250000,168686.7968750000,169666.4531250000,136975.4218750000,121267.0078125000,134838.9375000000,158717.2187500000,,,
1.1519999981,9,177174.5781250000,223584.9531250000,169071.8593750000,170112.1250000000,137442.2500000000,121701.7890625000,135350.4843750000,158261.6406250000,,,
1.1559999981,9,177794.0625000000,209796.8437500000,169874.2500000000,171076.2968750000,138338.8125000000,122620.8515625000,136419.2656250000,156002.2031250000,,,
1.1599999981,9,178007.2343750000,191751.2500000000,170066.5781250000,171332.8906250000,138526.9687500000,122846.0781250000,136691.7187500000,154758.7656250000,,,
1.1639999980,9,177458.2968750000,196485.8125000000,169266.9375000000,170385.6093750000,137587.6250000000,121921.3281250000,135617.4218750000,156545.3281250000,,,
1.1679999980,9,176949.4531250000,216633.9843750000,168686.2656250000,169678.2500000000,136973.3593750000,121262.8984375000,134845.6406250000,158705.3593750000,,,
1.1719999979,9,177149.6875000000,223580.5000000000,169047.2656250000,170103.6562500000,137418.6250000000,121686.0468750000,135336.8593750000,158252.5468750000,,,
1.1759999981,9,177772.1250000000,209841.7343750000,169859.2812500000,171069.5156250000,138324.8906250000,122610.6015625000,136420.0625000000,155994.0000000000,,,
1.1799999981,9,177994.4531250000,191660.0312500000,170064.1718750000,171329.2343750000,138523.7968750000,122841.1093750000,136700.8437500000,154737.4843750000,,,
1.1839999980,9,177454.8593750000,196295.8593750000,169271.6250000000,170372.7031250000,137589.0468750000,121921.4140625000,135622.3750000000,156531.6718750000,,,
1.1879999980,9,176950.4687500000,216567.4375000000,168690.5312500000,169664.6562500000,136972.7656250000,121253.7812500000,134843.6718750000,158717.6718750000,,,
1.1919999979,9,177165.1562500000,223641.2500000000,169065.7187500000,170096.3125000000,137432.9218750000,121689.2343750000,135350.5625000000,158278.9531250000,,,
1.1959999981,9,177799.6562500000,209907.5312500000,169890.7968750000,171083.0937500000,138350.5625000000,122637.6953125000,136449.9687500000,156014.9218750000,,,
1.1999999981,9,178020.2187500000,191553.4375000000,170095.3906250000,171356.9375000000,138548.8593750000,122870.4062500000,136732.4062500000,154728.9687500000,,,
1.2039999980,9,177469.5937500000,196023.3750000000,169288.5625000000,170391.8593750000,137602.2031250000,121941.6328125000,135643.2968750000,156510.0625000000,,,
1.2079999980,9,176964.5781250000,216370.9062500000,168703.4843750000,169678.3906250000,136984.4843750000,121275.3437500000,134859.2343750000,158722.9531250000,,,
1.2119999980,9,177172.0781250000,223549.5156250000,169068.4843750000,170108.7812500000,137437.7812500000,121697.9296875000,135355.9062500000,158288.5468750000,,,
1.2159999979,9,177811.1093750000,209814.1406250000,169900.6093750000,171093.9218750000,138361.2656250000,122638.2812500000,136462.4375000000,156015.1093750000,,,
1.2199999981,9,178024.7343750000,191358.2812500000,170093.8906250000,171356.4375000000,138550.8593750000,122872.2500000000,136740.0781250000,154706.2968750000,,,
1.2239999981,9,177478.9531250000,195696.4843750000,169290.9375000000,170406.1562500000,137606.9218750000,121952.3906250000,135654.5625000000,156478.2968750000,,,
1.2279999980,9,176957.0156250000,216076.5937500000,168684.8125000000,169671.6562500000,136965.6562500000,121270.8906250000,134844.8281250000,158697.5000000000,,,
1.2319999980,9,177159.1562500000,223405.0000000000,169049.8125000000,170097.0625000000,137413.3750000000,121685.8828125000,135336.4218750000,158289.6718750000,,,
1.2359999979,9,177799.1875000000,209804.7812500000,169882.4843750000,171094.5156250000,138337.6093750000,122625.3046875000,136440.5000000000,156030.6093750000,,,
1.2399999981,9,178032.0000000000,191322.9687500000,170102.4531250000,171371.0781250000,138554.3281250000,122875.3671875000,136744.7968750000,154724.7812500000,,,
1.2439999981,9,177486.2500000000,195533.2187500000,169302.8750000000,170409.0312500000,137617.5937500000,121957.0000000000,135667.9687500000,156479.2656250000,,,
1.2479999980,9,176975.0156250000,215961.3281250000,168709.2031250000,169673.7187500000,136990.2031250000,121282.2968750000,134871.2500000000,158719.9843750000,,,
1.2519999980,9,177180.0156250000,223450.4062500000,169077.6093750000,170096.0156250000,137441.5625000000,121699.0000000000,135361.4843750000,158333.1250000000,,,
1.2559999980,9,177813.6875000000,210039.2031250000,169903.0000000000,171088.7031250000,138359.4687500000,122635.3906250000,136452.7031250000,156083.9843750000,,,
1.2599999979,9,178029.0468750000,191486.7968750000,170100.8437500000,171358.6562500000,138558.2656250000,122873.8906250000,136734.1875000000,154744.7812500000,,,
1.2639999981,9,177481.7343750000,195539.2031250000,169298.7500000000,170410.5312500000,137618.2031250000,121955.0468750000,135663.2500000000,156466.3906250000,,,
1.2679999981,9,176969.0937500000,215931.2343750000,168705.2812500000,169678.6093750000,136988.1093750000,121280.3046875000,134873.3125000000,158703.3750000000,,,
1.2719999980,9,177170.8437500000,223512.6093750000,169066.7968750000,170097.2187500000,137431.8750000000,121686.1015625000,135360.7500000000,158333.8750000000,,,
1.2759999980,9,177793.2812500000,210218.7187500000,169878.8906250000,171068.8437500000,138337.2031250000,122610.9765625000,136441.7343750000,156089.7812500000,,,
1.2799999979,10,178024.9218750000,191620.7656250000,170100.0000000000,171356.8593750000,138558.5312500000,122870.4062500000,136745.0625000000,154742.8593750000,,,
1.2839999979,10,177487.6718750000,195508.5468750000,169308.3281250000,170418.8125000000,137628.4062500000,121961.8281250000,135671.2812500000,156450.2500000000,,,
1.2879999978,10,176955.2968750000,215845.5937500000,168685.2968750000,169670.7656250000,136969.5468750000,121267.2734375000,134850.5468750000,158674.8437500000,,,
1.2919999978,10,177144.9843750000,223443.9687500000,169033.9687500000,170071.2812500000,137403.6093750000,121672.1015625000,135337.6406250000,158312.7656250000,33029,1.2941553066,0.0000000000
1.2959999978,10,177777.5312500000,210131.9531250000,169859.5000000000,171055.5156250000,138325.0312500000,122607.6562500000,136439.9218750000,156085.9687500000,,,
1.2999999977,10,178020.5781250000,191672.1250000000,170088.9843750000,171352.2812500000,138555.2656250000,122873.4843750000,136754.7812500000,154764.1718750000,,,
1.3039999979,10,177507.8906250000,195448.2500000000,169322.1093750000,170437.4531250000,137651.6093750000,121987.3671875000,135711.4062500000,156469.0781250000,,,
1.3079999979,10,176990.4687500000,215788.7031250000,168716.4218750000,169694.1093750000,137007.7968750000,121302.3281250000,134896.7812500000,158715.4218750000,,,
1.3119999978,10,177161.8906250000,223538.6562500000,169048.6406250000,170072.4375000000,137424.1562500000,121684.1171875000,135353.5468750000,158358.7343750000,,,
1.3159999978,10,177792.6406250000,210404.4375000000,169872.4687500000,171053.4531250000,138341.3281250000,122619.1093750000,136445.5781250000,156142.6250000000,,,
1.3199999977,10,178034.8125000000,191864.8281250000,170106.9531250000,171362.1250000000,138575.1093750000,122888.4843750000,136764.6250000000,154798.7812500000,,,
1.3239999979,10,177499.8750000000,195471.1875000000,169323.3437500000,170431.8437500000,137653.5625000000,121984.8984375000,135710.7500000000,156462.9062500000,,,
1.3279999979,10,176970.6718750000,215795.4687500000,168706.0312500000,169676.1406250000,136996.1562500000,121286.5312500000,134890.7031250000,158693.1406250000,,,
1.3319999978,10,177156.0468750000,223637.8750000000,169046.8125000000,170072.4843750000,137418.3281250000,121676.7109375000,135351.0937500000,158360.7031250000,,,
1.3359999978,10,177791.4843750000,210569.9062500000,169874.4843750000,171063.1562500000,138336.7187500000,122611.1406250000,136447.3750000000,156152.0937500000,,,
1.3399999978,10,178036.4687500000,191987.1250000000,170113.3437500000,171364.5937500000,138577.0937500000,122885.8828125000,136777.0937500000,154799.8281250000,,,
1.3439999977,10,177501.4843750000,195466.8906250000,169324.2500000000,170426.4843750000,137653.9687500000,121987.7656250000,135720.0937500000,156453.2500000000,,,
1.3479999979,10,176973.3281250000,215784.4375000000,168705.9843750000,169662.2656250000,136995.5625000000,121290.7421875000,134891.1562500000,158696.8906250000,,,
1.3519999979,10,177142.8125000000,223716.0625000000,169035.0156250000,170047.1875000000,137407.7343750000,121665.1015625000,135338.2187500000,158362.9843750000,,,
1.3559999978,10,177773.7343750000,210744.5156250000,169858.0468750000,171045.1406250000,138325.0000000000,122594.2187500000,136432.8593750000,156152.6718750000,,,
1.3599999978,10,178023.3281250000,192084.7656250000,170099.5312500000,171368.0781250000,138568.8437500000,122875.0156250000,136766.5000000000,154783.2187500000,,,
1.3639999977,10,177490.2187500000,195384.4218750000,169315.1875000000,170441.2343750000,137648.5156250000,121981.8437500000,135715.5781250000,156417.0937500000,,,
1.3679999979,10,176948.9531250000,215684.3437500000,168683.0468750000,169670.8593750000,136972.5000000000,121268.6953125000,134875.2968750000,158660.8906250000,,,
1.3719999979,10,177121.5468750000,223739.9531250000,169009.2343750000,170057.2812500000,137377.4843750000,121642.1953125000,135318.0312500000,158349.5156250000,,,
1.3759999978,10,177760.2812500000,210875.0625000000,169838.9531250000,171054.4218750000,138299.3593750000,122579.6796875000,136416.1718750000,156144.0468750000,,,
1.3799999978,10,178019.9531250000,192162.4062500000,170094.2968750000,171358.9062500000,138557.2031250000,122873.2421875000,136760.8437500000,154760.1250000000,,,
1.3839999977,10,177499.1250000000,195304.4843750000,169324.1250000000,170448.6718750000,137650.0468750000,121987.6875000000,135716.5156250000,156396.1093750000,,,
1.3879999977,10,176931.9375000000,215576.6562500000,168665.6718750000,169666.4062500000,136948.7343750000,121240.1328125000,134854.6250000000,158630.7187500000,,,
1.3919999979,10,177111.7500000000,223717.0156250000,168999.0156250000,170048.4843750000,137364.3437500000,121627.7890625000,135310.2500000000,158343.2187500000,,,
1.3959999979,10,177761.8906250000,210913.9218750000,169841.2031250000,171042.9687500000,138301.5781250000,122580.1328125000,136422.6093750000,156150.4843750000,,,
1.3999999978,10,178034.4375000000,192177.4375000000,170110.7656250000,171374.9375000000,138574.9062500000,122889.4765625000,136783.3125000000,154762.5468750000,,,
1.4039999978,10,177514.8593750000,195175.5312500000,169341.4843750000,170459.3437500000,137668.9062500000,122006.6796875000,135745.7656250000,156381.0156250000,,,
1.4079999977,11,176974.2656250000,215458.2812500000,168705.7343750000,169677.3437500000,136986.9218750000,121278.4062500000,134893.1093750000,158657.1875000000,,,
1.4119999977,11,177139.3906250000,223699.5156250000,169030.7968750000,170052.9531250000,137391.7968750000,121647.6875000000,135331.0312500000,158374.3593750000,,,
1.4159999976,11,177769.6250000000,211003.7187500000,169852.8750000000,171037.0156250000,138310.2968750000,122582.0390625000,136420.6875000000,156163.2656250000,,,
1.4199999976,11,178036.7187500000,192236.4218750000,170117.9843750000,171377.8437500000,138578.3281250000,122879.7343750000,136780.9843750000,154750.3125000000,,,
1.4239999976,11,177515.7031250000,195069.5000000000,169343.8125000000,170468.7343750000,137666.5468750000,121996.5937500000,135742.4531250000,156350.8906250000,,,
1.4279999975,11,176952.8593750000,215339.8437500000,168681.3593750000,169665.3281250000,136955.9687500000,121246.7031250000,134859.3750000000,158621.2187500000,,,
1.4319999977,11,177122.2187500000,223703.3906250000,169004.0000000000,170031.0937500000,137359.1406250000,121621.1875000000,135295.9843750000,158360.1875000000,,,
1.4359999977,11,177764.2343750000,211122.6875000000,169838.7656250000,171012.2500000000,138292.2500000000,122578.6015625000,136411.0000000000,156173.3593750000,,,
1.4399999976,11,178025.5000000000,192306.4218750000,170102.7656250000,171349.5468750000,138564.0625000000,122892.2656250000,136779.8281250000,154743.1250000000,,,
1.4439999976,11,177510.7031250000,194986.2187500000,169342.2343750000,170444.3281250000,137670.6406250000,122019.5546875000,135760.4375000000,156333.5625000000,,,
1.4479999975,11,176953.4843750000,215258.0000000000,168686.7187500000,169649.3906250000,136970.0312500000,121274.0312500000,134894.6718750000,158623.6875000000,,,
1.4519999977,11,177116.1093750000,223739.2343750000,169003.9531250000,170015.5937500000,137368.1250000000,121630.4687500000,135320.8437500000,158376.7343750000,,,
1.4559999977,11,177764.2812500000,211249.4375000000,169847.6562500000,171022.8437500000,138308.5312500000,122580.8828125000,136432.0781250000,156192.0468750000,,,
1.4599999976,11,178047.3593750000,192403.2812500000,170132.6562500000,171382.4218750000,138600.6718750000,122909.8593750000,136818.8281250000,154765.3906250000,,,
1.4639999976,11,177518.2187500000,194956.0937500000,169355.1875000000,170462.9062500000,137685.0781250000,122018.6171875000,135775.5625000000,156326.6406250000,,,
1.4679999975,11,176942.7031250000,215209.3281250000,168675.0625000000,169650.6250000000,136955.8437500000,121257.8281250000,134876.4531250000,158612.6718750000,,,
1.4719999975,11,177103.9843750000,223793.4687500000,168985.8750000000,170005.7031250000,137347.9218750000,121619.3125000000,135302.0625000000,158385.4375000000,,,
1.4759999977,11,177757.4218750000,211392.4531250000,169834.5000000000,171007.2031250000,138293.2187500000,122581.9062500000,136424.7812500000,156210.0781250000,,,
1.4799999977,11,178046.7500000000,192488.1093750000,170127.3593750000,171378.7812500000,138592.2812500000,122908.4921875000,136817.2500000000,154767.2343750000,,,
1.4839999976,11,177525.7343750000,194883.5625000000,169356.7968750000,170471.1406250000,137686.4687500000,122024.5156250000,135782.2656250000,156317.2656250000,,,
1.4879999976,11,176947.2031250000,215139.6093750000,168672.7812500000,169647.5468750000,136953.7968750000,121267.0312500000,134874.6093750000,158613.8750000000,,,
1.4919999975,11,177102.0156250000,223859.7656250000,168978.8125000000,169996.9531250000,137340.0937500000,121625.4843750000,135284.4531250000,158402.3750000000,,,
1.4959999977,11,177758.9687500000,211620.5312500000,169835.5156250000,171030.8125000000,138293.0000000000,122580.4296875000,136411.6250000000,156232.3437500000,,,
1.4999999977,11,178050.4218750000,192597.6875000000,170134.0625000000,171413.6406250000,138599.9531250000,122917.5546875000,136818.1406250000,154763.0000000000,,,
1.5039999976,11,177525.0625000000,194828.3750000000,169361.2968750000,170490.6406250000,137691.7343750000,122036.2890625000,135789.2968750000,156300.0156250000,,,
1.5079999976,11,176941.4843750000,215074.2500000000,168674.0625000000,169665.5156250000,136955.0312500000,121263.1718750000,134879.8125000000,158607.2812500000,,,
1.5119999975,11,177090.2968750000,223868.5468750000,168972.3750000000,170010.1718750000,137335.2343750000,121610.7031250000,135276.6406250000,158407.0781250000,,,
1.5159999975,11,177739.9531250000,211671.3281250000,169816.6875000000,171001.6093750000,138277.7968750000,122563.0781250000,136395.4687500000,156231.7031250000,,,
1.5199999977,11,178049.8125000000,192649.5312500000,170130.5312500000,171394.3281250000,138600.0625000000,122920.2656250000,136824.8437500000,154766.8593750000,,,
1.5239999976,11,177550.3281250000,194717.8281250000,169380.3750000000,170503.6562500000,137713.4843750000,122068.2343750000,135818.2656250000,156307.1250000000,,,
1.5279999976,11,176965.9843750000,214966.3125000000,168688.8125000000,169671.3281250000,136970.5937500000,121294.7421875000,134903.7812500000,158633.7187500000,,,
1.5319999976,11,177097.6562500000,223866.6875000000,168973.8593750000,169998.9687500000,137336.9218750000,121626.2031250000,135296.2187500000,158435.1250000000,,,
1.5359999975,12,177748.0781250000,211698.3125000000,169825.4062500000,171004.8437500000,138286.5937500000,122580.0234375000,136419.1562500000,156253.5625000000,,,
1.5399999975,12,178051.9843750000,192657.0156250000,170134.8750000000,171400.3437500000,138607.2968750000,122932.2031250000,136831.3906250000,154768.4218750000,,,
1.5439999974,12,177545.6093750000,194600.0312500000,169380.7187500000,170504.9062500000,137719.6562500000,122071.8281250000,135817.0312500000,156290.5468750000,,,
1.5479999974,12,176948.9531250000,214860.2812500000,168675.4062500000,169659.7812500000,136962.4687500000,121282.0234375000,134885.3281250000,158620.9218750000,,,
1.5519999973,12,177088.8750000000,223868.8125000000,168968.8593750000,169996.3437500000,137334.8593750000,121617.2500000000,135281.7968750000,158443.1718750000,,,
1.5559999973,12,177751.2812500000,211778.2968750000,169829.5625000000,171005.2031250000,138292.6718750000,122587.3203125000,136413.9843750000,156275.4687500000,,,
1.5599999975,12,178052.6250000000,192717.7656250000,170139.5937500000,171404.6093750000,138611.7500000000,122937.7812500000,136832.0000000000,154777.0000000000,,,
1.5639999975,12,177553.8906250000,194511.8437500000,169393.1093750000,170526.2343750000,137729.7968750000,122082.0781250000,135825.3125000000,156282.6250000000,,,
1.5679999974,12,176974.6718750000,214742.2500000000,168700.3281250000,169689.3281250000,136983.0156250000,121298.5468750000,134904.7500000000,158629.7500000000,,,
1.5719999974,12,177113.3125000000,223869.6718750000,168989.2031250000,170008.8437500000,137349.7500000000,121629.2890625000,135300.2968750000,158471.1875000000,,,
1.5759999973,12,177762.0937500000,211943.8437500000,169832.6406250000,171017.3437500000,138287.8437500000,122582.9765625000,136408.8281250000,156300.7968750000,,,
1.5799999975,12,178064.7656250000,192800.6718750000,170142.2968750000,171416.2187500000,138609.5781250000,122942.7656250000,136832.9062500000,154781.7500000000,,,
1.5839999975,12,177563.5781250000,194429.7031250000,169397.5156250000,170539.8281250000,137728.9062500000,122081.8046875000,135830.9531250000,156269.0000000000,,,
1.5879999974,12,176978.7968750000,214660.3593750000,168700.8906250000,169696.6562500000,136977.2187500000,121297.5312500000,134902.8437500000,158626.6406250000,,,
1.5919999974,12,177101.0312500000,223907.3281250000,168973.7656250000,170012.4531250000,137329.0468750000,121612.0703125000,135279.0000000000,158472.7968750000,,,
1.5959999973,12,177737.1718750000,212085.6718750000,169810.9687500000,171007.6718750000,138264.4375000000,122557.2812500000,136393.6718750000,156292.5312500000,,,
1.5999999973,12,178067.2968750000,192885.2968750000,170158.9062500000,171417.2656250000,138622.1875000000,122950.3828125000,136854.1250000000,154776.8906250000,,,
1.6039999975,12,177573.2031250000,194371.3437500000,169424.3906250000,170545.2812500000,137751.2968750000,122103.7968750000,135862.2968750000,156263.6875000000,,,
1.6079999974,12,176953.8281250000,214595.8281250000,168688.9531250000,169686.6250000000,136965.5781250000,121284.7578125000,134904.9062500000,158601.5625000000,,,
1.6119999974,12,177070.0468750000,223930.3437500000,168952.3125000000,169991.1093750000,137308.2031250000,121589.4843750000,135274.7343750000,158449.7968750000,,,
1.6159999974,12,177720.3437500000,212204.9531250000,169800.4375000000,170997.2656250000,138253.7812500000,122551.3515625000,136393.9375000000,156288.8750000000,,,
1.6199999973,12,178037.5781250000,192956.8281250000,170131.0937500000,171408.5000000000,138597.2968750000,122929.4140625000,136838.4375000000,154751.3906250000,,,
1.6239999975,12,177540.9687500000,194288.5937500000,169386.9687500000,170529.3281250000,137721.6875000000,122078.8046875000,135836.9531250000,156216.6562500000,,,
1.6279999975,12,176956.0312500000,214494.9375000000,168686.7812500000,169674.9531250000,136966.9218750000,121286.4218750000,134907.7812500000,158593.0312500000,,,
1.6319999974,12,177079.7343750000,223942.9687500000,168956.5000000000,169977.4062500000,137315.5468750000,121598.2578125000,135284.8437500000,158474.2187500000,,,
1.6359999974,12,177726.9531250000,212348.2031250000,169803.7031250000,170977.1718750000,138260.9687500000,122555.5625000000,136405.2343750000,156325.4687500000,,,
1.6399999973,12,178050.6093750000,193050.8906250000,170146.3593750000,171401.0312500000,138617.2812500000,122943.6796875000,136864.1093750000,154777.4062500000,,,
1.6439999973,12,177562.0781250000,194219.6718750000,169412.3125000000,170531.7343750000,137750.0468750000,122102.1875000000,135875.3906250000,156232.9843750000,,,
1.6479999975,12,176966.1875000000,214417.0000000000,168697.5312500000,169670.2031250000,136978.9375000000,121291.1953125000,134924.8125000000,158603.8437500000,,,
1.6519999974,12,177079.3281250000,223959.8125000000,168955.7968750000,169962.2187500000,137316.4375000000,121589.1953125000,135280.0000000000,158485.7656250000,,,
1.6559999974,12,177732.2031250000,212422.9687500000,169805.5000000000,170973.1406250000,138264.4843750000,122553.1250000000,136400.1093750000,156345.2656250000,,,
1.6599999974,12,178065.8125000000,193130.4218750000,170156.3125000000,171416.9375000000,138631.3125000000,122958.9921875000,136876.4375000000,154805.5625000000,,,
1.6639999973,13,177578.7812500000,194162.7812500000,169428.6718750000,170557.0000000000,137769.9687500000,122126.8437500000,135901.7500000000,156246.1875000000,,,
1.6679999973,13,176969.9218750000,214339.1562500000,168700.5156250000,169675.4375000000,136982.8750000000,121306.2968750000,134937.4687500000,158614.9531250000,,,
1.6719999972,13,177080.3437500000,223990.6562500000,168955.3437500000,169974.8281250000,137315.4218750000,121606.6562500000,135286.4375000000,158513.9687500000,,,
1.6759999972,13,177738.7031250000,212545.2187500000,169814.8593750000,170985.2500000000,138273.3593750000,122580.0000000000,136418.8906250000,156376.1406250000,,,
1.6799999971,13,178077.6250000000,193238.4062500000,170175.2656250000,171427.4843750000,138648.3437500000,122983.8906250000,136905.1718750000,154816.5156250000,,,
1.6839999971,13,177595.1718750000,194101.8437500000,169451.3125000000,170562.3125000000,137790.8125000000,122151.4609375000,135935.2500000000,156229.0625000000,,,
1.6879999973,13,176992.9687500000,214244.2656250000,168729.1875000000,169679.2187500000,137009.5156250000,121330.7890625000,134981.0937500000,158602.2031250000,,,
1.6919999972,13,177107.4375000000,224000.7968750000,168985.5781250000,169974.7187500000,137344.9687500000,121632.1093750000,135334.4687500000,158522.8906250000,,,
1.6959999972,13,177757.0937500000,212664.1406250000,169834.5000000000,170986.4218750000,138294.9062500000,122608.7500000000,136462.1250000000,156397.6406250000,,,
1.6999999972,13,178100.0781250000,193321.6875000000,170197.7187500000,171434.3281250000,138677.0937500000,123038.3125000000,136957.5468750000,154840.1718750000,,,
1.7039999971,13,177616.2343750000,194019.3125000000,169469.5312500000,170575.2656250000,137817.8125000000,122212.6406250000,135983.7031250000,156239.8281250000,,,
1.7079999973,13,176994.7031250000,214129.1406250000,168726.7656250000,169680.3281250000,137016.4062500000,121379.3593750000,135008.4218750000,158614.7031250000,,,
1.7119999973,13,177094.2500000000,223992.1093750000,168974.0625000000,169956.7031250000,137343.5781250000,121668.1015625000,135364.9375000000,158543.6875000000,,,
1.7159999972,13,177744.8437500000,212795.3281250000,169826.2031250000,170963.1406250000,138297.9843750000,122631.2578125000,136500.0000000000,156420.5312500000,,,
1.7199999972,13,178100.2812500000,193418.5156250000,170206.2187500000,171425.6093750000,138697.2031250000,123062.6875000000,137008.2187500000,154846.9218750000,,,
1.7239999971,13,177621.7187500000,193979.8281250000,169485.8906250000,170577.4687500000,137848.2343750000,122240.7031250000,136048.7343750000,156231.9687500000,,,
1.7279999971,13,176995.4062500000,214069.6562500000,168736.0156250000,169675.5156250000,137037.7500000000,121390.4687500000,135064.4843750000,158601.8906250000,,,
1.7319999973,13,177102.5312500000,224034.2500000000,168982.8906250000,169953.5312500000,137362.0312500000,121686.1015625000,135403.9843750000,158553.7656250000,,,
1.7359999972,13,177759.1562500000,212940.2343750000,169838.9218750000,170976.7343750000,138315.1562500000,122655.0468750000,136525.8281250000,156449.7656250000,,,
1.7399999972,13,178113.1562500000,193554.4218750000,170213.0312500000,171448.1718750000,138709.6562500000,123085.7031250000,137019.1718750000,154872.1875000000,,,
1.7439999972,13,177641.8906250000,193950.7187500000,169499.6250000000,170604.6875000000,137867.8906250000,122267.6015625000,136066.2343750000,156244.9687500000,,,
1.7479999971,13,177003.5781250000,213993.0781250000,168737.2812500000,169681.7187500000,137043.4062500000,121413.9062500000,135080.1718750000,158613.6093750000,,,
1.7519999973,13,177094.9062500000,224051.9531250000,168971.7656250000,169944.7812500000,137353.2812500000,121692.1093750000,135409.3906250000,158566.6718750000,,,
1.7559999973,13,177755.6250000000,213064.5000000000,169834.5156250000,170968.6093750000,138311.5625000000,122656.6328125000,136534.4843750000,156474.0937500000,,,
1.7599999972,13,178104.5000000000,193641.7656250000,170210.4531250000,171440.9531250000,138704.7968750000,123085.5390625000,137041.3437500000,154876.0468750000,,,
1.7639999972,13,177634.6250000000,193852.6875000000,169506.4062500000,170596.7812500000,137868.3281250000,122278.4921875000,136097.4218750000,156224.4531250000,,,
1.7679999971,13,176985.5312500000,213863.5312500000,168729.0000000000,169667.2812500000,137028.3125000000,121401.3281250000,135064.2968750000,158581.2656250000,,,
1.7719999971,13,177068.7656250000,224019.2343750000,168949.2656250000,169931.0468750000,137328.5312500000,121658.9531250000,135362.2812500000,158529.8906250000,,,
1.7759999973,13,177740.8906250000,213130.3750000000,169818.7968750000,170964.1406250000,138294.7500000000,122630.8828125000,136510.8125000000,156450.6406250000,,,
1.7799999972,13,178114.9062500000,193675.8281250000,170214.0468750000,171450.5468750000,138707.4218750000,123083.5078125000,137034.0781250000,154863.2812500000,,,
1.7839999972,13,177643.6093750000,193735.9062500000,169503.5937500000,170613.9218750000,137866.0781250000,122271.0078125000,136085.7500000000,156197.2500000000,,,
1.7879999971,13,176988.1562500000,213720.0000000000,168723.4375000000,169683.9687500000,137019.4531250000,121383.3359375000,135061.9062500000,158559.9375000000,,,
1.7919999971,14,177070.8750000000,224022.5468750000,168945.9062500000,169930.4062500000,137315.5781250000,121640.9296875000,135362.5781250000,158544.5625000000,,,
1.7959999971,14,177735.2031250000,213333.1718750000,169815.1562500000,170947.1250000000,138280.7968750000,122606.6093750000,136491.4375000000,156479.6406250000,,,
1.7999999970,14,178108.7343750000,193807.6250000000,170222.2656250000,171449.4531250000,138709.3593750000,123065.3984375000,137031.7968750000,154871.8906250000,,,
1.8039999970,14,177639.0781250000,193692.4843750000,169514.2187500000,170619.0625000000,137872.6718750000,122261.4375000000,136080.9531250000,156182.8593750000,,,
1.8079999969,14,176979.7656250000,213647.7187500000,168717.8437500000,169674.3593750000,137011.2187500000,121371.4765625000,135028.3281250000,158551.9218750000,,,
1.8119999969,14,177059.8281250000,224067.1093750000,168934.0781250000,169926.8437500000,137302.4062500000,121623.8750000000,135327.6093750000,158551.3437500000,,,
1.8159999971,14,177738.9375000000,213531.2500000000,169813.1093750000,170958.1718750000,138280.3437500000,122606.9531250000,136472.8281250000,156511.1875000000,,,
1.8199999970,14,178122.7968750000,193957.1875000000,170229.3906250000,171468.3281250000,138720.0000000000,123072.3203125000,137025.6875000000,154888.5781250000,,,
1.8239999970,14,177652.0625000000,193674.2656250000,169519.2031250000,170625.6093750000,137880.4687500000,122256.9843750000,136077.8750000000,156175.7500000000,,,
1.8279999970,14,176999.0000000000,213596.2656250000,168732.2656250000,169675.6875000000,137023.5937500000,121365.7109375000,135036.4687500000,158552.5781250000,,,
1.8319999969,14,177076.9375000000,224088.3437500000,168947.0625000000,169921.6718750000,137312.2500000000,121617.0078125000,135329.0312500000,158566.6875000000,,,
1.8359999971,14,177747.6875000000,213602.2812500000,169819.7968750000,170949.0312500000,138286.1093750000,122598.2656250000,136466.6875000000,156527.8906250000,,,
1.8399999971,14,178130.0312500000,194036.9843750000,170233.4531250000,171468.2343750000,138722.9062500000,123070.1171875000,137013.7968750000,154907.8593750000,,,
1.8439999970,14,177661.0937500000,193606.8125000000,169529.1250000000,170634.5937500000,137888.8906250000,122263.5781250000,136073.9218750000,156173.0937500000,,,
1.8479999970,14,177002.0781250000,213461.0000000000,168739.4843750000,169686.8593750000,137027.5625000000,121363.9140625000,135029.2812500000,158536.0312500000,,,
1.8519999969,14,177061.2031250000,223992.0000000000,168933.8125000000,169918.2656250000,137298.3593750000,121599.2734375000,135300.1875000000,158544.9218750000,,,
1.8559999969,14,177722.5468750000,213539.5156250000,169800.0625000000,170930.5312500000,138264.2500000000,122570.7968750000,136425.5156250000,156499.9687500000,,,
1.8599999971,14,178119.7343750000,194020.5937500000,170227.0937500000,171447.9531250000,138714.5937500000,123052.7890625000,136995.4218750000,154888.8281250000,,,
1.8639999970,14,177657.6406250000,193474.4375000000,169525.2343750000,170624.5156250000,137884.2500000000,122256.9296875000,136066.0156250000,156148.2812500000,,,
1.8679999970,14,176989.8281250000,213304.1250000000,168718.3750000000,169668.0625000000,137008.1093750000,121353.8828125000,135008.9062500000,158517.5781250000,,,
1.8719999969,14,177046.1562500000,223959.8125000000,168907.6093750000,169897.6406250000,137270.4843750000,121577.0156250000,135275.2656250000,158542.3125000000,,,
1.8759999969,14,177727.3750000000,213614.4062500000,169792.0625000000,170936.2187500000,138249.8750000000,122560.9531250000,136421.0781250000,156516.2812500000,,,
1.8799999971,14,178145.7968750000,194101.2500000000,170242.1406250000,171473.1093750000,138719.1562500000,123072.6171875000,137001.2968750000,154913.5468750000,,,
1.8839999971,14,177677.5625000000,193403.4218750000,169543.8750000000,170659.6250000000,137890.8750000000,122267.4687500000,136064.0781250000,156142.3750000000,,,
1.8879999970,14,176982.0937500000,213194.4218750000,168708.7187500000,169675.9687500000,136988.8593750000,121340.7421875000,134977.3593750000,158495.8593750000,,,
1.8919999970,14,177027.9843750000,223953.2187500000,168895.0312500000,169892.8125000000,137249.8906250000,121554.4609375000,135252.4531250000,158526.7812500000,,,
1.8959999969,14,177711.8281250000,213724.7968750000,169788.0312500000,170926.3750000000,138241.5468750000,122549.7421875000,136413.3593750000,156516.9687500000,,,
1.8999999969,14,178109.4062500000,194164.2031250000,170217.4531250000,171471.7343750000,138696.6250000000,123043.5625000000,136982.5000000000,154887.5312500000,,,
1.9039999971,14,177640.8750000000,193298.6718750000,169515.1562500000,170645.9375000000,137868.3281250000,122243.0625000000,136054.2187500000,156099.1718750000,,,
1.9079999970,14,176970.7031250000,213051.8125000000,168704.3125000000,169662.1406250000,136989.8281250000,121337.5234375000,134993.4218750000,158477.5937500000,,,
1.9119999970,14,177028.5625000000,223920.1250000000,168894.4375000000,169873.1406250000,137255.4687500000,121567.5468750000,135259.0937500000,158540.2812500000,,,
1.9159999969,14,177712.8125000000,213854.8281250000,169777.6562500000,170907.6718750000,138238.4687500000,122553.0703125000,136401.1093750000,156545.2656250000,,,
1.9199999969,15,178113.3281250000,194253.7343750000,170213.8593750000,171450.1562500000,138699.0000000000,123042.2812500000,136975.9531250000,154896.6875000000,,,
1.9239999969,15,177657.9375000000,193204.4531250000,169525.9062500000,170646.5312500000,137884.3437500000,122257.4609375000,136062.9375000000,156091.9531250000,,,
1.9279999968,15,176980.4687500000,212931.8125000000,168709.6562500000,169668.0625000000,136994.8906250000,121339.5078125000,134991.2812500000,158473.0000000000,,,
1.9319999968,15,177019.7031250000,223939.4531250000,168884.5312500000,169869.5312500000,137242.5937500000,121546.9218750000,135238.9062500000,158549.5312500000,,,
1.9359999967,15,177684.4062500000,214010.6093750000,169750.6718750000,170897.1250000000,138209.3437500000,122527.8828125000,136364.2812500000,156554.0156250000,,,
1.9399999967,15,178110.1093750000,194378.5312500000,170218.9062500000,171464.1562500000,138703.0625000000,123051.7968750000,136968.8437500000,154910.5156250000,,,
1.9439999969,15,177658.2500000000,193180.7968750000,169535.9687500000,170665.6875000000,137895.0937500000,122264.3281250000,136060.8593750000,156087.9062500000,,,
1.9479999968,15,176982.2031250000,212860.2187500000,168714.7031250000,169687.7968750000,137000.2500000000,121340.7656250000,134983.5625000000,158465.8437500000,,,
1.9519999968,15,177016.3281250000,223933.0000000000,168880.2500000000,169885.3281250000,137236.5625000000,121539.9218750000,135223.3125000000,158540.9218750000,,,
1.9559999967,15,177690.7968750000,214096.0156250000,169757.4687500000,170910.7812500000,138212.6406250000,122518.8750000000,136365.0312500000,156551.6875000000,,,
1.9599999967,15,178108.2031250000,194473.0312500000,170214.6093750000,171470.9843750000,138695.3281250000,123028.8906250000,136963.1875000000,154889.0625000000,,,
1.9639999969,15,177664.7500000000,193080.4843750000,169538.8593750000,170687.1718750000,137893.1562500000,122260.9218750000,136063.0156250000,156041.3437500000,,,
1.9679999969,15,176983.3906250000,212665.4375000000,168714.4375000000,169702.5625000000,136994.2812500000,121336.2031250000,134983.5000000000,158422.3593750000,,,
1.9719999968,15,177011.1406250000,223837.7031250000,168874.0000000000,169884.9218750000,137223.9531250000,121525.0078125000,135209.7968750000,158529.2500000000,,,
1.9759999968,15,177669.9843750000,214114.1718750000,169734.8750000000,170896.2187500000,138184.1093750000,122490.6015625000,136337.2187500000,156546.9843750000,,,
1.9799999967,15,178089.2812500000,194488.7656250000,170196.3281250000,171445.3281250000,138673.4687500000,123015.8593750000,136950.5781250000,154877.4531250000,,,
1.9839999967,15,177651.1562500000,192951.0937500000,169531.0781250000,170660.3437500000,137884.0468750000,122259.2890625000,136059.6250000000,156019.7968750000,,,
1.9879999969,15,176981.7187500000,212512.2343750000,168719.2031250000,169683.1875000000,136998.4062500000,121344.3046875000,134985.2656250000,158421.9843750000,,,
1.9919999968,15,177007.4218750000,223789.9531250000,168874.0781250000,169865.4687500000,137227.2968750000,121531.8750000000,135217.9062500000,158548.8906250000,,,
1.9959999968,15,177664.7500000000,214192.1562500000,169735.2500000000,170880.9843750000,138190.3437500000,122501.1953125000,136349.5312500000,156575.5000000000,,,
1.9999999967,15,178083.9218750000,194543.8437500000,170198.3437500000,171441.1406250000,138681.8437500000,123023.6093750000,136964.5312500000,154886.5468750000,,,
2.0039999967,15,177656.4531250000,192849.0781250000,169539.2968750000,170668.7343750000,137897.0312500000,122276.9921875000,136085.0781250000,156011.4375000000,,,
2.0079999969,15,176995.3437500000,212372.4375000000,168727.0312500000,169695.4218750000,137005.7812500000,121368.5234375000,135009.7656250000,158424.5312500000,,,
2.0119999968,15,177023.9687500000,223766.5312500000,168880.7812500000,169880.4687500000,137227.2968750000,121544.7187500000,135227.2656250000,158568.5937500000,,,
2.0159999968,15,177658.2343750000,214270.9218750000,169718.2187500000,170881.7656250000,138163.5625000000,122473.2500000000,136328.6093750000,156574.9375000000,,,
2.0199999968,15,178071.9062500000,194616.6406250000,170176.1250000000,171435.6093750000,138652.5468750000,123001.4531250000,136939.0937500000,154870.0468750000,,,
2.0239999967,15,177645.7031250000,192764.2968750000,169523.6562500000,170674.5937500000,137878.5156250000,122266.2656250000,136070.0312500000,155982.4375000000,,,
2.0279999967,15,176982.7968750000,212241.4843750000,168714.8593750000,169694.5312500000,136992.4687500000,121349.2421875000,134997.6875000000,158407.6406250000,,,
2.0319999969,15,177016.4062500000,223731.9687500000,168877.6718750000,169875.3906250000,137227.2187500000,121536.5703125000,135225.9687500000,158577.4531250000,,,
2.0359999968,15,177666.2187500000,214384.9531250000,169733.3750000000,170871.7343750000,138181.9062500000,122493.5000000000,136342.0625000000,156613.1093750000,,,
2.0399999968,15,178080.1718750000,194726.9062500000,170189.3281250000,171443.0468750000,138668.3281250000,123020.1484375000,136948.8906250000,154898.2031250000,,,
2.0439999967,15,177657.4531250000,192736.0000000000,169537.2812500000,170682.2656250000,137894.2031250000,122285.5234375000,136077.8125000000,155993.0625000000,,,
2.0479999967,16,176991.8437500000,212185.0312500000,168723.6875000000,169705.2187500000,137002.5156250000,121358.2812500000,135002.2187500000,158413.4531250000,,,
2.0519999966,16,177011.8125000000,223777.5937500000,168870.3437500000,169885.4843750000,137219.7343750000,121528.4140625000,135212.7968750000,158589.3906250000,,,
2.0559999966,16,177642.6718750000,214506.1093750000,169699.5468750000,170870.4375000000,138148.7812500000,122464.3984375000,136306.6875000000,156619.4687500000,,,
2.0599999966,16,178057.3906250000,194815.1406250000,170159.7187500000,171430.7500000000,138638.5000000000,122992.4140625000,136930.7031250000,154886.0312500000,,,
2.0639999965,16,177641.8750000000,192640.6718750000,169519.6875000000,170680.5937500000,137878.3281250000,122269.3750000000,136085.5468750000,155952.9375000000,,,
2.0679999965,16,176976.7343750000,211994.7187500000,168707.9062500000,169692.2812500000,136988.5937500000,121348.4921875000,135009.6562500000,158376.8437500000,,,
2.0719999967,16,176996.7500000000,223655.9218750000,168858.8437500000,169850.9843750000,137208.9531250000,121520.7421875000,135221.2812500000,158571.6250000000,,,
2.0759999966,16,177642.2187500000,214547.5937500000,169711.0000000000,170847.0625000000,138158.0312500000,122470.6718750000,136326.8906250000,156619.5156250000,,,
2.0799999966,16,178059.1093750000,194787.2187500000,170178.4843750000,171422.4375000000,138657.7500000000,123003.5468750000,136949.0312500000,154859.2656250000,,,
2.0839999965,16,177643.7500000000,192397.4062500000,169537.9531250000,170672.0468750000,137898.8281250000,122278.4375000000,136101.3125000000,155903.7968750000,,,
2.0879999965,16,176980.5156250000,211687.5781250000,168722.2968750000,169693.1718750000,137004.3906250000,121356.3515625000,135020.9687500000,158345.5156250000,,,
2.0919999967,16,176998.9218750000,223447.4375000000,168861.8125000000,169846.5937500000,137215.2031250000,121529.1093750000,135218.8593750000,158571.6562500000,,,
2.0959999966,16,177630.3281250000,214475.6562500000,169692.8750000000,170833.9062500000,138144.8593750000,122461.7109375000,136303.6562500000,156624.2656250000,,,
2.0999999966,16,178049.7500000000,194707.8750000000,170162.7656250000,171406.3281250000,138645.0468750000,122991.2656250000,136941.0312500000,154844.8593750000,,,
2.1039999966,16,177649.7812500000,192185.1093750000,169536.9375000000,170672.2500000000,137897.0312500000,122282.8906250000,136111.6406250000,155882.6562500000,,,
2.1079999965,16,176990.5468750000,211441.5937500000,168725.7031250000,169695.9531250000,137006.0000000000,121364.7421875000,135035.4062500000,158335.3281250000,,,
2.1119999965,16,177008.3906250000,223296.2968750000,168867.2343750000,169855.4375000000,137218.0312500000,121538.3359375000,135231.7656250000,158579.0781250000,,,
2.1159999967,16,177633.8281250000,214342.6250000000,169696.3906250000,170834.5000000000,138146.6250000000,122469.8125000000,136314.8750000000,156616.8906250000,,,
2.1199999966,16,178059.9687500000,194654.0312500000,170174.0156250000,171424.6093750000,138655.4531250000,123010.3593750000,136948.2187500000,154844.8125000000,,,
2.1239999966,16,177662.5781250000,192055.4687500000,169558.9531250000,170689.5781250000,137921.5468750000,122302.1484375000,136123.5156250000,155874.6406250000,,,
2.1279999965,16,177007.7343750000,211296.5625000000,168748.7343750000,169712.3437500000,137030.8281250000,121383.0937500000,135045.2968750000,158344.9218750000,,,
2.1319999965,16,177015.6562500000,223251.5000000000,168876.6718750000,169857.4531250000,137227.9531250000,121538.0703125000,135234.4687500000,158593.2968750000,,,
2.1359999967,16,177632.7968750000,214367.5156250000,169697.3281250000,170828.8750000000,138148.0781250000,122458.8203125000,136319.2968750000,156621.6562500000,,,
2.1399999966,16,178056.2656250000,194721.6406250000,170171.2968750000,171417.8281250000,138654.3437500000,122999.3671875000,136949.6093750000,154841.1562500000,,,
2.1439999966,16,177661.2656250000,192023.2812500000,169555.5468750000,170685.9375000000,137920.9843750000,122302.4687500000,136129.3125000000,155862.9531250000,,,
2.1479999966,16,177009.3437500000,211248.6875000000,168746.5937500000,169702.7500000000,137028.3437500000,121387.8906250000,135048.6718750000,158351.0468750000,,,
2.1519999965,16,177012.5156250000,223323.8125000000,168868.3125000000,169850.9843750000,137217.9218750000,121541.6640625000,135224.8125000000,158619.0468750000,,,
2.1559999965,16,177636.1875000000,214575.5156250000,169695.4531250000,170832.7812500000,138144.3281250000,122466.8671875000,136313.6875000000,156658.0000000000,,,
2.1599999967,16,178058.1718750000,194929.6406250000,170167.9218750000,171412.2031250000,138649.7343750000,123003.1171875000,136946.5781250000,154857.7031250000,,,
2.1639999966,16,177674.4375000000,192092.2968750000,169566.3593750000,170707.5000000000,137930.3437500000,122314.6718750000,136139.1875000000,155866.3593750000,,,
2.1679999966,16,177029.3281250000,211260.8906250000,168765.5781250000,169734.2812500000,137047.0000000000,121399.0234375000,135068.0781250000,158362.9062500000,,,
2.1719999965,16,177031.8593750000,223421.6562500000,168886.2031250000,169872.9843750000,137233.9531250000,121542.4140625000,135239.6250000000,158648.8281250000,,,
2.1759999965,17,177644.4687500000,214850.0156250000,169700.2031250000,170837.1250000000,138147.2968750000,122463.3515625000,136312.2343750000,156701.3437500000,,,
2.1799999964,17,178075.2343750000,195181.9375000000,170186.7968750000,171428.0156250000,138669.3906250000,123022.4609375000,136960.2656250000,154897.0781250000,,,
2.1839999964,17,177687.8906250000,192162.8906250000,169584.6406250000,170719.2968750000,137951.9843750000,122333.5078125000,136154.1250000000,155879.7031250000,,,
2.1879999964,17,177030.8125000000,211256.7343750000,168768.3906250000,169734.2031250000,137053.2812500000,121405.0312500000,135065.6250000000,158366.2500000000,,,
2.1919999963,17,177023.1718750000,223510.5000000000,168877.9375000000,169859.5781250000,137230.8125000000,121544.5078125000,135225.7656250000,158658.8750000000,,,
2.1959999963,17,177632.8906250000,215061.6406250000,169689.7343750000,170831.5468750000,138138.9531250000,122457.0468750000,136294.9375000000,156712.2656250000,,,
2.1999999965,17,178074.0000000000,195325.6250000000,170183.3125000000,171440.2031250000,138668.5156250000,123020.9296875000,136956.8593750000,154895.3906250000,,,
2.2039999964,17,177690.6250000000,192113.2812500000,169582.0156250000,170742.8750000000,137953.5312500000,122337.5781250000,136163.3281250000,155853.9375000000,,,
2.2079999964,17,177033.6718750000,211163.0781250000,168763.0000000000,169755.9843750000,137049.6875000000,121410.6406250000,135072.8437500000,158339.9062500000,,,
2.2119999963,17,177032.2343750000,223503.0156250000,168877.8281250000,169884.9531250000,137228.0312500000,121548.0234375000,135235.2812500000,158651.9375000000,,,
2.2159999963,17,177646.5625000000,215140.2343750000,169693.8593750000,170841.8750000000,138141.2656250000,122469.5468750000,136311.2968750000,156723.4062500000,,,
2.2199999965,17,178078.4218750000,195391.9218750000,170187.4687500000,171444.0937500000,138669.6875000000,123030.7421875000,136971.7656250000,154894.9843750000,,,
2.2239999964,17,177697.7343750000,192052.3906250000,169595.6718750000,170742.5312500000,137962.6250000000,122353.6484375000,136178.4843750000,155842.9687500000,,,
2.2279999964,17,177043.3281250000,211055.1406250000,168781.2187500000,169756.7656250000,137063.4218750000,121429.1953125000,135089.5781250000,158338.9531250000,,,
2.2319999964,17,177020.4218750000,223472.5937500000,168873.0625000000,169854.4843750000,137221.4062500000,121546.3046875000,135234.9843750000,158653.6562500000,,,
2.2359999963,17,177626.8437500000,215202.1562500000,169680.1093750000,170812.2343750000,138127.4531250000,122457.6093750000,136302.6875000000,156728.1250000000,,,
2.2399999963,17,178063.1406250000,195468.5625000000,170178.8906250000,171427.3437500000,138662.3906250000,123017.7343750000,136970.1406250000,154894.6718750000,,,
2.2439999965,17,177681.0781250000,191991.0156250000,169579.6875000000,170736.9218750000,137950.5937500000,122340.1015625000,136177.2656250000,155818.3750000000,,,
2.2479999964,17,177025.8125000000,210952.2343750000,168759.4843750000,169744.8593750000,137046.5468750000,121410.0468750000,135085.5937500000,158313.0156250000,,,
2.2519999964,17,177016.5156250000,223474.1718750000,168866.1562500000,169853.9375000000,137220.2031250000,121541.2890625000,135241.2343750000,158658.1250000000,,,
2.2559999963,17,177624.9687500000,215299.9843750000,169675.5937500000,170809.0468750000,138128.3125000000,122457.9062500000,136306.4687500000,156748.1875000000,,,
2.2599999963,17,178064.1562500000,195581.5781250000,170175.4375000000,171412.5937500000,138662.2812500000,123025.2500000000,136968.8125000000,154912.9687500000,,,
2.2639999965,17,177697.6562500000,191976.4843750000,169596.2656250000,170736.8125000000,137969.0156250000,122352.5234375000,136194.9218750000,155829.0625000000,,,
2.2679999964,17,177048.8593750000,210890.6406250000,168781.4531250000,169748.5312500000,137069.5625000000,121428.1015625000,135103.6875000000,158335.7500000000,,,
2.2719999964,17,177041.7187500000,223509.0156250000,168889.8125000000,169864.7968750000,137243.8750000000,121551.9062500000,135254.3281250000,158701.1250000000,,,
2.2759999963,17,177639.1562500000,215464.5625000000,169692.2343750000,170814.5937500000,138143.1406250000,122455.3593750000,136317.7187500000,156791.4687500000,,,
2.2799999963,17,178073.8437500000,195733.0156250000,170191.3906250000,171421.6406250000,138678.8593750000,123026.5859375000,136988.7500000000,154935.6250000000,,,
2.2839999963,17,177704.0468750000,191955.0000000000,169612.0312500000,170739.6093750000,137988.5156250000,122368.5312500000,136217.6406250000,155828.1562500000,,,
2.2879999964,17,177052.0468750000,210792.5312500000,168793.0781250000,169751.8750000000,137084.4687500000,121445.4531250000,135125.7968750000,158332.0000000000,,,
2.2919999964,17,177037.7031250000,223508.0781250000,168891.2968750000,169855.9843750000,137246.0312500000,121558.1015625000,135266.0781250000,158702.4062500000,,,
2.2959999964,17,177624.5937500000,215695.8750000000,169677.5781250000,170787.6406250000,138129.2187500000,122446.9921875000,136305.7500000000,156794.5781250000,,,
2.2999999963,17,178059.4687500000,195841.2500000000,170179.5625000000,171409.0000000000,138671.3281250000,123018.7578125000,136974.6406250000,154900.4843750000,,,
2.3039999963,18,177700.8750000000,191810.9375000000,169608.5468750000,170742.3750000000,137988.2968750000,122364.4843750000,136212.9218750000,155770.5156250000,,,
2.3079999962,18,177044.8906250000,210561.8281250000,168782.2656250000,169748.7656250000,137072.2656250000,121423.5390625000,135111.0156250000,158272.4062500000,,,
2.3119999962,18,177020.1562500000,223367.9375000000,168867.5000000000,169838.0625000000,137220.7343750000,121532.4062500000,135238.0468750000,158663.4375000000,,,
2.3159999961,18,177625.7812500000,215623.6718750000,169675.3125000000,170789.6875000000,138125.9531250000,122444.9531250000,136308.6406250000,156789.5937500000,,,
2.3199999961,18,178062.9531250000,195826.6093750000,170178.7812500000,171415.3906250000,138671.3593750000,123023.8515625000,136989.7656250000,154909.7187500000,,,
2.3239999961,18,177705.8593750000,191713.0312500000,169611.9531250000,170746.3593750000,137993.3437500000,122380.4453125000,136235.0000000000,155772.6875000000,,,
2.3279999963,18,177050.3125000000,210462.1875000000,168788.1875000000,169751.7812500000,137080.9375000000,121440.2500000000,135133.4062500000,158285.1718750000,,,
2.3319999962,18,177017.6406250000,223376.8906250000,168867.5312500000,169844.5312500000,137223.1406250000,121535.9531250000,135250.2812500000,158684.2812500000,,,
2.3359999962,18,177621.1562500000,215724.0468750000,169673.4218750000,170804.1875000000,138124.0468750000,122437.1718750000,136300.6250000000,156812.7187500000,,,
2.3399999961,18,178068.7500000000,195967.8437500000,170188.5000000000,171433.2187500000,138676.4218750000,123018.0859375000,136986.9843750000,154929.0781250000,,,
2.3439999961,18,177717.1250000000,191759.2968750000,169627.2656250000,170759.7812500000,138006.7812500000,122380.6562500000,136241.3281250000,155776.8437500000,,,
2.3479999963,18,177070.3750000000,210481.2343750000,168813.4531250000,169762.7656250000,137103.5000000000,121443.5234375000,135144.8125000000,158301.5781250000,,,
2.3519999962,18,177026.2812500000,223491.7968750000,168881.3125000000,169855.3125000000,137234.9687500000,121529.5625000000,135254.5937500000,158711.5000000000,,,
2.3559999962,18,177620.8437500000,215887.3125000000,169674.1718750000,170787.7031250000,138126.0781250000,122439.9921875000,136299.3906250000,156838.3593750000,,,
2.3599999961,18,178065.6875000000,196147.9843750000,170186.5937500000,171412.5156250000,138675.4218750000,123028.8125000000,136981.4843750000,154952.6250000000,,,
2.3639999961,18,177711.3906250000,191790.7968750000,169628.3593750000,170763.3750000000,138005.7656250000,122384.6250000000,136227.0312500000,155775.2343750000,,,
2.3679999961,18,177051.9375000000,210432.7656250000,168795.1718750000,169755.0000000000,137081.8437500000,121438.0781250000,135104.0625000000,158292.9531250000,,,
2.3719999962,18,177015.3281250000,223530.6093750000,168864.1562500000,169835.1406250000,137214.0000000000,121527.8750000000,135225.4375000000,158727.2187500000,,,
2.3759999962,18,177610.6562500000,216134.9062500000,169661.7656250000,170776.1093750000,138108.9218750000,122417.6718750000,136293.4062500000,156862.5312500000,,,
2.3799999962,18,178063.7812500000,196298.9687500000,170185.8125000000,171410.1875000000,138677.5937500000,123019.0000000000,136997.5781250000,154948.6562500000,,,
2.3839999961,18,177708.3281250000,191709.8125000000,169619.3281250000,170758.1875000000,138001.9218750000,122383.4218750000,136243.7187500000,155743.0468750000,,,
2.3879999961,18,177044.0312500000,210258.7656250000,168783.0625000000,169755.6093750000,137073.1875000000,121428.8750000000,135123.9218750000,158255.6093750000,,,
2.3919999963,18,176996.7187500000,223403.8750000000,168845.5625000000,169822.0000000000,137199.1406250000,121504.9140625000,135219.9062500000,158690.5625000000,,,
2.3959999962,18,177588.0625000000,216029.1406250000,169640.5781250000,170761.7343750000,138091.5312500000,122397.6640625000,136262.1718750000,156822.9062500000,,,
2.3999999962,18,178039.5000000000,196204.5312500000,170165.2656250000,171399.8125000000,138655.9531250000,122993.8125000000,136964.1718750000,154894.3125000000,,,
2.4039999961,18,177689.5625000000,191492.4218750000,169611.6875000000,170756.5312500000,137991.4375000000,122369.2031250000,136231.2656250000,155680.4218750000,,,
2.4079999961,18,177031.4843750000,210002.0781250000,168780.0625000000,169745.8750000000,137067.1562500000,121428.0156250000,135115.2812500000,158215.7031250000,,,
2.4119999961,18,176999.3750000000,223255.2500000000,168854.2500000000,169815.7656250000,137202.3593750000,121515.8359375000,135220.2656250000,158688.2031250000,,,
2.4159999962,18,177590.5312500000,215956.0000000000,169640.5937500000,170760.5781250000,138088.5625000000,122408.5000000000,136252.4843750000,156829.6875000000,,,
2.4199999962,18,178054.0781250000,196204.5781250000,170172.5312500000,171414.3125000000,138661.9843750000,123008.2968750000,136962.1406250000,154911.6406250000,,,
2.4239999962,18,177713.2187500000,191427.2500000000,169624.2031250000,170773.0468750000,138006.3281250000,122386.1796875000,136240.4062500000,155693.1562500000,,,
2.4279999961,18,177044.7500000000,209909.0156250000,168777.0000000000,169751.0312500000,137067.4687500000,121428.2031250000,135113.6093750000,158226.6406250000,,,
2.4319999961,19,176993.6406250000,223270.3593750000,168833.5781250000,169809.1406250000,137185.2968750000,121499.4218750000,135201.7812500000,158704.0156250000,,,
2.4359999960,19,177592.5937500000,216101.6406250000,169638.2968750000,170753.8281250000,138085.4531250000,122399.5703125000,136256.1250000000,156855.8437500000,,,
2.4399999960,19,178057.5312500000,196365.1718750000,170179.7500000000,171410.5937500000,138666.6250000000,123003.4687500000,136974.5000000000,154925.1093750000,,,
2.4439999959,19,177720.8906250000,191450.0937500000,169642.3437500000,170788.2031250000,138021.6406250000,122391.6562500000,136258.0000000000,155686.6250000000,,,
2.4479999959,19,177051.9218750000,209867.4375000000,168794.9218750000,169779.2187500000,137080.8593750000,121434.4843750000,135126.4687500000,158222.4843750000,,,
2.4519999959,19,176997.9843750000,223335.8593750000,168847.5000000000,169834.0937500000,137192.6250000000,121504.7812500000,135208.9375000000,158723.1406250000,,,
2.4559999960,19,177585.4687500000,216326.1406250000,169639.4218750000,170757.5156250000,138080.3593750000,122399.6250000000,136253.8437500000,156879.9531250000,,,
2.4599999960,19,178067.5312500000,196578.6406250000,170195.2500000000,171424.5937500000,138678.1093750000,123027.1484375000,136991.5625000000,154944.6875000000,,,
2.4639999960,19,177753.9531250000,191488.8750000000,169673.5937500000,170825.2187500000,138051.2187500000,122433.7109375000,136290.8125000000,155700.6718750000,,,
2.4679999959,19,177079.7812500000,209853.7500000000,168816.1406250000,169798.3437500000,137104.1406250000,121460.3671875000,135148.6718750000,158238.1250000000,,,
2.4719999959,19,177015.9218750000,223405.0781250000,168855.9218750000,169821.5937500000,137207.7812500000,121512.6171875000,135222.0781250000,158747.1250000000,,,
2.4759999961,19,177595.6250000000,216499.3906250000,169639.0937500000,170739.6875000000,138089.6875000000,122391.7343750000,136261.0937500000,156905.1406250000,,,
2.4799999960,19,178061.2812500000,196719.5156250000,170179.6875000000,171397.2031250000,138673.7343750000,123007.9765625000,136983.6250000000,154946.8593750000,,,
2.4839999960,19,177736.1718750000,191464.6875000000,169654.4687500000,170788.8437500000,138042.0000000000,122411.0468750000,136284.1875000000,155674.3125000000,,,
2.4879999959,19,177071.5781250000,209736.7812500000,168813.3281250000,169771.3281250000,137103.7656250000,121455.3203125000,135157.7187500000,158221.4062500000,,,
2.4919999959,19,177002.1562500000,223356.2187500000,168851.4687500000,169815.7500000000,137201.4687500000,121503.7109375000,135225.6250000000,158739.6718750000,,,
2.4959999959,19,177574.2968750000,216647.7343750000,169624.2031250000,170738.4843750000,138072.2500000000,122376.8750000000,136247.9687500000,156909.2031250000,,,
2.4999999960,19,178053.5625000000,196808.4843750000,170179.9843750000,171410.7500000000,138673.5000000000,123010.2031250000,136988.7812500000,154932.1718750000,,,
2.5039999960,19,177744.2812500000,191334.6875000000,169665.5468750000,170804.3593750000,138051.6562500000,122426.0390625000,136301.7812500000,155640.4843750000,,,
2.5079999960,19,177080.7500000000,209552.8593750000,168814.1562500000,169779.9687500000,137102.7968750000,121462.3203125000,135165.5937500000,158194.3750000000,,,
2.5119999959,19,177019.0000000000,223263.3593750000,168852.4062500000,169816.5781250000,137200.2343750000,121511.1640625000,135231.4375000000,158742.2500000000,,,
2.5159999959,19,177597.6406250000,216575.7500000000,169631.0781250000,170736.6562500000,138075.4687500000,122388.7343750000,136255.8593750000,156922.7343750000,,,
2.5199999961,19,178069.6875000000,196791.3906250000,170182.7500000000,171413.4843750000,138669.8437500000,123013.7421875000,136989.9531250000,154950.0625000000,,,
2.5239999960,19,177753.4687500000,191246.9531250000,169670.8750000000,170815.9375000000,138052.8906250000,122431.1406250000,136310.1250000000,155647.9062500000,,,
2.5279999960,19,177081.0468750000,209420.2343750000,168818.6562500000,169784.1250000000,137104.4375000000,121462.9375000000,135171.6250000000,158200.7031250000,,,
2.5319999959,19,177002.8281250000,223236.3750000000,168845.4218750000,169812.3906250000,137190.5625000000,121497.9140625000,135223.9375000000,158754.2812500000,,,
2.5359999959,19,177577.2500000000,216639.4218750000,169625.4218750000,170732.0625000000,138067.9062500000,122383.6640625000,136254.2031250000,156941.4062500000,,,
2.5399999958,19,178054.3593750000,196882.5937500000,170181.9687500000,171412.6718750000,138670.5937500000,123024.3359375000,136997.8125000000,154969.4531250000,,,
2.5439999960,19,177732.6562500000,191240.2187500000,169659.7500000000,170822.5625000000,138047.8750000000,122439.9921875000,136318.9687500000,155638.2343750000,,,
2.5479999960,19,177053.8281250000,209370.6093750000,168792.2656250000,169783.3750000000,137086.4375000000,121463.7734375000,135169.3593750000,158178.0625000000,,,
2.5519999960,19,176978.5312500000,223276.9843750000,168816.7343750000,169797.2187500000,137170.5468750000,121499.0156250000,135214.4062500000,158744.5781250000,,,
2.5559999959,19,177563.4218750000,216781.7656250000,169605.8593750000,170724.8593750000,138055.9218750000,122379.7187500000,136246.6875000000,156940.4218750000,,,
2.5599999959,20,178044.1406250000,197032.6562500000,170167.1406250000,171411.5781250000,138662.2656250000,123012.0000000000,136988.1875000000,154952.3437500000,,,
2.5639999958,20,177735.3906250000,191240.4218750000,169661.7812500000,170815.2500000000,138055.9531250000,122436.1796875000,136307.4687500000,155607.9218750000,,,
2.5679999958,20,177066.4531250000,209318.4062500000,168810.4531250000,169775.3593750000,137106.8750000000,121461.7578125000,135168.5000000000,158170.2656250000,,,
2.5719999957,20,176985.0000000000,223309.8437500000,168828.0781250000,169787.2031250000,137184.3593750000,121498.8281250000,135219.2343750000,158761.6562500000,,,
2.5759999957,20,177559.6093750000,216954.1562500000,169606.4062500000,170697.3125000000,138058.6562500000,122384.4687500000,136248.2187500000,156965.5156250000,,,
2.5799999957,20,178044.3281250000,197193.1875000000,170174.9687500000,171391.0937500000,138671.2968750000,123026.5625000000,137002.4218750000,154964.7812500000,,,
2.5839999958,20,177745.3750000000,191245.5000000000,169677.6093750000,170821.4375000000,138068.7187500000,122456.9140625000,136338.4687500000,155607.8750000000,,,
2.5879999958,20,177071.7187500000,209244.9687500000,168814.5312500000,169786.4531250000,137104.0000000000,121473.0000000000,135183.9687500000,158168.2187500000,,,
2.5919999958,20,176985.9687500000,223301.2500000000,168825.4218750000,169787.6562500000,137171.7812500000,121496.6015625000,135216.7812500000,158770.2500000000,,,
2.5959999957,20,177555.2812500000,217033.6875000000,169595.9375000000,170694.5781250000,138038.5156250000,122368.0000000000,136229.7031250000,156974.3125000000,,,
2.5999999957,20,178054.4531250000,197295.8125000000,170181.8125000000,171393.8281250000,138668.6718750000,123023.8515625000,136999.1562500000,154975.1875000000,,,
2.6039999959,20,177760.8281250000,191210.7656250000,169694.8593750000,170837.7812500000,138079.5156250000,122462.9765625000,136345.5000000000,155600.3281250000,,,
2.6079999958,20,177087.0468750000,209137.2812500000,168830.0312500000,169799.9218750000,137116.2031250000,121486.5156250000,135185.8281250000,158164.0156250000,,,
2.6119999958,20,176999.5000000000,223272.0468750000,168839.7656250000,169797.4218750000,137185.4375000000,121510.5468750000,135216.7968750000,158784.1093750000,,,
2.6159999957,20,177557.7812500000,217066.0000000000,169603.2812500000,170703.1875000000,138047.3906250000,122372.1250000000,136231.9687500000,156982.1250000000,,,
2.6199999957,20,178048.7031250000,197308.4531250000,170182.2187500000,171409.7812500000,138671.9375000000,123027.0468750000,137002.9375000000,154964.3281250000,,,
2.6239999956,20,177756.6875000000,191099.4062500000,169697.5937500000,170850.7812500000,138083.5781250000,122470.8593750000,136355.3437500000,155578.2031250000,,,
2.6279999958,20,177084.2968750000,208955.2187500000,168830.0937500000,169810.3281250000,137114.4843750000,121485.1250000000,135191.4531250000,158148.3437500000,,,
2.6319999958,20,176996.0156250000,223179.5625000000,168834.9687500000,169796.7343750000,137176.0937500000,121499.3906250000,135212.1406250000,158786.6406250000,,,
2.6359999957,20,177570.0625000000,217129.8437500000,169609.8593750000,170710.7968750000,138049.0000000000,122373.7890625000,136232.3906250000,157010.8437500000,,,
2.6399999957,20,178064.2968750000,197386.0468750000,170187.9062500000,171427.2187500000,138676.3906250000,123028.1406250000,137001.1406250000,154982.5937500000,,,
2.6439999957,20,177767.9531250000,191020.6718750000,169697.7343750000,170863.1562500000,138086.3281250000,122468.1796875000,136350.7656250000,155573.1875000000,,,
2.6479999959,20,177093.5781250000,208817.6718750000,168832.4218750000,169811.9062500000,137120.5000000000,121483.1875000000,135195.1875000000,158143.8125000000,,,
2.6519999958,20,176996.5625000000,223131.3125000000,168829.0625000000,169791.0468750000,137176.3437500000,121490.1875000000,135209.2031250000,158790.5000000000,,,
2.6559999958,20,177568.0625000000,217197.6406250000,169601.7343750000,170701.2812500000,138046.7656250000,122361.6406250000,136222.2812500000,157022.4375000000,,,
2.6599999957,20,178063.9218750000,197467.3593750000,170185.1875000000,171416.4062500000,138679.1562500000,123025.1093750000,136996.4218750000,154986.4218750000,,,
2.6639999957,20,177777.6093750000,190967.1718750000,169708.8125000000,170856.9531250000,138102.0000000000,122485.6640625000,136363.3125000000,155562.9375000000,,,
2.6679999956,20,177107.4375000000,208705.9375000000,168849.0781250000,169803.1406250000,137135.3593750000,121505.7187500000,135208.5156250000,158142.9843750000,,,
2.6719999958,20,177017.9375000000,223129.2656250000,168850.7656250000,169792.0312500000,137190.6718750000,121520.7421875000,135219.9375000000,158821.7968750000,,,
2.6759999958,20,177585.2812500000,217314.1562500000,169619.2812500000,170692.1562500000,138056.7500000000,122388.8671875000,136228.3125000000,157062.5156250000,,,
2.6799999957,20,178064.8281250000,197603.0000000000,170187.6406250000,171409.0000000000,138676.6406250000,123037.3984375000,136998.7187500000,155003.4375000000,,,
2.6839999957,20,177776.9531250000,190963.5937500000,169712.0000000000,170862.8750000000,138101.7031250000,122499.9921875000,136373.4687500000,155556.8593750000,,,
2.6879999957,21,177095.7968750000,208638.0156250000,168836.7187500000,169812.8437500000,137122.0000000000,121506.4687500000,135200.9218750000,158129.4687500000,,,
2.6919999956,21,176995.4531250000,223139.7343750000,168829.6250000000,169796.2500000000,137169.9843750000,121503.2265625000,135205.2343750000,158809.2968750000,,,
2.6959999956,21,177554.5625000000,217416.0000000000,169590.5000000000,170685.4218750000,138027.5156250000,122352.8671875000,136210.1250000000,157042.6093750000,,,
2.6999999955,21,178064.3906250000,197709.5468750000,170188.6875000000,171408.5781250000,138673.9531250000,123026.1015625000,137000.9062500000,154993.6406250000,,,
2.7039999955,21,177791.0000000000,190933.8281250000,169724.2031250000,170873.4687500000,138111.5000000000,122502.0312500000,136380.6718750000,155540.7343750000,,,
2.7079999954,21,177117.0937500000,208535.8281250000,168853.9375000000,169825.4531250000,137138.0937500000,121508.8593750000,135213.4218750000,158120.5625000000,,,
2.7119999956,21,177005.8906250000,223110.3593750000,168831.0781250000,169793.4843750000,137172.9062500000,121493.4609375000,135204.8437500000,158813.1562500000,,,
2.7159999956,21,177556.9843750000,217538.4218750000,169583.8125000000,170694.4375000000,138024.5312500000,122347.3437500000,136203.2656250000,157063.2031250000,,,
2.7199999955,21,178059.4375000000,197826.8437500000,170180.7656250000,171422.5468750000,138672.1562500000,123021.8437500000,136999.3750000000,155000.4843750000,,,
2.7239999955,21,177783.0312500000,190894.0000000000,169717.8437500000,170885.7812500000,138112.1718750000,122496.2109375000,136386.2656250000,155524.8750000000,,,
2.7279999955,21,177102.7656250000,208424.9375000000,168842.5625000000,169826.4531250000,137131.2812500000,121502.9843750000,135209.5000000000,158104.9531250000,,,
2.7319999957,21,176992.5937500000,223095.0156250000,168824.9687500000,169791.3437500000,137167.4687500000,121493.1406250000,135204.0625000000,158819.3906250000,,,
2.7359999956,21,177550.8906250000,217617.2968750000,169584.9687500000,170691.7500000000,138023.6250000000,122349.0078125000,136206.2343750000,157083.5156250000,,,
2.7399999956,21,178052.2812500000,197924.7656250000,170179.7500000000,171423.1718750000,138669.1718750000,123026.0546875000,136995.6093750000,155011.5625000000,,,
2.7439999955,21,177783.9531250000,190864.9687500000,169722.8593750000,170891.3437500000,138116.8125000000,122510.5312500000,136392.3125000000,155519.1406250000,,,
2.7479999955,21,177104.2187500000,208323.3125000000,168841.9375000000,169825.1406250000,137131.6875000000,121508.4062500000,135217.4687500000,158094.4062500000,,,
2.7519999954,21,176987.5468750000,223055.8906250000,168810.7812500000,169780.8437500000,137155.9062500000,121485.3125000000,135195.8593750000,158815.5156250000,,,
2.7559999956,21,177542.9218750000,217660.8281250000,169571.8593750000,170678.9062500000,138013.1718750000,122335.7343750000,136197.7187500000,157080.9375000000,,,
2.7599999956,21,178054.6093750000,197989.9218750000,170178.7812500000,171408.0156250000,138667.8906250000,123019.1875000000,137000.7968750000,155009.1250000000,,,
2.7639999955,21,177781.7812500000,190804.4375000000,169720.3593750000,170889.7031250000,138110.4687500000,122501.0390625000,136390.1875000000,155493.6875000000,,,
2.7679999955,21,177098.8281250000,208175.3437500000,168837.3906250000,169823.4218750000,137119.2656250000,121499.3125000000,135207.5781250000,158065.4218750000,,,
2.7719999955,21,176977.8281250000,222989.5312500000,168806.4062500000,169772.2968750000,137141.7187500000,121474.5546875000,135181.3750000000,158805.6718750000,,,
2.7759999956,21,177533.1250000000,217716.8906250000,169566.4062500000,170670.0312500000,137999.2187500000,122329.3203125000,136183.0468750000,157088.1562500000,,,
2.7799999956,21,178052.5468750000,198056.1406250000,170181.5781250000,171415.2812500000,138665.4843750000,123025.1406250000,137001.0625000000,155015.7656250000,,,
2.7839999956,21,177789.1250000000,190757.4218750000,169733.1562500000,170899.7656250000,138123.5156250000,122519.6796875000,136411.9062500000,155491.3593750000,,,
2.7879999955,21,177112.9375000000,208085.9375000000,168854.6875000000,169827.9843750000,137139.2500000000,121524.2031250000,135233.5156250000,158072.6093750000,,,
2.7919999955,21,176976.0625000000,222991.0625000000,168803.9062500000,169761.3281250000,137142.3906250000,121479.7031250000,135185.1250000000,158816.2500000000,,,
2.7959999954,21,177524.6875000000,217816.2968750000,169554.5468750000,170651.4375000000,137992.1875000000,122326.5078125000,136177.3281250000,157101.7812500000,,,
2.7999999956,21,178032.4218750000,198170.6406250000,170158.7187500000,171389.1250000000,138648.9062500000,123010.5234375000,136985.7968750000,155010.4843750000,,,
2.8039999956,21,177771.8437500000,190731.1250000000,169719.2187500000,170887.5312500000,138111.1718750000,122510.3984375000,136405.5781250000,155466.8906250000,,,
2.8079999955,21,177088.6406250000,207974.3906250000,168835.0000000000,169828.0781250000,137117.3281250000,121508.3203125000,135226.3437500000,158043.9375000000,,,
2.8119999955,21,176964.7656250000,222947.4687500000,168797.2812500000,169772.8281250000,137132.6562500000,121472.8125000000,135193.6718750000,158814.8593750000,,,
2.8159999955,22,177518.4687500000,217893.7343750000,169548.9218750000,170654.2031250000,137986.0156250000,122321.1953125000,136189.5312500000,157117.2343750000,,,
2.8199999954,22,178031.4531250000,198277.1718750000,170157.5625000000,171391.7031250000,138649.5156250000,123013.3359375000,137004.3281250000,155023.0156250000,,,
2.8239999954,22,177790.9531250000,190701.1250000000,169732.9687500000,170903.1093750000,138131.0468750000,122530.3281250000,136434.7187500000,155472.1250000000,,,
2.8279999953,22,177118.4375000000,207852.7812500000,168856.4218750000,169844.9531250000,137144.9531250000,121530.5078125000,135253.5781250000,158055.5781250000,,,
2.8319999953,22,176991.7031250000,222910.4218750000,168815.9062500000,169780.8437500000,137155.4218750000,121491.3203125000,135206.9375000000,158848.5937500000,,,
2.8359999952,22,177530.2031250000,217972.1406250000,169559.8437500000,170653.9687500000,137998.8906250000,122334.1250000000,136191.1875000000,157152.8437500000,,,
2.8399999954,22,178035.0312500000,198379.2343750000,170165.0156250000,171391.1093750000,138659.5000000000,123028.5468750000,137005.3750000000,155042.8593750000,,,
2.8439999954,22,177776.7343750000,190676.8125000000,169725.5937500000,170898.4218750000,138127.2968750000,122538.3750000000,136428.2812500000,155454.9531250000,,,
2.8479999953,22,177096.5156250000,207744.6250000000,168841.7031250000,169838.5468750000,137133.4218750000,121536.3515625000,135244.2656250000,158029.7187500000,,,
2.8519999953,22,176969.3906250000,222871.8281250000,168798.7031250000,169761.0312500000,137140.1093750000,121501.0781250000,135202.9062500000,158839.5312500000,,,
2.8559999953,22,177516.2031250000,218025.0468750000,169546.3437500000,170639.6093750000,137983.3906250000,122339.3750000000,136188.5625000000,157150.1875000000,,,
2.8599999954,22,178029.7187500000,198468.7968750000,170159.6875000000,171385.3281250000,138648.0937500000,123027.2812500000,137002.0468750000,155031.6718750000,,,
2.8639999954,22,177775.7968750000,190654.6093750000,169727.3437500000,170899.4062500000,138121.7968750000,122536.2812500000,136430.3125000000,155424.6406250000,,,
2.8679999954,22,177092.4687500000,207649.1093750000,168836.3437500000,169828.9218750000,137121.9218750000,121526.7734375000,135237.1562500000,157999.8281250000,,,
2.8719999953,22,176957.5312500000,222852.2031250000,168780.3125000000,169760.1093750000,137117.6875000000,121471.0390625000,135171.2500000000,158823.7031250000,,,
2.8759999953,22,177486.3750000000,218173.3593750000,169509.8906250000,170623.7343750000,137945.9687500000,122293.0000000000,136135.3437500000,157156.9843750000,,,
2.8799999952,22,177995.5468750000,198766.6875000000,170121.2187500000,171371.4218750000,138612.1875000000,122984.8281250000,136951.8906250000,155051.6093750000,,,
2.8839999954,22,177763.2187500000,190804.1406250000,169717.2031250000,170903.3593750000,138115.5937500000,122522.0937500000,136417.1093750000,155406.2968750000,,,
2.8879999954,22,177099.3437500000,207518.0000000000,168848.5625000000,169860.5156250000,137136.8125000000,121535.8984375000,135258.8281250000,157946.1406250000,,,
2.8919999953,22,176964.8281250000,222709.1562500000,168790.3125000000,169773.5468750000,137129.6250000000,121479.1171875000,135195.3906250000,158798.7343750000,,,
2.8959999953,22,177497.4375000000,218176.0937500000,169521.1250000000,170627.5937500000,137958.9375000000,122298.6328125000,136157.7500000000,157166.2656250000,,,
2.8999999953,22,178024.9218750000,198801.7656250000,170150.6718750000,171385.8593750000,138644.0156250000,123005.2109375000,136988.9375000000,155071.4218750000,,,
2.9039999954,22,177799.6093750000,190686.1250000000,169749.7968750000,170933.0781250000,138152.0468750000,122546.0937500000,136454.1562500000,155410.1875000000,,,
2.9079999954,22,177136.3593750000,207325.5625000000,168879.5156250000,169872.7187500000,137168.1562500000,121557.1406250000,135278.0625000000,157959.6250000000,,,
2.9119999954,22,176990.2500000000,222616.2500000000,168806.6406250000,169776.0156250000,137144.9375000000,121495.3437500000,135197.3593750000,158834.4531250000,,,
2.9159999953,22,177509.7500000000,218234.4843750000,169524.1093750000,170618.3906250000,137958.8437500000,122312.0703125000,136146.8281250000,157211.1093750000,,,
2.9199999953,22,178016.8437500000,198878.7656250000,170137.6093750000,171372.7187500000,138628.2187500000,123011.8593750000,136970.2656250000,155087.8906250000,,,
2.9239999952,22,177781.7968750000,190619.9531250000,169734.7187500000,170908.6718750000,138135.0781250000,122557.9531250000,136450.5312500000,155393.0781250000,,,
2.9279999954,22,177109.2343750000,207183.0468750000,168856.5312500000,169853.9687500000,137143.7187500000,121560.0625000000,135275.9375000000,157928.0625000000,,,
2.9319999954,22,176964.7968750000,222556.0000000000,168790.3437500000,169765.7187500000,137124.4687500000,121488.4453125000,135196.6562500000,158814.0000000000,,,
2.9359999953,22,177500.2500000000,218302.0781250000,169523.7031250000,170624.5937500000,137954.3125000000,122308.5859375000,136155.8906250000,157214.8906250000,,,
2.9399999953,22,178022.0468750000,198989.3593750000,170152.3125000000,171373.4375000000,138639.3281250000,123014.3828125000,136990.2500000000,155098.6562500000,,,
2.9439999952,23,177806.6406250000,190621.8125000000,169770.2812500000,170921.1093750000,138167.7968750000,122575.1953125000,136483.8281250000,155398.7656250000,,,
