Time:250Hz,Epoch,Channel 1,Channel 2,Channel 3,Channel 4,Channel 5,Channel 6,Channel 7,Channel 8,Event Id,Event Date,Event Duration
0.0000000000,0,205230.3281250000,194443.4218750000,207191.7500000000,192129.7656250000,191134.0468750000,166781.5781250000,176957.5000000000,-35462.5898437500,,,
0.0040000000,0,205210.6875000000,194438.6718750000,207174.2812500000,192048.0937500000,191119.8125000000,166780.4218750000,176940.5468750000,-35470.1523437500,,,
0.0079999999,0,205210.8437500000,194456.5312500000,207166.7656250000,192052.5156250000,191110.6718750000,166777.3437500000,176917.8125000000,-35470.4218750000,,,
0.0119999999,0,205238.7187500000,194481.9843750000,207191.3125000000,192117.1875000000,191131.2343750000,166796.6562500000,176930.8906250000,-35453.4687500000,,,
0.0159999998,0,205230.5625000000,194459.4062500000,207186.9687500000,192111.5000000000,191128.6406250000,166793.4843750000,176922.8750000000,-35463.0742187500,,,
0.0199999998,0,205201.6718750000,194423.9375000000,207166.2968750000,192043.2656250000,191113.0000000000,166778.2187500000,176899.3281250000,-35482.4648437500,,,
0.0240000000,0,205201.2968750000,194434.2187500000,207167.2343750000,192070.6250000000,191114.2031250000,166773.1250000000,176912.9843750000,-35478.6289062500,,,
0.0279999999,0,205229.1718750000,194475.4375000000,207195.4218750000,192080.2500000000,191142.9375000000,166795.0937500000,176920.4375000000,-35452.9609375000,,,
0.0319999999,0,205255.3750000000,194499.6562500000,207218.1406250000,192075.9843750000,191163.0468750000,166815.4843750000,176931.2656250000,-35436.9218750000,,,
0.0359999998,0,205251.3281250000,194478.8281250000,207209.6562500000,192123.2031250000,191151.9218750000,166813.2812500000,176950.1250000000,-35445.5859375000,,,
0.0399999998,0,205233.9218750000,194449.3125000000,207196.6718750000,192141.0625000000,191139.0937500000,166794.5000000000,176948.5937500000,-35459.3164062500,,,
0.0440000000,0,205196.4687500000,194428.1875000000,207160.9531250000,192052.6562500000,191107.1562500000,166763.5312500000,176917.8906250000,-35485.8164062500,,,
0.0480000000,0,205187.6250000000,194435.0781250000,207145.6406250000,192045.6875000000,191086.7343750000,166749.6875000000,176890.6406250000,-35497.0546875000,,,
0.0519999999,0,205231.1093750000,194475.5000000000,207183.8906250000,192129.0156250000,191116.2187500000,166774.2343750000,176907.2656250000,-35467.3906250000,,,
0.0559999999,0,205256.9531250000,194482.8750000000,207218.7187500000,192161.0781250000,191149.2656250000,166788.9218750000,176936.2656250000,-35448.9101562500,,,
0.0599999998,0,205242.3437500000,194456.7968750000,207214.2500000000,192119.6562500000,191148.0312500000,166778.9531250000,176935.4843750000,-35459.5312500000,,,
0.0639999998,0,205217.0156250000,194439.4218750000,207185.3906250000,192094.0156250000,191120.9062500000,166751.8281250000,176907.0781250000,-35479.7812500000,,,
0.0680000000,0,205222.3593750000,194456.6093750000,207184.3750000000,192110.9687500000,191115.8125000000,166746.2812500000,176898.7343750000,-35479.0585937500,,,
0.0719999999,0,205257.6250000000,194489.1250000000,207217.7031250000,192184.4375000000,191144.0000000000,166766.6562500000,176919.1406250000,-35457.0898437500,,,
0.0759999999,0,205257.5156250000,194476.7031250000,207221.7031250000,192174.3281250000,191150.7656250000,166766.0781250000,176925.2656250000,-35460.6875000000,,,
0.0799999998,0,205220.7187500000,194439.7343750000,207188.5781250000,192089.0781250000,191123.5312500000,166746.6562500000,176902.8593750000,-35486.4062500000,,,
0.0839999998,0,205178.8593750000,194415.3906250000,207143.9218750000,192053.2500000000,191081.6406250000,166716.5625000000,176859.4687500000,-35516.7968750000,,,
0.0880000000,0,205189.1718750000,194439.9843750000,207146.7031250000,192064.9062500000,191079.5312500000,166714.1406250000,176852.4375000000,-35510.7070312500,,,
0.0919999999,0,205218.5468750000,194462.3593750000,207170.3437500000,192100.2968750000,191100.2812500000,166729.4687500000,176863.9218750000,-35495.6093750000,,,
0.0959999999,0,205217.4687500000,194445.1406250000,207172.1406250000,192104.0156250000,191103.1875000000,166726.8593750000,176868.7968750000,-35501.8828125000,,,
0.0999999999,0,205204.4687500000,194423.8437500000,207165.1562500000,192102.3593750000,191100.1562500000,166723.5625000000,176880.8125000000,-35505.3710937500,,,
0.1039999998,0,205198.2968750000,194426.6875000000,207156.0468750000,192092.0625000000,191093.3125000000,166719.2500000000,176873.2812500000,-35502.8750000000,,,
0.1079999998,0,205201.0625000000,194441.4531250000,207151.5312500000,192063.7343750000,191086.0468750000,166716.1562500000,176861.3437500000,-35502.8515625000,,,
0.1120000000,0,205218.2031250000,194455.2968750000,207165.5156250000,192088.2500000000,191096.1250000000,166722.7343750000,176867.5625000000,-35498.6132812500,,,
0.1159999999,0,205226.0625000000,194449.5781250000,207175.0312500000,192117.5625000000,191104.8906250000,166728.7343750000,176877.2500000000,-35498.6132812500,,,
0.1199999999,0,205208.2187500000,194420.9687500000,207165.1562500000,192099.2500000000,191097.7031250000,166715.2187500000,176876.9843750000,-35513.5507812500,,,
0.1239999998,0,205186.9843750000,194409.2968750000,207145.5312500000,192077.5156250000,191079.5312500000,166697.4687500000,176863.5468750000,-35527.1757812500,,,
0.1279999998,1,205187.2500000000,194421.3750000000,207139.8437500000,192079.2031250000,191070.3750000000,166691.5156250000,176852.6562500000,-35528.7851562500,,,
0.1319999998,1,205216.7187500000,194446.7656250000,207163.5781250000,192110.4843750000,191090.7656250000,166713.9062500000,176871.6250000000,-35509.6093750000,,,
0.1359999997,1,205232.4218750000,194444.1093750000,207182.4062500000,192144.2031250000,191110.4843750000,166726.0312500000,176895.0156250000,-35500.4882812500,,,
0.1399999997,1,205228.6406250000,194435.2968750000,207183.7031250000,192150.5781250000,191115.8906250000,166732.7343750000,176906.8125000000,-35495.1250000000,,,
0.1439999996,1,205215.5781250000,194438.0312500000,207169.9375000000,192132.1250000000,191103.5781250000,166733.5937500000,176899.4375000000,-35497.0546875000,,,
0.1479999996,1,205210.6093750000,194449.1875000000,207157.6562500000,192095.2968750000,191090.0156250000,166737.4531250000,176886.2343750000,-35502.0195312500,,,
0.1519999998,1,205230.4062500000,194467.3750000000,207173.2031250000,192113.2812500000,191103.0468750000,166758.0781250000,176901.6562500000,-35491.9609375000,,,
0.1559999997,1,205238.0781250000,194457.0625000000,207188.6093750000,192130.0625000000,191120.5156250000,166768.0781250000,176928.9843750000,-35488.0703125000,,,
0.1599999997,1,205231.4843750000,194444.1718750000,207186.8593750000,192110.6718750000,191128.8281250000,166779.0000000000,176944.1250000000,-35481.3398437500,,,
0.1639999996,1,205210.1250000000,194436.3125000000,207163.3437500000,192071.4843750000,191111.2343750000,166770.0937500000,176928.1562500000,-35491.1289062500,,,
0.1679999996,1,205224.6718750000,194465.6562500000,207171.6562500000,192093.7812500000,191116.0000000000,166781.7343750000,176933.8437500000,-35479.9453125000,,,
0.1719999998,1,205247.4687500000,194487.3437500000,207190.0468750000,192126.7656250000,191130.4375000000,166794.0156250000,176948.6562500000,-35468.6796875000,,,
0.1759999997,1,205267.0937500000,194488.2968750000,207217.5156250000,192168.5312500000,191157.0156250000,166809.2343750000,176968.5000000000,-35454.9453125000,,,
0.1799999997,1,205239.1562500000,194452.5937500000,207201.9687500000,192121.7812500000,191148.1406250000,166797.7031250000,176954.9531250000,-35474.4179687500,,,
0.1839999997,1,205193.9062500000,194423.0625000000,207155.3437500000,192041.3125000000,191108.5937500000,166776.3125000000,176921.9687500000,-35504.5390625000,,,
0.1879999996,1,205180.3281250000,194424.0000000000,207137.7187500000,192044.0937500000,191087.2500000000,166754.0625000000,176878.6250000000,-35520.6875000000,,,
0.1919999996,1,205203.5781250000,194445.2343750000,207160.3906250000,192075.8593750000,191107.6406250000,166766.5781250000,176881.9531250000,-35508.0273437500,,,
0.1959999998,1,205209.9687500000,194441.2187500000,207167.5156250000,192086.2968750000,191109.2656250000,166775.4687500000,176953.0781250000,-35502.5000000000,,,
0.1999999997,1,205200.7187500000,194419.6562500000,207160.5781250000,192107.5000000000,191102.1875000000,166766.8750000000,176964.9375000000,-35507.2500000000,,,
0.2039999997,1,205201.7812500000,194431.2343750000,207160.9843750000,192096.8125000000,191105.2187500000,166769.1093750000,176951.2031250000,-35497.6992187500,,,
0.2079999996,1,205208.5781250000,194454.0625000000,207159.0937500000,192079.5625000000,191102.4843750000,166770.9531250000,176936.7187500000,-35491.8515625000,,,
0.2119999996,1,205217.7968750000,194456.3125000000,207166.8593750000,192101.6875000000,191106.4531250000,166763.9531250000,176931.2656250000,-35495.3671875000,,,
0.2159999998,1,205221.3593750000,194445.8906250000,207173.3437500000,192109.8437500000,191115.4687500000,166761.5156250000,176925.3125000000,-35496.7617187500,,,
0.2199999997,1,205191.6718750000,194406.5156250000,207155.0312500000,192084.2500000000,191099.0468750000,166734.3750000000,176894.9531250000,-35521.4921875000,,,
0.2239999997,1,205169.2031250000,194397.7968750000,207131.5781250000,192059.2812500000,191075.9843750000,166713.1562500000,176878.4375000000,-35537.4492187500,,,
0.2279999997,1,205173.2187500000,194416.2656250000,207122.8125000000,192063.6875000000,191063.5937500000,166706.9531250000,176875.4843750000,-35538.1757812500,,,
0.2319999996,1,205187.4375000000,194429.8437500000,207130.8281250000,192089.8906250000,191065.9843750000,166712.4062500000,176882.5625000000,-35535.9492187500,,,
0.2359999996,1,205192.6093750000,194418.0937500000,207138.9375000000,192096.4843750000,191073.4687500000,166709.5312500000,176887.2812500000,-35537.5585937500,,,
0.2399999998,1,205190.1250000000,194404.7343750000,207145.1250000000,192081.0937500000,191083.3906250000,166706.3906250000,176896.6406250000,-35534.9570312500,,,
0.2439999997,1,205177.4062500000,194405.4062500000,207133.2500000000,192054.2187500000,191074.1875000000,166692.8437500000,176882.5625000000,-35539.5156250000,,,
0.2479999997,1,205161.9218750000,194404.6093750000,207109.7968750000,192040.2656250000,191047.6250000000,166665.4843750000,176844.5312500000,-35559.3085937500,,,
0.2519999996,1,205186.3593750000,194423.0000000000,207131.3125000000,192076.6562500000,191063.8125000000,166673.1406250000,176858.5312500000,-35549.8945312500,,,
0.2559999996,2,205207.9531250000,194433.3125000000,207153.8906250000,192112.9218750000,191084.4375000000,166690.0937500000,176881.2187500000,-35534.9570312500,,,
0.2599999995,2,205193.9218750000,194408.1250000000,207147.0000000000,192097.2656250000,191078.9531250000,166677.3750000000,176867.0937500000,-35546.7578125000,,,
0.2639999995,2,205169.4687500000,194390.5000000000,207128.5000000000,192052.8906250000,191060.9843750000,166654.4062500000,176834.0156250000,-35564.5664062500,,,
0.2679999995,2,205174.6875000000,194408.1250000000,207125.6250000000,192056.8750000000,191056.6406250000,166654.1250000000,176835.5937500000,-35562.2617187500,,,
0.2719999994,2,205199.8281250000,194434.4843750000,207140.2656250000,192109.3281250000,191066.3281250000,166674.5312500000,176858.5312500000,-35545.4687500000,,,
0.2759999994,2,205195.2968750000,194418.3125000000,207134.0781250000,192102.1406250000,191058.6562500000,166672.4687500000,176853.5937500000,-35551.9335937500,,,
0.2799999996,2,205173.6718750000,194392.2968750000,207118.9531250000,192077.1406250000,191045.1718750000,166661.6093750000,176840.0000000000,-35565.5859375000,,,
0.2839999995,2,205165.7031250000,194394.7656250000,207113.0468750000,192066.5468750000,191040.8125000000,166659.4531250000,176830.6406250000,-35566.2031250000,,,
0.2879999995,2,205173.8125000000,194412.2500000000,207119.3281250000,192065.5000000000,191046.2968750000,166663.7812500000,176833.2656250000,-35560.3828125000,,,
0.2919999994,2,205188.3437500000,194425.2343750000,207131.3125000000,192084.4375000000,191057.5000000000,166675.8750000000,176842.5156250000,-35555.0976562500,,,
0.2959999994,2,205183.3281250000,194407.8281250000,207131.1562500000,192090.2343750000,191055.8906250000,166671.3125000000,176847.8593750000,-35564.5664062500,,,
0.2999999996,2,205170.8281250000,194385.6406250000,207126.0000000000,192056.0156250000,191055.8906250000,166671.0156250000,176857.2187500000,-35569.1289062500,,,
0.3039999995,2,205149.0312500000,194375.9062500000,207099.5312500000,192027.2343750000,191034.9218750000,166655.8125000000,176830.3906250000,-35580.7695312500,,,
0.3079999995,2,205158.6875000000,194399.9687500000,207104.2500000000,192055.2343750000,191036.0468750000,166660.8437500000,176824.6250000000,-35572.1601562500,,,
0.3119999995,2,205180.0625000000,194421.3906250000,207125.5937500000,192086.0781250000,191054.1250000000,166672.7656250000,176842.8125000000,-35561.1328125000,,,
0.3159999994,2,205191.0625000000,194419.3906250000,207139.5156250000,192093.4843750000,191070.0312500000,166682.2343750000,176860.4062500000,-35553.3281250000,,,
0.3199999994,2,205182.2343750000,194400.6562500000,207138.9531250000,192076.0156250000,191071.2031250000,166679.4375000000,176868.1093750000,-35555.5546875000,,,
0.3239999996,2,205189.6406250000,194411.7656250000,207149.6875000000,192072.8593750000,191079.8125000000,166683.2500000000,176869.6875000000,-35543.9960937500,,,
0.3279999995,2,205191.3750000000,194422.5781250000,207143.9218750000,192083.4218750000,191071.5000000000,166677.4218750000,176856.0156250000,-35547.4023437500,,,
0.3319999995,2,205220.1250000000,194451.8125000000,207163.4687500000,192126.9531250000,191089.9531250000,166700.3281250000,176875.2968750000,-35528.8398437500,,,
0.3359999994,2,205240.5468750000,194458.7812500000,207186.0312500000,192147.7968750000,191112.9375000000,166718.1406250000,176899.8906250000,-35514.0625000000,,,
0.3399999994,2,205224.2968750000,194431.2968750000,207175.0000000000,192126.2812500000,191107.1562500000,166707.5156250000,176901.6875000000,-35522.5390625000,,,
0.3439999996,2,205199.5000000000,194418.2031250000,207151.2656250000,192079.7500000000,191085.1562500000,166693.1250000000,176882.7968750000,-35534.8750000000,,,
0.3479999995,2,205215.4062500000,194447.4375000000,207164.6562500000,192091.5468750000,191095.5156250000,166703.8437500000,176894.6875000000,-35520.6054687500,,,
0.3519999995,2,205245.9843750000,194475.2031250000,207188.8125000000,192146.5937500000,191114.9062500000,166720.0156250000,176906.6562500000,-35502.7968750000,,,
0.3559999994,2,205260.2031250000,194476.8437500000,207202.5781250000,192178.7968750000,191128.6562500000,166732.0625000000,176910.9375000000,-35494.5351562500,,,
0.3599999994,2,205238.8281250000,194447.7656250000,207192.3593750000,192159.1406250000,191121.4687500000,166723.1562500000,176915.9062500000,-35510.9492187500,,,
0.3639999994,2,205210.4687500000,194427.9687500000,207166.2656250000,192131.6406250000,191098.7500000000,166706.1250000000,176898.0937500000,-35532.1914062500,,,
0.3679999996,2,205204.0156250000,194436.4687500000,207154.9687500000,192129.7187500000,191086.3437500000,166699.9531250000,176878.4531250000,-35536.8867187500,,,
0.3719999995,2,205220.7812500000,194459.4843750000,207162.9375000000,192159.2500000000,191091.2656250000,166710.6093750000,176885.5156250000,-35526.1601562500,,,
0.3759999995,2,205233.1406250000,194458.8125000000,207179.0000000000,192175.0468750000,191109.8593750000,166718.7343750000,176897.6562500000,-35518.5390625000,,,
0.3799999994,2,205225.2812500000,194435.7187500000,207183.7187500000,192156.7812500000,191116.2500000000,166715.2656250000,176894.0937500000,-35524.8984375000,,,
0.3839999994,3,205209.1562500000,194424.0312500000,207164.4843750000,192144.4218750000,191097.0312500000,166700.4375000000,176883.7656250000,-35536.7539062500,,,
0.3879999993,3,205228.9062500000,194455.9375000000,207174.8750000000,192199.5312500000,191101.9531250000,166710.3125000000,176914.3750000000,-35520.5000000000,,,
0.3919999993,3,205241.1406250000,194475.1718750000,207178.6562500000,192185.9843750000,191104.8437500000,166723.4531250000,176920.4843750000,-35511.2460937500,,,
0.3959999993,3,205239.2500000000,194460.6562500000,207179.7031250000,192132.9062500000,191108.5468750000,166722.4375000000,176918.7500000000,-35516.1015625000,,,
0.3999999992,3,205221.6875000000,194428.9062500000,207171.6562500000,192101.2656250000,191101.3593750000,166708.8125000000,176911.2031250000,-35531.0664062500,,,
0.4039999992,3,205214.6562500000,194430.2812500000,207164.5156250000,192107.0312500000,191095.4531250000,166707.3281250000,176900.6718750000,-35530.5585937500,,,
0.4079999994,3,205204.3906250000,194435.1875000000,207148.3437500000,192092.9687500000,191077.0000000000,166696.5312500000,176872.4843750000,-35542.4648437500,,,
0.4119999993,3,205211.2031250000,194444.5625000000,207151.0781250000,192110.4843750000,191074.1093750000,166694.8125000000,176867.9218750000,-35546.2226562500,,,
0.4159999993,3,205223.8593750000,194441.3281250000,207169.5156250000,192145.4843750000,191089.4687500000,166704.4375000000,176885.4375000000,-35541.0703125000,,,
0.4199999992,3,205215.0937500000,194422.2031250000,207170.1562500000,192135.3437500000,191093.0625000000,166705.7968750000,176892.8593750000,-35543.4335937500,,,
0.4239999992,3,205197.4062500000,194418.6406250000,207153.4375000000,192079.6718750000,191079.3125000000,166696.0625000000,176879.2656250000,-35551.2382812500,,,
0.4279999994,3,205188.2968750000,194423.0312500000,207134.5000000000,192077.1406250000,191060.1250000000,166680.6718750000,176854.5000000000,-35562.7695312500,,,
0.4319999993,3,205218.5156250000,194448.6250000000,207159.4687500000,192151.9218750000,191080.8906250000,166697.0937500000,176866.7656250000,-35545.3906250000,,,
0.4359999993,3,205233.7500000000,194449.2968750000,207177.7500000000,192179.9531250000,191098.6250000000,166709.9687500000,176884.3125000000,-35535.7617187500,,,
0.4399999992,3,205189.9843750000,194396.0000000000,207141.8750000000,192107.3750000000,191068.0937500000,166679.8750000000,176867.5156250000,-35571.8085937500,,,
0.4439999992,3,205166.1406250000,194381.2968750000,207120.6875000000,192093.7500000000,191047.0468750000,166660.2031250000,176849.1718750000,-35588.4648437500,,,
0.4479999992,3,205178.7968750000,194410.8593750000,207125.4687500000,192099.5156250000,191051.2500000000,166670.9843750000,176849.1406250000,-35575.3515625000,,,
0.4519999993,3,205194.9218750000,194431.2968750000,207134.2968750000,192095.8906250000,191058.3125000000,166686.2812500000,176846.2187500000,-35567.0898437500,,,
0.4559999993,3,205203.2343750000,194425.6093750000,207148.8593750000,192095.2187500000,191074.0000000000,166693.0937500000,176852.9531250000,-35564.9414062500,,,
0.4599999993,3,205184.4375000000,194397.1718750000,207143.7812500000,192078.5468750000,191073.9687500000,166686.3125000000,176856.9531250000,-35575.4296875000,,,
0.4639999992,3,205167.5000000000,194386.3593750000,207128.2812500000,192073.9062500000,191058.1718750000,166672.7812500000,176857.0000000000,-35585.8125000000,,,
0.4679999992,3,205170.6406250000,194402.8125000000,207116.5312500000,192084.0156250000,191043.1250000000,166669.5156250000,176851.5312500000,-35586.1054687500,,,
0.4719999994,3,205182.3906250000,194417.7968750000,207119.1093750000,192111.7968750000,191043.0781250000,166672.4843750000,176849.7343750000,-35584.7109375000,,,
0.4759999993,3,205184.7343750000,194402.9687500000,207125.9531250000,192119.7187500000,191051.4375000000,166672.5937500000,176852.1718750000,-35587.3671875000,,,
0.4799999993,3,205170.4843750000,194374.7031250000,207122.5156250000,192088.5156250000,191052.1718750000,166670.2187500000,176851.4218750000,-35593.1054687500,,,
0.4839999992,3,205143.9531250000,194354.4687500000,207098.7187500000,192039.7343750000,191032.0156250000,166655.1406250000,176831.8906250000,-35609.3867187500,,,
0.4879999992,3,205143.1250000000,194373.3906250000,207091.0781250000,192038.7968750000,191023.4375000000,166652.1875000000,176820.0625000000,-35609.9765625000,,,
0.4919999992,3,205177.8281250000,194414.9531250000,207121.0156250000,192083.5000000000,191048.7812500000,166672.7343750000,176842.0000000000,-35585.3281250000,,,
0.4959999993,3,205195.0312500000,194416.4531250000,207144.8125000000,192108.5468750000,191070.3750000000,166683.8125000000,176868.0468750000,-35576.4492187500,,,
0.4999999993,3,205168.7968750000,194377.1718750000,207128.3125000000,192088.0000000000,191057.6875000000,166666.5937500000,176864.8906250000,-35596.8359375000,,,
0.5039999993,3,205148.1875000000,194367.1093750000,207103.8437500000,192051.8593750000,191039.5000000000,166658.9687500000,176843.5156250000,-35607.0546875000,,,
0.5079999992,3,205151.2031250000,194386.0937500000,207100.0625000000,192061.1562500000,191032.2031250000,166654.6875000000,176824.0937500000,-35608.1250000000,,,
0.5119999992,4,205178.4531250000,194414.5312500000,207122.5468750000,192087.3125000000,191049.5625000000,166667.4687500000,176841.2031250000,-35590.9882812500,,,
0.5159999991,4,205181.9843750000,194398.8437500000,207130.2656250000,192084.9843750000,191058.6875000000,166669.6406250000,176858.0937500000,-35591.6054687500,,,
0.5199999991,4,205162.0937500000,194370.7031250000,207117.9531250000,192071.5625000000,191051.4218750000,166659.5937500000,176843.5625000000,-35603.2968750000,,,
0.5239999990,4,205142.5625000000,194366.1406250000,207096.7968750000,192046.7500000000,191030.6875000000,166644.1718750000,176834.2500000000,-35612.4726562500,,,
0.5279999990,4,205145.6406250000,194381.5937500000,207091.4843750000,192049.8437500000,191021.7968750000,166642.5625000000,176831.8125000000,-35613.9218750000,,,
0.5319999990,4,205160.2343750000,194393.4687500000,207100.3906250000,192088.0937500000,191027.7812500000,166645.5937500000,176832.9218750000,-35612.4179687500,,,
0.5359999991,4,205163.8281250000,194387.0312500000,207108.3593750000,192095.3593750000,191036.8437500000,166650.1718750000,176837.8437500000,-35612.6875000000,,,
0.5399999991,4,205133.6093750000,194347.0781250000,207090.2500000000,192046.5156250000,191025.5000000000,166635.6093750000,176827.5468750000,-35633.8476562500,,,
0.5439999991,4,205110.2343750000,194332.5312500000,207069.3593750000,191999.2500000000,191007.8750000000,166623.3281250000,176810.3906250000,-35645.7304687500,,,
0.5479999990,4,205118.2656250000,194356.4062500000,207068.2343750000,192011.5625000000,191002.9531250000,166627.4843750000,176809.2031250000,-35639.2656250000,,,
0.5519999990,4,205126.3281250000,194366.7031250000,207067.7656250000,192028.5156250000,191000.2187500000,166631.7968750000,176810.6562500000,-35639.8828125000,,,
0.5559999992,4,205133.6875000000,194365.6875000000,207077.3281250000,192039.8281250000,191010.4062500000,166642.8593750000,176818.7812500000,-35632.9101562500,,,
0.5599999991,4,205098.2500000000,194323.6093750000,207049.4843750000,191979.7031250000,190985.2187500000,166616.7812500000,176783.2968750000,-35661.9570312500,,,
0.5639999991,4,205064.5312500000,194291.6093750000,207018.6875000000,191967.1718750000,190955.1562500000,166582.3437500000,176748.0781250000,-35692.7500000000,,,
0.5679999990,4,205081.6718750000,194317.8593750000,207031.5937500000,192021.0625000000,190964.6718750000,166589.0468750000,176758.3750000000,-35680.8398437500,,,
0.5719999990,4,205128.6093750000,194363.5937500000,207076.7812500000,192082.4843750000,191004.4531250000,166622.8437500000,176799.5781250000,-35646.7500000000,,,
0.5759999990,4,205136.5781250000,194359.4062500000,207085.5312500000,192061.2968750000,191013.6562500000,166633.3593750000,176817.1093750000,-35642.4062500000,,,
0.5799999991,4,205101.4218750000,194316.3125000000,207055.2500000000,192015.8281250000,190986.6406250000,166610.9062500000,176801.4218750000,-35669.5234375000,,,
0.5839999991,4,205108.6562500000,194328.5937500000,207064.0468750000,192028.8593750000,190998.1406250000,166627.5937500000,176815.0781250000,-35653.6445312500,,,
0.5879999991,4,205135.2343750000,194371.1562500000,207082.7968750000,192063.1406250000,191014.2968750000,166648.5625000000,176824.6875000000,-35628.5117187500,,,
0.5919999990,4,205148.7343750000,194385.5625000000,207090.6250000000,192054.9062500000,191017.4531250000,166651.9218750000,176822.8906250000,-35626.2851562500,,,
0.5959999990,4,205167.8281250000,194388.4531250000,207117.7187500000,192077.4062500000,191042.7187500000,166665.5937500000,176846.8593750000,-35614.8320312500,,,
0.5999999992,4,205165.6875000000,194377.4843750000,207122.4843750000,192091.3281250000,191051.3281250000,166668.2031250000,176855.5312500000,-35612.5507812500,,,
0.6039999991,4,205133.7656250000,194361.7968750000,207088.7968750000,192063.3593750000,191021.6718750000,166645.0312500000,176822.2343750000,-35633.3945312500,,,
0.6079999991,4,205142.8906250000,194385.0781250000,207091.2968750000,192048.7968750000,191022.8281250000,166649.7656250000,176818.1093750000,-35624.5156250000,,,
0.6119999990,4,205164.7500000000,194406.7500000000,207107.2343750000,192055.2812500000,191034.9218750000,166658.4375000000,176827.6875000000,-35616.8710937500,,,
0.6159999990,4,205179.6093750000,194410.0468750000,207127.6093750000,192076.2656250000,191055.2500000000,166676.2187500000,176850.9062500000,-35606.8398437500,,,
0.6199999989,4,205157.4687500000,194379.5781250000,207114.0156250000,192060.9687500000,191047.0625000000,166668.3281250000,176846.1406250000,-35620.1679687500,,,
0.6239999991,4,205145.4843750000,194370.7343750000,207103.0156250000,192050.7187500000,191037.8437500000,166658.8906250000,176840.0781250000,-35625.3750000000,,,
0.6279999991,4,205152.0312500000,194393.0156250000,207102.5000000000,192044.3437500000,191035.2187500000,166663.4843750000,176833.1250000000,-35619.8750000000,,,
0.6319999991,4,205168.7968750000,194414.3750000000,207111.4687500000,192069.0937500000,191042.1875000000,166674.4218750000,176837.1562500000,-35610.8632812500,,,
0.6359999990,4,205185.7500000000,194415.2031250000,207129.3281250000,192090.6093750000,191061.6875000000,166687.6250000000,176858.5781250000,-35598.2304687500,,,
0.6399999990,5,205185.6875000000,194401.7031250000,207133.8593750000,192086.6718750000,191070.7812500000,166698.8906250000,176873.3593750000,-35590.8281250000,,,
0.6439999989,5,205171.8750000000,194397.9531250000,207120.9843750000,192067.2812500000,191061.9218750000,166696.4687500000,176866.5156250000,-35595.1718750000,,,
0.6479999989,5,205171.9375000000,194412.9531250000,207116.4531250000,192070.0937500000,191055.0625000000,166693.7031250000,176857.8125000000,-35596.9140625000,,,
0.6519999988,5,205197.4062500000,194437.7812500000,207140.8281250000,192104.8281250000,191075.1718750000,166713.7968750000,176880.5312500000,-35580.0156250000,,,
0.6559999988,5,205216.7031250000,194442.6406250000,207162.4843750000,192130.1718750000,191098.1406250000,166737.2187500000,176910.6406250000,-35565.4804687500,,,
0.6599999988,5,205206.2968750000,194420.9687500000,207159.4687500000,192122.6093750000,191100.2031250000,166740.1093750000,176917.8281250000,-35568.2968750000,,,
0.6639999989,5,205184.1562500000,194410.3750000000,207139.4687500000,192101.3437500000,191083.4687500000,166736.9375000000,176905.5468750000,-35576.1562500000,,,
0.6679999989,5,205178.4843750000,194423.6718750000,207130.2187500000,192077.2187500000,191072.8125000000,166742.9843750000,176899.6718750000,-35579.1601562500,,,
0.6719999989,5,205196.0781250000,194442.2656250000,207144.1562500000,192097.9843750000,191083.3125000000,166758.6718750000,176916.8437500000,-35571.7812500000,,,
0.6759999988,5,205214.5781250000,194445.8593750000,207167.1250000000,192150.1875000000,191106.7812500000,166776.9375000000,176946.4062500000,-35557.6210937500,,,
0.6799999988,5,205219.0781250000,194438.1562500000,207182.2968750000,192157.3125000000,191125.5000000000,166794.5625000000,176973.4843750000,-35544.0742187500,,,
0.6839999990,5,205208.3593750000,194438.4843750000,207171.7812500000,192123.8437500000,191117.7968750000,166791.4687500000,176965.1718750000,-35544.5585937500,,,
0.6879999989,5,205187.6562500000,194437.0312500000,207144.9062500000,192057.3437500000,191092.0781250000,166785.0937500000,176942.2343750000,-35562.7968750000,,,
0.6919999989,5,205191.7812500000,194444.8125000000,207142.3125000000,192056.4062500000,191091.1406250000,166800.2968750000,176954.0781250000,-35562.4765625000,,,
0.6959999988,5,205206.8750000000,194442.8593750000,207157.5156250000,192092.1718750000,191108.0156250000,166807.7812500000,176973.3593750000,-35554.4570312500,,,
0.6999999988,5,205219.6718750000,194440.6250000000,207176.5937500000,192121.5312500000,191131.5312500000,166826.0156250000,177000.8281250000,-35537.3437500000,,,
0.7039999987,5,205221.4218750000,194447.5000000000,207177.6562500000,192105.0156250000,191138.3750000000,166836.9843750000,177007.2031250000,-35526.9101562500,,,
0.7079999989,5,205203.3906250000,194444.0312500000,207157.4687500000,192063.7812500000,191117.9375000000,166818.6406250000,176954.3593750000,-35548.0195312500,,,
0.7119999989,5,205213.8593750000,194455.2187500000,207166.1875000000,192080.6093750000,191122.5468750000,166823.7343750000,176951.9531250000,-35547.2929687500,,,
0.7159999989,5,205240.4375000000,194467.1875000000,207191.3750000000,192103.7187500000,191145.7968750000,166846.5156250000,176991.8906250000,-35525.1406250000,,,
0.7199999988,5,205215.9218750000,194439.4531250000,207168.7031250000,192058.1250000000,191127.9843750000,166830.8437500000,176988.3437500000,-35539.9453125000,,,
0.7239999988,5,205192.4531250000,194421.5781250000,207145.3437500000,192033.6093750000,191106.4218750000,166812.7968750000,176998.4375000000,-35555.2070312500,,,
0.7279999990,5,205188.0312500000,194426.9531250000,207135.1250000000,192022.9687500000,191096.7968750000,166802.0625000000,176980.5937500000,-35561.4843750000,,,
0.7319999989,5,205202.7812500000,194448.2187500000,207143.7031250000,192052.2343750000,191100.9218750000,166804.7031250000,176973.6718750000,-35555.3125000000,,,
0.7359999989,5,205203.3125000000,194442.3750000000,207149.6250000000,192060.6562500000,191108.0156250000,166804.4062500000,176962.2031250000,-35558.4531250000,,,
0.7399999988,5,205181.0000000000,194407.2343750000,207138.7656250000,192034.6875000000,191102.8906250000,166782.8125000000,176951.3281250000,-35578.2734375000,,,
0.7439999988,5,205163.6406250000,194398.7656250000,207119.0625000000,192017.0312500000,191083.8437500000,166769.6718750000,176944.5781250000,-35588.5742187500,,,
0.7479999987,5,205158.8125000000,194407.8437500000,207104.9531250000,192036.9687500000,191064.8750000000,166760.1718750000,176931.8593750000,-35597.1835937500,,,
0.7519999989,5,205145.3750000000,194396.3125000000,207085.7187500000,192025.1562500000,191041.0625000000,166737.6406250000,176905.8906250000,-35621.8593750000,,,
0.7559999989,5,205145.4062500000,194386.2812500000,207088.2968750000,192019.4843750000,191040.9218750000,166727.8750000000,176908.8281250000,-35625.5859375000,,,
0.7599999988,5,205127.5468750000,194356.1718750000,207078.3125000000,192016.1250000000,191034.4843750000,166709.9687500000,176902.3906250000,-35638.0859375000,,,
0.7639999988,5,205113.0625000000,194342.6250000000,207067.0468750000,192003.4375000000,191024.8281250000,166693.5000000000,176889.7812500000,-35647.5273437500,,,
0.7679999988,6,205110.5156250000,194349.0781250000,207059.8593750000,192001.7968750000,191013.0625000000,166680.5937500000,176871.2500000000,-35656.1132812500,,,
0.7719999987,6,205132.0468750000,194373.0625000000,207075.7187500000,192028.8906250000,191024.2187500000,166690.9218750000,176876.5312500000,-35642.4570312500,,,
0.7759999987,6,205149.4062500000,194376.1250000000,207098.0312500000,192053.7500000000,191043.8281250000,166700.8906250000,176893.9687500000,-35631.7851562500,,,
0.7799999986,6,205139.0781250000,194354.5781250000,207096.2343750000,192055.3906250000,191045.4375000000,166698.1562500000,176896.8125000000,-35637.0937500000,,,
0.7839999986,6,205124.8125000000,194344.3437500000,207083.5937500000,192047.0312500000,191034.4062500000,166685.0468750000,176877.5937500000,-35645.0078125000,,,
0.7879999985,6,205138.6718750000,194371.4062500000,207090.7812500000,192045.5156250000,191038.0312500000,166687.6406250000,176868.7500000000,-35634.7617187500,,,
0.7919999987,6,205166.8437500000,194401.1406250000,207111.1093750000,192056.2500000000,191054.0625000000,166701.9375000000,176875.0312500000,-35617.1132812500,,,
0.7959999987,6,205170.8125000000,194394.0156250000,207118.5468750000,192053.4062500000,191061.2656250000,166700.4687500000,176885.4843750000,-35618.7226562500,,,
0.7999999986,6,205153.8281250000,194368.1250000000,207111.0625000000,192029.5937500000,191057.5781250000,166692.4687500000,176886.8281250000,-35628.9140625000,,,
0.8039999986,6,205140.1250000000,194361.0937500000,207094.5937500000,192036.3750000000,191043.6093750000,166681.0468750000,176869.4687500000,-35635.2187500000,,,
0.8079999986,6,205133.6562500000,194372.5468750000,207080.2187500000,192016.5312500000,191026.8750000000,166669.2500000000,176850.4375000000,-35642.0820312500,,,
0.8119999988,6,205150.3750000000,194391.0937500000,207094.7343750000,192008.0000000000,191036.1562500000,166675.7656250000,176855.7968750000,-35636.1835937500,,,
0.8159999987,6,205162.5781250000,194393.6875000000,207106.6875000000,192032.7031250000,191048.8125000000,166684.5000000000,176873.0468750000,-35628.9687500000,,,
0.8199999987,6,205141.8125000000,194365.7343750000,207092.6093750000,192020.5468750000,191040.0156250000,166677.3750000000,176869.0781250000,-35640.6601562500,,,
0.8239999986,6,205124.7500000000,194355.7343750000,207078.4218750000,192003.9218750000,191028.4218750000,166666.9062500000,176856.3281250000,-35649.6484375000,,,
0.8279999986,6,205131.9687500000,194376.0156250000,207080.8125000000,192001.6406250000,191029.6093750000,166666.1562500000,176850.9375000000,-35645.0078125000,,,
0.8319999985,6,205147.5312500000,194390.7968750000,207091.9375000000,192025.2656250000,191034.4843750000,166665.9687500000,176852.1406250000,-35643.3984375000,,,
0.8359999987,6,205168.7968750000,194391.0000000000,207123.6718750000,192051.3125000000,191062.3906250000,166681.1875000000,176882.6093750000,-35633.7968750000,,,
0.8399999987,6,205157.8281250000,194371.2343750000,207122.8593750000,192043.7812500000,191065.5468750000,166679.8125000000,176879.1875000000,-35638.4101562500,,,
0.8439999986,6,205143.0468750000,194364.1093750000,207106.5000000000,192032.1875000000,191053.9062500000,166676.0625000000,176866.5156250000,-35641.8671875000,,,
0.8479999986,6,205146.1562500000,194380.0937500000,207102.3125000000,192040.7968750000,191047.1718750000,166674.6406250000,176854.9375000000,-35638.6250000000,,,
0.8519999986,6,205167.7500000000,194402.8281250000,207121.1250000000,192065.0468750000,191058.4375000000,166684.5625000000,176873.1250000000,-35629.4218750000,,,
0.8559999987,6,205180.1875000000,194403.0781250000,207134.7187500000,192076.0156250000,191069.2968750000,166693.5000000000,176886.3125000000,-35625.5625000000,,,
0.8599999987,6,205145.0625000000,194361.0468750000,207102.6406250000,192039.5156250000,191042.0468750000,166671.4375000000,176857.2656250000,-35651.8476562500,,,
0.8639999987,6,205126.0625000000,194348.2812500000,207082.5000000000,192017.5781250000,191023.0156250000,166657.0156250000,176846.6250000000,-35662.1445312500,,,
0.8679999986,6,205133.6093750000,194367.9375000000,207082.6875000000,192032.0000000000,191021.4218750000,166659.8281250000,176841.6250000000,-35656.1914062500,,,
0.8719999986,6,205156.2968750000,194393.0937500000,207101.4531250000,192082.7500000000,191035.3750000000,166668.4218750000,176846.4843750000,-35646.5898437500,,,
0.8759999985,6,205165.9843750000,194395.5625000000,207119.1875000000,192086.4531250000,191053.1875000000,166680.2187500000,176847.9375000000,-35642.2968750000,,,
0.8799999987,6,205130.9687500000,194357.4218750000,207092.9062500000,192027.3906250000,191033.1562500000,166665.0312500000,176832.1875000000,-35665.4453125000,,,
0.8839999987,6,205111.6562500000,194340.8281250000,207072.6875000000,192009.8437500000,191015.0468750000,166650.1250000000,176829.0468750000,-35675.9609375000,,,
0.8879999986,6,205116.7031250000,194356.8125000000,207069.9687500000,192034.4687500000,191009.2031250000,166648.8593750000,176832.6406250000,-35673.7343750000,,,
0.8919999986,6,205139.9531250000,194382.8750000000,207089.3906250000,192077.3281250000,191023.4375000000,166660.4531250000,176844.2031250000,-35660.8867187500,,,
0.8959999986,7,205143.6562500000,194377.9218750000,207094.8593750000,192072.3437500000,191031.8906250000,166665.9531250000,176855.8281250000,-35658.8476562500,,,
0.8999999985,7,205121.1250000000,194346.3750000000,207075.9062500000,192045.8750000000,191019.2500000000,166652.5937500000,176840.5000000000,-35674.0820312500,,,
0.9039999985,7,205095.3593750000,194326.2656250000,207053.5000000000,192017.6562500000,190997.9843750000,166633.5468750000,176811.4375000000,-35692.9375000000,,,
0.9079999984,7,205097.5000000000,194341.6250000000,207051.4843750000,192022.0312500000,190992.7343750000,166630.4843750000,176810.9531250000,-35692.6718750000,,,
0.9119999984,7,205098.3125000000,194353.1875000000,207045.5937500000,192026.3437500000,190982.4843750000,166623.7812500000,176794.6875000000,-35700.9296875000,,,
0.9159999983,7,205106.0312500000,194347.9843750000,207054.9843750000,192032.7500000000,190991.3906250000,166627.8125000000,176805.3750000000,-35702.6757812500,,,
0.9199999985,7,205107.4062500000,194333.2656250000,207067.0781250000,192027.1250000000,191003.2187500000,166630.8593750000,176823.2656250000,-35700.7695312500,,,
0.9239999985,7,205101.0625000000,194329.3437500000,207060.2343750000,192022.5156250000,191001.2812500000,166632.3593750000,176815.5000000000,-35697.9531250000,,,
0.9279999984,7,205085.3750000000,194321.1406250000,207040.7343750000,192018.4375000000,190980.8750000000,166612.3593750000,176796.8437500000,-35715.1210937500,,,
0.9319999984,7,205109.0625000000,194349.7812500000,207056.2968750000,192042.8125000000,190992.2500000000,166625.5781250000,176815.2656250000,-35699.9648437500,,,
0.9359999984,7,205126.2812500000,194353.6406250000,207073.7187500000,192061.5625000000,191008.5468750000,166636.1718750000,176830.2343750000,-35689.1015625000,,,
0.9399999985,7,205121.2187500000,194336.0468750000,207075.8125000000,192052.2500000000,191015.0468750000,166636.0625000000,176836.9375000000,-35688.6992187500,,,
0.9439999985,7,205111.2812500000,194330.2500000000,207068.5468750000,192030.7187500000,191011.1250000000,166635.8593750000,176833.0781250000,-35688.7265625000,,,
0.9479999985,7,205107.2343750000,194340.5312500000,207061.7968750000,192009.4687500000,191003.6718750000,166632.9531250000,176817.0312500000,-35691.9453125000,,,
0.9519999984,7,205138.8125000000,194375.5000000000,207090.3750000000,192047.4843750000,191029.3437500000,166655.1718750000,176831.6562500000,-35671.0234375000,,,
0.9559999984,7,205159.5937500000,194385.1875000000,207112.3437500000,192071.2968750000,191049.7500000000,166671.1562500000,176854.9062500000,-35658.3632812500,,,
0.9599999983,7,205150.2031250000,194364.9375000000,207109.7812500000,192049.2187500000,191046.7500000000,166671.2812500000,176867.8593750000,-35663.0859375000,,,
0.9639999985,7,205131.2500000000,194351.7968750000,207094.9218750000,192035.5937500000,191032.4843750000,166659.7812500000,176859.2343750000,-35675.2070312500,,,
0.9679999985,7,205129.3437500000,194363.7812500000,207085.0468750000,192043.2968750000,191022.2031250000,166652.0468750000,176843.4843750000,-35679.3125000000,,,
0.9719999984,7,205136.6406250000,194374.5625000000,207085.0156250000,192057.2187500000,191017.2656250000,166645.9687500000,176834.4375000000,-35682.4765625000,,,
0.9759999984,7,205139.2031250000,194365.0468750000,207089.2812500000,192058.1562500000,191019.4687500000,166643.1406250000,176834.9531250000,-35687.6796875000,,,
0.9799999984,7,205128.2343750000,194342.9218750000,207087.0781250000,192027.7656250000,191022.6406250000,166637.9218750000,176841.3125000000,-35694.5195312500,,,
0.9839999985,7,205121.9687500000,194339.7187500000,207077.7968750000,192021.1875000000,191019.2500000000,166636.4375000000,176835.2812500000,-35693.9570312500,,,
0.9879999985,7,205133.5000000000,194363.5625000000,207079.6875000000,192062.3906250000,191019.3281250000,166643.0937500000,176841.0156250000,-35684.1953125000,,,
0.9919999985,7,205142.3281250000,194377.5468750000,207082.2812500000,192079.4843750000,191017.9375000000,166648.9687500000,176841.2500000000,-35681.4570312500,,,
0.9959999984,7,205143.3125000000,194368.1562500000,207088.5625000000,192068.6406250000,191022.7343750000,166652.8593750000,176846.6718750000,-35682.4492187500,,,
0.9999999984,7,205131.1093750000,194342.6250000000,207086.9531250000,192058.2343750000,191022.0781250000,166647.5468750000,176848.5312500000,-35689.7734375000,,,
1.0039999983,7,205108.2812500000,194323.2343750000,207067.6093750000,192046.7812500000,191005.3125000000,166637.3281250000,176835.0937500000,-35704.0429687500,,,
1.0079999985,7,205095.0312500000,194326.2812500000,207048.3593750000,192029.0000000000,190987.4218750000,166623.5937500000,176815.7500000000,-35714.2343750000,,,
1.0119999985,7,205101.8750000000,194341.3281250000,207048.9687500000,192013.9531250000,190986.9531250000,166624.9843750000,176806.0156250000,-35712.0078125000,,,
1.0159999984,7,205114.0000000000,194343.9843750000,207063.9687500000,192020.0156250000,191003.4843750000,166635.2343750000,176826.2031250000,-35704.9257812500,,,
1.0199999984,7,205120.2500000000,194338.7812500000,207080.5937500000,192036.7812500000,191021.9062500000,166644.0937500000,176853.4531250000,-35694.2773437500,,,
1.0239999983,8,205091.0625000000,194312.8125000000,207055.6250000000,191996.1406250000,190998.8125000000,166621.5312500000,176833.8750000000,-35716.3007812500,,,
1.0279999983,8,205067.9375000000,194299.5937500000,207026.0937500000,191964.3281250000,190967.9218750000,166595.2187500000,176798.3125000000,-35740.7890625000,,,
1.0319999983,8,205092.8125000000,194326.7656250000,207044.3281250000,191996.7031250000,190980.2500000000,166610.0156250000,176796.4687500000,-35727.4570312500,,,
1.0359999982,8,205113.7343750000,194337.3125000000,207063.0468750000,192016.6406250000,190998.4375000000,166621.4687500000,176806.1250000000,-35714.2617187500,,,
1.0399999982,8,205118.3125000000,194328.6718750000,207072.6250000000,192019.1875000000,191011.3906250000,166632.2343750000,176834.0468750000,-35705.2773437500,,,
1.0439999981,8,205099.0625000000,194312.5000000000,207056.1875000000,192005.9375000000,190996.7031250000,166622.9843750000,176830.1250000000,-35716.1406250000,,,
1.0479999983,8,205105.3593750000,194329.8593750000,207061.8750000000,192022.2187500000,191000.1562500000,166624.4843750000,176832.2500000000,-35709.0859375000,,,
1.0519999983,8,205139.4218750000,194367.6718750000,207091.3281250000,192096.5937500000,191024.2968750000,166643.0156250000,176849.9531250000,-35686.6875000000,,,
1.0559999982,8,205158.4687500000,194373.5468750000,207113.3437500000,192103.5312500000,191044.9218750000,166655.1093750000,176869.7968750000,-35678.9101562500,,,
1.0599999982,8,205153.5000000000,194357.1562500000,207115.5937500000,192068.6093750000,191054.4687500000,166660.3125000000,176880.7968750000,-35676.8710937500,,,
1.0639999982,8,205118.9843750000,194332.0312500000,207078.2656250000,192033.3906250000,191023.3125000000,166634.8593750000,176842.6718750000,-35699.9375000000,,,
1.0679999983,8,205101.6250000000,194335.8593750000,207050.4375000000,192014.6250000000,190993.2031250000,166617.1562500000,176812.3750000000,-35713.9414062500,,,
1.0719999983,8,205121.3125000000,194363.5156250000,207065.5156250000,192033.5625000000,191002.9687500000,166631.4843750000,176824.2031250000,-35700.1796875000,,,
1.0759999983,8,205135.7500000000,194367.5312500000,207080.7343750000,192044.9531250000,191019.7031250000,166651.9218750000,176846.2656250000,-35689.8281250000,,,
1.0799999982,8,205100.9687500000,194316.9218750000,207053.5000000000,192021.1875000000,190999.9375000000,166634.5156250000,176832.7343750000,-35717.6132812500,,,
1.0839999982,8,205075.0468750000,194294.3906250000,207033.2031250000,191995.9843750000,190983.4531250000,166619.6718750000,176817.0937500000,-35734.0312500000,,,
1.0879999981,8,205071.4062500000,194300.6718750000,207024.7812500000,192006.3906250000,190972.4218750000,166607.7968750000,176798.6406250000,-35739.1523437500,,,
1.0919999983,8,205088.4687500000,194322.0156250000,207033.2812500000,192009.1250000000,190977.5781250000,166612.4062500000,176799.5156250000,-35732.8476562500,,,
1.0959999983,8,205103.9375000000,194323.9531250000,207055.0625000000,192017.3125000000,190999.2968750000,166629.8125000000,176823.4218750000,-35724.2656250000,,,
1.0999999982,8,205103.6093750000,194308.1250000000,207063.6875000000,192035.8593750000,191010.0000000000,166633.3593750000,176831.0625000000,-35721.8242187500,,,
1.1039999982,8,205089.3281250000,194301.5312500000,207049.2968750000,192020.8750000000,190998.2031250000,166620.5156250000,176816.4218750000,-35727.4296875000,,,
1.1079999981,8,205080.1406250000,194308.7500000000,207036.2812500000,191998.5000000000,190982.7031250000,166606.9375000000,176800.9218750000,-35737.3281250000,,,
1.1119999983,8,205098.6250000000,194332.3125000000,207051.1093750000,191993.8593750000,190993.3906250000,166620.2968750000,176812.1562500000,-35725.7421875000,,,
1.1159999983,8,205139.7656250000,194357.0000000000,207091.9062500000,192015.7031250000,191036.4531250000,166656.4843750000,176860.3750000000,-35691.8671875000,,,
1.1199999982,8,205134.1406250000,194341.5468750000,207089.9218750000,192029.7968750000,191039.6718750000,166656.2968750000,176866.6875000000,-35691.5976562500,,,
1.1239999982,8,205101.5468750000,194318.1093750000,207058.9531250000,192003.7656250000,191011.3437500000,166633.4843750000,176842.4687500000,-35714.1562500000,,,
1.1279999982,8,205104.8281250000,194334.9531250000,207057.2343750000,192018.5156250000,191005.1718750000,166632.1562500000,176832.2656250000,-35712.9726562500,,,
1.1319999981,8,205145.4843750000,194377.2500000000,207092.3906250000,192065.8593750000,191036.6406250000,166656.1250000000,176857.5937500000,-35683.9257812500,,,
1.1359999983,8,205146.8281250000,194367.9687500000,207095.7500000000,192031.1250000000,191040.0468750000,166651.3281250000,176863.4375000000,-35689.5859375000,,,
1.1399999983,8,205097.3906250000,194314.9687500000,207056.4062500000,191977.7656250000,191004.2343750000,166627.7812500000,176827.1718750000,-35727.9960937500,,,
1.1439999982,8,205082.2343750000,194308.9375000000,207050.2343750000,191971.1406250000,190999.2500000000,166635.9531250000,176823.2656250000,-35727.6445312500,,,
1.1479999982,8,205081.1718750000,194320.0937500000,207039.3437500000,191987.4218750000,190984.8437500000,166623.4375000000,176801.5625000000,-35730.7578125000,,,
1.1519999981,9,205080.7343750000,194323.1718750000,207027.7031250000,192006.3906250000,190969.4531250000,166609.5937500000,176788.5312500000,-35741.8085937500,,,
1.1559999981,9,205105.9843750000,194337.1406250000,207054.5156250000,192040.6406250000,190995.9531250000,166632.5468750000,176821.2500000000,-35723.5703125000,,,
1.1599999981,9,205095.2968750000,194310.4375000000,207052.6250000000,192023.5468750000,190998.3593750000,166625.9531250000,176824.5468750000,-35732.5820312500,,,
1.1639999980,9,205071.1093750000,194288.9531250000,207032.9375000000,191981.1562500000,190982.8593750000,166608.1406250000,176803.5781250000,-35746.1796875000,,,
1.1679999980,9,205076.9062500000,194308.6875000000,207030.3593750000,191972.8593750000,190979.8750000000,166613.2187500000,176803.0156250000,-35736.7382812500,,,
1.1719999979,9,205110.1093750000,194344.8750000000,207057.8281250000,192008.8593750000,191004.3750000000,166638.9843750000,176827.1406250000,-35712.5976562500,,,
1.1759999981,9,205125.9375000000,194353.3750000000,207075.8437500000,192036.8281250000,191021.4062500000,166653.8437500000,176841.8125000000,-35704.1210937500,,,
1.1799999981,9,205113.0781250000,194330.6875000000,207069.7500000000,192034.7968750000,191020.5156250000,166647.5000000000,176843.8593750000,-35712.9218750000,,,
1.1839999980,9,205084.4375000000,194308.3125000000,207044.2812500000,192000.4843750000,190998.0625000000,166624.8750000000,176825.2656250000,-35732.5546875000,,,
1.1879999980,9,205088.7812500000,194325.3750000000,207045.3281250000,192005.0937500000,190995.9687500000,166622.3125000000,176817.1093750000,-35727.6718750000,,,
1.1919999979,9,205113.9218750000,194352.8906250000,207066.8593750000,192036.7031250000,191011.3750000000,166630.8437500000,176821.7343750000,-35715.6015625000,,,
1.1959999981,9,205112.9218750000,194345.0000000000,207063.8593750000,192041.5781250000,191007.8593750000,166625.3125000000,176814.9687500000,-35725.3125000000,,,
1.1999999981,9,205096.8281250000,194313.8437500000,207050.4687500000,192022.7500000000,190999.0000000000,166618.2812500000,176826.3750000000,-35735.3164062500,,,
1.2039999980,9,205071.0000000000,194290.0468750000,207027.0000000000,191995.9218750000,190980.0468750000,166599.5937500000,176814.4843750000,-35749.9101562500,,,
1.2079999980,9,205067.4062500000,194300.1875000000,207021.0468750000,191991.3750000000,190971.5625000000,166590.0937500000,176804.1562500000,-35752.8867187500,,,
1.2119999980,9,205090.6093750000,194329.2656250000,207041.5625000000,192001.4531250000,190987.7656250000,166606.0000000000,176814.7500000000,-35739.6093750000,,,
1.2159999979,9,205105.0312500000,194334.0625000000,207059.3437500000,192021.6718750000,191004.6562500000,166614.1562500000,176828.7500000000,-35735.2382812500,,,
1.2199999981,9,205102.5468750000,194314.5156250000,207064.8281250000,192029.0468750000,191014.4531250000,166616.0000000000,176843.3281250000,-35735.1015625000,,,
1.2239999981,9,205098.4687500000,194313.1718750000,207062.5937500000,192027.9843750000,191013.7812500000,166612.6250000000,176842.7031250000,-35734.3789062500,,,
1.2279999980,9,205086.8593750000,194317.0312500000,207042.3750000000,192008.3437500000,190990.4218750000,166594.3281250000,176815.0312500000,-35746.2070312500,33029,1.2282497359,0.0000000000
1.2319999980,9,205111.3125000000,194352.2812500000,207057.1718750000,192049.0156250000,191000.3125000000,166615.2031250000,176823.3906250000,-35727.2148437500,,,
1.2359999979,9,205120.2500000000,194353.7187500000,207068.4375000000,192063.3281250000,191010.4843750000,166624.1875000000,176837.7187500000,-35724.0507812500,,,
1.2399999981,9,205103.1406250000,194326.3593750000,207059.1406250000,192033.2968750000,191006.1406250000,166617.0000000000,176837.4687500000,-35734.0039062500,,,
1.2439999981,9,205088.8437500000,194314.6093750000,207052.0312500000,192019.2656250000,191003.1562500000,166616.3750000000,176836.4531250000,-35735.9882812500,,,
1.2479999980,9,205090.1562500000,194331.1093750000,207051.6250000000,192020.4218750000,191000.2343750000,166616.0625000000,176831.2500000000,-35733.1171875000,,,
1.2519999980,9,205104.0937500000,194350.3437500000,207060.7968750000,192032.2187500000,191004.9062500000,166619.3281250000,176836.0781250000,-35728.3437500000,,,
1.2559999980,9,205112.2812500000,194346.4218750000,207070.0000000000,192042.1093750000,191015.5312500000,166628.9843750000,176846.8906250000,-35727.1367187500,,,
1.2599999979,9,205104.3437500000,194323.6093750000,207068.8125000000,192037.0156250000,191020.5937500000,166632.2343750000,176853.7031250000,-35732.9023437500,,,
1.2639999981,9,205095.3593750000,194318.0000000000,207063.2343750000,192011.8906250000,191018.8750000000,166634.4375000000,176857.2187500000,-35731.6406250000,,,
1.2679999981,9,205088.4687500000,194325.0468750000,207050.9843750000,192005.3906250000,191003.8906250000,166624.5625000000,176840.6406250000,-35736.7109375000,,,
1.2719999980,9,205108.6093750000,194350.3125000000,207065.5937500000,192027.9218750000,191016.0156250000,166639.5312500000,176854.9375000000,-35724.6679687500,,,
1.2759999980,9,205124.6718750000,194357.2031250000,207083.5468750000,192046.5468750000,191034.0000000000,166657.9531250000,176880.2031250000,-35715.2812500000,,,
1.2799999979,10,205123.3281250000,194345.5468750000,207088.7187500000,192038.7656250000,191043.6562500000,166663.4062500000,176894.3906250000,-35713.2421875000,,,
1.2839999979,10,205110.4843750000,194338.5156250000,207077.2968750000,192012.6875000000,191038.6406250000,166666.9687500000,176897.1875000000,-35713.6718750000,,,
1.2879999978,10,205109.4687500000,194351.3593750000,207072.2500000000,191997.0468750000,191032.6875000000,166669.0000000000,176897.4218750000,-35711.6054687500,,,
1.2919999978,10,205131.7500000000,194374.5937500000,207087.6718750000,192014.5156250000,191043.9062500000,166679.0312500000,176903.3437500000,-35700.1250000000,,,
1.2959999978,10,205145.2187500000,194377.2187500000,207099.7968750000,192033.2343750000,191057.3437500000,166696.6562500000,176917.8906250000,-35691.8125000000,,,
1.2999999977,10,205148.2187500000,194365.7187500000,207111.3281250000,192040.2656250000,191074.7031250000,166721.3281250000,176955.7031250000,-35681.5390625000,,,
1.3039999979,10,205137.0937500000,194359.5156250000,207102.9375000000,192039.6406250000,191071.5781250000,166725.7812500000,176968.1562500000,-35682.3164062500,,,
1.3079999979,10,205148.2187500000,194383.6250000000,207109.6406250000,192058.7968750000,191075.8437500000,166729.0625000000,176964.4218750000,-35670.8906250000,,,
1.3119999978,10,205158.1250000000,194400.8281250000,207110.6562500000,192071.8281250000,191072.0937500000,166727.3125000000,176950.5312500000,-35671.2929687500,,,
1.3159999978,10,205177.5312500000,194407.1562500000,207133.8281250000,192082.9062500000,191093.6875000000,166750.2500000000,176974.3437500000,-35660.1093750000,,,
1.3199999977,10,205173.1093750000,194391.0312500000,207137.9843750000,192103.2968750000,191101.1718750000,166750.2187500000,176970.7500000000,-35663.1640625000,,,
1.3239999979,10,205144.6562500000,194369.8750000000,207116.0781250000,192050.7031250000,191085.7500000000,166739.9218750000,176946.2343750000,-35677.2460937500,,,
1.3279999979,10,205125.9375000000,194365.7343750000,207094.1406250000,191968.1093750000,191062.5156250000,166733.5156250000,176926.6875000000,-35689.5859375000,,,
1.3319999978,10,205149.9062500000,194395.4531250000,207105.6718750000,191995.9062500000,191068.1718750000,166743.7812500000,176951.8750000000,-35674.0546875000,,,
1.3359999978,10,205180.2500000000,194412.3281250000,207132.5468750000,192064.6250000000,191090.9531250000,166761.3750000000,176978.8750000000,-35654.9062500000,,,
1.3399999978,10,205182.6562500000,194403.9687500000,207142.9843750000,192063.8125000000,191104.6562500000,166767.8437500000,176989.7187500000,-35647.5273437500,,,
1.3439999977,10,205160.2968750000,194386.3125000000,207125.6250000000,192030.5781250000,191089.4687500000,166747.4375000000,176977.9375000000,-35660.1601562500,,,
1.3479999979,10,205148.3281250000,194385.0312500000,207108.2187500000,192044.5000000000,191069.9531250000,166729.1875000000,176952.3593750000,-35673.4375000000,,,
1.3519999979,10,205165.2343750000,194400.6093750000,207119.1406250000,192088.7031250000,191074.1875000000,166721.0625000000,176943.3750000000,-35674.9140625000,,,
1.3559999978,10,205187.5937500000,194410.4218750000,207142.3437500000,192100.0468750000,191096.5312500000,166736.0937500000,176958.3281250000,-35663.4335937500,,,
1.3599999978,10,205170.0000000000,194385.4843750000,207129.6562500000,192085.7812500000,191087.9687500000,166726.9062500000,176950.3906250000,-35675.8242187500,,,
1.3639999977,10,205148.1718750000,194365.6562500000,207110.3125000000,192037.4218750000,191073.0312500000,166710.6093750000,176935.6718750000,-35686.9570312500,,,
1.3679999979,10,205120.0000000000,194348.7031250000,207081.2656250000,191980.1562500000,191042.4843750000,166681.8593750000,176903.0000000000,-35712.8945312500,,,
1.3719999979,10,205126.9843750000,194361.1250000000,207082.0156250000,192002.0156250000,191037.6875000000,166675.5781250000,176891.0625000000,-35716.5429687500,,,
1.3759999978,10,205143.4218750000,194369.2500000000,207098.2343750000,192043.3437500000,191049.5937500000,166683.7500000000,176896.7187500000,-35709.0312500000,,,
1.3799999978,10,205142.1562500000,194358.6093750000,207102.3125000000,192067.1718750000,191054.8750000000,166685.4531250000,176896.2187500000,-35707.8789062500,,,
1.3839999977,10,205130.3593750000,194350.7656250000,207092.5625000000,192072.1875000000,191047.4218750000,166675.8750000000,176881.4843750000,-35713.0000000000,,,
1.3879999977,10,205128.6875000000,194367.1875000000,207085.5625000000,192062.4687500000,191038.6718750000,166672.3906250000,176871.6250000000,-35712.9492187500,,,
1.3919999979,10,205137.0156250000,194374.4531250000,207089.4375000000,192072.4843750000,191038.0625000000,166663.1250000000,176867.9375000000,-35716.1914062500,,,
1.3959999979,10,205144.2500000000,194365.9218750000,207098.9375000000,192039.7031250000,191048.0312500000,166660.1875000000,176881.6718750000,-35719.7617187500,,,
1.3999999978,10,205127.6562500000,194336.9843750000,207087.2187500000,192005.2343750000,191040.2812500000,166647.7031250000,176878.1875000000,-35733.7617187500,,,
1.4039999978,10,205100.7187500000,194317.3750000000,207062.1875000000,191992.4687500000,191016.7031250000,166628.5312500000,176859.0937500000,-35749.2929687500,,,
1.4079999977,11,205088.7343750000,194322.3906250000,207043.8437500000,191969.0312500000,190995.7343750000,166613.2343750000,176834.8437500000,-35758.4648437500,,,
1.4119999977,11,205107.7812500000,194343.7187500000,207056.9062500000,191986.8125000000,191002.5156250000,166621.2812500000,176840.0781250000,-35749.6953125000,,,
1.4159999976,11,205114.7500000000,194340.2343750000,207062.5468750000,192026.1562500000,191004.9375000000,166625.3125000000,176847.5937500000,-35752.0000000000,,,
1.4199999976,11,205103.0781250000,194315.2656250000,207057.4687500000,192024.5000000000,191002.2031250000,166615.0625000000,176844.7968750000,-35761.9531250000,,,
1.4239999976,11,205080.8750000000,194296.2656250000,207040.2031250000,191970.7656250000,190988.8906250000,166601.2031250000,176833.6406250000,-35772.7070312500,,,
1.4279999975,11,205078.8593750000,194307.9375000000,207034.4843750000,191962.0781250000,190982.1875000000,166594.2812500000,176823.6406250000,-35773.9960937500,,,
1.4319999977,11,205092.8125000000,194324.8125000000,207044.2968750000,191984.9843750000,190987.0625000000,166591.6250000000,176822.3281250000,-35773.0273437500,,,
1.4359999977,11,205123.6562500000,194342.8281250000,207076.7500000000,192016.5000000000,191019.6875000000,166615.6250000000,176852.8750000000,-35751.9218750000,,,
1.4399999976,11,205128.1093750000,194333.2343750000,207085.9843750000,192040.4062500000,191033.3437500000,166620.0468750000,176861.1562500000,-35746.2343750000,,,
1.4439999976,11,205120.0625000000,194327.4843750000,207081.1093750000,192031.2031250000,191031.3281250000,166618.6875000000,176861.0468750000,-35743.2304687500,,,
1.4479999975,11,205111.8281250000,194336.6875000000,207069.6718750000,191990.3750000000,191018.0781250000,166610.7812500000,176851.9531250000,-35746.2343750000,,,
1.4519999977,11,205118.7187500000,194350.9375000000,207070.7500000000,191977.4218750000,191015.3906250000,166613.8593750000,176848.6093750000,-35746.0195312500,,,
1.4559999977,11,205138.5312500000,194359.2500000000,207090.0937500000,192020.6093750000,191031.8593750000,166628.7187500000,176864.7187500000,-35735.3710937500,,,
1.4599999976,11,205132.1250000000,194341.3906250000,207088.1875000000,192027.0156250000,191029.6406250000,166626.9531250000,176862.6093750000,-35739.2851562500,,,
1.4639999976,11,205108.8125000000,194320.5156250000,207067.5781250000,191992.4062500000,191009.9218750000,166610.9062500000,176840.7812500000,-35754.4140625000,,,
1.4679999975,11,205107.5937500000,194332.2656250000,207060.0000000000,191991.1250000000,191000.9843750000,166604.0937500000,176826.5781250000,-35755.2734375000,,,
1.4719999975,11,205127.4062500000,194354.5781250000,207074.5625000000,192016.7968750000,191013.6562500000,166615.2031250000,176835.4062500000,-35744.7851562500,,,
1.4759999977,11,205146.9687500000,194362.9531250000,207096.3125000000,192041.9218750000,191035.2656250000,166633.6250000000,176862.4687500000,-35734.3789062500,,,
1.4799999977,11,205133.8750000000,194339.1875000000,207092.9531250000,192032.9375000000,191034.9218750000,166629.4687500000,176865.5312500000,-35745.4023437500,,,
1.4839999976,11,205118.1875000000,194325.9062500000,207081.2656250000,192036.1406250000,191024.6406250000,166620.8593750000,176858.2812500000,-35752.5625000000,,,
1.4879999976,11,205102.1875000000,194327.8906250000,207055.1406250000,192041.4687500000,190998.0625000000,166603.5781250000,176830.7968750000,-35765.4921875000,,,
1.4919999975,11,205109.5156250000,194343.6875000000,207057.1250000000,192041.0468750000,190996.5937500000,166606.2968750000,176834.1250000000,-35765.9492187500,,,
1.4959999977,11,205124.1406250000,194344.4375000000,207070.8906250000,192057.4062500000,191008.5781250000,166616.1093750000,176849.5468750000,-35763.2109375000,,,
1.4999999977,11,205113.3281250000,194317.1093750000,207067.3437500000,192063.6875000000,191005.7031250000,166611.2343750000,176849.2812500000,-35774.0742187500,,,
1.5039999976,11,205088.5156250000,194294.9062500000,207049.3750000000,192026.7187500000,190988.7031250000,166597.6875000000,176831.0625000000,-35788.3437500000,,,
1.5079999976,11,205078.2656250000,194301.7968750000,207037.7031250000,192009.2656250000,190977.2187500000,166589.8750000000,176808.3750000000,-35792.9023437500,,,
1.5119999975,11,205093.7968750000,194323.3281250000,207049.0468750000,192027.2500000000,190985.8125000000,166599.4843750000,176823.7656250000,-35783.3281250000,,,
1.5159999975,11,205114.1562500000,194333.6562500000,207066.7187500000,192051.2656250000,191002.7812500000,166614.4531250000,176844.3437500000,-35771.7421875000,,,
1.5199999977,11,205106.5937500000,194312.3437500000,207066.1406250000,192045.5781250000,191007.1250000000,166616.1875000000,176856.3281250000,-35775.4179687500,,,
1.5239999976,11,205094.3906250000,194301.3125000000,207056.2656250000,192024.4062500000,191000.4843750000,166611.0625000000,176853.3750000000,-35779.6289062500,,,
1.5279999976,11,205089.1875000000,194314.0312500000,207044.1875000000,192010.0937500000,190985.5625000000,166601.8750000000,176837.6093750000,-35781.9882812500,,,
1.5319999976,11,205097.3125000000,194328.0625000000,207046.1562500000,192024.9531250000,190982.4218750000,166598.9687500000,176832.7343750000,-35782.6054687500,,,
1.5359999975,12,205123.9218750000,194342.7343750000,207073.1562500000,192066.7343750000,191006.0625000000,166616.4531250000,176852.9843750000,-35767.2890625000,,,
1.5399999975,12,205119.0468750000,194326.2812500000,207074.4218750000,192044.0156250000,191008.9062500000,166617.8593750000,176857.3750000000,-35771.4179687500,,,
1.5439999974,12,205093.4218750000,194301.8281250000,207053.0468750000,192008.5625000000,190989.4218750000,166602.0000000000,176841.5468750000,-35788.6406250000,,,
1.5479999974,12,205091.9687500000,194316.8437500000,207046.2812500000,192007.4843750000,190982.7812500000,166602.1406250000,176832.1875000000,-35782.7929687500,,,
1.5519999973,12,205111.1875000000,194347.1718750000,207055.3750000000,192028.4375000000,190991.4062500000,166616.8906250000,176838.7343750000,-35767.0195312500,,,
1.5559999973,12,205130.5156250000,194357.0468750000,207074.4843750000,192057.4062500000,191008.5000000000,166631.4218750000,176853.0000000000,-35757.7656250000,,,
1.5599999975,12,205115.2812500000,194325.3750000000,207067.6875000000,192051.3906250000,191004.6406250000,166624.3750000000,176854.8593750000,-35774.5312500000,,,
1.5639999975,12,205098.1718750000,194312.0625000000,207056.0781250000,192029.7968750000,190996.1406250000,166620.2343750000,176849.1718750000,-35781.2382812500,,,
1.5679999974,12,205083.5312500000,194312.7343750000,207034.9218750000,192022.2968750000,190975.2656250000,166606.9843750000,176822.5625000000,-35790.8125000000,,,
1.5719999974,12,205092.9218750000,194331.2500000000,207037.2968750000,192024.9218750000,190975.4531250000,166611.2343750000,176821.8593750000,-35787.0312500000,,,
1.5759999973,12,205114.5625000000,194342.2968750000,207060.5000000000,192039.5156250000,190998.3281250000,166626.8437500000,176843.4218750000,-35775.4960937500,,,
1.5799999975,12,205108.2031250000,194320.7031250000,207059.0781250000,192034.0156250000,191000.3750000000,166621.5625000000,176844.2812500000,-35781.0742187500,,,
1.5839999975,12,205100.3906250000,194309.7968750000,207054.6562500000,192029.4062500000,190998.7031250000,166615.3593750000,176848.7656250000,-35782.4687500000,,,
1.5879999974,12,205094.3125000000,194314.9687500000,207048.1093750000,192024.7031250000,190990.7656250000,166608.5781250000,176833.1250000000,-35786.6015625000,,,
1.5919999974,12,205118.0156250000,194348.0937500000,207067.3437500000,192034.5468750000,191006.8437500000,166638.4843750000,176845.6562500000,-35766.2695312500,,,
1.5959999973,12,205127.9375000000,194347.6406250000,207075.8125000000,192037.9062500000,191014.2187500000,166649.5000000000,176855.0937500000,-35764.7695312500,,,
1.5999999973,12,205116.6718750000,194320.2031250000,207068.9843750000,192018.9687500000,191008.7968750000,166639.8281250000,176848.9062500000,-35777.8320312500,,,
1.6039999975,12,205099.7500000000,194304.6875000000,207055.6406250000,191996.7812500000,190999.5625000000,166631.7500000000,176840.5312500000,-35785.5546875000,,,
1.6079999974,12,205100.2031250000,194318.7812500000,207053.0000000000,191999.2031250000,190997.2656250000,166633.2187500000,176838.8125000000,-35780.8593750000,,,
1.6119999974,12,205121.4062500000,194348.1250000000,207067.2656250000,192028.9531250000,191005.8437500000,166645.0312500000,176845.3281250000,-35766.6992187500,,,
1.6159999974,12,205137.0156250000,194356.2968750000,207080.8281250000,192040.7968750000,191018.0937500000,166656.6406250000,176853.9687500000,-35759.0000000000,,,
1.6199999973,12,205132.4218750000,194340.9218750000,207083.3593750000,192026.4218750000,191024.4843750000,166660.7656250000,176861.6875000000,-35758.9492187500,,,
1.6239999975,12,205116.8437500000,194327.8750000000,207073.1093750000,192003.8593750000,191017.5625000000,166655.4062500000,176856.2812500000,-35764.9804687500,,,
1.6279999975,12,205104.4687500000,194328.0000000000,207056.0468750000,192000.1406250000,190998.3593750000,166642.7968750000,176835.4062500000,-35776.6757812500,,,
1.6319999974,12,205114.4843750000,194349.6406250000,207053.7187500000,192024.9218750000,190993.8281250000,166643.4687500000,176829.2968750000,-35773.4296875000,,,
1.6359999974,12,205132.1250000000,194357.4218750000,207069.0000000000,192050.9687500000,191009.2500000000,166651.4687500000,176843.0468750000,-35767.5585937500,,,
1.6399999973,12,205117.1562500000,194328.1093750000,207061.1718750000,192038.4687500000,191004.2656250000,166638.6718750000,176839.6718750000,-35783.1132812500,,,
1.6439999973,12,205079.5781250000,194288.7343750000,207030.1093750000,191995.1718750000,190974.5468750000,166608.8125000000,176813.2500000000,-35814.4687500000,,,
1.6479999975,12,205081.8125000000,194300.7500000000,207028.6406250000,191994.1875000000,190970.5781250000,166608.1250000000,176805.8593750000,-35810.8203125000,,,
1.6519999974,12,205103.9687500000,194331.5937500000,207045.5937500000,192016.9062500000,190982.9687500000,166621.8750000000,176813.7343750000,-35794.9414062500,,,
1.6559999974,12,205131.7187500000,194350.5000000000,207073.5156250000,192044.6562500000,191008.8437500000,166642.9531250000,176841.5000000000,-35774.8007812500,,,
1.6599999974,12,205138.9375000000,194344.3437500000,207085.5625000000,192045.7031250000,191023.7812500000,166657.3593750000,176863.8750000000,-35764.8476562500,,,
1.6639999973,13,205113.5625000000,194318.9843750000,207066.2187500000,192003.2187500000,191010.5625000000,166644.0625000000,176850.4375000000,-35781.6406250000,,,
1.6679999973,13,205111.8437500000,194330.3125000000,207060.9375000000,192002.4218750000,191004.2656250000,166640.1093750000,176839.3750000000,-35780.3242187500,,,
1.6719999972,13,205127.5625000000,194352.9218750000,207068.7343750000,192026.5781250000,191007.4062500000,166646.2343750000,176838.7968750000,-35773.7539062500,,,
1.6759999972,13,205155.5781250000,194373.2187500000,207093.9843750000,192066.7968750000,191031.1875000000,166668.4375000000,176863.9531250000,-35755.4882812500,,,
1.6799999971,13,205163.8906250000,194368.1875000000,207108.1093750000,192084.3593750000,191048.3281250000,166681.5312500000,176881.9531250000,-35746.3125000000,,,
1.6839999971,13,205122.6562500000,194327.3906250000,207072.2968750000,192035.0625000000,191015.5312500000,166653.0156250000,176852.2031250000,-35776.4101562500,,,
1.6879999973,13,205089.9843750000,194310.5156250000,207036.2343750000,191979.0312500000,190981.0625000000,166629.7968750000,176821.0625000000,-35801.6757812500,,,
1.6919999972,13,205091.3281250000,194323.0625000000,207029.3125000000,191985.5937500000,190970.6250000000,166626.7343750000,176814.1718750000,-35805.9414062500,,,
1.6959999972,13,205107.2343750000,194330.3593750000,207044.2812500000,192012.1875000000,190981.8593750000,166632.2031250000,176828.1718750000,-35802.9609375000,,,
1.6999999972,13,205108.6250000000,194316.2187500000,207051.6250000000,192028.5625000000,190991.2500000000,166636.6250000000,176835.8593750000,-35802.7226562500,,,
1.7039999971,13,205092.8906250000,194300.4531250000,207042.2343750000,192020.1406250000,190982.7187500000,166628.8750000000,176828.2968750000,-35808.3281250000,,,
1.7079999973,13,205073.8906250000,194297.3906250000,207020.5625000000,191998.7500000000,190960.2187500000,166611.2343750000,176806.9218750000,-35822.0859375000,,,
1.7119999973,13,205075.2656250000,194309.0156250000,207016.4062500000,191993.6406250000,190950.8593750000,166609.2656250000,176794.9843750000,-35827.3710937500,,,
1.7159999972,13,205085.9687500000,194310.8125000000,207023.2187500000,192006.6093750000,190955.3125000000,166609.2968750000,176784.3593750000,-35827.5039062500,,,
1.7199999972,13,205075.1875000000,194284.0468750000,207019.3593750000,192003.2187500000,190952.9531250000,166597.1718750000,176788.6250000000,-35839.7890625000,,,
1.7239999971,13,205067.6718750000,194275.5625000000,207018.6875000000,192004.7500000000,190954.1562500000,166599.4218750000,176803.2187500000,-35840.0039062500,,,
1.7279999971,13,205054.2968750000,194277.0468750000,206997.6562500000,192005.6562500000,190934.5312500000,166586.0781250000,176780.2343750000,-35850.7070312500,,,
1.7319999973,13,205061.5625000000,194290.8750000000,206997.5000000000,192033.5781250000,190932.9218750000,166582.7656250000,176773.3125000000,-35851.7773437500,,,
1.7359999972,13,205076.0468750000,194292.0937500000,207015.8906250000,192004.7812500000,190949.7343750000,166593.0468750000,176792.7656250000,-35846.2265625000,,,
1.7399999972,13,205079.0937500000,194283.6718750000,207026.5468750000,191979.5468750000,190963.9687500000,166602.5156250000,176810.2031250000,-35839.1718750000,,,
1.7439999972,13,205080.1406250000,194281.8125000000,207031.7968750000,191990.6093750000,190972.0468750000,166603.9843750000,176816.1250000000,-35831.4726562500,,,
1.7479999971,13,205075.6875000000,194287.9062500000,207022.6562500000,191976.4218750000,190963.0156250000,166600.0937500000,176800.1406250000,-35831.6093750000,,,
1.7519999973,13,205099.8593750000,194317.1875000000,207041.7500000000,192003.1718750000,190976.0781250000,166614.0781250000,176804.1406250000,-35817.1796875000,,,
1.7559999973,13,205124.4531250000,194335.0781250000,207063.2343750000,192050.3750000000,190993.9843750000,166631.0312500000,176821.7500000000,-35804.3828125000,,,
1.7599999972,13,205126.7343750000,194326.9218750000,207069.8906250000,192033.9687500000,191005.3593750000,166645.6718750000,176839.0625000000,-35797.5703125000,,,
1.7639999972,13,205101.2031250000,194298.2343750000,207049.3437500000,191989.7343750000,190991.2187500000,166629.5468750000,176827.4687500000,-35812.8593750000,,,
1.7679999971,13,205081.4843750000,194292.8437500000,207028.2656250000,191969.2343750000,190967.9687500000,166614.3750000000,176808.7968750000,-35830.9921875000,,,
1.7719999971,13,205080.9531250000,194304.3750000000,207020.6718750000,191971.2187500000,190955.7187500000,166602.3281250000,176789.9687500000,-35839.8710937500,,,
1.7759999973,13,205105.8125000000,194317.3593750000,207045.5625000000,192008.3125000000,190979.8593750000,166619.2968750000,176810.1093750000,-35823.4804687500,,,
1.7799999972,13,205107.2031250000,194303.5625000000,207055.7031250000,192017.0625000000,190994.0468750000,166625.6562500000,176827.5468750000,-35818.3867187500,,,
1.7839999972,13,205110.3281250000,194302.6875000000,207064.5781250000,192026.6406250000,191005.3906250000,166636.2500000000,176844.0468750000,-35806.9335937500,,,
1.7879999971,13,205105.2187500000,194315.0468750000,207051.6718750000,192024.7656250000,190991.1718750000,166633.9531250000,176827.2812500000,-35813.1015625000,,,
1.7919999971,14,205101.2500000000,194322.4218750000,207039.2812500000,192020.0468750000,190972.3125000000,166619.3281250000,176804.7031250000,-35827.9062500000,,,
1.7959999971,14,205100.4843750000,194311.3125000000,207041.5468750000,191996.1406250000,190972.1250000000,166609.8906250000,176808.9843750000,-35839.0898437500,,,
1.7999999970,14,205110.5156250000,194305.7187500000,207057.5468750000,192013.1250000000,190992.8593750000,166628.6093750000,176831.5781250000,-35825.3593750000,,,
1.8039999970,14,205093.8281250000,194290.1875000000,207042.4531250000,191996.3593750000,190983.4531250000,166622.8750000000,176823.0156250000,-35830.2656250000,,,
1.8079999969,14,205070.9687500000,194279.8281250000,207016.8125000000,191952.4218750000,190958.0937500000,166602.7031250000,176791.9062500000,-35847.8632812500,,,
1.8119999969,14,205066.7968750000,194283.2656250000,207005.9687500000,191951.4531250000,190943.2968750000,166587.7031250000,176771.0937500000,-35859.9335937500,,,
1.8159999971,14,205097.5625000000,194300.4843750000,207038.9062500000,191995.5468750000,190972.4531250000,166608.5000000000,176802.6875000000,-35841.5859375000,,,
1.8199999970,14,205102.8437500000,194293.4218750000,207049.2968750000,192001.9687500000,190986.4843750000,166616.1875000000,176820.2031250000,-35836.5429687500,,,
1.8239999970,14,205080.5156250000,194270.8125000000,207029.8125000000,191977.0937500000,190971.5625000000,166602.7812500000,176808.7968750000,-35850.8125000000,,,
1.8279999970,14,205069.6406250000,194275.1093750000,207017.7812500000,191971.8437500000,190957.2187500000,166590.2343750000,176790.9843750000,-35858.3750000000,,,
1.8319999969,14,205072.7656250000,194294.9062500000,207012.9531250000,191969.1562500000,190950.4062500000,166591.9687500000,176777.0468750000,-35857.1171875000,,,
1.8359999971,14,205085.8281250000,194305.7656250000,207022.2812500000,191989.3593750000,190960.0625000000,166607.3125000000,176785.2500000000,-35847.2187500000,,,
1.8399999971,14,205091.0937500000,194293.4531250000,207035.8750000000,192018.8125000000,190974.4687500000,166614.8750000000,176801.2968750000,-35842.0429687500,,,
1.8439999970,14,205061.8593750000,194267.1406250000,207008.8750000000,191967.0937500000,190952.6562500000,166604.2500000000,176782.5937500000,-35858.0546875000,,,
1.8479999970,14,205050.2656250000,194266.5312500000,206994.9687500000,191946.2031250000,190938.0156250000,166594.7343750000,176770.3437500000,-35866.7460937500,,,
1.8519999969,14,205060.1093750000,194280.8437500000,206998.7812500000,191971.0312500000,190936.1406250000,166590.9218750000,176764.9218750000,-35868.3007812500,,,
1.8559999969,14,205088.5468750000,194302.9687500000,207023.4843750000,192008.2968750000,190959.2500000000,166612.1875000000,176793.0312500000,-35850.4648437500,,,
1.8599999971,14,205100.4531250000,194299.5468750000,207041.0781250000,192030.2031250000,190979.7656250000,166629.8750000000,176820.7968750000,-35836.8398437500,,,
1.8639999970,14,205093.2656250000,194293.9687500000,207037.1718750000,192032.8906250000,190980.4218750000,166633.9531250000,176825.4843750000,-35832.8671875000,,,
1.8679999970,14,205073.1250000000,194291.0468750000,207014.1250000000,191995.3593750000,190958.0468750000,166621.7500000000,176800.8593750000,-35845.8515625000,,,
1.8719999969,14,205079.7968750000,194307.4531250000,207017.6875000000,191988.6875000000,190957.6250000000,166631.6406250000,176804.2968750000,-35844.9140625000,,,
1.8759999969,14,205103.6718750000,194323.2343750000,207043.2031250000,192009.7343750000,190981.5156250000,166659.0000000000,176832.9375000000,-35831.0468750000,,,
1.8799999971,14,205097.2656250000,194303.6250000000,207042.1093750000,191999.9531250000,190984.8125000000,166662.3593750000,176839.7031250000,-35836.3281250000,,,
1.8839999971,14,205078.3750000000,194284.3281250000,207028.7500000000,191973.4531250000,190978.1562500000,166660.6093750000,176842.2500000000,-35843.7578125000,,,
1.8879999970,14,205076.2343750000,194295.1718750000,207024.3750000000,191967.9218750000,190976.3593750000,166665.0156250000,176847.1250000000,-35839.7890625000,,,
1.8919999970,14,205106.8593750000,194332.5937500000,207051.4375000000,192007.0000000000,191000.9843750000,166694.3281250000,176877.3125000000,-35813.7968750000,,,
1.8959999969,14,205122.6875000000,194341.4687500000,207067.0937500000,192023.3437500000,191016.6875000000,166712.6093750000,176898.3281250000,-35805.3750000000,,,
1.8999999969,14,205110.5156250000,194318.2343750000,207062.0312500000,191999.1406250000,191015.8281250000,166711.5937500000,176902.6562500000,-35817.0703125000,,,
1.9039999971,14,205089.2656250000,194293.2968750000,207045.3750000000,191973.9062500000,191004.0468750000,166702.0156250000,176893.2187500000,-35831.8242187500,,,
1.9079999970,14,205085.3750000000,194302.7812500000,207035.5781250000,191975.3281250000,190994.7343750000,166705.1093750000,176889.7187500000,-35832.2265625000,,,
1.9119999970,14,205100.1250000000,194326.6875000000,207040.5781250000,191987.3125000000,190997.3750000000,166719.5156250000,176896.9687500000,-35823.6679687500,,,
1.9159999969,14,205125.1562500000,194341.1250000000,207062.9687500000,192016.0468750000,191019.9843750000,166737.2187500000,176921.8281250000,-35809.2109375000,,,
1.9199999969,15,205123.0312500000,194325.5625000000,207069.8906250000,192017.3906250000,191032.6718750000,166744.7500000000,176939.9375000000,-35808.4062500000,,,
1.9239999969,15,205110.1562500000,194312.5468750000,207063.7812500000,192004.0781250000,191031.7812500000,166743.2968750000,176941.5468750000,-35810.8203125000,,,
1.9279999968,15,205102.1875000000,194312.6093750000,207054.2812500000,192001.2968750000,191021.3125000000,166727.3125000000,176919.8750000000,-35819.2148437500,,,
1.9319999968,15,205118.5625000000,194337.5000000000,207065.2968750000,192000.0781250000,191027.8437500000,166733.6406250000,176917.3437500000,-35811.1718750000,,,
1.9359999967,15,205125.4218750000,194343.5312500000,207063.0468750000,192008.2343750000,191026.3281250000,166744.0000000000,176936.6093750000,-35809.5351562500,,,
1.9399999967,15,205132.1875000000,194339.2968750000,207070.3437500000,192040.6093750000,191034.5625000000,166753.8750000000,176948.1093750000,-35802.5078125000,,,
1.9439999969,15,205118.2343750000,194320.8125000000,207063.9843750000,192026.7187500000,191030.3125000000,166740.9218750000,176942.3437500000,-35810.5781250000,,,
1.9479999968,15,205104.8281250000,194318.4531250000,207051.4843750000,191985.7031250000,191017.1093750000,166728.8437500000,176925.6718750000,-35820.1562500000,,,
1.9519999968,15,205106.1406250000,194330.7968750000,207048.5625000000,191964.5468750000,191008.2812500000,166720.4218750000,176910.0625000000,-35825.2500000000,,,
1.9559999967,15,205136.7343750000,194356.2968750000,207076.3750000000,192007.4843750000,191032.6406250000,166740.0781250000,176921.8281250000,-35804.1953125000,,,
1.9599999967,15,205114.5312500000,194318.1562500000,207059.4375000000,192001.6875000000,191017.2656250000,166710.4218750000,176893.7500000000,-35830.8046875000,,,
1.9639999969,15,205086.0468750000,194288.2812500000,207037.8437500000,191960.7031250000,190997.4218750000,166684.8593750000,176876.9062500000,-35850.8671875000,,,
1.9679999969,15,205086.7500000000,194298.6250000000,207039.2031250000,191958.5937500000,190996.3437500000,166683.8906250000,176865.5781250000,-35848.5078125000,,,
1.9719999968,15,205101.1718750000,194322.6093750000,207047.9218750000,191983.7031250000,190997.9843750000,166684.5312500000,176851.0937500000,-35844.0820312500,,,
1.9759999968,15,205114.0000000000,194332.1250000000,207052.4218750000,192014.0312500000,191000.7968750000,166690.3750000000,176866.7343750000,-35841.0781250000,,,
1.9799999967,15,205118.9531250000,194325.7968750000,207059.3437500000,192033.5312500000,191009.6718750000,166694.7343750000,176882.7812500000,-35835.1210937500,,,
1.9839999967,15,205098.9218750000,194302.2812500000,207042.5312500000,192006.8750000000,190997.0781250000,166681.4843750000,176869.8281250000,-35846.6289062500,,,
1.9879999969,15,205086.3750000000,194301.0781250000,207028.8593750000,191980.0000000000,190982.3750000000,166664.1718750000,176846.7500000000,-35856.8476562500,,,
1.9919999968,15,205094.8750000000,194320.5156250000,207030.5625000000,192000.5156250000,190980.1250000000,166659.0312500000,176835.1875000000,-35855.4804687500,,,
1.9959999968,15,205121.1250000000,194339.1562500000,207058.7656250000,192035.1718750000,191005.5156250000,166678.7656250000,176859.2343750000,-35837.9648437500,,,
1.9999999967,15,205123.1718750000,194327.6250000000,207067.5625000000,192035.1718750000,191015.6406250000,166684.5000000000,176869.5000000000,-35834.7460937500,,,
2.0039999967,15,205107.3750000000,194308.8750000000,207054.4375000000,192003.0156250000,191004.3125000000,166675.0937500000,176859.7968750000,-35844.4843750000,,,
2.0079999969,15,205096.6406250000,194310.2187500000,207041.3750000000,191980.7187500000,190987.5000000000,166660.6562500000,176841.9531250000,-35856.3398437500,,,
2.0119999968,15,205100.1093750000,194323.3125000000,207035.0156250000,191998.3125000000,190976.5000000000,166653.0937500000,176829.4531250000,-35863.5820312500,,,
2.0159999968,15,205110.4218750000,194324.0781250000,207045.2187500000,192018.0312500000,190984.5781250000,166659.4531250000,176842.1093750000,-35863.0976562500,,,
2.0199999968,15,205113.9375000000,194313.4843750000,207055.5468750000,192025.0625000000,190997.2031250000,166667.6406250000,176855.7187500000,-35857.0078125000,,,
2.0239999967,15,205090.1562500000,194291.0625000000,207036.7968750000,191999.9843750000,190979.1875000000,166651.3281250000,176840.4218750000,-35872.1914062500,,,
2.0279999967,15,205069.2500000000,194286.6875000000,207010.3125000000,191995.0625000000,190952.7343750000,166629.0156250000,176809.2656250000,-35889.5703125000,,,
2.0319999969,15,205094.7656250000,194319.2031250000,207028.2031250000,192041.0468750000,190967.6718750000,166642.6718750000,176816.3906250000,-35871.0625000000,,,
2.0359999968,15,205121.5937500000,194337.2812500000,207054.5781250000,192057.3437500000,190991.3281250000,166662.6406250000,176834.0625000000,-35854.6484375000,,,
2.0399999968,15,205102.6250000000,194305.3906250000,207042.9843750000,191993.7812500000,190982.9843750000,166650.7968750000,176824.1718750000,-35872.6445312500,,,
2.0439999967,15,205069.6562500000,194269.9062500000,207017.1875000000,191954.1718750000,190961.2187500000,166632.7968750000,176809.7343750000,-35895.7929687500,,,
2.0479999967,16,205053.7812500000,194267.8906250000,206998.8125000000,191949.3906250000,190942.2812500000,166618.9843750000,176796.1093750000,-35907.0312500000,,,
2.0519999966,16,205074.8437500000,194298.8437500000,207013.6406250000,191982.5937500000,190951.8281250000,166626.8593750000,176802.6875000000,-35893.8906250000,,,
2.0559999966,16,205091.2031250000,194306.6250000000,207028.5781250000,192008.4843750000,190962.7343750000,166633.8437500000,176812.7968750000,-35889.2773437500,,,
2.0599999966,16,205097.3593750000,194298.0156250000,207040.1718750000,192014.0625000000,190975.4843750000,166642.9531250000,176828.1093750000,-35884.2851562500,,,
2.0639999965,16,205083.1718750000,194278.9687500000,207027.0781250000,191998.9531250000,190968.8281250000,166633.0937500000,176822.9375000000,-35891.4492187500,,,
2.0679999965,16,205077.9218750000,194289.8593750000,207014.0937500000,191980.9375000000,190959.9531250000,166633.1093750000,176811.1406250000,-35890.6171875000,,,
2.0719999967,16,205096.7812500000,194316.4375000000,207028.4218750000,192001.2968750000,190970.3906250000,166641.7812500000,176818.9687500000,-35879.8085937500,,,
2.0759999966,16,205104.3125000000,194316.2500000000,207034.6718750000,192009.5312500000,190973.4687500000,166637.3281250000,176817.9687500000,-35885.8437500000,,,
2.0799999966,16,205111.2812500000,194309.1250000000,207047.0156250000,192019.7968750000,190987.5312500000,166646.2031250000,176831.4375000000,-35880.2109375000,,,
2.0839999965,16,205088.0937500000,194281.5937500000,207031.5937500000,192002.6093750000,190974.2187500000,166629.5468750000,176821.2812500000,-35895.7656250000,,,
2.0879999965,16,205070.8437500000,194278.7812500000,207013.2187500000,191970.6093750000,190956.3906250000,166614.9843750000,176803.6718750000,-35907.5937500000,,,
2.0919999967,16,205078.6718750000,194300.2656250000,207009.7031250000,191996.2500000000,190949.3593750000,166615.3125000000,176790.1093750000,-35906.4960937500,,,
2.0959999966,16,205092.4375000000,194311.6875000000,207022.7656250000,192017.8750000000,190959.9843750000,166624.4218750000,176799.9218750000,-35901.1562500000,,,
2.0999999966,16,205079.1250000000,194285.0312500000,207021.3125000000,192003.6250000000,190960.8437500000,166618.8750000000,176808.2187500000,-35911.2968750000,,,
2.1039999966,16,205066.8125000000,194271.1718750000,207014.7500000000,191994.3750000000,190959.1250000000,166623.2968750000,176811.5312500000,-35911.6171875000,,,
2.1079999965,16,205047.5000000000,194267.8437500000,206990.5000000000,191997.0000000000,190935.3281250000,166609.5468750000,176785.1250000000,-35925.7539062500,,,
2.1119999965,16,205045.8750000000,194276.8593750000,206980.9531250000,192008.1093750000,190920.3281250000,166596.9531250000,176766.9843750000,-35935.4648437500,,,
2.1159999967,16,205070.0625000000,194291.7656250000,207004.0468750000,192033.6718750000,190937.9375000000,166613.0468750000,176781.1718750000,-35924.1992187500,,,
2.1199999966,16,205080.0468750000,194284.3125000000,207019.9218750000,192045.6875000000,190954.4843750000,166624.9843750000,176800.6250000000,-35916.6328125000,,,
2.1239999966,16,205064.2343750000,194262.6406250000,207011.6093750000,192007.0625000000,190951.0000000000,166624.5000000000,176802.0625000000,-35921.9726562500,,,
2.1279999965,16,205061.7500000000,194277.3281250000,207006.0312500000,191990.1093750000,190946.8281250000,166626.7812500000,176796.0937500000,-35915.9648437500,,,
2.1319999965,16,205077.1093750000,194306.8593750000,207015.0937500000,192005.3125000000,190952.0937500000,166634.5625000000,176792.7656250000,-35907.3281250000,,,
2.1359999967,16,205099.7812500000,194320.4062500000,207038.7031250000,192030.4687500000,190973.1406250000,166649.0468750000,176812.3906250000,-35896.9218750000,,,
2.1399999966,16,205093.1093750000,194298.9062500000,207037.6250000000,192017.3281250000,190975.6718750000,166649.4531250000,176822.7968750000,-35902.7929687500,,,
2.1439999966,16,205059.7968750000,194264.4531250000,207007.3906250000,191983.2343750000,190951.0781250000,166625.0625000000,176797.9375000000,-35928.0859375000,,,
2.1479999966,16,205039.8281250000,194260.2968750000,206979.9062500000,191960.8750000000,190925.1093750000,166607.0156250000,176772.2500000000,-35943.9140625000,,,
2.1519999965,16,205063.5781250000,194293.8906250000,206994.1250000000,191991.2343750000,190935.0625000000,166627.0625000000,176785.9687500000,-35925.9140625000,,,
2.1559999965,16,205100.0781250000,194321.2968750000,207028.1562500000,192042.3281250000,190965.6718750000,166659.4218750000,176818.2500000000,-35900.4882812500,,,
2.1599999967,16,205096.9375000000,194305.6875000000,207031.3281250000,192014.9687500000,190972.0000000000,166664.8125000000,176829.1875000000,-35901.3710937500,,,
2.1639999966,16,205063.6562500000,194272.9375000000,207004.7656250000,191960.3593750000,190951.0937500000,166644.7500000000,176812.0781250000,-35922.4023437500,,,
2.1679999966,16,205036.5000000000,194260.4375000000,206973.7343750000,191941.6875000000,190920.4375000000,166620.4062500000,176779.6718750000,-35945.5234375000,,,
2.1719999965,16,205038.0625000000,194268.2968750000,206969.5000000000,191956.6093750000,190911.0468750000,166610.8281250000,176766.9531250000,-35953.7304687500,,,
2.1759999965,17,205069.2031250000,194290.6875000000,206998.5468750000,192012.7500000000,190936.6406250000,166629.8906250000,176788.4218750000,-35936.0820312500,,,
2.1799999964,17,205074.7812500000,194280.5468750000,207012.7812500000,192013.0625000000,190952.3281250000,166637.1093750000,176804.9062500000,-35933.6679687500,,,
2.1839999964,17,205058.0781250000,194260.0312500000,207003.6875000000,191967.4218750000,190947.1875000000,166632.2812500000,176804.6718750000,-35942.3046875000,,,
2.1879999964,17,205047.4218750000,194265.0000000000,206986.8750000000,191945.8750000000,190931.5468750000,166623.2500000000,176787.4843750000,-35947.9101562500,,,
2.1919999963,17,205060.4375000000,194288.9531250000,206989.2031250000,191973.8750000000,190931.3593750000,166626.5156250000,176782.7500000000,-35941.6054687500,,,
2.1959999963,17,205078.6250000000,194297.1562500000,207006.9062500000,191999.1406250000,190947.0000000000,166633.0156250000,176795.7968750000,-35935.4101562500,,,
2.1999999965,17,205078.1875000000,194283.3437500000,207013.8593750000,192001.4531250000,190955.5312500000,166641.0000000000,176805.2343750000,-35934.5234375000,,,
2.2039999964,17,205049.3281250000,194253.8593750000,206990.2031250000,191960.7343750000,190935.9687500000,166625.1562500000,176790.8281250000,-35953.4882812500,,,
2.2079999964,17,205045.1406250000,194261.6718750000,206986.9062500000,191942.9531250000,190931.1718750000,166624.2187500000,176785.5156250000,-35952.8164062500,,,
2.2119999963,17,205050.7812500000,194275.3281250000,206987.3281250000,191959.2343750000,190928.4687500000,166623.0312500000,176772.5625000000,-35952.8437500000,,,
2.2159999963,17,205082.6093750000,194298.5312500000,207021.1875000000,192000.7031250000,190963.7031250000,166645.1875000000,176791.7500000000,-35930.9570312500,,,
2.2199999965,17,205088.2968750000,194294.4218750000,207034.2968750000,192012.8593750000,190979.7968750000,166656.1093750000,176803.4375000000,-35923.7148437500,,,
2.2239999964,17,205068.3750000000,194271.2500000000,207016.7812500000,191988.3125000000,190965.0937500000,166644.2812500000,176811.7031250000,-35936.8046875000,,,
2.2279999964,17,205055.7968750000,194269.4531250000,206998.4062500000,191954.2968750000,190946.5468750000,166628.9375000000,176804.5312500000,-35947.1562500000,,,
2.2319999964,17,205059.8906250000,194288.2812500000,206992.3437500000,191962.7812500000,190937.9843750000,166628.3750000000,176792.7656250000,-35947.9101562500,,,
2.2359999963,17,205065.5000000000,194292.3593750000,206994.9531250000,191974.7968750000,190938.8750000000,166631.2187500000,176788.1250000000,-35952.0937500000,,,
2.2399999963,17,205049.4375000000,194263.6250000000,206985.4843750000,191957.2812500000,190930.9218750000,166618.0937500000,176780.7500000000,-35968.5351562500,,,
2.2439999965,17,205032.8125000000,194239.6718750000,206975.0781250000,191931.2812500000,190925.0625000000,166607.8281250000,176776.3750000000,-35975.7500000000,,,
2.2479999964,17,205027.8437500000,194244.4531250000,206966.7343750000,191916.2187500000,190917.7343750000,166601.0937500000,176766.2343750000,-35976.1796875000,,,
2.2519999964,17,205034.2500000000,194259.7968750000,206966.2031250000,191943.6562500000,190913.3593750000,166597.1406250000,176758.8906250000,-35977.7890625000,,,
2.2559999963,17,205062.4375000000,194283.3125000000,206994.1718750000,191976.6093750000,190939.6718750000,166621.7968750000,176784.9531250000,-35959.2812500000,,,
2.2599999963,17,205062.4375000000,194269.6875000000,207000.5625000000,191961.0625000000,190948.3125000000,166628.5312500000,176795.7187500000,-35959.8164062500,,,
2.2639999965,17,205034.0937500000,194232.5468750000,206976.2812500000,191941.6718750000,190927.6250000000,166603.2343750000,176776.0000000000,-35983.0976562500,,,
2.2679999964,17,205029.9062500000,194241.0781250000,206968.5625000000,191943.3906250000,190919.0937500000,166596.6093750000,176762.5000000000,-35982.3750000000,,,
2.2719999964,17,205050.5156250000,194272.6875000000,206984.0625000000,191966.4843750000,190930.7343750000,166612.7343750000,176770.4218750000,-35966.2265625000,,,
2.2759999963,17,205071.4375000000,194290.1250000000,207000.2656250000,191995.3906250000,190944.7656250000,166632.6093750000,176783.5937500000,-35955.7148437500,,,
2.2799999963,17,205067.4375000000,194271.4375000000,207000.1250000000,191990.0312500000,190946.2656250000,166630.8125000000,176791.1562500000,-35960.6757812500,,,
2.2839999963,17,205049.7656250000,194251.2031250000,206992.0312500000,191962.1562500000,190941.4218750000,166625.7968750000,176795.3593750000,-35966.2539062500,,,
2.2879999964,17,205044.9375000000,194264.4062500000,206984.9218750000,191948.7968750000,190934.0156250000,166627.3281250000,176788.9531250000,-35962.1796875000,,,
2.2919999964,17,205058.7656250000,194288.8437500000,206989.2031250000,191975.5468750000,190934.6875000000,166633.0156250000,176784.5000000000,-35955.2031250000,,,
2.2959999964,17,205082.1875000000,194301.3437500000,207012.3593750000,192004.7187500000,190955.7187500000,166645.5156250000,176803.0625000000,-35946.4609375000,,,
2.2999999963,17,205071.8593750000,194280.4218750000,207009.1875000000,191989.5468750000,190956.5937500000,166642.7187500000,176807.3281250000,-35955.9570312500,,,
2.3039999963,18,205045.8906250000,194254.0000000000,206991.0000000000,191961.6562500000,190942.3281250000,166632.8750000000,176796.1718750000,-35969.0429687500,,,
2.3079999962,18,205040.5000000000,194260.2812500000,206983.4687500000,191946.6250000000,190932.6406250000,166627.8906250000,176789.1406250000,-35971.0039062500,,,
2.3119999962,18,205066.0937500000,194296.2187500000,207000.4687500000,191966.1250000000,190947.0000000000,166644.1718750000,176799.9531250000,-35953.4062500000,,,
2.3159999961,18,205094.9062500000,194316.5156250000,207026.6875000000,192012.8281250000,190971.8593750000,166662.9375000000,176820.5156250000,-35938.0937500000,,,
2.3199999961,18,205083.6406250000,194292.6562500000,207022.8750000000,192008.1250000000,190970.1718750000,166656.9687500000,176812.9531250000,-35948.5273437500,,,
2.3239999961,18,205054.5781250000,194261.9843750000,207005.1093750000,191963.7968750000,190954.8750000000,166641.9218750000,176802.9843750000,-35965.4492187500,,,
2.3279999963,18,205048.2500000000,194268.9687500000,206994.5156250000,191950.1093750000,190944.5781250000,166637.5937500000,176803.0156250000,-35967.5156250000,,,
2.3319999962,18,205064.5156250000,194295.5156250000,207001.1718750000,191978.0937500000,190946.4375000000,166642.2968750000,176807.0781250000,-35960.7031250000,,,
2.3359999962,18,205098.0312500000,194320.7343750000,207035.1250000000,192022.5156250000,190976.5468750000,166666.8281250000,176837.5000000000,-35940.7187500000,,,
2.3399999961,18,205084.5156250000,194294.5468750000,207028.7500000000,192010.8906250000,190974.6250000000,166658.9218750000,176835.7812500000,-35955.4179687500,,,
2.3439999961,18,205049.1093750000,194253.5937500000,206999.4218750000,191977.0468750000,190950.9687500000,166633.8437500000,176813.7343750000,-35981.7578125000,,,
2.3479999963,18,205040.3906250000,194256.1406250000,206987.1250000000,191965.9375000000,190938.0156250000,166627.1562500000,176799.0156250000,-35987.2851562500,,,
2.3519999962,18,205049.4843750000,194278.1875000000,206989.4843750000,191970.2031250000,190935.7343750000,166628.6406250000,176790.6718750000,-35984.0117187500,,,
2.3559999962,18,205070.3593750000,194292.3281250000,207011.7343750000,191989.1718750000,190953.7031250000,166641.7187500000,176807.6250000000,-35972.2382812500,,,
2.3599999961,18,205083.7187500000,194287.5781250000,207029.9218750000,192000.2187500000,190974.4843750000,166653.7500000000,176830.5781250000,-35960.8085937500,,,
2.3639999961,18,205078.6718750000,194277.9843750000,207027.5625000000,191989.7656250000,190976.3437500000,166657.1562500000,176836.5937500000,-35955.7929687500,,,
2.3679999961,18,205062.9062500000,194274.0156250000,207008.5781250000,191966.2343750000,190956.1718750000,166643.2812500000,176815.1093750000,-35966.9804687500,,,
2.3719999962,18,205072.7500000000,194293.3437500000,207011.1562500000,191970.7968750000,190953.6406250000,166639.7343750000,176805.0156250000,-35967.2460937500,,,
2.3759999962,18,205105.3281250000,194321.7500000000,207039.1718750000,192010.4687500000,190981.2968750000,166663.8281250000,176826.6406250000,-35946.0859375000,,,
2.3799999962,18,205101.5000000000,194308.1562500000,207041.7500000000,192016.2656250000,190987.9531250000,166667.8281250000,176836.0000000000,-35947.2929687500,,,
2.3839999961,18,205072.4218750000,194274.9218750000,207020.4843750000,191985.8125000000,190971.6406250000,166653.3437500000,176822.3437500000,-35966.7382812500,,,
2.3879999961,18,205049.4843750000,194264.6718750000,206995.4531250000,191959.6406250000,190946.3281250000,166635.6406250000,176796.6718750000,-35985.0859375000,,,
2.3919999963,18,205041.9843750000,194268.1875000000,206982.9531250000,191948.4218750000,190927.7343750000,166622.3593750000,176777.1250000000,-35999.9179687500,,,
2.3959999962,18,205066.4218750000,194284.9218750000,207005.1406250000,191985.5468750000,190947.2031250000,166638.8281250000,176792.9531250000,-35986.3984375000,,,
2.3999999962,18,205088.0000000000,194291.1718750000,207031.2343750000,192016.5468750000,190977.5000000000,166663.4062500000,176826.3437500000,-35965.1015625000,,,
2.4039999961,18,205078.6250000000,194277.0625000000,207028.9843750000,192021.8593750000,190981.3281250000,166662.9218750000,176834.5468750000,-35966.2031250000,,,
2.4079999961,18,205056.5468750000,194269.1562500000,207005.3593750000,191995.7968750000,190957.3750000000,166646.7343750000,176810.6250000000,-35983.3945312500,,,
2.4119999961,18,205044.7656250000,194270.0312500000,206986.5000000000,191962.8750000000,190933.3437500000,166628.8750000000,176783.0312500000,-36002.6796875000,,,
2.4159999962,18,205068.1250000000,194284.4687500000,207009.0625000000,191965.8906250000,190952.7343750000,166642.9843750000,176802.0937500000,-35991.6562500000,,,
2.4199999962,18,205067.7812500000,194269.0156250000,207017.6875000000,191963.5312500000,190962.6875000000,166648.5156250000,176814.6718750000,-35993.2656250000,,,
2.4239999962,18,205067.0000000000,194264.8125000000,207024.2656250000,191978.1250000000,190972.7968750000,166655.2968750000,176821.7812500000,-35986.5312500000,,,
2.4279999961,18,205047.3125000000,194262.5781250000,206997.3125000000,191957.4062500000,190949.0937500000,166640.6250000000,176793.1875000000,-35996.7773437500,,,
2.4319999961,19,205032.1406250000,194256.3593750000,206975.9843750000,191914.4687500000,190924.6562500000,166623.7343750000,176772.2968750000,-36016.3867187500,,,
2.4359999960,19,205063.4687500000,194278.3593750000,207002.6718750000,191957.0312500000,190947.2656250000,166641.8593750000,176796.2031250000,-35997.3671875000,,,
2.4399999960,19,205079.2031250000,194281.0625000000,207021.3437500000,191971.1718750000,190969.7656250000,166659.2343750000,176823.2656250000,-35981.9453125000,,,
2.4439999959,19,205055.2343750000,194250.7812500000,207003.2656250000,191950.2500000000,190956.8437500000,166644.6250000000,176815.2343750000,-35999.0585937500,,,
2.4479999959,19,205051.6875000000,194261.1875000000,206996.1093750000,191960.6875000000,190949.3281250000,166640.7812500000,176805.5625000000,-35991.9492187500,,,
2.4519999959,19,205063.1406250000,194287.5312500000,206997.9843750000,191990.8281250000,190948.0468750000,166647.7031250000,176800.0312500000,-35984.3593750000,,,
2.4559999960,19,205078.8593750000,194298.8750000000,207012.8125000000,192008.7968750000,190960.0625000000,166661.5781250000,176811.8281250000,-35981.6796875000,,,
2.4599999960,19,205074.5156250000,194281.8437500000,207016.9687500000,191991.3437500000,190963.3593750000,166661.7031250000,176819.0156250000,-35988.5703125000,,,
2.4639999960,19,205045.7656250000,194251.2968750000,206992.7968750000,191963.6875000000,190942.1875000000,166644.2187500000,176802.5468750000,-36007.3476562500,,,
2.4679999959,19,205013.6250000000,194234.4218750000,206958.1718750000,191927.0468750000,190909.7343750000,166618.3593750000,176769.0312500000,-36029.7148437500,,,
2.4719999959,19,205024.2031250000,194252.2031250000,206963.1093750000,191937.7187500000,190910.1406250000,166620.7031250000,176769.1562500000,-36028.0273437500,,,
2.4759999961,19,205061.9843750000,194282.9687500000,206998.2968750000,191973.8593750000,190942.0937500000,166648.5156250000,176803.4375000000,-36003.3789062500,,,
2.4799999960,19,205076.7343750000,194280.9062500000,207019.5937500000,191999.4218750000,190964.6250000000,166663.3750000000,176829.7812500000,-35991.2539062500,,,
2.4839999960,19,205054.0000000000,194252.8125000000,207001.8125000000,191983.4062500000,190952.6562500000,166648.5937500000,176819.9375000000,-36006.9726562500,,,
2.4879999959,19,205045.1250000000,194257.2500000000,206988.1562500000,191970.1718750000,190941.7343750000,166641.4375000000,176804.2500000000,-36009.8945312500,,,
2.4919999959,19,205046.5468750000,194274.1406250000,206984.0312500000,191962.0781250000,190934.8125000000,166637.5156250000,176794.5625000000,-36010.9140625000,,,
2.4959999959,19,205073.7656250000,194298.4687500000,207011.4218750000,191993.9218750000,190960.2968750000,166661.9531250000,176821.6250000000,-35990.0468750000,,,
2.4999999960,19,205081.8437500000,194288.0625000000,207027.0781250000,191986.2187500000,190978.8125000000,166673.1093750000,176843.1093750000,-35985.4062500000,,,
2.5039999960,19,205055.0156250000,194255.8437500000,207004.9843750000,191967.2343750000,190961.3437500000,166655.6250000000,176827.5781250000,-36006.7578125000,,,
2.5079999960,19,205023.3437500000,194239.9375000000,206973.0312500000,191941.6875000000,190926.4218750000,166624.6093750000,176789.2187500000,-36033.4453125000,,,
2.5119999959,19,205034.6093750000,194262.4531250000,206976.7968750000,191949.4375000000,190924.4062500000,166627.5937500000,176785.2500000000,-36027.3281250000,,,
2.5159999959,19,205071.2968750000,194292.8593750000,207008.5000000000,191998.8437500000,190956.0312500000,166654.5937500000,176817.9687500000,-35999.0312500000,,,
2.5199999961,19,205072.6562500000,194283.7656250000,207014.7656250000,192000.1718750000,190965.9375000000,166663.4843750000,176833.4843750000,-35997.9335937500,,,
2.5239999960,19,205024.7656250000,194232.6250000000,206976.5781250000,191944.6406250000,190930.6406250000,166628.9843750000,176802.5000000000,-36038.4335937500,,,
2.5279999960,19,205006.8750000000,194226.1093750000,206959.6562500000,191928.9218750000,190912.5781250000,166613.6406250000,176783.4531250000,-36052.0039062500,,,
2.5319999959,19,205019.5312500000,194250.3281250000,206963.1718750000,191931.0468750000,190912.2812500000,166615.3906250000,176778.8125000000,-36046.9101562500,,,
2.5359999959,19,205038.7812500000,194265.7500000000,206979.1718750000,191952.5625000000,190924.2812500000,166626.1718750000,176787.1093750000,-36038.2187500000,,,
2.5399999958,19,205040.0468750000,194253.4843750000,206986.1718750000,191957.9218750000,190934.3125000000,166630.9375000000,176787.4531250000,-36038.3789062500,,,
2.5439999960,19,205017.1406250000,194225.4062500000,206969.0156250000,191935.5000000000,190922.2343750000,166617.2343750000,176766.0468750000,-36052.2460937500,,,
2.5479999960,19,204999.2187500000,194219.8750000000,206947.4687500000,191915.1875000000,190899.6250000000,166599.0781250000,176759.9843750000,-36063.6210937500,,,
2.5519999960,19,204992.7656250000,194228.8906250000,206933.2031250000,191903.2031250000,190879.6718750000,166584.3750000000,176750.2187500000,-36073.1953125000,,,
2.5559999959,19,205027.4218750000,194255.5312500000,206968.1250000000,191944.7031250000,190907.8281250000,166606.9062500000,176777.7968750000,-36052.4062500000,,,
2.5599999959,20,205043.5937500000,194251.6875000000,206991.0000000000,191974.7343750000,190931.9218750000,166621.6093750000,176799.4687500000,-36044.2539062500,,,
2.5639999958,20,205015.9375000000,194220.5468750000,206964.9687500000,191954.9218750000,190913.6562500000,166606.1093750000,176783.0312500000,-36064.6132812500,,,
2.5679999958,20,204998.8437500000,194214.4375000000,206943.5312500000,191924.4531250000,190896.9687500000,166594.7656250000,176765.5312500000,-36075.9843750000,,,
2.5719999957,20,205010.4062500000,194233.8281250000,206949.1875000000,191934.7187500000,190897.9843750000,166597.6875000000,176762.3125000000,-36071.2109375000,,,
2.5759999957,20,205041.4375000000,194256.0312500000,206978.2187500000,191970.7187500000,190922.7500000000,166609.1718750000,176780.7500000000,-36052.8085937500,,,
2.5799999957,20,205054.8281250000,194254.5156250000,206998.9218750000,191984.3906250000,190944.1718750000,166619.3281250000,176802.6875000000,-36041.2226562500,,,
2.5839999958,20,205042.5468750000,194238.5468750000,206995.2500000000,191957.0625000000,190946.7343750000,166619.9687500000,176808.1875000000,-36041.0351562500,,,
2.5879999958,20,205031.4687500000,194241.6562500000,206980.8750000000,191937.9843750000,190934.7656250000,166610.9062500000,176792.0156250000,-36044.0390625000,,,
2.5919999958,20,205034.3125000000,194259.7968750000,206977.0625000000,191948.5000000000,190926.9062500000,166608.0312500000,176778.1406250000,-36044.8164062500,,,
2.5959999957,20,205056.9218750000,194277.0468750000,206996.2968750000,191977.0937500000,190943.4843750000,166622.7031250000,176792.8437500000,-36033.0429687500,,,
2.5999999957,20,205059.1718750000,194266.7968750000,207002.4375000000,191992.3281250000,190952.4062500000,166629.4218750000,176803.1718750000,-36030.7343750000,,,
2.6039999959,20,205023.1250000000,194231.3125000000,206973.3281250000,191953.3906250000,190926.6406250000,166609.0000000000,176782.5625000000,-36056.4570312500,,,
2.6079999958,20,204997.8906250000,194220.2343750000,206948.2500000000,191918.4687500000,190903.7031250000,166594.5781250000,176762.2656250000,-36073.8671875000,,,
2.6119999958,20,205005.9062500000,194236.6406250000,206952.1406250000,191922.2500000000,190905.3906250000,166598.0937500000,176761.4375000000,-36072.4726562500,,,
2.6159999957,20,205025.3750000000,194249.0937500000,206968.8750000000,191926.0000000000,190918.2656250000,166608.5937500000,176772.0781250000,-36066.6250000000,,,
2.6199999957,20,205033.6875000000,194243.8906250000,206979.0781250000,191931.8281250000,190930.2812500000,166614.1875000000,176781.9531250000,-36062.0898437500,,,
2.6239999956,20,205015.9062500000,194219.7812500000,206965.0468750000,191919.5156250000,190921.3750000000,166605.1875000000,176772.6406250000,-36070.6992187500,,,
2.6279999958,20,205018.6718750000,194232.3281250000,206967.5625000000,191930.6093750000,190923.2656250000,166612.0625000000,176774.9843750000,-36058.3085937500,,,
2.6319999958,20,205032.2500000000,194261.1875000000,206973.6875000000,191948.9687500000,190925.4531250000,166621.8281250000,176775.6250000000,-36045.1640625000,,,
2.6359999957,20,205055.5468750000,194288.6875000000,206993.6406250000,191964.8125000000,190942.6250000000,166640.7656250000,176792.5000000000,-36027.1679687500,,,
2.6399999957,20,205055.0156250000,194273.3437500000,207001.0156250000,191974.2812500000,190951.8750000000,166640.5000000000,176801.4062500000,-36031.1093750000,,,
2.6439999957,20,205038.1093750000,194247.3437500000,206991.6250000000,191957.7812500000,190945.7812500000,166630.8593750000,176801.0312500000,-36042.6171875000,,,
2.6479999959,20,205022.1875000000,194240.6406250000,206973.3593750000,191945.5781250000,190925.6718750000,166615.6093750000,176782.3593750000,-36054.4179687500,,,
2.6519999958,20,205029.5312500000,194259.6562500000,206973.7031250000,191943.7031250000,190922.9843750000,166615.4687500000,176775.6562500000,-36052.2187500000,,,
2.6559999958,20,205046.4062500000,194273.5312500000,206986.5468750000,191960.2031250000,190936.0312500000,166626.4687500000,176783.9687500000,-36046.2382812500,,,
2.6599999957,20,205049.4062500000,194262.8281250000,206993.7656250000,191967.1250000000,190947.0156250000,166632.8750000000,176796.0312500000,-36045.6210937500,,,
2.6639999957,20,205018.7187500000,194227.7656250000,206968.6718750000,191936.7343750000,190926.1875000000,166609.8906250000,176779.1562500000,-36069.7343750000,,,
2.6679999956,20,204995.9531250000,194217.1406250000,206946.7500000000,191902.5937500000,190903.2500000000,166591.6718750000,176757.9687500000,-36086.4726562500,,,
2.6719999958,20,204986.9062500000,194218.9375000000,206933.4687500000,191895.5937500000,190883.2656250000,166575.3906250000,176738.7500000000,-36101.3046875000,,,
2.6759999958,20,205015.5000000000,194243.6250000000,206960.7812500000,191937.5625000000,190906.4687500000,166594.0937500000,176761.1718750000,-36082.8789062500,,,
2.6799999957,20,205031.2812500000,194245.4375000000,206981.9687500000,191965.8281250000,190929.3125000000,166611.7656250000,176786.3750000000,-36067.9648437500,,,
2.6839999957,20,205000.9375000000,194209.0781250000,206959.8437500000,191927.0781250000,190910.2968750000,166594.8437500000,176774.3125000000,-36089.7187500000,,,
2.6879999957,21,204999.0312500000,194216.0937500000,206960.1562500000,191921.5000000000,190908.9375000000,166596.3437500000,176772.2500000000,-36085.9101562500,,,
2.6919999956,21,205020.0156250000,194249.6250000000,206972.1718750000,191949.2500000000,190916.7343750000,166608.8437500000,176772.1093750000,-36069.7890625000,,,
2.6959999956,21,205038.9218750000,194263.6562500000,206985.5625000000,191979.5156250000,190927.1250000000,166619.2968750000,176778.7031250000,-36062.1445312500,,,
2.6999999955,21,205048.8750000000,194256.9687500000,207005.6250000000,191970.4218750000,190947.3906250000,166628.0468750000,176803.6562500000,-36056.6992187500,,,
2.7039999955,21,205025.5312500000,194234.5000000000,206984.5468750000,191926.6250000000,190933.7656250000,166624.0468750000,176796.5781250000,-36071.0742187500,,,
2.7079999954,21,204991.6875000000,194209.2031250000,206947.6406250000,191897.8437500000,190900.5937500000,166599.4218750000,176760.0156250000,-36102.1640625000,,,
2.7119999956,21,205003.7812500000,194227.3906250000,206955.1250000000,191922.3593750000,190904.6406250000,166600.8437500000,176758.2187500000,-36099.3476562500,,,
2.7159999956,21,205030.2031250000,194251.4531250000,206977.0000000000,191957.0937500000,190923.6406250000,166617.6093750000,176776.7812500000,-36083.4687500000,,,
2.7199999955,21,205023.5312500000,194235.2968750000,206974.0625000000,191949.3125000000,190921.7031250000,166612.1875000000,176777.1250000000,-36089.6914062500,,,
2.7239999955,21,205002.6875000000,194212.0781250000,206959.0312500000,191925.3281250000,190910.3593750000,166603.0781250000,176771.0937500000,-36097.6562500000,,,
2.7279999955,21,204989.2812500000,194213.2031250000,206943.0468750000,191914.6250000000,190896.0000000000,166594.7656250000,176757.7656250000,-36100.2031250000,,,
2.7319999957,21,205006.7812500000,194244.4843750000,206954.1250000000,191933.2656250000,190904.4531250000,166607.4687500000,176764.2812500000,-36084.0039062500,,,
2.7359999956,21,205019.7968750000,194253.8593750000,206965.1250000000,191943.0000000000,190912.4531250000,166615.1718750000,176773.1875000000,-36081.1093750000,,,
2.7399999956,21,205018.6718750000,194237.8750000000,206968.3906250000,191940.5937500000,190917.3593750000,166616.1093750000,176779.4531250000,-36087.3554687500,,,
2.7439999955,21,205003.3750000000,194217.3125000000,206961.0000000000,191918.8750000000,190915.8750000000,166610.9687500000,176778.0156250000,-36095.7773437500,,,
2.7479999955,21,205004.3750000000,194228.2187500000,206962.0312500000,191915.9218750000,190918.7187500000,166614.5000000000,176779.8281250000,-36089.8789062500,,,
2.7519999954,21,205012.7500000000,194245.6875000000,206961.5000000000,191932.9531250000,190916.1562500000,166613.4218750000,176771.5156250000,-36086.5000000000,,,
2.7559999956,21,205037.0937500000,194265.2968750000,206975.7656250000,191960.7968750000,190929.2343750000,166628.9843750000,176780.9062500000,-36070.8632812500,,,
2.7599999956,21,205045.6250000000,194259.8437500000,206987.2187500000,191968.7500000000,190940.1250000000,166635.9531250000,176793.7500000000,-36066.3007812500,,,
2.7639999955,21,205031.9531250000,194237.5781250000,206982.9843750000,191967.3593750000,190937.8437500000,166628.2656250000,176793.7031250000,-36072.7382812500,,,
2.7679999955,21,205025.1406250000,194239.6718750000,206977.3593750000,191971.3281250000,190932.8906250000,166621.2812500000,176784.2656250000,-36072.3906250000,,,
2.7719999955,21,205032.2187500000,194257.2656250000,206978.2968750000,191950.8125000000,190932.7187500000,166619.7343750000,176783.0468750000,-36069.8671875000,,,
2.7759999956,21,205056.0937500000,194279.0000000000,206999.5937500000,191951.6718750000,190953.8125000000,166643.1718750000,176809.3593750000,-36052.2734375000,,,
2.7799999956,21,205056.8437500000,194266.8125000000,207005.0312500000,191954.7031250000,190959.9218750000,166648.0625000000,176817.9531250000,-36054.1523437500,,,
2.7839999956,21,205042.0000000000,194245.7656250000,206995.9218750000,191958.7500000000,190953.3750000000,166640.6875000000,176814.0312500000,-36062.8945312500,,,
2.7879999955,21,205033.3906250000,194250.2187500000,206985.3437500000,191940.0312500000,190943.5156250000,166637.1875000000,176801.9375000000,-36065.7929687500,,,
2.7919999955,21,205027.1250000000,194255.5625000000,206973.2968750000,191925.5156250000,190927.9218750000,166620.3750000000,176779.3281250000,-36078.9609375000,,,
2.7959999954,21,205045.5937500000,194268.9375000000,206991.2968750000,191962.8281250000,190941.5000000000,166625.3593750000,176789.4843750000,-36074.0273437500,,,
2.7999999956,21,205040.9375000000,194255.0468750000,206991.3750000000,191961.2656250000,190940.3750000000,166622.2812500000,176791.2812500000,-36081.6718750000,,,
2.8039999956,21,205021.0625000000,194225.4843750000,206981.0000000000,191911.1406250000,190933.7656250000,166617.6093750000,176792.7656250000,-36092.2656250000,,,
2.8079999955,21,205010.7656250000,194224.1718750000,206966.2500000000,191890.5937500000,190921.6562500000,166614.2812500000,176781.6875000000,-36095.6445312500,,,
2.8119999955,21,205006.3906250000,194233.0781250000,206952.9531250000,191892.7187500000,190904.5312500000,166603.1875000000,176761.2500000000,-36105.2460937500,,,
2.8159999955,22,205036.7968750000,194262.1250000000,206981.8281250000,191944.0781250000,190927.6562500000,166624.3750000000,176781.5468750000,-36084.7812500000,,,
2.8199999954,22,205049.3593750000,194264.1875000000,207000.6093750000,191971.7031250000,190947.8750000000,166640.0156250000,176802.0156250000,-36071.7460937500,,,
2.8239999954,22,205028.7031250000,194243.1562500000,206985.0468750000,191940.8906250000,190938.8125000000,166638.0000000000,176797.0312500000,-36077.6210937500,,,
2.8279999953,22,205007.7812500000,194235.4375000000,206960.8593750000,191925.1718750000,190916.3593750000,166624.1250000000,176774.9843750000,-36088.3242187500,,,
2.8319999953,22,205010.7812500000,194250.7343750000,206955.8125000000,191933.5625000000,190908.2187500000,166623.2656250000,176764.9531250000,-36088.4843750000,,,
2.8359999952,22,205038.4687500000,194278.4062500000,206977.9375000000,191972.0312500000,190924.8906250000,166644.7812500000,176778.8125000000,-36072.0156250000,,,
2.8399999954,22,205038.4687500000,194264.0000000000,206984.7343750000,191971.9687500000,190931.2187500000,166642.6875000000,176790.8281250000,-36077.0312500000,,,
2.8439999954,22,205013.0156250000,194232.8906250000,206970.2500000000,191950.6250000000,190920.7656250000,166629.0937500000,176787.7968750000,-36094.6523437500,,,
2.8479999953,22,204992.7656250000,194222.7187500000,206952.5156250000,191940.3593750000,190905.6093750000,166615.3281250000,176772.2656250000,-36108.4648437500,,,
2.8519999953,22,205000.7343750000,194240.8593750000,206956.8906250000,191934.8750000000,190909.2812500000,166618.7968750000,176771.9531250000,-36106.4804687500,,,
2.8559999953,22,205024.8437500000,194253.4687500000,206979.3593750000,191953.4218750000,190928.2812500000,166626.5468750000,176786.8906250000,-36099.5898437500,,,
2.8599999954,22,205038.2500000000,194247.9843750000,206994.7656250000,191958.1562500000,190946.5937500000,166636.0156250000,176806.3906250000,-36092.0781250000,,,
2.8639999954,22,205030.4531250000,194232.2187500000,206990.5000000000,191944.0468750000,190945.5156250000,166638.2656250000,176809.2812500000,-36091.3281250000,,,
2.8679999954,22,205011.2968750000,194230.8281250000,206966.6562500000,191920.7656250000,190922.9062500000,166624.9375000000,176784.3906250000,-36099.9648437500,,,
2.8719999953,22,205005.7968750000,194244.6875000000,206952.1093750000,191912.5156250000,190904.4843750000,166612.6718750000,176759.3125000000,-36107.3125000000,,,
2.8759999953,22,205023.7656250000,194262.3906250000,206968.8281250000,191942.2812500000,190916.8281250000,166622.0156250000,176769.3437500000,-36097.3632812500,,,
2.8799999952,22,205032.7812500000,194259.0468750000,206983.0468750000,191976.3437500000,190931.5000000000,166632.5312500000,176787.5625000000,-36089.4492187500,,,
2.8839999954,22,205015.4062500000,194234.0156250000,206972.3906250000,191974.7968750000,190924.6875000000,166623.7031250000,176789.9531250000,-36100.2304687500,,,
2.8879999954,22,205001.0156250000,194233.3437500000,206959.1718750000,191960.9843750000,190911.2343750000,166613.6406250000,176778.8125000000,-36109.1914062500,,,
2.8919999953,22,204997.2187500000,194242.5937500000,206951.2812500000,191932.9687500000,190898.6093750000,166605.4062500000,176765.5312500000,-36117.2382812500,,,
2.8959999953,22,205011.6718750000,194253.2812500000,206964.2187500000,191933.3750000000,190907.7500000000,166616.1406250000,176774.6875000000,-36110.9609375000,,,
2.8999999953,22,205013.1718750000,194240.8906250000,206967.7031250000,191942.4218750000,190914.0000000000,166618.2031250000,176782.5156250000,-36109.9414062500,,,
2.9039999954,22,204997.3281250000,194219.1093750000,206954.4531250000,191922.7343750000,190907.5468750000,166615.9843750000,176778.5468750000,-36114.0703125000,,,
2.9079999954,22,204983.2343750000,194218.8906250000,206936.9531250000,191907.7656250000,190892.3281250000,166608.0937500000,176760.6562500000,-36118.7382812500,,,
2.9119999954,22,204985.1093750000,194236.8593750000,206933.5468750000,191912.8593750000,190883.4062500000,166602.3750000000,176742.6093750000,-36119.5429687500,,,
2.9159999953,22,205012.8281250000,194262.1250000000,206958.4218750000,191948.1250000000,190902.9062500000,166622.1250000000,176758.6406250000,-36102.6992187500,,,
2.9199999953,22,205026.3906250000,194260.3281250000,206974.9062500000,191959.6875000000,190921.6562500000,166636.8437500000,176787.8593750000,-36092.9375000000,,,
2.9239999952,22,205014.9218750000,194239.3281250000,206973.2812500000,191946.6093750000,190924.5781250000,166632.1250000000,176797.2656250000,-36097.6015625000,,,
2.9279999954,22,205003.9531250000,194241.3593750000,206964.6718750000,191933.8906250000,190916.9062500000,166626.5937500000,176790.2968750000,-36101.3867187500,,,
2.9319999954,22,204997.4218750000,194248.5781250000,206953.4531250000,191927.6875000000,190902.8125000000,166611.8437500000,176772.1406250000,-36112.6757812500,,,
2.9359999953,22,205010.6562500000,194259.1562500000,206965.6875000000,191940.3281250000,190911.5625000000,166616.1406250000,176776.4062500000,-36111.0937500000,,,
2.9399999953,22,205021.6718750000,194252.0625000000,206979.0781250000,191968.7343750000,190926.1875000000,166622.8906250000,176790.5312500000,-36107.0195312500,,,
2.9439999952,23,205007.1875000000,194225.7500000000,206970.4375000000,191941.4531250000,190921.3281250000,166610.9687500000,176785.1250000000,-36119.4101562500,,,
