Time:250Hz,Epoch,Channel 1,Channel 2,Channel 3,Channel 4,Channel 5,Channel 6,Channel 7,Channel 8,Event Id,Event Date,Event Duration
0.0000000000,0,149466.9531250000,197379.7343750000,153708.5468750000,150246.6093750000,119863.2187500000,151538.9062500000,132002.7031250000,145017.3281250000,,,
0.0040000000,0,149093.8593750000,197274.8125000000,153296.9843750000,149830.0468750000,119499.6718750000,151190.8125000000,131674.0781250000,144800.1718750000,,,
0.0079999999,0,148628.8437500000,199719.1093750000,152581.0156250000,149294.1875000000,119044.7109375000,150759.3125000000,131255.0625000000,144482.2500000000,,,
0.0119999999,0,148727.4687500000,201394.6562500000,152642.7187500000,149397.4062500000,119140.0625000000,150848.8281250000,131341.2812500000,144518.9218750000,,,
0.0159999998,0,149250.1718750000,199950.3437500000,153299.0468750000,149972.1406250000,119654.9687500000,151342.6718750000,131812.5625000000,144855.6093750000,,,
0.0199999998,0,149483.1562500000,197406.7968750000,153729.5781250000,150253.9687500000,119883.3359375000,151563.8750000000,132027.2187500000,145035.5312500000,,,
0.0240000000,0,149103.8281250000,197274.9218750000,153295.3281250000,149836.6875000000,119512.0390625000,151212.3437500000,131684.2500000000,144810.4531250000,,,
0.0279999999,0,148631.7968750000,199691.9843750000,152560.6562500000,149300.2968750000,119048.2265625000,150771.4375000000,131253.3593750000,144488.3906250000,,,
0.0319999999,0,148704.3437500000,201373.1250000000,152601.1406250000,149375.0312500000,119117.8046875000,150835.3593750000,131323.2031250000,144504.9218750000,,,
0.0359999998,0,149223.8125000000,199956.8125000000,153251.1718750000,149944.9218750000,119628.2578125000,151330.8750000000,131792.5312500000,144839.1718750000,,,
0.0399999998,0,149480.9531250000,197416.3750000000,153694.7031250000,150243.0000000000,119879.0156250000,151579.4062500000,132030.9531250000,145041.6718750000,,,
0.0440000000,0,149105.9218750000,197266.6250000000,153268.8750000000,149829.6875000000,119507.8515625000,151229.0312500000,131691.3593750000,144820.7656250000,,,
0.0480000000,0,148650.8125000000,199676.8125000000,152544.2968750000,149294.9687500000,119061.9609375000,150799.9531250000,131275.2656250000,144517.0156250000,,,
0.0519999999,0,148729.6562500000,201374.8906250000,152597.8437500000,149394.3437500000,119143.7968750000,150858.2343750000,131344.2812500000,144536.4843750000,,,
0.0559999999,0,149227.1562500000,199977.4531250000,153252.1406250000,149948.7500000000,119633.4296875000,151330.7343750000,131782.6093750000,144849.9218750000,,,
0.0599999998,0,149471.7812500000,197429.0312500000,153705.1875000000,150233.3125000000,119872.6328125000,151562.9375000000,132014.5312500000,145034.2031250000,,,
0.0639999998,0,149103.1093750000,197254.4843750000,153299.9375000000,149816.9843750000,119514.7734375000,151225.7500000000,131699.4375000000,144820.0781250000,,,
0.0680000000,0,148627.3593750000,199644.7343750000,152564.0937500000,149290.5937500000,119053.7500000000,150783.1875000000,131276.6093750000,144497.8125000000,,,
0.0719999999,0,148691.9843750000,201358.7968750000,152584.7031250000,149372.1406250000,119115.9296875000,150838.3593750000,131325.8281250000,144508.1406250000,,,
0.0759999999,0,149211.5156250000,199988.0468750000,153236.6093750000,149933.1250000000,119631.3359375000,151336.5625000000,131784.0000000000,144844.1093750000,,,
0.0799999998,0,149486.0781250000,197445.2656250000,153704.9687500000,150245.4843750000,119900.8984375000,151598.6875000000,132030.8437500000,145056.7031250000,,,
0.0839999998,0,149118.4843750000,197248.6250000000,153297.3593750000,149835.0000000000,119533.3281250000,151247.2656250000,131717.5937500000,144834.5625000000,,,
0.0880000000,0,148627.7343750000,199621.5312500000,152549.1250000000,149293.0625000000,119049.9687500000,150776.0000000000,131275.5625000000,144490.7500000000,,,
0.0919999999,0,148691.6562500000,201343.1875000000,152555.7812500000,149347.2968750000,119108.1718750000,150840.6718750000,131328.0000000000,144505.2031250000,,,
0.0959999999,0,149194.8593750000,199995.6093750000,153195.0312500000,149902.0312500000,119604.4375000000,151319.0156250000,131781.0468750000,144822.6718750000,,,
0.0999999999,0,149471.2968750000,197450.3281250000,153677.5937500000,150221.3437500000,119875.9062500000,151579.8593750000,132032.1250000000,145035.2656250000,,,
0.1039999998,0,149131.0781250000,197236.7812500000,153315.0625000000,149851.6250000000,119544.9453125000,151259.2343750000,131726.1406250000,144841.6718750000,,,
0.1079999998,0,148645.3593750000,199603.8750000000,152583.4062500000,149302.5625000000,119072.1015625000,150794.7968750000,131271.2968750000,144506.4375000000,,,
0.1120000000,0,148694.3437500000,201342.8906250000,152583.1875000000,149360.7343750000,119117.8593750000,150830.2968750000,131311.6406250000,144501.4062500000,,,
0.1159999999,0,149197.1406250000,200021.6875000000,153210.8281250000,149918.9218750000,119608.9687500000,151306.2500000000,131780.7343750000,144818.3125000000,,,
0.1199999999,0,149468.4843750000,197475.8437500000,153668.8437500000,150217.7343750000,119872.7421875000,151569.7500000000,132035.4375000000,145030.0937500000,,,
0.1239999998,0,149119.7031250000,197231.8750000000,153288.5625000000,149839.1406250000,119532.7656250000,151244.8281250000,131720.2968750000,144830.5937500000,,,
0.1279999998,1,148636.6718750000,199573.4375000000,152554.6250000000,149285.6093750000,119064.1562500000,150790.1406250000,131279.5625000000,144504.0312500000,,,
0.1319999998,1,148733.2812500000,201332.9687500000,152600.7968750000,149350.7812500000,119160.1796875000,150878.8125000000,131361.2031250000,144554.7031250000,,,
0.1359999997,1,149199.3125000000,200039.3437500000,153227.0312500000,149903.2968750000,119620.0234375000,151328.5937500000,131781.5937500000,144845.8281250000,,,
0.1399999997,1,149448.5000000000,197496.3281250000,153674.3437500000,150223.0625000000,119860.1093750000,151571.1093750000,132011.7187500000,145032.5312500000,,,
0.1439999996,1,149106.9687500000,197232.6718750000,153304.7812500000,149844.5312500000,119524.1562500000,151248.8281250000,131710.6718750000,144832.4062500000,,,
0.1479999996,1,148616.7656250000,199545.8593750000,152570.4843750000,149299.4218750000,119046.2968750000,150781.1562500000,131267.8437500000,144485.7187500000,,,
0.1519999998,1,148672.0000000000,201297.1562500000,152579.0625000000,149367.7343750000,119100.0781250000,150822.8125000000,131306.2968750000,144485.9062500000,,,
0.1559999997,1,149187.5156250000,200028.7968750000,153223.2968750000,149912.9531250000,119608.9687500000,151309.0312500000,131767.9687500000,144814.5156250000,,,
0.1599999997,1,149468.0781250000,197502.5312500000,153713.0781250000,150229.7656250000,119881.0234375000,151574.5781250000,132032.9062500000,145030.1718750000,,,
0.1639999996,1,149120.6250000000,197219.2812500000,153335.7656250000,149843.5781250000,119537.5703125000,151248.2343750000,131726.3593750000,144826.3593750000,,,
0.1679999996,1,148658.7500000000,199522.4687500000,152597.4062500000,149302.3906250000,119083.0156250000,150802.2031250000,131290.3906250000,144513.9062500000,,,
0.1719999998,1,148713.9218750000,201287.8593750000,152602.2656250000,149364.8906250000,119136.3125000000,150842.0312500000,131335.7968750000,144521.2968750000,,,
0.1759999997,1,149178.6718750000,200042.5312500000,153213.3750000000,149891.6250000000,119589.9296875000,151291.1250000000,131757.9531250000,144809.6093750000,,,
0.1799999997,1,149450.1250000000,197532.0625000000,153675.3437500000,150217.0312500000,119859.2500000000,151556.3125000000,132004.5625000000,145016.5156250000,,,
0.1839999997,1,149127.6718750000,197237.3593750000,153325.2812500000,149844.4218750000,119544.8671875000,151254.9843750000,131708.9062500000,144832.3593750000,,,
0.1879999996,1,148635.4375000000,199502.4062500000,152573.8125000000,149302.4531250000,119053.4062500000,150791.9062500000,131270.4375000000,144490.6718750000,,,
0.1919999996,1,148661.7031250000,201253.3281250000,152538.2656250000,149348.5781250000,119071.0234375000,150811.2656250000,131283.5000000000,144471.5781250000,,,
0.1959999998,1,149168.4218750000,200051.9687500000,153178.3750000000,149895.0312500000,119574.1015625000,151289.8593750000,131740.5781250000,144795.0000000000,,,
0.1999999997,1,149460.9375000000,197573.3125000000,153683.4375000000,150219.1718750000,119859.3828125000,151569.1562500000,132020.5781250000,145018.9843750000,,,
0.2039999997,1,149108.3437500000,197238.5156250000,153314.3593750000,149848.0937500000,119510.1875000000,151235.8437500000,131700.1250000000,144806.8281250000,,,
0.2079999996,1,148613.7968750000,199456.2187500000,152547.8750000000,149296.5781250000,119029.1875000000,150773.2656250000,131252.2812500000,144469.4531250000,,,
0.2119999996,1,148644.6406250000,201207.3906250000,152525.3906250000,149327.3125000000,119064.5078125000,150797.9375000000,131274.2500000000,144462.2968750000,,,
0.2159999998,1,149135.2343750000,200040.8125000000,153166.5937500000,149859.6562500000,119550.2265625000,151265.2343750000,131718.4687500000,144775.4218750000,,,
0.2199999997,1,149406.8906250000,197579.4062500000,153654.8125000000,150176.7500000000,119818.0234375000,151528.8906250000,131962.6093750000,144977.9843750000,,,
0.2239999997,1,149092.7812500000,197229.8906250000,153313.5000000000,149823.6093750000,119512.1953125000,151234.1718750000,131691.3281250000,144800.2500000000,,,
0.2279999997,1,148623.0937500000,199398.6875000000,152567.1562500000,149284.0468750000,119050.0234375000,150790.1406250000,131262.7343750000,144483.8593750000,,,
0.2319999996,1,148667.3593750000,201136.3281250000,152539.0781250000,149321.9687500000,119090.1484375000,150825.7500000000,131286.8593750000,144487.6093750000,,,
0.2359999996,1,149178.4843750000,200033.9218750000,153188.8906250000,149889.2656250000,119592.4765625000,151309.2812500000,131743.7187500000,144819.4062500000,,,
0.2399999998,1,149449.7343750000,197632.7812500000,153692.9531250000,150217.1562500000,119859.8906250000,151559.3906250000,131986.5312500000,145017.2187500000,,,
0.2439999997,1,149125.4218750000,197265.6875000000,153346.7343750000,149861.5000000000,119538.9375000000,151249.7031250000,131684.5937500000,144824.1562500000,,,
0.2479999997,1,148642.4843750000,199366.1562500000,152581.2656250000,149305.5625000000,119063.7578125000,150787.6718750000,131263.1718750000,144489.1718750000,,,
0.2519999996,1,148677.7031250000,201063.8593750000,152558.7812500000,149346.5937500000,119094.3359375000,150814.7656250000,131312.8750000000,144484.0156250000,,,
0.2559999996,2,149159.6250000000,199996.1562500000,153211.2343750000,149874.8906250000,119567.9296875000,151280.6250000000,131750.8750000000,144793.2500000000,,,
0.2599999995,2,149441.2343750000,197662.7343750000,153708.7500000000,150204.5000000000,119840.5781250000,151550.9687500000,132003.2968750000,145004.1093750000,,,
0.2639999995,2,149130.8750000000,197301.4687500000,153350.3906250000,149870.1093750000,119533.4375000000,151261.4531250000,131720.2500000000,144822.8593750000,,,
0.2679999995,2,148668.6406250000,199346.0468750000,152597.6250000000,149335.7656250000,119081.7265625000,150823.6093750000,131300.6093750000,144509.6562500000,,,
0.2719999994,2,148684.2343750000,201019.1406250000,152564.1562500000,149350.0781250000,119095.4062500000,150828.6562500000,131307.4843750000,144487.1875000000,,,
0.2759999994,2,149157.3750000000,199980.9218750000,153211.6562500000,149880.9531250000,119563.3203125000,151269.2343750000,131738.5937500000,144782.8437500000,,,
0.2799999996,2,149445.5468750000,197695.2187500000,153731.5781250000,150217.7031250000,119845.9453125000,151544.4062500000,132006.7031250000,145003.5312500000,,,
0.2839999995,2,149140.0625000000,197330.8906250000,153379.5468750000,149883.5000000000,119548.3828125000,151262.3593750000,131732.7500000000,144832.3906250000,,,
0.2879999995,2,148664.2500000000,199314.2500000000,152585.5468750000,149332.1718750000,119087.3046875000,150815.9687500000,131297.0781250000,144508.3437500000,,,
0.2919999994,2,148684.5156250000,200960.9218750000,152534.3750000000,149354.8906250000,119106.0546875000,150829.5156250000,131310.4843750000,144495.7968750000,,,
0.2959999994,2,149158.2812500000,199986.0468750000,153187.8437500000,149896.5312500000,119573.5390625000,151272.6875000000,131741.3281250000,144800.1406250000,,,
0.2999999996,2,149450.4531250000,197764.9062500000,153723.7812500000,150210.5312500000,119864.6640625000,151555.5000000000,132011.1875000000,145026.1562500000,,,
0.3039999995,2,149135.7500000000,197395.6250000000,153381.6562500000,149864.3125000000,119557.0390625000,151268.6718750000,131711.5781250000,144843.3906250000,,,
0.3079999995,2,148674.1406250000,199328.9531250000,152597.4062500000,149331.5781250000,119105.8984375000,150833.4843750000,131304.8437500000,144527.8437500000,,,
0.3119999995,2,148693.5312500000,200952.9531250000,152546.0781250000,149354.6718750000,119117.8828125000,150840.6406250000,131325.5781250000,144509.6093750000,,,
0.3159999994,2,149149.3281250000,200000.7343750000,153200.2656250000,149869.4218750000,119560.2890625000,151266.9062500000,131725.9375000000,144792.0000000000,,,
0.3199999994,2,149453.8125000000,197812.2968750000,153748.5937500000,150222.3125000000,119858.8984375000,151556.0468750000,132003.0781250000,145019.6250000000,,,
0.3239999996,2,149166.7500000000,197435.2812500000,153425.8125000000,149893.7500000000,119581.9062500000,151287.5000000000,131745.2968750000,144853.0156250000,,,
0.3279999995,2,148678.8437500000,199324.2656250000,152612.7500000000,149333.0781250000,119097.7109375000,150830.0468750000,131300.7812500000,144510.6093750000,,,
0.3319999995,2,148692.0000000000,200928.8593750000,152540.8750000000,149348.9531250000,119107.2656250000,150840.8593750000,131305.2031250000,144493.4375000000,,,
0.3359999994,2,149157.6406250000,200006.4218750000,153201.9531250000,149867.5937500000,119567.7421875000,151276.8750000000,131735.9062500000,144794.5937500000,,,
0.3399999994,2,149445.8437500000,197842.6875000000,153743.5156250000,150213.7500000000,119854.7109375000,151546.9531250000,132009.7031250000,145010.8906250000,,,
0.3439999996,2,149156.0625000000,197458.2812500000,153413.4687500000,149885.4218750000,119570.1562500000,151275.1093750000,131748.0312500000,144844.5156250000,,,
0.3479999995,2,148692.1718750000,199329.8906250000,152612.7187500000,149335.4687500000,119113.3281250000,150838.8125000000,131316.8125000000,144528.3281250000,,,
0.3519999995,2,148713.5156250000,200945.1718750000,152547.1250000000,149350.6250000000,119132.5000000000,150853.7031250000,131327.3750000000,144519.4218750000,,,
0.3559999994,2,149182.7500000000,200059.2187500000,153213.4843750000,149875.0937500000,119592.1015625000,151300.4531250000,131750.0937500000,144824.6093750000,,,
0.3599999994,2,149460.7500000000,197909.0156250000,153756.5781250000,150211.7500000000,119863.5390625000,151564.8437500000,132003.0781250000,145032.0000000000,,,
0.3639999994,2,149163.8125000000,197501.3437500000,153436.1562500000,149892.0468750000,119572.3593750000,151287.5781250000,131740.7031250000,144854.7500000000,,,
0.3679999996,2,148689.1093750000,199346.2812500000,152631.9062500000,149339.3593750000,119105.7578125000,150843.4531250000,131311.2031250000,144526.3125000000,,,
0.3719999995,2,148695.2500000000,200970.3906250000,152542.9062500000,149339.0156250000,119110.7734375000,150845.1562500000,131302.8125000000,144506.5468750000,,,
0.3759999995,2,149158.5000000000,200101.9062500000,153191.2812500000,149863.8437500000,119570.8828125000,151277.7968750000,131735.2187500000,144802.5937500000,,,
0.3799999994,2,149462.2343750000,197951.1562500000,153753.7343750000,150214.4218750000,119870.7265625000,151574.0937500000,132024.9375000000,145037.4687500000,,,
0.3839999994,3,149174.9843750000,197534.5625000000,153443.3750000000,149895.5625000000,119593.3828125000,151307.6093750000,131768.8750000000,144875.7343750000,,,
0.3879999993,3,148697.6093750000,199366.1875000000,152627.0000000000,149352.2656250000,119130.0859375000,150855.9843750000,131337.9843750000,144546.9218750000,,,
0.3919999993,3,148701.2031250000,200990.9375000000,152532.6562500000,149349.6562500000,119132.4453125000,150860.2500000000,131331.9375000000,144527.8437500000,,,
0.3959999993,3,149158.5000000000,200126.8906250000,153187.2812500000,149862.2343750000,119584.5078125000,151293.0000000000,131744.7343750000,144819.4531250000,,,
0.3999999992,3,149464.2343750000,197966.7343750000,153751.0625000000,150219.6093750000,119876.5468750000,151584.1562500000,132023.9218750000,145050.4531250000,,,
0.4039999992,3,149172.9062500000,197524.2031250000,153440.0468750000,149916.1406250000,119586.5234375000,151312.4218750000,131766.4843750000,144878.4375000000,,,
0.4079999994,3,148674.4062500000,199364.6250000000,152612.4375000000,149346.4375000000,119100.4531250000,150837.7500000000,131298.3593750000,144523.0937500000,,,
0.4119999993,3,148668.7968750000,201008.7968750000,152492.3281250000,149338.7968750000,119090.2343750000,150822.6718750000,131296.2187500000,144487.7500000000,,,
0.4159999993,3,149132.7656250000,200151.7812500000,153126.3437500000,149860.9375000000,119540.9531250000,151256.2500000000,131719.1718750000,144782.3593750000,,,
0.4199999992,3,149449.0937500000,197970.3281250000,153685.6562500000,150220.0312500000,119852.3515625000,151550.8125000000,132013.7343750000,145016.7812500000,,,
0.4239999992,3,149184.7031250000,197506.7343750000,153395.5312500000,149913.0000000000,119595.5078125000,151299.5156250000,131773.8125000000,144868.8593750000,,,
0.4279999994,3,148705.4687500000,199351.2968750000,152588.4218750000,149361.3750000000,119127.9453125000,150850.2187500000,131333.7968750000,144538.2343750000,,,
0.4319999993,3,148694.7343750000,201032.0468750000,152498.9218750000,149348.9375000000,119120.0859375000,150833.7968750000,131321.3437500000,144501.7187500000,,,
0.4359999993,3,149130.8906250000,200188.3906250000,153141.8906250000,149828.2500000000,119548.2421875000,151245.0625000000,131716.1406250000,144772.3281250000,,,
0.4399999992,3,149437.5468750000,197972.0781250000,153708.7812500000,150193.7812500000,119842.0000000000,151542.3125000000,131989.3281250000,145002.9531250000,,,
0.4439999992,3,149183.9218750000,197478.4218750000,153436.6718750000,149906.1562500000,119590.4921875000,151312.6562500000,131761.0468750000,144871.0156250000,,,
0.4479999992,3,148703.9218750000,199350.1718750000,152634.0156250000,149350.5156250000,119120.8359375000,150864.5625000000,131316.6875000000,144546.6718750000,,,
0.4519999993,3,148669.9375000000,201068.2656250000,152500.6562500000,149324.9531250000,119086.9609375000,150825.2187500000,131274.9375000000,144489.2812500000,,,
0.4559999993,3,149124.7812500000,200251.1718750000,153120.2812500000,149844.3437500000,119534.9140625000,151257.2500000000,131691.1718750000,144779.0937500000,,,
0.4599999993,3,149442.3593750000,198014.2968750000,153680.0781250000,150213.6562500000,119844.7343750000,151558.5937500000,131991.6250000000,145017.9218750000,,,
0.4639999992,3,149171.9062500000,197483.7812500000,153411.2187500000,149916.3750000000,119584.0546875000,151306.4843750000,131762.3593750000,144865.5156250000,,,
0.4679999992,3,148685.8437500000,199347.7343750000,152623.5937500000,149353.3906250000,119113.1406250000,150847.4843750000,131321.5312500000,144533.1093750000,,,
0.4719999994,3,148668.4843750000,201099.5625000000,152505.2031250000,149327.2656250000,119098.5468750000,150819.6406250000,131301.0625000000,144492.6093750000,,,
0.4759999993,3,149142.9062500000,200280.2500000000,153125.5156250000,149855.1406250000,119563.8828125000,151266.2343750000,131728.7500000000,144799.4531250000,,,
0.4799999993,3,149449.2500000000,198003.2500000000,153675.6093750000,150221.1875000000,119862.7578125000,151560.3281250000,132011.0468750000,145023.6562500000,,,
0.4839999992,3,149168.2812500000,197437.6718750000,153390.5156250000,149916.1093750000,119586.1171875000,151296.8593750000,131754.6250000000,144860.7968750000,,,
0.4879999992,3,148689.1875000000,199321.4687500000,152600.2812500000,149357.3281250000,119118.2343750000,150847.8593750000,131317.5937500000,144535.9218750000,,,
0.4919999992,3,148649.1718750000,201108.0156250000,152467.6406250000,149321.7031250000,119072.9062500000,150804.7031250000,131272.6718750000,144471.8437500000,,,
0.4959999993,3,149100.6093750000,200297.6406250000,153082.3281250000,149828.7031250000,119513.9140625000,151229.1562500000,131674.7031250000,144750.6406250000,,,
0.4999999993,3,149439.2500000000,197994.0156250000,153660.6093750000,150220.1093750000,119845.5703125000,151550.0937500000,131984.5000000000,144999.8125000000,,,
0.5039999993,3,149180.8906250000,197398.8437500000,153397.7812500000,149934.5937500000,119593.1953125000,151305.8750000000,131751.6875000000,144852.9375000000,,,
0.5079999992,3,148715.0000000000,199287.5937500000,152613.5781250000,149387.8437500000,119136.6093750000,150862.0468750000,131340.7187500000,144542.8125000000,,,
0.5119999992,4,148690.1875000000,201112.7343750000,152493.6562500000,149342.3281250000,119106.8046875000,150827.6093750000,131311.6718750000,144501.5625000000,,,
0.5159999991,4,149138.0312500000,200335.1093750000,153111.3750000000,149849.3281250000,119542.0781250000,151237.2656250000,131704.4531250000,144779.5781250000,,,
0.5199999991,4,149468.7500000000,198016.0156250000,153676.0937500000,150236.6093750000,119864.0234375000,151551.6718750000,132001.9062500000,145023.4687500000,,,
0.5239999990,4,149218.2500000000,197400.9062500000,153425.7500000000,149958.8593750000,119621.3359375000,151314.7968750000,131778.4687500000,144888.3437500000,,,
0.5279999990,4,148722.9531250000,199286.5781250000,152627.6875000000,149385.2500000000,119138.1640625000,150862.8750000000,131325.2968750000,144561.4531250000,,,
0.5319999990,4,148675.8125000000,201125.5000000000,152488.1875000000,149338.3906250000,119094.0937500000,150782.4375000000,131277.9218750000,144492.6093750000,,,
0.5359999991,4,149114.5000000000,200349.0000000000,153084.7656250000,149834.7343750000,119529.2812500000,151207.2500000000,131680.4218750000,144751.1093750000,,,
0.5399999991,4,149454.4843750000,198003.8593750000,153656.3125000000,150218.4843750000,119864.3203125000,151540.5156250000,131998.3906250000,145010.5468750000,,,
0.5439999991,4,149214.9218750000,197358.5468750000,153428.7656250000,149947.4687500000,119630.3750000000,151327.0625000000,131779.2812500000,144887.5625000000,,,
0.5479999990,4,148735.2968750000,199262.1875000000,152644.6406250000,149384.2812500000,119158.2812500000,150870.8750000000,131347.3906250000,144563.3906250000,,,
0.5519999990,4,148667.6562500000,201133.4062500000,152490.8750000000,149330.7812500000,119089.2890625000,150789.2187500000,131284.8437500000,144471.3281250000,,,
0.5559999992,4,149126.6875000000,200377.0312500000,153113.0937500000,149843.0468750000,119542.7968750000,151222.9375000000,131699.0312500000,144755.2500000000,,,
0.5599999991,4,149465.5625000000,198027.2500000000,153701.1093750000,150224.4531250000,119875.1562500000,151553.5156250000,132010.6718750000,145011.5000000000,,,
0.5639999991,4,149198.6250000000,197341.8437500000,153442.2812500000,149940.5781250000,119616.0546875000,151304.9062500000,131761.0156250000,144863.6875000000,,,
0.5679999990,4,148712.5781250000,199222.1718750000,152651.7500000000,149376.2343750000,119140.6328125000,150847.7812500000,131317.1875000000,144543.8281250000,,,
0.5719999990,4,148664.0312500000,201096.3906250000,152496.1875000000,149336.1875000000,119090.8515625000,150799.1250000000,131281.5468750000,144489.1406250000,,,
0.5759999990,4,149118.4843750000,200352.1562500000,153108.2968750000,149841.7031250000,119535.6640625000,151229.3750000000,131699.7812500000,144771.2656250000,,,
0.5799999991,4,149458.0156250000,197993.9375000000,153689.1250000000,150232.9843750000,119867.2968750000,151554.6406250000,132014.1562500000,145015.8281250000,,,
0.5839999991,4,149189.2031250000,197304.6562500000,153436.9687500000,149948.1875000000,119599.5312500000,151300.4531250000,131764.2031250000,144859.0156250000,,,
0.5879999991,4,148707.9687500000,199188.2187500000,152641.6406250000,149389.5937500000,119128.0234375000,150851.7812500000,131327.0000000000,144537.9531250000,,,
0.5919999990,4,148667.4375000000,201096.6875000000,152488.0312500000,149329.4531250000,119085.7812500000,150807.9531250000,131286.4531250000,144484.3437500000,33029,0.5942111441,0.0000000000
0.5959999990,4,149088.6250000000,200374.4218750000,153076.4531250000,149814.1093750000,119501.2812500000,151203.5937500000,131668.0468750000,144734.4843750000,,,
0.5999999992,4,149440.2656250000,197996.2500000000,153671.7656250000,150216.8906250000,119849.2968750000,151538.6093750000,131991.0625000000,144989.7812500000,,,
0.6039999991,4,149203.2343750000,197281.0625000000,153446.8437500000,149945.0781250000,119616.4296875000,151316.5000000000,131775.7343750000,144865.2656250000,,,
0.6079999991,4,148724.2968750000,199171.4218750000,152664.4843750000,149376.8593750000,119146.2343750000,150868.7031250000,131338.1718750000,144551.1093750000,,,
0.6119999990,4,148690.4531250000,201112.1875000000,152517.8281250000,149328.7343750000,119112.1718750000,150826.8281250000,131300.5625000000,144508.8906250000,,,
0.6159999990,4,149118.9843750000,200418.7343750000,153111.2343750000,149823.6875000000,119537.8359375000,151218.7500000000,131694.2500000000,144767.4218750000,,,
0.6199999989,4,149464.0468750000,198028.4375000000,153697.5156250000,150215.7187500000,119873.2500000000,151540.5312500000,132005.6093750000,145016.4375000000,,,
0.6239999991,4,149206.0000000000,197282.6406250000,153456.0156250000,149957.2343750000,119613.4218750000,151304.6718750000,131756.1406250000,144875.7656250000,,,
0.6279999991,4,148711.1562500000,199172.6562500000,152663.4687500000,149383.2187500000,119129.8984375000,150841.0156250000,131314.4843750000,144544.5000000000,,,
0.6319999991,4,148657.8281250000,201146.0937500000,152493.1718750000,149314.0937500000,119076.8984375000,150790.5468750000,131268.4531250000,144483.7031250000,,,
0.6359999990,4,149116.4062500000,200465.2656250000,153088.3906250000,149822.6093750000,119530.8671875000,151228.1406250000,131679.8750000000,144773.1875000000,,,
0.6399999990,5,149461.2656250000,198041.4375000000,153677.9843750000,150224.1406250000,119871.1796875000,151557.5781250000,132009.7343750000,145024.3750000000,,,
0.6439999989,5,149219.4687500000,197261.9062500000,153466.0625000000,149963.6875000000,119636.7343750000,151336.4531250000,131808.6718750000,144895.4218750000,,,
0.6479999989,5,148721.7031250000,199158.6562500000,152675.5937500000,149394.0781250000,119154.9531250000,150872.4531250000,131361.2031250000,144563.7343750000,,,
0.6519999988,5,148664.2968750000,201173.3750000000,152509.4531250000,149326.9687500000,119102.9140625000,150817.2500000000,131304.3906250000,144498.6875000000,,,
0.6559999988,5,149095.0625000000,200496.7656250000,153091.1562500000,149812.0625000000,119528.3125000000,151220.0937500000,131696.0312500000,144756.2656250000,,,
0.6599999988,5,149461.9843750000,198031.4375000000,153672.3593750000,150232.2343750000,119887.2187500000,151568.8125000000,132034.6250000000,145020.0312500000,,,
0.6639999989,5,149214.3437500000,197210.6250000000,153441.3593750000,149972.0625000000,119634.7500000000,151337.3281250000,131803.9531250000,144882.5781250000,,,
0.6679999989,5,148707.7968750000,199117.5156250000,152636.1875000000,149392.7343750000,119137.8906250000,150861.8281250000,131340.8750000000,144542.0156250000,,,
0.6719999989,5,148636.6250000000,201166.6718750000,152446.2187500000,149318.4062500000,119068.6640625000,150784.4531250000,131266.0937500000,144459.2343750000,,,
0.6759999988,5,149095.1093750000,200500.1875000000,153041.2031250000,149827.3906250000,119522.3593750000,151212.8593750000,131656.6718750000,144743.6250000000,,,
0.6799999988,5,149470.3906250000,198003.7343750000,153646.3750000000,150246.0468750000,119884.8593750000,151576.4218750000,132007.5937500000,145021.6093750000,,,
0.6839999990,5,149231.4531250000,197154.0312500000,153439.1718750000,149969.5156250000,119644.4843750000,151359.5625000000,131810.0156250000,144898.0468750000,,,
0.6879999989,5,148742.1562500000,199089.5625000000,152654.4843750000,149385.1406250000,119163.8828125000,150900.4062500000,131371.0781250000,144581.0625000000,,,
0.6919999989,5,148663.6562500000,201203.2031250000,152477.9375000000,149307.2812500000,119092.5390625000,150805.6875000000,131305.7031250000,144491.1562500000,,,
0.6959999988,5,149092.7343750000,200563.7343750000,153050.6718750000,149795.0312500000,119515.3046875000,151216.8281250000,131686.3906250000,144752.9062500000,,,
0.6999999988,5,149452.7343750000,198013.9687500000,153639.8281250000,150206.5156250000,119875.4765625000,151560.7031250000,132016.3281250000,145007.8281250000,,,
0.7039999987,5,149228.5625000000,197127.5312500000,153455.9843750000,149959.9687500000,119660.6328125000,151347.9062500000,131812.3281250000,144895.5000000000,,,
0.7079999989,5,148721.5625000000,199086.4062500000,152660.2812500000,149389.3593750000,119160.9843750000,150871.6718750000,131351.8437500000,144563.8750000000,,,
0.7119999989,5,148668.0468750000,201248.6875000000,152486.4218750000,149305.7500000000,119103.7187500000,150821.1718750000,131300.4843750000,144512.0312500000,,,
0.7159999989,5,149088.1093750000,200618.4062500000,153046.4687500000,149797.7187500000,119515.7109375000,151217.7656250000,131678.7500000000,144761.6093750000,,,
0.7199999988,5,149458.8437500000,198029.1875000000,153624.7031250000,150226.5000000000,119881.7812500000,151563.9218750000,132015.5781250000,145018.9062500000,,,
0.7239999988,5,149249.3125000000,197099.6093750000,153443.9218750000,149982.9218750000,119676.2421875000,151373.2187500000,131820.2343750000,144920.2500000000,,,
0.7279999990,5,148709.3125000000,199054.5156250000,152641.5000000000,149386.2656250000,119146.2890625000,150866.7187500000,131313.7031250000,144556.8125000000,,,
0.7319999989,5,148622.4843750000,201259.6093750000,152445.7812500000,149298.5937500000,119056.4062500000,150783.1875000000,131230.7968750000,144472.8593750000,,,
0.7359999989,5,149069.6406250000,200650.5625000000,153033.7031250000,149799.0625000000,119495.2421875000,151213.5468750000,131646.1406250000,144744.7812500000,,,
0.7399999988,5,149451.5312500000,198024.0312500000,153636.5000000000,150228.6093750000,119865.4140625000,151575.2812500000,132035.8593750000,145009.0156250000,,,
0.7439999988,5,149222.7812500000,197039.9062500000,153452.9062500000,149980.9218750000,119637.0000000000,151355.0312500000,131832.5156250000,144881.7656250000,,,
0.7479999987,5,148699.9687500000,199007.2187500000,152671.4687500000,149390.2187500000,119128.7500000000,150858.3750000000,131350.5312500000,144528.4062500000,,,
0.7519999989,5,148602.0937500000,201254.0625000000,152466.4375000000,149282.3593750000,119036.5625000000,150755.0000000000,131243.2656250000,144428.6093750000,,,
0.7559999989,5,149063.8906250000,200657.7812500000,153039.5937500000,149779.1250000000,119500.0156250000,151191.5625000000,131653.3750000000,144714.8750000000,,,
0.7599999988,5,149459.1250000000,197990.9531250000,153630.7343750000,150224.7500000000,119889.0703125000,151572.2656250000,132026.5000000000,145000.6093750000,,,
0.7639999988,5,149220.0468750000,196964.9375000000,153436.5312500000,149974.2968750000,119647.7031250000,151350.3437500000,131817.9531250000,144871.3906250000,,,
0.7679999988,6,148694.2812500000,198936.9531250000,152640.2187500000,149379.4531250000,119128.6171875000,150854.1875000000,131345.3750000000,144526.5000000000,,,
0.7719999987,6,148599.8125000000,201240.1875000000,152428.3750000000,149269.0000000000,119030.0156250000,150760.3437500000,131242.7656250000,144441.3281250000,,,
0.7759999987,6,149060.8437500000,200683.0625000000,152993.2812500000,149761.5156250000,119480.8671875000,151193.8437500000,131648.4375000000,144727.0312500000,,,
0.7799999986,6,149466.8906250000,197997.7968750000,153590.0156250000,150216.8125000000,119878.3984375000,151572.5312500000,132021.1875000000,145016.4375000000,,,
0.7839999986,6,149249.5625000000,196940.7656250000,153418.4062500000,149992.5000000000,119664.6796875000,151366.5781250000,131835.0937500000,144906.2500000000,,,
0.7879999985,6,148706.4687500000,198941.9062500000,152633.5625000000,149392.1718750000,119129.6875000000,150856.7968750000,131326.1718750000,144549.2031250000,,,
0.7919999987,6,148598.3437500000,201292.3906250000,152420.4375000000,149274.4531250000,119026.5000000000,150743.1718750000,131219.4843750000,144447.8125000000,,,
0.7959999987,6,149053.8125000000,200747.2187500000,152996.2500000000,149756.9843750000,119480.3828125000,151174.1718750000,131634.2031250000,144726.4687500000,,,
0.7999999986,6,149444.7187500000,198015.3750000000,153591.9687500000,150206.2187500000,119864.5546875000,151546.0625000000,131998.3125000000,144999.1093750000,,,
0.8039999986,6,149244.4062500000,196914.1093750000,153442.4375000000,149993.0156250000,119668.4609375000,151354.6406250000,131827.4218750000,144899.3281250000,,,
0.8079999986,6,148707.7031250000,198911.8125000000,152658.3437500000,149389.1406250000,119140.4921875000,150857.0312500000,131342.7187500000,144543.3593750000,,,
0.8119999988,6,148580.9687500000,201300.3437500000,152422.4218750000,149252.6875000000,119012.3671875000,150744.4375000000,131216.5468750000,144423.1093750000,,,
0.8159999987,6,149033.1562500000,200752.4062500000,152971.9218750000,149743.3437500000,119459.7890625000,151170.4687500000,131617.1093750000,144690.0156250000,,,
0.8199999987,6,149440.5312500000,197966.1562500000,153569.7343750000,150209.3125000000,119858.1718750000,151551.3437500000,131985.0625000000,144972.5625000000,,,
0.8239999986,6,149255.0000000000,196807.7500000000,153443.6250000000,150003.9218750000,119674.6328125000,151381.1562500000,131831.3125000000,144893.3281250000,,,
0.8279999986,6,148710.3593750000,198836.9531250000,152670.2656250000,149396.3593750000,119140.7343750000,150867.5468750000,131328.1562500000,144540.2187500000,,,
0.8319999985,6,148581.3906250000,201288.6093750000,152427.8437500000,149266.0468750000,119008.9296875000,150741.5625000000,131193.1718750000,144428.5312500000,,,
0.8359999987,6,149028.7812500000,200779.2187500000,152973.3281250000,149754.5625000000,119445.4609375000,151157.8906250000,131602.0156250000,144698.5468750000,,,
0.8399999987,6,149436.4062500000,197966.4687500000,153563.6718750000,150208.9843750000,119848.7578125000,151547.1875000000,131977.2500000000,144983.2343750000,,,
0.8439999986,6,149238.7187500000,196774.8125000000,153428.3906250000,149994.7500000000,119654.4062500000,151358.8750000000,131799.6718750000,144888.0625000000,,,
0.8479999986,6,148702.6250000000,198816.9531250000,152670.0781250000,149393.0625000000,119130.2734375000,150855.1875000000,131319.0625000000,144540.5625000000,,,
0.8519999986,6,148600.7031250000,201326.6875000000,152449.2187500000,149272.4843750000,119032.8046875000,150754.0937500000,131223.7187500000,144452.2968750000,,,
0.8559999987,6,149072.0156250000,200842.0625000000,153002.6718750000,149763.3281250000,119500.3125000000,151199.4687500000,131652.7031250000,144742.4218750000,,,
0.8599999987,6,149481.0312500000,198000.5156250000,153591.4687500000,150221.3750000000,119900.9843750000,151595.1562500000,132022.4531250000,145030.5781250000,,,
0.8639999987,6,149271.0625000000,196751.4843750000,153443.1875000000,150016.2968750000,119688.5781250000,151398.4687500000,131826.0312500000,144925.5625000000,,,
0.8679999986,6,148719.8125000000,198795.5156250000,152689.0937500000,149412.7343750000,119150.2031250000,150871.9375000000,131325.4843750000,144560.7812500000,,,
0.8719999986,6,148592.7656250000,201340.0000000000,152457.4218750000,149266.7812500000,119023.5546875000,150743.2187500000,131201.2343750000,144447.0312500000,,,
0.8759999985,6,149059.9843750000,200882.6562500000,153007.9218750000,149746.0625000000,119483.2031250000,151186.2656250000,131638.9218750000,144732.0937500000,,,
0.8799999987,6,149493.8593750000,198009.1718750000,153608.1406250000,150221.2343750000,119906.6406250000,151600.1875000000,132039.9687500000,145034.6718750000,,,
0.8839999987,6,149311.8593750000,196733.1093750000,153482.2187500000,150021.3906250000,119725.6718750000,151423.4062500000,131875.0937500000,144948.8281250000,,,
0.8879999986,6,148753.2656250000,198780.3593750000,152712.5000000000,149401.8281250000,119180.5937500000,150888.5156250000,131365.2500000000,144578.0937500000,,,
0.8919999986,6,148608.1093750000,201369.5000000000,152450.1875000000,149251.3281250000,119034.8437500000,150747.3750000000,131220.7656250000,144454.4375000000,,,
0.8959999986,7,149058.9531250000,200923.0937500000,152961.0312500000,149751.6093750000,119475.4531250000,151175.1875000000,131620.1250000000,144730.0000000000,,,
0.8999999985,7,149484.2031250000,198007.6718750000,153558.9062500000,150231.9218750000,119896.5000000000,151582.8593750000,132006.8437500000,145025.4843750000,,,
0.9039999985,7,149295.6562500000,196679.7968750000,153446.8593750000,150037.9375000000,119713.7343750000,151410.4531250000,131836.2031250000,144938.3125000000,,,
0.9079999984,7,148763.1406250000,198740.6875000000,152708.9375000000,149441.4375000000,119187.2734375000,150913.3281250000,131367.8906250000,144601.5000000000,,,
0.9119999984,7,148616.9062500000,201378.4843750000,152459.1093750000,149286.4062500000,119041.5234375000,150768.0937500000,131235.4843750000,144476.7500000000,,,
0.9159999983,7,149055.6250000000,200957.3437500000,152968.7656250000,149772.2187500000,119475.1015625000,151182.8906250000,131621.8906250000,144732.1250000000,,,
0.9199999985,7,149480.4218750000,198012.1250000000,153562.3281250000,150238.2187500000,119892.8281250000,151586.2968750000,132012.0937500000,145022.3125000000,,,
0.9239999985,7,149283.0000000000,196643.6562500000,153446.2812500000,150029.5156250000,119690.4296875000,151403.5625000000,131830.4375000000,144926.9062500000,,,
0.9279999984,7,148731.6250000000,198705.9531250000,152684.2031250000,149420.8906250000,119141.6250000000,150887.5625000000,131327.1875000000,144571.2812500000,,,
0.9319999984,7,148595.9062500000,201391.0312500000,152431.1875000000,149263.6406250000,119002.3359375000,150756.4531250000,131194.9843750000,144456.3906250000,,,
0.9359999984,7,149045.5781250000,201004.9843750000,152957.5156250000,149745.0625000000,119447.3437500000,151172.9218750000,131601.9531250000,144722.6875000000,,,
0.9399999985,7,149481.8906250000,198025.6093750000,153561.4687500000,150221.7187500000,119883.4687500000,151589.6718750000,132003.5937500000,145022.7968750000,,,
0.9439999985,7,149295.0468750000,196610.2187500000,153450.9218750000,150025.3281250000,119704.5390625000,151418.5312500000,131842.5312500000,144933.8593750000,,,
0.9479999985,7,148744.1718750000,198682.2187500000,152710.4843750000,149416.7343750000,119167.8828125000,150901.1875000000,131348.7656250000,144578.5625000000,,,
0.9519999984,7,148616.2031250000,201421.1562500000,152473.2812500000,149255.9375000000,119042.4062500000,150776.5625000000,131225.0312500000,144472.4062500000,,,
0.9559999984,7,149073.4687500000,201064.5000000000,153001.4843750000,149747.2187500000,119498.7578125000,151206.1718750000,131640.3750000000,144749.5312500000,,,
0.9599999983,7,149484.6718750000,198034.9218750000,153562.1406250000,150213.7500000000,119912.0312500000,151596.9531250000,132012.0625000000,145024.6250000000,,,
0.9639999985,7,149310.1718750000,196562.6562500000,153455.0468750000,150030.4843750000,119742.9765625000,151435.7656250000,131854.1718750000,144949.8750000000,,,
0.9679999985,7,148759.5781250000,198652.5468750000,152716.7343750000,149415.2656250000,119191.8828125000,150922.9843750000,131368.4218750000,144605.9531250000,,,
0.9719999984,7,148593.2968750000,201460.1562500000,152447.5312500000,149248.6250000000,119015.3203125000,150766.9375000000,131222.4218750000,144470.0937500000,,,
0.9759999984,7,149040.8281250000,201128.0468750000,152951.1875000000,149720.3437500000,119454.1562500000,151193.5156250000,131623.3593750000,144735.6093750000,,,
0.9799999984,7,149476.9218750000,198040.2812500000,153518.2968750000,150213.7500000000,119881.5390625000,151610.1718750000,132015.8750000000,145026.1718750000,,,
0.9839999985,7,149287.2656250000,196499.4687500000,153403.1406250000,150038.3125000000,119688.5781250000,151427.6718750000,131843.8750000000,144928.2968750000,,,
0.9879999985,7,148724.6406250000,198596.6875000000,152668.7031250000,149418.1562500000,119133.6328125000,150895.4375000000,131336.9843750000,144567.5781250000,,,
0.9919999985,7,148570.7500000000,201465.2500000000,152425.6718750000,149248.2500000000,118983.1875000000,150744.6250000000,131194.2656250000,144442.1718750000,,,
0.9959999984,7,149029.5625000000,201171.3593750000,152944.8906250000,149738.5781250000,119440.3671875000,151176.5156250000,131607.1093750000,144715.7656250000,,,
0.9999999984,7,149492.3437500000,198049.1718750000,153526.4531250000,150240.9531250000,119901.8671875000,151615.1093750000,132033.7968750000,145028.3281250000,,,
1.0039999983,7,149313.1718750000,196454.4375000000,153429.1406250000,150060.9218750000,119726.2109375000,151443.0937500000,131875.2500000000,144939.9687500000,,,
1.0079999985,7,148749.8125000000,198568.2187500000,152708.9843750000,149440.4687500000,119173.9140625000,150909.4218750000,131362.0937500000,144580.1718750000,,,
1.0119999985,7,148576.0000000000,201519.0312500000,152446.9375000000,149249.2812500000,119001.4531250000,150737.9218750000,131195.3593750000,144438.4531250000,,,
1.0159999984,7,149010.4687500000,201247.0625000000,152933.6718750000,149711.4062500000,119434.9453125000,151148.4218750000,131595.8437500000,144687.5937500000,,,
1.0199999984,7,149467.0625000000,198053.7812500000,153501.3906250000,150208.6406250000,119889.9296875000,151588.1250000000,132016.1406250000,144997.7968750000,,,
1.0239999983,8,149301.3750000000,196388.0937500000,153415.7500000000,150040.6718750000,119724.4687500000,151436.5000000000,131859.2343750000,144928.7031250000,,,
1.0279999983,8,148731.8125000000,198510.9843750000,152700.9375000000,149422.5625000000,119158.3359375000,150895.0937500000,131355.4375000000,144568.9687500000,,,
1.0319999983,8,148583.7031250000,201523.5156250000,152462.7031250000,149250.6250000000,119012.6640625000,150747.9687500000,131224.9531250000,144458.3593750000,,,
1.0359999982,8,149033.7500000000,201282.8593750000,152962.6250000000,149727.0625000000,119462.4375000000,151175.6718750000,131633.3437500000,144726.0312500000,,,
1.0399999982,8,149499.0625000000,198061.0000000000,153528.4375000000,150225.6718750000,119925.9531250000,151629.5312500000,132061.0156250000,145043.6718750000,,,
1.0439999981,8,149340.6718750000,196358.0000000000,153449.4062500000,150070.1718750000,119766.8750000000,151487.4062500000,131916.1562500000,144983.9531250000,,,
1.0479999983,8,148770.5937500000,198497.8750000000,152739.7812500000,149453.8125000000,119201.8125000000,150949.7500000000,131400.7187500000,144624.4843750000,,,
1.0519999983,8,148591.3906250000,201570.7500000000,152474.8593750000,149256.1875000000,119021.7265625000,150776.0000000000,131240.8281250000,144483.1093750000,,,
1.0559999982,8,149011.3437500000,201346.4843750000,152925.9843750000,149699.9531250000,119438.8125000000,151180.1250000000,131615.3437500000,144716.6718750000,,,
1.0599999982,8,149485.1093750000,198080.2187500000,153490.8750000000,150211.7187500000,119907.5000000000,151638.8906250000,132055.3281250000,145036.0937500000,,,
1.0639999982,8,149328.7343750000,196311.3906250000,153422.1093750000,150049.6875000000,119752.5781250000,151486.9531250000,131933.0468750000,144968.2187500000,,,
1.0679999983,8,148774.6250000000,198443.7500000000,152724.7031250000,149447.7656250000,119206.0468750000,150964.4843750000,131437.8593750000,144623.2343750000,,,
1.0719999983,8,148606.3593750000,201573.5937500000,152478.4531250000,149265.4375000000,119043.5078125000,150793.9687500000,131283.7968750000,144488.2343750000,,,
1.0759999983,8,149045.2187500000,201393.3125000000,152966.1562500000,149713.9218750000,119483.0703125000,151208.7031250000,131660.9687500000,144739.1562500000,,,
1.0799999982,8,149500.6093750000,198089.9843750000,153518.9687500000,150222.0781250000,119937.4609375000,151646.7031250000,132093.1562500000,145036.7968750000,,,
1.0839999982,8,149354.4062500000,196261.5781250000,153455.1875000000,150083.4062500000,119788.4921875000,151515.1875000000,131982.2500000000,144982.6406250000,,,
1.0879999981,8,148794.7031250000,198408.6406250000,152773.7968750000,149474.2656250000,119233.0312500000,150988.7343750000,131474.1562500000,144637.3437500000,,,
1.0919999983,8,148618.0781250000,201607.4062500000,152517.4218750000,149277.7187500000,119051.5781250000,150820.5000000000,131302.8906250000,144504.7343750000,,,
1.0959999983,8,149051.2812500000,201464.9375000000,152983.8593750000,149745.5312500000,119477.1640625000,151230.2343750000,131693.7968750000,144749.9687500000,,,
1.0999999982,8,149494.8906250000,198126.8750000000,153508.4687500000,150225.0781250000,119916.3515625000,151654.4218750000,132094.3281250000,145032.1250000000,,,
1.1039999982,8,149349.2812500000,196243.8281250000,153427.9218750000,150078.0156250000,119770.4921875000,151514.8906250000,131957.8906250000,144973.7343750000,,,
1.1079999981,8,148780.1718750000,198375.0312500000,152739.3750000000,149475.1250000000,119206.9062500000,150972.6875000000,131433.0312500000,144618.5937500000,,,
1.1119999983,8,148578.6562500000,201614.0312500000,152468.5781250000,149267.6093750000,119008.3984375000,150775.6562500000,131242.8593750000,144459.2968750000,,,
1.1159999983,8,149016.0156250000,201500.6250000000,152924.9062500000,149719.1093750000,119444.3125000000,151190.9062500000,131647.2656250000,144710.0312500000,,,
1.1199999982,8,149492.0312500000,198122.8750000000,153474.5937500000,150222.5312500000,119916.9921875000,151642.3281250000,132080.7343750000,145021.9687500000,,,
1.1239999982,8,149350.0781250000,196177.1406250000,153433.5937500000,150094.9843750000,119780.7421875000,151511.4687500000,131956.2812500000,144961.7187500000,,,
1.1279999982,8,148786.3437500000,198321.2500000000,152776.4531250000,149499.6718750000,119217.7968750000,150981.4062500000,131452.4843750000,144620.2187500000,,,
1.1319999981,8,148590.1406250000,201629.2187500000,152523.0000000000,149277.5781250000,119019.5781250000,150788.5468750000,131266.2812500000,144479.7812500000,,,
1.1359999983,8,149022.6875000000,201544.9687500000,152960.3593750000,149704.4062500000,119451.2812500000,151193.8593750000,131663.7812500000,144727.8281250000,,,
1.1399999983,8,149506.9218750000,198133.8906250000,153490.8281250000,150208.6875000000,119928.0468750000,151660.1875000000,132110.3750000000,145046.5312500000,,,
1.1439999982,8,149343.6250000000,196124.8437500000,153421.3906250000,150060.2343750000,119765.1015625000,151506.6093750000,131965.7500000000,144968.0000000000,,,
1.1479999982,8,148772.1718750000,198264.3281250000,152747.0781250000,149456.2968750000,119199.6093750000,150965.2656250000,131436.4375000000,144616.3593750000,,,
1.1519999981,9,148573.6406250000,201621.1718750000,152482.9375000000,149242.0937500000,119003.8359375000,150769.1562500000,131244.8437500000,144466.1093750000,,,
1.1559999981,9,149012.1562500000,201577.0937500000,152939.2500000000,149699.2343750000,119438.1953125000,151182.9531250000,131644.0781250000,144713.8906250000,,,
1.1599999981,9,149498.6875000000,198140.3906250000,153483.0468750000,150223.5781250000,119921.3125000000,151648.7187500000,132089.3125000000,145032.5000000000,,,
1.1639999980,9,149357.7343750000,196090.4843750000,153427.0468750000,150089.7812500000,119780.9531250000,151518.5156250000,131966.9843750000,144979.8281250000,,,
1.1679999980,9,148786.6875000000,198255.7187500000,152779.4218750000,149480.8750000000,119215.2500000000,150976.2343750000,131449.2031250000,144631.5937500000,,,
1.1719999979,9,148606.9531250000,201682.1406250000,152535.4843750000,149277.9375000000,119032.8828125000,150799.5468750000,131273.5781250000,144502.6406250000,,,
1.1759999981,9,149018.2500000000,201665.7812500000,152962.5312500000,149717.8125000000,119448.2500000000,151175.5156250000,131644.7656250000,144717.7500000000,,,
1.1799999981,9,149477.6718750000,198175.7343750000,153464.3750000000,150223.5156250000,119903.9843750000,151616.6562500000,132058.0625000000,145000.7500000000,,,
1.1839999980,9,149360.9531250000,196053.2500000000,153406.5312500000,150102.0937500000,119782.0234375000,151509.5625000000,131946.8593750000,144965.7656250000,,,
1.1879999980,9,148796.0781250000,198208.9375000000,152746.7500000000,149491.5937500000,119220.9921875000,150971.6093750000,131435.9843750000,144625.3437500000,,,
1.1919999979,9,148583.4843750000,201684.4687500000,152480.0937500000,149268.2500000000,119008.1015625000,150765.0000000000,131246.7812500000,144469.4062500000,,,
1.1959999981,9,149004.3437500000,201713.2187500000,152923.1718750000,149707.4687500000,119428.9921875000,151166.2031250000,131634.1250000000,144701.5156250000,,,
1.1999999981,9,149491.2812500000,198205.3750000000,153463.0937500000,150217.8593750000,119914.7421875000,151636.5312500000,132079.1562500000,145014.2187500000,,,
1.2039999980,9,149379.7968750000,196031.4218750000,153439.3593750000,150108.1250000000,119804.5312500000,151532.6875000000,131979.3437500000,144984.8750000000,,,
1.2079999980,9,148805.5156250000,198177.7187500000,152800.0468750000,149486.5781250000,119232.5468750000,150985.6718750000,131451.7812500000,144637.7656250000,,,
1.2119999980,9,148591.0156250000,201700.8906250000,152537.3593750000,149260.9062500000,119016.8203125000,150771.7968750000,131250.8125000000,144481.6093750000,,,
1.2159999979,9,149017.4375000000,201769.2031250000,152961.2812500000,149705.0781250000,119436.3125000000,151176.0000000000,131635.3281250000,144723.4687500000,,,
1.2199999981,9,149525.0468750000,198239.9531250000,153491.8750000000,150221.4062500000,119939.8984375000,151671.8125000000,132103.1875000000,145057.2031250000,,,
1.2239999981,9,149409.6250000000,196021.8125000000,153470.6875000000,150107.0781250000,119827.2734375000,151565.0781250000,132012.8281250000,145023.6562500000,,,
1.2279999980,9,148820.7187500000,198152.6250000000,152826.0156250000,149501.7656250000,119244.8046875000,151004.8750000000,131477.8593750000,144661.2343750000,,,
1.2319999980,9,148593.7343750000,201712.0156250000,152547.9218750000,149265.7500000000,119020.2265625000,150785.4375000000,131266.5468750000,144492.1250000000,,,
1.2359999979,9,149014.6250000000,201809.5625000000,152965.8906250000,149700.0312500000,119442.2187500000,151187.9062500000,131643.6406250000,144720.7031250000,,,
1.2399999981,9,149495.6562500000,198248.5000000000,153478.4375000000,150213.5937500000,119922.3593750000,151653.2187500000,132086.7968750000,145018.6406250000,,,
1.2439999981,9,149367.2500000000,195952.2656250000,153427.7343750000,150089.5937500000,119790.3671875000,151530.4218750000,131982.5156250000,144962.2812500000,,,
1.2479999980,9,148795.9375000000,198070.9218750000,152792.0781250000,149490.5468750000,119222.1953125000,150985.5312500000,131464.5000000000,144620.6562500000,,,
1.2519999980,9,148580.4218750000,201671.6718750000,152518.2343750000,149269.8125000000,119006.0390625000,150776.9375000000,131256.0625000000,144472.1718750000,,,
1.2559999980,9,149005.8281250000,201811.4218750000,152935.8437500000,149698.5000000000,119429.7421875000,151184.4687500000,131637.5000000000,144716.8906250000,,,
1.2599999979,9,149502.8906250000,198246.6250000000,153463.6250000000,150213.5937500000,119925.8750000000,151660.8593750000,132105.2812500000,145036.7187500000,,,
1.2639999981,9,149372.0781250000,195916.8906250000,153408.7500000000,150095.8437500000,119796.6406250000,151538.2343750000,131985.7343750000,144978.4843750000,,,
1.2679999981,9,148812.2968750000,198019.1718750000,152773.1718750000,149504.7187500000,119245.9062500000,151014.7187500000,131468.4687500000,144649.0312500000,,,
1.2719999980,9,148597.7500000000,201655.9375000000,152517.4843750000,149279.2187500000,119033.3437500000,150808.0468750000,131274.4375000000,144499.7656250000,,,
1.2759999980,9,149013.3125000000,201839.7968750000,152928.5625000000,149706.7968750000,119440.7968750000,151201.9375000000,131657.5312500000,144727.5468750000,,,
1.2799999979,10,149511.3437500000,198268.2812500000,153438.0468750000,150238.6718750000,119930.2421875000,151679.6406250000,132105.2500000000,145042.5937500000,,,
1.2839999979,10,149396.0000000000,195911.6250000000,153414.2187500000,150136.2656250000,119816.9218750000,151570.9843750000,132013.1718750000,144999.4687500000,,,
1.2879999978,10,148822.0156250000,198011.3125000000,152789.7500000000,149538.0781250000,119249.9062500000,151028.3125000000,131498.5000000000,144657.0781250000,,,
1.2919999978,10,148593.1093750000,201692.7343750000,152511.7968750000,149285.0468750000,119023.0937500000,150808.0312500000,131283.3593750000,144497.1718750000,,,
1.2959999978,10,149002.0625000000,201920.6406250000,152905.8906250000,149700.0937500000,119429.8515625000,151195.5781250000,131637.4687500000,144718.5000000000,,,
1.2999999977,10,149495.5156250000,198319.5625000000,153408.6718750000,150213.8125000000,119922.3593750000,151665.5625000000,132088.5468750000,145024.5937500000,,,
1.3039999979,10,149420.2812500000,195898.5937500000,153411.2656250000,150135.5156250000,119845.8359375000,151590.0468750000,132038.6718750000,145015.7968750000,,,
1.3079999979,10,148845.7031250000,197979.3750000000,152813.5625000000,149517.2968750000,119281.5234375000,151039.6093750000,131522.7500000000,144671.3750000000,,,
1.3119999978,10,148595.8281250000,201698.0937500000,152526.1093750000,149265.3593750000,119031.1406250000,150800.2187500000,131284.6562500000,144496.8750000000,,,
1.3159999978,10,148994.4843750000,201967.6250000000,152918.3906250000,149684.1250000000,119421.7265625000,151182.3281250000,131638.0156250000,144713.3281250000,,,
1.3199999977,10,149496.5000000000,198375.1562500000,153428.8437500000,150217.2500000000,119922.0078125000,151656.3281250000,132090.8750000000,145027.8437500000,,,
1.3239999979,10,149390.9062500000,195932.9531250000,153413.9062500000,150121.1093750000,119818.9296875000,151554.3281250000,131985.6718750000,144995.6250000000,,,
1.3279999979,10,148820.6406250000,197981.9218750000,152784.5156250000,149516.3593750000,119253.8203125000,151016.1093750000,131481.1562500000,144655.8437500000,,,
1.3319999978,10,148582.2187500000,201694.6093750000,152483.7187500000,149266.7812500000,119013.7578125000,150784.9531250000,131273.0156250000,144488.7656250000,,,
1.3359999978,10,148977.9062500000,201976.6093750000,152871.1562500000,149677.0000000000,119409.1484375000,151156.0937500000,131625.9687500000,144702.0000000000,,,
1.3399999978,10,149491.3906250000,198381.9218750000,153403.4375000000,150215.8281250000,119920.7265625000,151647.3750000000,132086.5468750000,145027.8125000000,,,
1.3439999977,10,149402.2500000000,195904.1250000000,153400.6250000000,150140.9843750000,119825.3671875000,151562.7812500000,132008.0468750000,145006.2500000000,,,
1.3479999979,10,148836.0468750000,197943.5468750000,152775.9843750000,149532.7968750000,119259.3203125000,151024.3281250000,131495.8281250000,144669.9062500000,,,
1.3519999979,10,148587.6093750000,201691.2812500000,152478.0312500000,149272.3593750000,119012.2890625000,150777.1562500000,131261.2968750000,144491.0781250000,,,
1.3559999978,10,148969.2656250000,202004.6718750000,152855.7812500000,149677.4531250000,119397.9062500000,151134.9375000000,131603.5468750000,144689.6093750000,,,
1.3599999978,10,149454.8281250000,198396.7187500000,153349.3906250000,150200.7500000000,119876.0390625000,151607.0781250000,132028.8593750000,144987.3125000000,,,
1.3639999977,10,149369.7656250000,195867.9062500000,153360.6093750000,150128.6718750000,119793.3437500000,151521.5000000000,131960.8906250000,144962.3906250000,,,
1.3679999979,10,148798.1875000000,197880.7500000000,152740.5312500000,149514.7500000000,119228.4687500000,150978.3750000000,131440.2968750000,144623.1718750000,,,
1.3719999979,10,148544.5156250000,201662.1562500000,152438.4843750000,149246.4375000000,118972.9140625000,150734.5937500000,131197.4843750000,144448.7187500000,,,
1.3759999978,10,148931.9218750000,202014.3593750000,152842.7031250000,149658.3281250000,119361.4296875000,151100.7031250000,131556.1718750000,144654.0781250000,,,
1.3799999978,10,149451.7187500000,198399.8593750000,153384.1093750000,150206.1875000000,119878.3437500000,151601.9062500000,132036.3750000000,144984.0312500000,,,
1.3839999977,10,149378.2812500000,195831.1406250000,153398.3437500000,150132.4531250000,119802.4609375000,151534.4531250000,131980.8437500000,144974.6562500000,,,
1.3879999977,10,148804.2812500000,197835.9843750000,152776.5312500000,149517.9375000000,119236.8125000000,150980.2500000000,131462.1562500000,144629.9062500000,,,
1.3919999979,10,148535.7656250000,201656.7031250000,152448.5468750000,149248.8125000000,118968.4843750000,150722.5468750000,131207.3281250000,144444.3750000000,,,
1.3959999979,10,148932.1093750000,202056.0156250000,152816.5468750000,149660.2500000000,119366.5781250000,151103.9843750000,131560.8437500000,144661.3906250000,,,
1.3999999978,10,149453.1562500000,198423.5937500000,153348.5937500000,150193.1093750000,119885.3750000000,151602.4375000000,132039.1875000000,144986.8281250000,,,
1.4039999978,10,149387.2343750000,195807.8281250000,153370.0156250000,150131.0625000000,119813.5937500000,151534.0937500000,131975.3750000000,144978.2187500000,,,
1.4079999977,11,148810.1093750000,197795.6718750000,152752.2031250000,149527.6406250000,119240.3281250000,150981.0000000000,131448.1406250000,144632.4531250000,,,
1.4119999977,11,148548.2187500000,201658.1093750000,152452.1875000000,149246.5468750000,118978.5937500000,150725.6093750000,131190.0312500000,144454.1718750000,,,
1.4159999976,11,148941.0156250000,202097.3437500000,152841.9218750000,149645.9843750000,119365.0468750000,151087.2656250000,131542.6250000000,144666.3281250000,,,
1.4199999976,11,149463.5625000000,198459.3281250000,153367.5000000000,150187.5781250000,119883.7343750000,151584.8437500000,132022.8750000000,144990.2343750000,,,
1.4239999976,11,149387.5625000000,195784.0625000000,153380.0000000000,150128.5625000000,119806.6796875000,151511.9218750000,131945.3437500000,144970.0156250000,,,
1.4279999975,11,148816.4843750000,197760.8750000000,152775.8593750000,149543.8437500000,119227.7187500000,150975.1562500000,131425.6093750000,144635.2187500000,,,
1.4319999977,11,148566.5781250000,201670.8750000000,152482.9062500000,149266.7500000000,118978.7343750000,150735.7343750000,131204.8593750000,144471.0625000000,,,
1.4359999977,11,148914.0625000000,202152.3281250000,152845.0000000000,149635.9531250000,119332.4609375000,151062.7500000000,131505.1875000000,144640.1875000000,,,
1.4399999976,11,149424.0937500000,198474.8281250000,153345.8281250000,150190.6562500000,119844.5781250000,151545.6875000000,131948.7656250000,144946.6250000000,,,
1.4439999976,11,149351.4062500000,195719.5000000000,153357.0156250000,150135.3906250000,119769.9843750000,151474.9062500000,131913.3593750000,144930.1250000000,,,
1.4479999975,11,148773.3281250000,197660.9687500000,152755.2031250000,149546.6093750000,119197.5156250000,150932.5625000000,131412.4687500000,144587.0156250000,,,
1.4519999977,11,148498.8281250000,201622.1875000000,152437.9843750000,149244.2500000000,118928.2500000000,150673.0312500000,131159.2031250000,144402.2656250000,,,
1.4559999977,11,148870.4843750000,202153.3437500000,152787.3906250000,149616.9687500000,119302.2031250000,151028.8750000000,131493.9687500000,144596.4062500000,,,
1.4599999976,11,149392.0625000000,198453.6093750000,153295.5312500000,150163.3125000000,119819.5000000000,151538.4218750000,131967.5937500000,144924.6250000000,,,
1.4639999976,11,149349.0625000000,195647.8437500000,153334.6093750000,150118.7031250000,119775.2421875000,151501.4531250000,131932.8906250000,144941.1562500000,,,
1.4679999975,11,148779.8281250000,197601.7968750000,152747.0312500000,149553.2656250000,119212.1093750000,150955.3906250000,131406.1562500000,144610.0000000000,,,
1.4719999975,11,148494.4687500000,201629.1562500000,152434.1406250000,149255.3750000000,118937.4765625000,150674.9687500000,131140.2656250000,144409.3750000000,,,
1.4759999977,11,148878.6875000000,202216.6718750000,152784.1718750000,149604.9687500000,119310.4140625000,151055.9687500000,131483.7343750000,144625.7031250000,,,
1.4799999977,11,149392.9687500000,198469.6562500000,153261.1250000000,150147.8281250000,119811.1562500000,151531.4218750000,131945.9062500000,144933.5312500000,,,
1.4839999976,11,149346.5781250000,195567.2968750000,153282.8750000000,150116.1718750000,119756.5156250000,151495.3750000000,131908.7500000000,144925.7500000000,,,
1.4879999976,11,148777.8906250000,197515.5156250000,152697.9375000000,149514.2343750000,119191.7265625000,150950.7500000000,131401.2500000000,144593.8281250000,,,
1.4919999975,11,148488.2187500000,201642.5156250000,152397.2656250000,149214.9531250000,118910.8203125000,150667.3750000000,131136.1718750000,144396.0468750000,,,
1.4959999977,11,148873.1562500000,202296.0156250000,152772.7500000000,149614.6093750000,119296.1171875000,151034.9218750000,131475.2187500000,144602.4218750000,,,
1.4999999977,11,149420.3906250000,198505.6562500000,153286.3281250000,150174.1718750000,119843.6093750000,151564.7031250000,131974.5156250000,144940.0468750000,,,
1.5039999976,11,149382.9375000000,195510.5937500000,153323.7187500000,150147.6875000000,119806.7812500000,151523.3125000000,131939.3281250000,144952.9843750000,,,
1.5079999976,11,148808.9218750000,197449.5000000000,152748.5781250000,149573.0312500000,119236.7890625000,150971.7812500000,131419.6562500000,144625.5625000000,,,
1.5119999975,11,148516.7812500000,201683.2656250000,152442.5937500000,149241.9062500000,118945.1484375000,150695.5312500000,131161.5937500000,144443.0312500000,,,
1.5159999975,11,148892.3593750000,202414.9687500000,152800.6093750000,149618.1718750000,119322.3515625000,151053.3437500000,131493.2187500000,144644.5312500000,,,
1.5199999977,11,149426.3906250000,198565.4687500000,153281.4062500000,150176.2343750000,119852.4609375000,151554.5625000000,131973.9062500000,144961.2343750000,,,
1.5239999976,11,149384.7343750000,195466.1718750000,153293.3593750000,150160.7812500000,119797.6093750000,151520.5000000000,131942.2812500000,144961.9062500000,,,
1.5279999976,11,148803.5625000000,197400.1250000000,152729.9375000000,149559.2968750000,119219.2187500000,150970.9218750000,131424.0468750000,144627.8906250000,,,
1.5319999976,11,148504.5937500000,201723.4218750000,152435.1406250000,149248.5156250000,118920.0156250000,150690.2500000000,131143.3750000000,144433.0625000000,,,
1.5359999975,12,148878.4531250000,202504.0156250000,152790.3437500000,149620.6875000000,119298.1328125000,151049.7968750000,131481.2656250000,144624.1093750000,,,
1.5399999975,12,149426.3750000000,198612.7031250000,153282.2031250000,150172.7656250000,119854.6093750000,151576.3437500000,131974.7031250000,144952.2031250000,,,
1.5439999974,12,149399.2187500000,195431.1093750000,153317.2343750000,150152.2812500000,119825.5312500000,151555.2343750000,131941.4687500000,144972.9375000000,,,
1.5479999974,12,148829.1250000000,197351.5781250000,152770.5937500000,149565.2031250000,119261.6250000000,151006.5312500000,131443.9218750000,144657.7968750000,,,
1.5519999973,12,148521.3437500000,201742.4375000000,152484.8906250000,149251.2500000000,118957.0078125000,150703.6875000000,131173.6875000000,144458.5937500000,,,
1.5559999973,12,148880.9062500000,202590.1718750000,152826.1562500000,149627.1875000000,119315.8046875000,151044.5781250000,131491.0781250000,144641.9843750000,,,
1.5599999975,12,149430.8125000000,198666.7500000000,153311.8906250000,150176.6406250000,119867.9609375000,151582.1875000000,131989.2656250000,144972.2343750000,,,
1.5639999975,12,149395.7343750000,195409.7656250000,153348.9687500000,150144.6093750000,119831.0000000000,151547.8125000000,131964.7343750000,144978.1406250000,,,
1.5679999974,12,148807.0468750000,197298.3281250000,152801.3593750000,149554.2812500000,119245.7421875000,150982.7656250000,131432.0625000000,144636.4843750000,,,
1.5719999974,12,148497.9218750000,201728.2500000000,152508.3125000000,149234.6406250000,118936.1640625000,150680.5625000000,131148.1250000000,144433.4687500000,,,
1.5759999973,12,148872.7656250000,202611.3593750000,152851.4375000000,149620.3125000000,119308.1640625000,151037.1406250000,131469.2968750000,144625.5156250000,,,
1.5799999975,12,149432.4218750000,198683.1562500000,153330.8906250000,150181.6250000000,119862.0078125000,151578.7343750000,131983.2343750000,144959.5468750000,,,
1.5839999975,12,149416.4375000000,195370.9531250000,153373.1093750000,150173.0156250000,119835.5937500000,151555.5000000000,131984.5000000000,144978.5937500000,,,
1.5879999974,12,148824.9062500000,197235.0312500000,152821.4531250000,149568.2500000000,119245.5078125000,150987.4062500000,131452.7812500000,144638.5937500000,,,
1.5919999974,12,148501.8125000000,201703.4843750000,152510.8750000000,149232.8750000000,118928.1718750000,150675.7656250000,131142.7343750000,144429.1718750000,,,
1.5959999973,12,148876.1875000000,202650.0312500000,152847.8437500000,149599.8281250000,119303.2812500000,151041.7343750000,131478.9843750000,144633.3437500000,,,
1.5999999973,12,149432.7187500000,198710.2968750000,153306.0000000000,150165.8593750000,119861.9843750000,151576.8593750000,131990.4218750000,144972.0000000000,,,
1.6039999975,12,149414.0312500000,195336.5625000000,153346.0156250000,150180.6875000000,119848.7031250000,151555.9062500000,131990.3125000000,144986.9843750000,,,
1.6079999974,12,148823.8125000000,197168.2968750000,152802.5468750000,149571.4218750000,119263.3671875000,151001.3906250000,131460.2812500000,144647.0937500000,,,
1.6119999974,12,148502.3437500000,201661.6250000000,152493.2031250000,149226.9531250000,118947.5625000000,150687.0000000000,131150.2812500000,144438.5312500000,,,
1.6159999974,12,148868.2031250000,202650.2812500000,152817.1875000000,149605.0781250000,119315.8593750000,151022.3593750000,131478.0156250000,144624.0000000000,,,
1.6199999973,12,149426.9062500000,198721.5625000000,153279.1406250000,150168.0000000000,119867.1093750000,151569.9843750000,131983.3750000000,144957.2656250000,,,
1.6239999975,12,149414.0625000000,195328.2500000000,153309.9062500000,150167.0312500000,119853.9609375000,151560.9218750000,131985.2187500000,144980.1562500000,,,
1.6279999975,12,148834.5937500000,197137.0000000000,152756.8593750000,149573.1718750000,119273.9062500000,151004.5312500000,131462.4375000000,144651.0468750000,,,
1.6319999974,12,148507.0937500000,201651.5000000000,152452.4375000000,149235.3437500000,118944.3984375000,150688.2968750000,131165.8906250000,144439.8750000000,,,
1.6359999974,12,148866.3281250000,202683.1875000000,152790.8750000000,149602.8593750000,119298.2890625000,151034.9687500000,131485.0468750000,144626.9843750000,,,
1.6399999973,12,149427.3125000000,198762.3125000000,153274.7812500000,150165.0000000000,119867.2109375000,151573.3437500000,132000.3750000000,144959.6250000000,,,
1.6439999973,12,149420.4062500000,195326.3750000000,153332.0625000000,150167.4062500000,119861.7421875000,151558.8906250000,132001.5312500000,144986.2656250000,,,
1.6479999975,12,148845.5156250000,197106.0781250000,152805.1250000000,149579.1250000000,119281.7656250000,151016.4687500000,131472.1718750000,144664.2656250000,,,
1.6519999974,12,148518.5781250000,201649.5468750000,152501.7343750000,149236.0937500000,118956.3906250000,150697.0312500000,131172.0625000000,144456.6562500000,,,
1.6559999974,12,148879.2812500000,202729.1875000000,152821.3750000000,149594.5468750000,119308.1093750000,151048.0000000000,131471.9531250000,144647.9843750000,,,
1.6599999974,12,149437.8750000000,198813.1875000000,153291.4375000000,150167.3281250000,119869.3046875000,151582.1718750000,131979.7187500000,144974.1718750000,,,
1.6639999973,13,149436.5937500000,195329.3437500000,153353.5468750000,150185.5625000000,119868.6328125000,151574.2500000000,131999.8593750000,145000.6406250000,,,
1.6679999973,13,148868.2343750000,197074.8750000000,152839.3750000000,149588.6875000000,119313.2578125000,151032.0937500000,131504.4843750000,144686.4531250000,,,
1.6719999972,13,148509.5937500000,201638.7968750000,152498.7812500000,149252.7968750000,118950.3515625000,150675.6562500000,131165.2187500000,144448.3437500000,,,
1.6759999972,13,148851.5625000000,202761.9375000000,152800.5000000000,149589.9843750000,119292.0390625000,151012.4687500000,131461.2187500000,144620.4687500000,,,
1.6799999971,13,149412.6406250000,198847.5312500000,153256.4531250000,150160.5937500000,119849.4843750000,151567.2031250000,131964.5156250000,144952.1718750000,,,
1.6839999971,13,149414.8593750000,195315.1093750000,153311.8906250000,150187.1718750000,119857.7187500000,151569.5312500000,131977.3281250000,144984.8437500000,,,
1.6879999973,13,148835.0937500000,197023.2187500000,152782.2343750000,149595.8593750000,119276.7500000000,151018.7968750000,131469.2656250000,144664.1562500000,,,
1.6919999972,13,148490.9531250000,201612.2187500000,152459.8906250000,149223.0625000000,118931.5234375000,150681.7968750000,131162.7187500000,144448.2343750000,,,
1.6959999972,13,148836.9843750000,202783.2343750000,152771.4531250000,149582.4687500000,119273.2656250000,151010.7500000000,131453.7656250000,144614.6406250000,,,
1.6999999972,13,149398.4687500000,198867.1562500000,153236.4687500000,150149.7031250000,119834.2187500000,151529.7500000000,131963.8750000000,144934.0468750000,,,
1.7039999971,13,149420.6250000000,195285.5000000000,153300.4375000000,150175.9375000000,119853.4296875000,151543.5937500000,131992.4062500000,144984.3125000000,,,
1.7079999973,13,148860.5312500000,196974.6406250000,152799.5156250000,149597.6562500000,119303.2265625000,151030.2500000000,131516.1093750000,144680.0625000000,,,
1.7119999973,13,148493.6093750000,201595.7187500000,152461.5781250000,149251.5937500000,118920.9843750000,150669.4687500000,131124.2343750000,144440.2500000000,,,
1.7159999972,13,148811.3906250000,202807.4531250000,152751.0937500000,149584.0781250000,119234.6953125000,150979.8750000000,131399.9843750000,144583.7187500000,,,
1.7199999972,13,149385.7343750000,198886.4687500000,153214.9375000000,150152.9843750000,119819.8750000000,151535.7968750000,131942.2500000000,144919.1093750000,,,
1.7239999971,13,149399.9687500000,195260.4375000000,153272.6562500000,150174.6562500000,119827.4921875000,151555.1093750000,131958.4062500000,144960.3750000000,,,
1.7279999971,13,148826.7656250000,196909.6562500000,152757.6250000000,149602.7968750000,119260.5546875000,151001.6562500000,131459.6718750000,144638.4375000000,,,
1.7319999973,13,148484.5937500000,201554.9687500000,152446.7968750000,149243.6562500000,118924.3593750000,150667.1875000000,131157.5156250000,144424.2656250000,,,
1.7359999972,13,148821.6093750000,202831.9687500000,152764.5312500000,149565.5156250000,119260.9765625000,150999.9062500000,131452.2187500000,144598.9062500000,,,
1.7399999972,13,149409.5312500000,198932.0625000000,153251.5781250000,150155.9843750000,119851.8671875000,151561.4375000000,131986.6406250000,144947.8750000000,,,
1.7439999972,13,149443.9375000000,195266.3125000000,153347.6562500000,150195.8125000000,119899.0546875000,151593.8593750000,132041.1406250000,145006.2500000000,,,
1.7479999971,13,148859.6406250000,196886.5937500000,152829.9843750000,149605.2187500000,119307.1406250000,151025.4531250000,131464.5468750000,144681.5937500000,,,
1.7519999973,13,148479.5781250000,201558.6250000000,152468.3125000000,149241.0000000000,118913.1796875000,150654.5781250000,131111.2812500000,144438.5625000000,,,
1.7559999973,13,148814.4218750000,202879.9375000000,152765.5312500000,149593.6875000000,119246.0390625000,150968.9375000000,131442.1875000000,144594.3750000000,,,
1.7599999972,13,149391.6406250000,198988.0468750000,153233.6562500000,150150.6406250000,119826.6328125000,151543.2500000000,131984.5468750000,144938.1250000000,,,
1.7639999972,13,149423.9218750000,195264.7968750000,153309.8906250000,150189.7031250000,119859.7578125000,151571.2812500000,131996.3750000000,144988.4687500000,,,
1.7679999971,13,148828.8593750000,196844.2968750000,152766.5156250000,149588.9843750000,119259.4531250000,151008.2812500000,131451.0781250000,144649.8281250000,,,
1.7719999971,13,148451.5156250000,201540.7031250000,152418.6875000000,149215.0625000000,118885.7109375000,150675.5000000000,131121.5156250000,144414.6250000000,,,
1.7759999973,13,148789.8750000000,202907.0156250000,152752.4687500000,149536.4687500000,119251.9375000000,150976.5000000000,131450.4218750000,144581.8437500000,,,
1.7799999972,13,149379.7500000000,199020.4531250000,153229.7187500000,150142.6562500000,119835.0234375000,151534.0781250000,132003.6250000000,144930.7500000000,,,
1.7839999972,13,149421.5625000000,195262.4062500000,153304.0312500000,150180.2812500000,119874.2968750000,151578.5156250000,132023.7343750000,144996.7812500000,,,
1.7879999971,13,148851.8906250000,196806.2031250000,152802.2812500000,149592.5312500000,119306.7656250000,151001.3281250000,131478.6562500000,144668.6718750000,,,
1.7919999971,14,148475.7187500000,201517.0781250000,152456.0781250000,149216.5937500000,118914.0937500000,150677.4843750000,131109.2968750000,144432.3593750000,,,
1.7959999971,14,148806.0000000000,202929.2031250000,152773.8437500000,149552.9687500000,119265.0000000000,150966.1093750000,131432.1562500000,144594.6562500000,,,
1.7999999970,14,149377.4375000000,199055.4531250000,153228.1250000000,150145.0937500000,119820.8125000000,151513.4218750000,131980.2031250000,144924.0156250000,,,
1.8039999970,14,149433.9062500000,195265.0781250000,153324.7187500000,150195.9218750000,119887.0859375000,151572.9375000000,132034.2500000000,144994.1562500000,,,
1.8079999969,14,148868.0625000000,196773.0156250000,152840.4218750000,149613.4218750000,119327.3671875000,151067.9062500000,131532.2187500000,144694.5000000000,,,
1.8119999969,14,148474.2031250000,201493.6875000000,152482.8750000000,149232.3593750000,118917.7343750000,150661.7343750000,131146.0625000000,144434.1250000000,,,
1.8159999971,14,148794.8437500000,202945.3750000000,152759.4218750000,149560.5312500000,119232.3906250000,150972.4687500000,131410.0000000000,144582.1093750000,,,
1.8199999970,14,149376.2656250000,199088.4375000000,153223.8437500000,150150.5937500000,119805.8984375000,151510.2031250000,131930.8750000000,144919.3125000000,,,
1.8239999970,14,149432.7500000000,195262.2968750000,153326.8437500000,150210.6718750000,119876.2265625000,151571.1718750000,132016.6250000000,144986.6875000000,,,
1.8279999970,14,148874.1875000000,196736.2812500000,152836.7656250000,149621.9843750000,119337.5546875000,151042.9687500000,131545.8437500000,144684.5156250000,,,
1.8319999969,14,148493.3125000000,201469.5781250000,152487.4687500000,149234.7187500000,118950.7265625000,150663.4843750000,131161.0000000000,144446.0468750000,,,
1.8359999971,14,148811.3125000000,202975.1562500000,152780.9531250000,149559.7500000000,119266.1328125000,150971.2656250000,131465.7343750000,144599.2500000000,,,
1.8399999971,14,149390.5312500000,199144.7968750000,153244.4062500000,150149.8906250000,119841.9765625000,151524.4687500000,131968.9375000000,144940.7812500000,,,
1.8439999970,14,149422.4843750000,195289.6875000000,153301.6250000000,150201.6093750000,119851.4687500000,151584.2343750000,132000.1406250000,144993.6718750000,,,
1.8479999970,14,148861.3125000000,196719.0312500000,152814.7187500000,149613.8281250000,119308.5859375000,151034.5625000000,131500.7812500000,144678.0000000000,,,
1.8519999969,14,148477.7031250000,201435.5000000000,152465.0468750000,149224.0781250000,118931.4687500000,150658.5781250000,131142.5468750000,144438.8281250000,,,
1.8559999969,14,148772.9531250000,202962.9375000000,152731.4062500000,149533.8125000000,119209.4296875000,150949.7500000000,131385.7968750000,144576.0156250000,,,
1.8599999971,14,149336.2656250000,199156.4062500000,153175.2968750000,150106.7031250000,119765.8828125000,151475.4218750000,131888.5000000000,144892.2343750000,,,
1.8639999970,14,149402.0625000000,195280.9687500000,153281.5312500000,150177.6562500000,119840.2031250000,151542.2343750000,131973.5781250000,144962.3593750000,,,
1.8679999970,14,148851.0937500000,196668.3437500000,152798.8750000000,149622.9218750000,119296.9765625000,151015.5000000000,131469.4843750000,144660.6406250000,,,
1.8719999969,14,148461.2031250000,201371.4218750000,152438.3750000000,149220.5625000000,118910.0703125000,150641.1406250000,131138.7968750000,144414.1562500000,,,
1.8759999969,14,148776.6250000000,202946.6406250000,152725.5937500000,149525.3750000000,119231.8281250000,150936.2656250000,131480.4531250000,144572.9375000000,,,
1.8799999971,14,149358.2656250000,199190.7187500000,153199.5625000000,150116.7968750000,119815.5000000000,151500.4062500000,131932.0000000000,144917.5000000000,,,
1.8839999971,14,149391.7187500000,195305.6093750000,153272.6875000000,150182.1562500000,119828.3203125000,151518.1718750000,131923.5625000000,144957.3437500000,,,
1.8879999970,14,148809.3593750000,196632.6406250000,152725.0781250000,149607.8437500000,119232.4453125000,150956.5625000000,131402.4375000000,144625.4531250000,,,
1.8919999970,14,148439.8437500000,201316.6875000000,152370.0312500000,149214.7343750000,118886.8125000000,150606.0000000000,131118.4843750000,144402.4218750000,,,
1.8959999969,14,148764.7968750000,202924.9375000000,152685.0625000000,149536.2031250000,119229.3281250000,150895.1250000000,131408.5156250000,144563.7031250000,,,
1.8999999969,14,149335.0312500000,199197.5000000000,153141.6250000000,150130.7968750000,119759.4140625000,151457.2031250000,131856.7968750000,144883.1875000000,,,
1.9039999971,14,149404.4843750000,195304.3750000000,153242.9062500000,150205.7656250000,119834.4375000000,151534.0781250000,131986.5937500000,144960.1718750000,,,
1.9079999970,14,148861.6562500000,196597.4531250000,152761.5625000000,149647.3750000000,119301.8828125000,151012.7812500000,131463.1250000000,144668.5312500000,,,
1.9119999970,14,148479.4375000000,201274.4375000000,152400.7968750000,149238.8281250000,118922.0312500000,150638.6718750000,131162.5312500000,144436.7812500000,,,
1.9159999969,14,148765.8750000000,202921.8750000000,152680.6406250000,149537.4843750000,119211.9531250000,150908.2656250000,131382.2656250000,144567.5468750000,,,
1.9199999969,15,149329.0312500000,199234.4375000000,153153.2500000000,150112.7500000000,119787.9531250000,151459.2343750000,131928.2968750000,144881.9843750000,,,
1.9239999969,15,149386.3750000000,195321.3906250000,153245.2968750000,150199.8437500000,119828.3750000000,151515.0000000000,131941.4531250000,144939.1718750000,,,
1.9279999968,15,148824.8593750000,196562.3281250000,152735.1718750000,149619.8906250000,119265.1953125000,150981.3750000000,131431.1250000000,144629.9843750000,,,
1.9319999968,15,148453.3906250000,201220.7968750000,152396.1875000000,149206.0000000000,118912.7187500000,150633.4218750000,131179.1093750000,144411.5781250000,,,
1.9359999967,15,148748.3281250000,202898.7656250000,152689.6250000000,149514.5000000000,119207.2578125000,150899.2500000000,131370.1093750000,144550.5468750000,,,
1.9399999967,15,149291.7968750000,199248.6718750000,153107.4375000000,150085.7343750000,119722.6953125000,151428.7500000000,131835.7343750000,144861.1093750000,,,
1.9439999969,15,149381.4687500000,195329.9687500000,153217.0781250000,150185.4843750000,119819.8984375000,151540.1875000000,131965.8281250000,144957.3750000000,,,
1.9479999968,15,148838.9843750000,196537.2812500000,152749.4687500000,149620.2343750000,119287.3437500000,151015.2343750000,131434.2187500000,144662.8906250000,,,
1.9519999968,15,148443.0625000000,201175.8437500000,152380.6093750000,149213.6406250000,118888.4765625000,150630.6250000000,131109.0156250000,144414.4218750000,,,
1.9559999967,15,148704.6718750000,202887.0312500000,152620.6875000000,149500.1875000000,119136.2578125000,150881.9531250000,131282.3750000000,144524.7031250000,,,
1.9599999967,15,149274.7968750000,199277.4843750000,153079.3281250000,150092.3906250000,119711.3203125000,151409.6718750000,131853.4218750000,144840.5937500000,,,
1.9639999969,15,149378.2968750000,195355.3125000000,153218.4687500000,150206.7500000000,119829.8750000000,151509.4218750000,131950.0312500000,144931.5156250000,,,
1.9679999969,15,148853.8281250000,196510.4375000000,152737.4531250000,149657.0625000000,119300.2734375000,151009.8906250000,131504.0312500000,144648.6250000000,,,
1.9719999968,15,148468.1718750000,201126.6562500000,152371.7343750000,149253.6875000000,118926.3750000000,150625.6562500000,131163.3437500000,144407.1562500000,,,
1.9759999968,15,148749.6250000000,202873.6250000000,152631.1718750000,149544.7031250000,119188.5859375000,150902.7343750000,131301.9062500000,144544.8750000000,,,
1.9799999967,15,149311.4687500000,199311.2500000000,153104.8906250000,150121.1406250000,119752.9218750000,151429.4687500000,131852.5000000000,144861.2812500000,,,
1.9839999967,15,149388.0156250000,195384.2343750000,153218.1875000000,150212.0625000000,119824.4609375000,151509.8593750000,131924.2343750000,144933.2343750000,,,
1.9879999969,15,148857.3437500000,196500.2968750000,152743.8281250000,149650.0625000000,119310.2265625000,151002.1718750000,131506.6875000000,144646.0000000000,,,
1.9919999968,15,148474.7500000000,201099.2968750000,152393.4531250000,149232.0625000000,118939.3281250000,150616.7343750000,131167.0625000000,144414.3593750000,,,
1.9959999968,15,148734.6250000000,202878.1406250000,152645.2031250000,149513.8906250000,119174.5312500000,150879.9843750000,131319.9218750000,144539.3281250000,,,
1.9999999967,15,149310.0468750000,199355.7500000000,153106.7812500000,150106.0468750000,119736.5859375000,151446.2812500000,131835.9218750000,144873.9375000000,,,
2.0039999967,15,149375.1875000000,195416.3593750000,153224.5312500000,150216.6250000000,119814.8281250000,151490.3281250000,131898.6093750000,144934.3125000000,,,
2.0079999969,15,148830.4375000000,196480.1250000000,152731.6562500000,149631.2812500000,119276.7265625000,150975.7187500000,131450.4687500000,144629.2656250000,,,
2.0119999968,15,148430.3281250000,201056.6250000000,152348.5312500000,149209.3281250000,118877.9843750000,150598.1718750000,131097.9531250000,144379.1718750000,,,
2.0159999968,15,148693.9375000000,202866.3906250000,152608.1718750000,149487.8125000000,119127.1640625000,150852.8281250000,131241.2812500000,144499.4218750000,,,
2.0199999968,15,149294.0000000000,199376.4218750000,153117.8906250000,150095.3125000000,119743.6406250000,151413.8906250000,131863.9375000000,144849.3593750000,,,
2.0239999967,15,149366.5781250000,195414.6406250000,153227.8593750000,150179.2031250000,119802.1718750000,151503.9062500000,131915.6406250000,144913.0625000000,,,
2.0279999967,15,148815.3125000000,196432.7812500000,152723.2343750000,149627.6875000000,119249.3671875000,150975.6093750000,131402.6250000000,144605.7187500000,,,
2.0319999969,15,148403.2968750000,200992.1875000000,152321.1718750000,149210.0156250000,118836.9765625000,150576.2343750000,131044.1640625000,144361.3125000000,,,
2.0359999968,15,148672.7812500000,202833.1562500000,152574.3750000000,149475.1093750000,119123.2500000000,150820.1718750000,131377.1406250000,144490.9218750000,,,
2.0399999968,15,149262.4062500000,199370.9062500000,153081.1406250000,150060.2500000000,119733.0468750000,151408.3281250000,131885.9843750000,144838.9843750000,,,
2.0439999967,15,149343.5625000000,195401.5781250000,153198.5937500000,150171.7031250000,119793.6953125000,151482.0937500000,131875.6250000000,144925.0781250000,,,
2.0479999967,16,148798.8906250000,196374.6093750000,152701.4843750000,149623.7031250000,119246.8437500000,150958.3437500000,131407.6562500000,144613.6718750000,,,
2.0519999966,16,148391.3593750000,200905.6875000000,152321.8437500000,149205.2968750000,118883.0546875000,150635.9843750000,131179.1875000000,144351.5781250000,,,
2.0559999966,16,148688.5781250000,202781.7656250000,152618.7031250000,149510.6718750000,119181.3984375000,150876.6718750000,131410.1875000000,144523.4218750000,,,
2.0599999966,16,149207.2343750000,199361.1406250000,153032.3281250000,150045.0937500000,119631.1796875000,151306.1718750000,131680.3593750000,144784.3437500000,,,
2.0639999965,16,149307.1718750000,195381.2812500000,153157.7187500000,150151.1875000000,119733.3203125000,151444.2500000000,131832.4375000000,144860.7343750000,,,
2.0679999965,16,148800.6406250000,196312.4062500000,152702.6406250000,149629.1093750000,119246.0390625000,150954.7187500000,131443.7031250000,144590.0468750000,,,
2.0719999967,16,148386.6562500000,200818.5156250000,152305.4531250000,149201.3593750000,118833.1640625000,150551.9843750000,131070.6640625000,144334.1875000000,,,
2.0759999966,16,148656.5156250000,202710.9531250000,152567.4531250000,149475.2031250000,119102.3281250000,150807.0937500000,131263.3906250000,144467.3906250000,,,
2.0799999966,16,149255.6406250000,199344.0312500000,153056.0468750000,150082.6562500000,119707.4375000000,151383.1250000000,131862.3281250000,144816.4531250000,,,
2.0839999965,16,149377.2031250000,195385.5468750000,153213.9375000000,150202.6250000000,119824.5156250000,151546.0312500000,131980.9062500000,144931.6093750000,,,
2.0879999965,16,148830.0312500000,196277.2500000000,152724.0937500000,149650.2812500000,119257.7109375000,150998.7656250000,131389.9843750000,144619.7187500000,,,
2.0919999967,16,148394.7968750000,200781.9062500000,152312.1875000000,149196.2656250000,118831.2890625000,150564.7812500000,131049.2890625000,144346.0156250000,,,
2.0959999966,16,148669.6406250000,202737.0468750000,152587.2187500000,149463.5156250000,119141.3515625000,150865.8281250000,131310.1562500000,144500.5937500000,,,
2.0999999966,16,149284.5312500000,199415.0312500000,153107.9218750000,150075.2812500000,119755.5000000000,151395.9218750000,131870.0781250000,144876.4843750000,,,
2.1039999966,16,149382.5468750000,195425.2968750000,153212.3125000000,150229.0156250000,119805.0937500000,151441.1093750000,132009.8437500000,144948.6562500000,,,
2.1079999965,16,148810.5312500000,196265.6875000000,152699.2031250000,149658.9375000000,119222.9765625000,150963.6250000000,131390.0156250000,144600.4218750000,,,
2.1119999965,16,148390.8750000000,200777.0000000000,152324.6562500000,149194.2031250000,118847.5468750000,150673.8593750000,131058.8671875000,144336.6875000000,,,
2.1159999967,16,148657.7812500000,202769.7656250000,152588.7656250000,149459.5781250000,119116.4062500000,150874.3281250000,131285.4843750000,144487.8906250000,,,
2.1199999966,16,149229.0312500000,199444.1562500000,153045.4218750000,150052.0156250000,119665.9375000000,151310.9218750000,131848.5156250000,144799.5000000000,,,
2.1239999966,16,149360.5156250000,195415.9375000000,153198.2187500000,150195.2031250000,119816.3828125000,151464.4218750000,131976.0781250000,144925.7343750000,,,
2.1279999965,16,148821.2031250000,196273.5937500000,152719.5781250000,149676.5625000000,119254.5468750000,150965.9218750000,131369.5468750000,144611.5625000000,,,
2.1319999965,16,148389.5312500000,200807.0312500000,152344.2031250000,149226.9218750000,118858.7031250000,150600.0468750000,131119.7031250000,144351.7031250000,,,
2.1359999967,16,148674.3906250000,202858.3593750000,152621.9531250000,149503.9062500000,119139.6093750000,150878.1093750000,131324.5625000000,144536.2656250000,,,
2.1399999966,16,149251.7031250000,199551.6250000000,153075.0000000000,150108.5312500000,119707.5703125000,151411.3437500000,131863.9843750000,144818.3281250000,,,
2.1439999966,16,149382.5937500000,195467.4375000000,153213.8125000000,150255.2187500000,119821.2421875000,151485.5468750000,131880.3437500000,144920.6875000000,,,
2.1479999966,16,148834.7031250000,196222.7968750000,152727.3906250000,149714.3281250000,119259.3984375000,150986.3437500000,131472.7812500000,144600.5312500000,,,
2.1519999965,16,148410.7500000000,200762.4531250000,152365.1093750000,149263.6406250000,118879.3828125000,150678.7187500000,131062.3515625000,144369.6718750000,,,
2.1559999965,16,148613.1718750000,202847.6406250000,152569.7812500000,149491.6718750000,119045.8437500000,150740.1406250000,131234.0937500000,144446.9218750000,,,
2.1599999967,16,149193.2343750000,199554.0156250000,153000.9531250000,150082.6562500000,119624.4218750000,151270.5468750000,131796.0937500000,144757.6562500000,,,
2.1639999966,16,149345.0937500000,195431.5937500000,153170.9687500000,150243.6562500000,119790.8203125000,151443.2812500000,131936.3750000000,144892.9843750000,,,
2.1679999966,16,148826.1093750000,196146.1562500000,152722.2343750000,149721.8437500000,119270.0468750000,150985.6406250000,131481.7656250000,144613.2968750000,,,
2.1719999965,16,148380.1718750000,200692.1875000000,152315.9062500000,149254.2031250000,118836.1953125000,150586.7187500000,131120.8593750000,144338.2500000000,,,
2.1759999965,17,148650.6250000000,202834.4687500000,152583.5468750000,149505.7656250000,119119.4687500000,150839.6250000000,131335.3750000000,144499.6875000000,,,
2.1799999964,17,149251.8437500000,199588.6718750000,153043.8906250000,150109.2343750000,119694.2343750000,151357.4843750000,131896.3906250000,144825.4062500000,,,
2.1839999964,17,149373.1718750000,195437.7656250000,153161.4843750000,150260.1250000000,119797.6640625000,151503.0156250000,131871.8125000000,144889.9687500000,,,
2.1879999964,17,148845.2187500000,196115.0781250000,152706.4375000000,149725.9687500000,119263.6328125000,151027.1406250000,131439.0468750000,144614.9375000000,,,
2.1919999963,17,148380.6875000000,200667.6406250000,152305.4843750000,149247.1406250000,118815.2812500000,150551.6875000000,131061.0390625000,144328.1093750000,,,
2.1959999963,17,148642.7656250000,202863.4687500000,152576.3281250000,149483.5312500000,119104.1484375000,150845.9218750000,131343.2031250000,144506.3906250000,,,
2.1999999965,17,149249.7187500000,199657.7343750000,153094.6875000000,150104.5156250000,119746.5390625000,151421.3750000000,131879.8593750000,144827.6875000000,,,
2.2039999964,17,149359.4687500000,195484.3281250000,153202.8593750000,150258.0625000000,119798.0937500000,151500.9218750000,131889.6250000000,144874.8750000000,,,
2.2079999964,17,148836.8750000000,196117.5468750000,152729.0468750000,149742.4062500000,119259.8281250000,151002.9687500000,131488.0937500000,144607.1093750000,,,
2.2119999963,17,148378.1562500000,200662.2031250000,152323.9375000000,149272.1406250000,118825.3906250000,150580.7968750000,131072.2187500000,144336.8750000000,,,
2.2159999963,17,148580.9062500000,202885.7500000000,152520.2968750000,149495.9218750000,119015.6953125000,150762.3437500000,131140.7343750000,144418.1406250000,,,
2.2199999965,17,149189.5781250000,199687.2656250000,152959.9687500000,150109.2812500000,119615.8359375000,151332.1562500000,131774.2187500000,144780.7812500000,,,
2.2239999964,17,149368.5937500000,195497.7187500000,153156.6562500000,150283.9531250000,119825.0234375000,151576.4531250000,131995.7343750000,144921.0000000000,,,
2.2279999964,17,148839.9843750000,196089.2968750000,152735.6562500000,149765.9687500000,119296.1406250000,151005.8906250000,131509.0156250000,144628.5937500000,,,
2.2319999964,17,148343.5625000000,200632.1250000000,152307.7656250000,149282.6875000000,118811.5234375000,150494.3906250000,131121.6562500000,144285.9062500000,,,
2.2359999963,17,148543.0312500000,202884.4687500000,152489.0781250000,149512.2500000000,118974.7890625000,150733.8125000000,131073.7187500000,144357.6562500000,,,
2.2399999963,17,149152.7343750000,199710.0156250000,152951.5468750000,150120.5468750000,119578.9296875000,151321.3750000000,131649.7343750000,144729.2812500000,,,
2.2439999965,17,149337.4218750000,195489.9843750000,153151.0937500000,150320.7968750000,119791.7343750000,151514.7343750000,131940.5312500000,144869.9843750000,,,
2.2479999964,17,148875.6250000000,196048.5781250000,152778.8125000000,149835.3281250000,119334.4765625000,151070.0468750000,131484.3437500000,144650.7500000000,,,
2.2519999964,17,148369.6250000000,200596.2500000000,152330.5312500000,149320.3906250000,118793.7968750000,150562.4687500000,130991.2500000000,144339.9843750000,,,
2.2559999963,17,148596.0937500000,202901.0468750000,152546.7968750000,149541.1093750000,119035.6484375000,150750.7343750000,131228.1093750000,144450.9843750000,,,
2.2599999963,17,149205.0312500000,199761.8593750000,153013.7656250000,150138.0937500000,119652.9062500000,151342.4375000000,131865.0781250000,144803.8750000000,,,
2.2639999965,17,149383.0000000000,195520.8281250000,153184.2500000000,150338.8281250000,119840.7656250000,151550.6718750000,132060.1093750000,144908.3125000000,,,
2.2679999964,17,148865.1406250000,196030.0000000000,152744.3125000000,149826.9062500000,119307.0859375000,151046.7656250000,131390.8906250000,144632.9843750000,,,
2.2719999964,17,148380.7812500000,200563.2500000000,152291.2656250000,149345.2500000000,118800.8984375000,150577.7656250000,131021.1796875000,144336.4218750000,,,
2.2759999963,17,148602.1250000000,202913.8125000000,152528.9062500000,149540.6562500000,119070.4375000000,150813.7656250000,131372.8437500000,144445.2343750000,,,
2.2799999963,17,149231.3125000000,199814.1875000000,153033.1875000000,150163.4375000000,119705.7734375000,151381.6718750000,131833.1718750000,144817.9843750000,,,
2.2839999963,17,149380.7968750000,195548.5156250000,153158.8750000000,150350.1406250000,119799.1406250000,151524.7187500000,131829.0625000000,144913.9843750000,,,
2.2879999964,17,148886.7031250000,196018.0625000000,152739.0625000000,149837.0156250000,119322.7500000000,151063.5312500000,131452.9687500000,144647.2343750000,,,
2.2919999964,17,148429.0156250000,200551.6875000000,152337.9531250000,149362.4843750000,118863.3437500000,150631.5625000000,131071.2812500000,144376.7656250000,,,
2.2959999964,17,148627.7343750000,202933.1250000000,152537.7031250000,149542.5312500000,119070.6796875000,150836.0312500000,131318.5781250000,144464.3593750000,,,
2.2999999963,17,149248.1562500000,199858.0000000000,153035.0468750000,150182.0781250000,119742.8359375000,151383.2343750000,131956.6250000000,144820.8750000000,,,
2.3039999963,18,149422.8750000000,195588.5625000000,153216.2187500000,150372.1093750000,119878.7500000000,151545.4687500000,131958.6093750000,144951.2031250000,,,
2.3079999962,18,148881.7187500000,196005.4531250000,152732.3593750000,149832.8593750000,119287.0000000000,151069.0937500000,131407.4531250000,144650.9062500000,,,
2.3119999962,18,148423.9687500000,200504.6250000000,152336.1875000000,149354.1093750000,118871.6562500000,150623.2031250000,131100.2031250000,144378.7500000000,,,
2.3159999961,18,148641.0156250000,202915.0468750000,152567.6406250000,149564.0156250000,119086.0234375000,150829.2500000000,131300.5000000000,144485.4687500000,,,
2.3199999961,18,149226.7500000000,199878.8125000000,153010.7968750000,150159.0156250000,119655.2421875000,151393.4531250000,131802.8593750000,144813.5000000000,,,
2.3239999961,18,149444.2031250000,195598.7812500000,153235.3125000000,150372.8125000000,119921.6875000000,151605.6093750000,132078.2343750000,144975.6093750000,,,
2.3279999963,18,148939.8125000000,195982.9531250000,152816.1093750000,149880.1093750000,119371.9687500000,151125.1718750000,131489.3125000000,144711.9843750000,,,
2.3319999962,18,148429.7343750000,200457.8125000000,152359.2812500000,149372.5312500000,118859.9609375000,150632.2968750000,131085.0468750000,144381.8906250000,,,
2.3359999962,18,148609.1562500000,202889.1250000000,152545.9843750000,149550.5781250000,119057.0234375000,150802.2656250000,131262.1250000000,144451.7812500000,,,
2.3399999961,18,149242.4687500000,199893.6718750000,153040.5937500000,150168.1250000000,119722.2109375000,151406.2187500000,131821.2343750000,144825.1718750000,,,
2.3439999961,18,149421.2187500000,195614.5468750000,153209.3750000000,150379.0625000000,119860.0781250000,151580.8593750000,132019.3437500000,144957.4531250000,,,
2.3479999963,18,148899.0781250000,195941.6250000000,152780.1718750000,149850.0468750000,119339.6250000000,151081.2656250000,131515.7500000000,144661.5781250000,,,
2.3519999962,18,148433.2187500000,200403.2031250000,152359.6250000000,149358.4062500000,118885.5234375000,150638.6250000000,131246.0781250000,144405.7812500000,,,
2.3559999962,18,148621.0937500000,202881.4843750000,152552.4843750000,149569.0937500000,119064.9375000000,150812.5312500000,131267.3593750000,144475.8125000000,,,
2.3599999961,18,149227.6406250000,199928.8281250000,152997.2812500000,150197.0781250000,119652.1562500000,151407.0937500000,131682.8593750000,144794.9687500000,,,
2.3639999961,18,149443.5312500000,195641.0000000000,153214.0468750000,150395.9843750000,119876.8125000000,151602.7656250000,131968.6406250000,144964.0625000000,,,
2.3679999961,18,148925.9218750000,195927.1875000000,152809.4062500000,149865.0625000000,119371.4062500000,151124.9062500000,131573.0781250000,144686.7968750000,,,
2.3719999962,18,148418.3437500000,200357.6562500000,152366.8125000000,149357.9218750000,118864.9218750000,150617.2343750000,131057.2812500000,144367.2968750000,,,
2.3759999962,18,148608.0312500000,202852.5156250000,152545.1093750000,149552.7812500000,119043.2656250000,150792.5781250000,131237.0937500000,144446.4687500000,,,
2.3799999962,18,149220.6093750000,199940.4218750000,153020.2031250000,150162.3593750000,119664.5156250000,151383.3125000000,131817.0000000000,144797.2968750000,,,
2.3839999961,18,149426.1875000000,195649.0937500000,153233.0468750000,150357.4375000000,119881.2109375000,151570.9531250000,132014.1093750000,144945.3281250000,,,
2.3879999961,18,148921.7031250000,195891.4375000000,152822.5781250000,149849.2656250000,119376.8750000000,151097.8593750000,131589.5625000000,144671.1875000000,,,
2.3919999963,18,148430.4375000000,200310.4531250000,152380.6406250000,149362.2968750000,118871.6015625000,150618.1562500000,131072.7031250000,144375.6562500000,,,
2.3959999962,18,148620.8125000000,202838.0312500000,152568.8437500000,149558.2500000000,119061.0234375000,150801.2187500000,131215.7500000000,144470.2656250000,,,
2.3999999962,18,149227.0781250000,199964.3750000000,153028.2031250000,150145.8437500000,119659.1796875000,151385.5625000000,131775.9062500000,144817.7343750000,,,
2.4039999961,18,149442.8437500000,195668.3750000000,153221.4843750000,150358.8906250000,119893.1796875000,151599.3125000000,132027.9218750000,144975.1093750000,,,
2.4079999961,18,148941.4218750000,195862.5156250000,152810.4531250000,149874.5625000000,119394.3671875000,151131.5625000000,131576.4218750000,144701.6875000000,,,
2.4119999961,18,148427.7812500000,200251.0468750000,152345.7187500000,149360.6250000000,118863.9296875000,150617.1406250000,131086.2031250000,144381.7968750000,,,
2.4159999962,18,148613.5312500000,202803.1718750000,152535.9375000000,149533.7968750000,119059.2812500000,150801.0781250000,131252.3125000000,144466.4218750000,,,
2.4199999962,18,149238.7500000000,199963.2187500000,153018.4062500000,150152.5156250000,119694.6093750000,151375.3437500000,131820.2343750000,144830.2343750000,,,
2.4239999962,18,149470.5468750000,195674.6562500000,153226.0156250000,150432.8125000000,119900.7656250000,151602.3906250000,132023.8125000000,144995.5781250000,,,
2.4279999961,18,148970.7187500000,195838.8437500000,152815.7187500000,149905.9531250000,119412.2578125000,151155.7812500000,131592.7656250000,144716.3750000000,,,
2.4319999961,19,148472.3593750000,200213.2187500000,152386.6406250000,149371.5625000000,118941.1796875000,150665.8437500000,131195.8750000000,144423.1562500000,,,
2.4359999960,19,148649.7343750000,202810.5937500000,152571.5312500000,149566.7343750000,119113.1093750000,150832.0625000000,131323.9531250000,144523.7656250000,,,
2.4399999960,19,149233.7031250000,200019.2968750000,153006.8750000000,150169.6093750000,119675.9218750000,151384.8125000000,131747.5468750000,144831.9531250000,,,
2.4439999959,19,149462.2500000000,195707.1875000000,153216.4843750000,150409.0156250000,119919.1171875000,151612.1250000000,132059.9531250000,144989.2187500000,,,
2.4479999959,19,148982.1406250000,195825.8593750000,152842.5312500000,149942.0156250000,119447.8515625000,151154.2812500000,131660.7500000000,144739.7968750000,,,
2.4519999959,19,148450.5781250000,200178.4687500000,152375.5937500000,149395.0625000000,118896.6015625000,150638.5156250000,131046.8750000000,144410.6406250000,,,
2.4559999960,19,148609.7656250000,202786.5625000000,152526.5156250000,149523.9218750000,119043.4765625000,150796.4687500000,131223.6562500000,144478.5468750000,,,
2.4599999960,19,149248.6250000000,200047.2500000000,153015.7343750000,150159.3125000000,119697.7812500000,151393.7343750000,131790.7812500000,144848.9843750000,,,
2.4639999960,19,149437.8437500000,195735.7343750000,153191.9218750000,150400.5468750000,119887.8125000000,151553.7656250000,131974.5937500000,144952.6562500000,,,
2.4679999959,19,148931.0468750000,195795.8906250000,152756.2812500000,149894.4687500000,119371.8359375000,151086.8750000000,131530.6718750000,144668.4843750000,,,
2.4719999959,19,148450.7187500000,200127.2812500000,152325.1718750000,149376.4218750000,118899.0937500000,150625.9843750000,131123.8281250000,144388.3750000000,,,
2.4759999961,19,148635.2031250000,202784.1718750000,152527.0781250000,149547.0937500000,119084.5703125000,150786.2500000000,131292.5937500000,144494.7500000000,,,
2.4799999960,19,149247.8437500000,200084.3906250000,152998.9687500000,150158.2343750000,119693.1953125000,151372.3593750000,131792.3125000000,144850.0312500000,,,
2.4839999960,19,149448.6250000000,195768.6093750000,153187.0468750000,150392.2343750000,119894.8671875000,151583.4531250000,131991.0468750000,144962.1250000000,,,
2.4879999959,19,148969.4062500000,195802.3906250000,152796.4843750000,149912.9531250000,119420.0625000000,151135.3125000000,131555.8281250000,144724.5937500000,,,
2.4919999959,19,148430.0625000000,200117.6562500000,152327.1718750000,149385.1718750000,118876.8593750000,150615.4687500000,131091.7187500000,144381.4062500000,,,
2.4959999959,19,148596.2187500000,202794.0156250000,152502.4062500000,149561.3593750000,119047.6875000000,150764.4218750000,131240.7500000000,144448.0000000000,,,
2.4999999960,19,149209.4062500000,200122.9375000000,152966.6718750000,150172.3125000000,119659.4765625000,151343.3750000000,131778.6093750000,144801.1875000000,,,
2.5039999960,19,149452.8125000000,195818.2656250000,153191.0312500000,150416.6093750000,119894.1171875000,151580.8281250000,131992.6562500000,144971.7500000000,,,
2.5079999960,19,148964.0156250000,195814.5156250000,152817.1875000000,149927.4375000000,119408.5859375000,151102.9062500000,131540.3437500000,144698.1093750000,,,
2.5119999959,19,148430.4687500000,200093.4062500000,152355.2343750000,149388.9843750000,118871.7109375000,150602.4687500000,131057.0703125000,144367.1875000000,,,
2.5159999959,19,148599.7031250000,202788.6093750000,152509.1406250000,149558.0312500000,119025.6718750000,150777.5625000000,131219.6093750000,144456.9062500000,,,
2.5199999961,19,149208.3281250000,200157.2812500000,152970.8281250000,150175.0312500000,119645.8203125000,151326.0937500000,131790.1718750000,144794.5937500000,,,
2.5239999960,19,149425.1562500000,195834.7656250000,153171.3281250000,150435.0468750000,119864.4765625000,151547.4531250000,131987.0937500000,144936.8906250000,,,
2.5279999960,19,148944.0000000000,195783.7968750000,152782.9687500000,149952.5156250000,119380.7656250000,151100.4218750000,131561.2656250000,144679.5468750000,,,
2.5319999959,19,148436.6562500000,200044.6406250000,152339.1406250000,149412.7187500000,118879.4609375000,150637.4687500000,131118.1093750000,144387.7343750000,,,
2.5359999959,19,148617.4687500000,202786.5625000000,152532.7187500000,149565.9218750000,119080.0937500000,150775.5156250000,131325.6093750000,144496.8750000000,,,
2.5399999958,19,149226.2500000000,200217.4375000000,153011.0937500000,150175.1093750000,119676.3750000000,151380.7656250000,131797.9531250000,144841.2656250000,,,
2.5439999960,19,149442.4375000000,195895.3281250000,153204.0781250000,150418.1093750000,119881.0546875000,151619.4687500000,131987.1250000000,144972.6718750000,,,
2.5479999960,19,148980.1562500000,195802.7812500000,152811.4843750000,149973.5625000000,119417.9687500000,151106.2656250000,131564.5468750000,144693.4218750000,,,
2.5519999960,19,148466.9375000000,200037.9375000000,152337.4531250000,149429.5312500000,118904.7031250000,150607.9843750000,131096.6250000000,144394.2812500000,,,
2.5559999959,19,148626.1250000000,202794.4531250000,152494.8750000000,149567.0781250000,119066.7109375000,150789.2031250000,131233.8281250000,144477.4531250000,,,
2.5599999959,20,149260.9843750000,200262.3281250000,152989.5468750000,150176.9531250000,119712.3437500000,151432.8281250000,131849.8437500000,144864.8437500000,,,
2.5639999958,20,149519.9218750000,195961.9687500000,153246.3125000000,150442.6250000000,119982.3593750000,151598.8281250000,132073.2187500000,145037.6250000000,,,
2.5679999958,20,149002.1562500000,195816.7812500000,152815.1562500000,149958.5156250000,119439.6406250000,151115.2968750000,131596.9375000000,144722.7187500000,,,
2.5719999957,20,148501.1718750000,200020.4218750000,152334.5000000000,149412.9531250000,118942.7109375000,150647.8125000000,131220.3906250000,144435.1250000000,,,
2.5759999957,20,148619.3125000000,202785.8906250000,152478.4062500000,149547.7656250000,119063.4921875000,150762.1875000000,131243.9375000000,144474.7656250000,,,
2.5799999957,20,149218.8437500000,200283.4218750000,152940.2031250000,150152.1718750000,119647.6171875000,151337.4687500000,131697.8281250000,144821.0156250000,,,
2.5839999958,20,149475.6718750000,195982.4218750000,153187.6875000000,150427.0781250000,119921.1250000000,151581.4375000000,131980.2812500000,144993.8593750000,,,
2.5879999958,20,149027.2812500000,195823.2187500000,152819.2031250000,149951.0312500000,119473.3281250000,151147.2187500000,131597.5625000000,144775.3437500000,,,
2.5919999958,20,148482.5781250000,199989.6562500000,152335.5937500000,149400.4843750000,118935.8125000000,150651.6875000000,131130.8593750000,144400.4375000000,,,
2.5959999957,20,148633.0468750000,202786.6718750000,152483.6875000000,149545.5937500000,119074.7578125000,150786.4375000000,131220.6250000000,144489.9687500000,,,
2.5999999957,20,149241.9062500000,200347.7031250000,152973.5312500000,150154.1562500000,119699.4375000000,151334.1718750000,131763.8906250000,144847.0312500000,,,
2.6039999959,20,149515.9843750000,196069.6875000000,153240.0156250000,150432.6718750000,119970.1328125000,151626.3437500000,132070.4843750000,145035.2187500000,,,
2.6079999958,20,149032.2968750000,195858.9218750000,152837.6250000000,149980.9375000000,119475.8828125000,151198.7187500000,131665.8437500000,144758.1093750000,,,
2.6119999958,20,148494.3281250000,199984.7812500000,152349.3281250000,149429.0156250000,118935.9765625000,150630.7031250000,131105.9375000000,144432.5781250000,,,
2.6159999957,20,148600.9687500000,202779.4531250000,152483.1250000000,149536.4218750000,119048.2812500000,150728.3906250000,131185.0625000000,144463.9531250000,,,
2.6199999957,20,149191.3593750000,200367.2343750000,152929.2187500000,150137.7500000000,119624.0703125000,151392.0312500000,131753.0468750000,144797.7031250000,,,
2.6239999956,20,149478.1875000000,196102.2031250000,153197.4531250000,150432.0156250000,119913.9140625000,151569.4218750000,132003.9687500000,144991.0937500000,,,
2.6279999958,20,149019.0156250000,195860.7812500000,152836.6562500000,149956.7187500000,119462.4687500000,151143.8593750000,131600.4062500000,144743.0937500000,,,
2.6319999958,20,148485.2656250000,199946.5312500000,152335.4843750000,149396.4687500000,118932.8671875000,150630.5937500000,131115.3281250000,144421.3906250000,,,
2.6359999957,20,148624.0156250000,202758.1250000000,152484.2812500000,149522.1250000000,119074.7031250000,150771.4375000000,131232.5625000000,144496.1406250000,,,
2.6399999957,20,149250.6875000000,200420.8281250000,152996.4218750000,150135.1718750000,119700.8359375000,151404.3906250000,131822.2968750000,144873.6718750000,,,
2.6439999957,20,149517.2187500000,196175.0000000000,153266.5625000000,150411.0937500000,119971.0156250000,151621.5156250000,132080.3125000000,145040.8437500000,,,
2.6479999959,20,149058.3750000000,195887.2968750000,152894.0625000000,149963.4062500000,119506.8828125000,151155.7187500000,131590.6093750000,144786.9531250000,,,
2.6519999958,20,148488.8281250000,199916.5937500000,152328.1406250000,149402.1406250000,118903.7109375000,150628.6718750000,131057.6015625000,144414.1250000000,,,
2.6559999958,20,148618.5937500000,202736.2968750000,152449.8281250000,149535.0781250000,119040.2890625000,150752.6718750000,131193.0781250000,144480.0000000000,,,
2.6599999957,20,149201.3281250000,200427.8593750000,152944.1406250000,150103.5156250000,119642.6562500000,151333.3593750000,131748.5625000000,144801.9375000000,,,
2.6639999957,20,149465.9843750000,196182.6093750000,153204.4218750000,150386.0156250000,119909.3203125000,151606.5468750000,131986.9687500000,144981.6562500000,,,
2.6679999956,20,149016.5781250000,195860.7031250000,152835.3281250000,149940.0625000000,119462.3359375000,151168.7343750000,131593.4531250000,144733.6250000000,,,
2.6719999958,20,148504.9218750000,199879.6875000000,152355.3906250000,149390.7968750000,118953.4140625000,150662.0312500000,131133.4843750000,144426.5468750000,,,
2.6759999958,20,148620.3125000000,202720.2031250000,152487.0312500000,149518.1875000000,119064.6953125000,150767.3125000000,131219.9062500000,144474.2031250000,,,
2.6799999957,20,149250.4687500000,200474.5468750000,153001.6406250000,150122.3281250000,119704.4296875000,151381.5156250000,131810.1562500000,144860.7343750000,,,
2.6839999957,20,149524.1406250000,196252.4062500000,153280.1718750000,150425.2187500000,119968.6015625000,151645.7343750000,132042.2187500000,145046.5937500000,,,
2.6879999957,21,149030.3593750000,195880.1093750000,152867.8281250000,149967.9531250000,119464.6406250000,151168.9218750000,131579.9687500000,144738.7968750000,,,
2.6919999956,21,148496.8750000000,199862.2343750000,152359.4218750000,149408.6875000000,118937.2343750000,150656.7812500000,131105.5937500000,144422.8593750000,,,
2.6959999956,21,148608.5625000000,202727.2343750000,152491.4062500000,149512.0156250000,119051.6328125000,150752.1562500000,131211.4843750000,144464.4375000000,,,
2.6999999955,21,149188.0781250000,200495.3437500000,152969.6718750000,150100.4062500000,119634.1796875000,151313.5625000000,131732.2656250000,144792.5781250000,,,
2.7039999955,21,149468.4843750000,196250.4531250000,153228.5312500000,150405.0312500000,119915.3593750000,151617.6250000000,131984.2031250000,144993.2343750000,,,
2.7079999954,21,149051.3906250000,195861.7968750000,152882.6875000000,149993.3906250000,119498.4062500000,151213.3125000000,131618.6718750000,144778.5625000000,,,
2.7119999956,21,148489.7343750000,199842.4687500000,152361.8593750000,149430.6093750000,118946.6250000000,150643.2656250000,131119.9062500000,144417.0781250000,,,
2.7159999956,21,148595.1562500000,202740.6406250000,152479.8437500000,149480.8906250000,119055.2031250000,150756.9062500000,131207.8593750000,144466.1875000000,,,
2.7199999955,21,149179.7187500000,200535.6875000000,152951.1406250000,150078.1406250000,119634.3671875000,151293.0468750000,131737.6718750000,144813.1250000000,,,
2.7239999955,21,149477.3593750000,196269.0312500000,153228.5312500000,150390.7812500000,119925.0937500000,151606.8125000000,132003.4375000000,145014.2656250000,,,
2.7279999955,21,149023.7187500000,195822.6406250000,152869.5781250000,149961.5468750000,119468.5000000000,151195.0156250000,131599.9218750000,144730.9687500000,,,
2.7319999957,21,148459.6250000000,199794.8281250000,152339.5468750000,149377.2500000000,118905.8046875000,150640.8750000000,131089.8437500000,144386.4218750000,,,
2.7359999956,21,148585.8906250000,202743.3593750000,152463.3593750000,149464.2656250000,119026.9062500000,150758.5468750000,131197.6718750000,144452.8750000000,,,
2.7399999956,21,149222.1406250000,200585.5937500000,152985.2500000000,150092.1718750000,119661.7578125000,151374.6406250000,131760.6406250000,144834.8593750000,,,
2.7439999955,21,149493.0156250000,196286.9218750000,153255.3750000000,150431.5312500000,119934.0781250000,151629.4531250000,132008.0937500000,145013.6562500000,,,
2.7479999955,21,149032.7500000000,195786.0468750000,152878.3750000000,149959.5312500000,119476.4453125000,151190.5312500000,131604.0000000000,144748.1875000000,,,
2.7519999954,21,148491.5625000000,199767.8906250000,152365.4218750000,149368.1562500000,118936.7265625000,150669.1406250000,131121.3906250000,144419.6562500000,,,
2.7559999956,21,148599.2500000000,202763.9218750000,152495.9687500000,149477.8437500000,119046.3515625000,150766.2656250000,131219.1562500000,144465.2187500000,,,
2.7599999956,21,149200.5468750000,200612.1562500000,152986.8593750000,150046.7968750000,119654.9453125000,151335.8281250000,131768.0468750000,144815.8437500000,,,
2.7639999955,21,149521.2343750000,196290.5468750000,153271.1250000000,150382.4375000000,119973.4296875000,151651.9375000000,132038.8125000000,145046.2343750000,,,
2.7679999955,21,149085.5625000000,195760.4843750000,152912.7343750000,149975.1406250000,119525.4453125000,151218.2968750000,131651.5312500000,144809.0000000000,,,
2.7719999955,21,148523.5312500000,199752.2031250000,152394.8281250000,149415.1093750000,118963.9218750000,150664.9062500000,131141.4531250000,144475.6562500000,,,
2.7759999956,21,148583.4062500000,202771.6562500000,152475.5000000000,149465.4531250000,119023.3906250000,150749.4218750000,131186.7500000000,144446.7343750000,,,
2.7799999956,21,149200.2031250000,200645.4687500000,152967.8281250000,150023.4531250000,119643.1953125000,151335.3437500000,131764.9843750000,144802.2656250000,,,
2.7839999956,21,149496.4843750000,196282.7187500000,153263.2343750000,150352.9687500000,119950.4921875000,151615.0781250000,132046.0000000000,145007.1093750000,,,
2.7879999955,21,149051.9375000000,195701.3125000000,152896.2656250000,149970.1562500000,119490.6328125000,151202.8281250000,131644.0468750000,144765.0312500000,,,
2.7919999955,21,148516.1093750000,199693.4687500000,152393.7031250000,149389.7343750000,118949.9218750000,150696.2656250000,131156.6562500000,144446.2343750000,,,
2.7959999954,21,148584.0156250000,202772.9687500000,152505.9531250000,149430.9218750000,119025.7265625000,150755.6093750000,131202.3593750000,144457.6562500000,,,
2.7999999956,21,149181.0312500000,200679.3906250000,152992.5781250000,150031.3125000000,119636.6484375000,151319.8125000000,131715.2343750000,144798.3437500000,,,
2.8039999956,21,149511.6875000000,196301.5937500000,153274.0312500000,150352.4218750000,119960.2031250000,151639.5937500000,132038.7343750000,145032.0000000000,,,
2.8079999955,21,149106.2500000000,195695.6093750000,152939.7968750000,149966.2500000000,119546.3906250000,151253.7031250000,131709.0937500000,144820.2343750000,,,
2.8119999955,21,148519.2656250000,199680.4062500000,152414.3437500000,149365.7500000000,118961.5937500000,150700.9843750000,131188.8125000000,144455.9687500000,,,
2.8159999955,22,148595.7656250000,202793.6250000000,152508.9218750000,149437.0468750000,119040.6640625000,150780.8281250000,131255.6875000000,144479.9218750000,,,
2.8199999954,22,149178.8281250000,200725.1250000000,152985.1250000000,150018.4687500000,119632.0625000000,151334.8906250000,131763.2343750000,144806.0781250000,,,
2.8239999954,22,149497.5781250000,196322.3906250000,153274.5625000000,150350.0156250000,119947.1718750000,151644.1562500000,132044.7187500000,145020.4062500000,,,
2.8279999953,22,149101.8281250000,195671.8750000000,152966.9062500000,149978.4531250000,119547.2812500000,151265.2656250000,131695.7031250000,144816.2656250000,,,
2.8319999953,22,148541.9375000000,199658.2500000000,152471.9687500000,149383.7187500000,118997.5312500000,150727.8281250000,131219.7656250000,144472.8906250000,,,
2.8359999952,22,148597.1093750000,202816.0937500000,152561.3593750000,149457.1875000000,119047.8281250000,150781.0156250000,131261.5312500000,144479.2500000000,,,
2.8399999954,22,149191.0312500000,200781.7968750000,153014.2500000000,150038.5312500000,119636.7031250000,151353.2187500000,131780.6718750000,144818.0156250000,,,
2.8439999954,22,149524.6718750000,196355.2343750000,153298.4062500000,150341.7500000000,119975.0390625000,151667.9687500000,132091.3750000000,145043.7968750000,,,
2.8479999953,22,149105.5468750000,195650.7656250000,152963.2031250000,149927.4843750000,119554.4375000000,151266.9218750000,131703.1250000000,144817.5312500000,,,
2.8519999953,22,148557.7031250000,199635.1250000000,152463.9687500000,149355.6718750000,119009.4140625000,150726.4375000000,131192.8125000000,144483.3750000000,,,
2.8559999953,22,148628.4062500000,202835.1875000000,152551.5781250000,149406.7031250000,119074.5937500000,150802.7500000000,131262.1562500000,144510.5000000000,,,
2.8599999954,22,149243.5781250000,200838.6875000000,153028.5156250000,149996.3125000000,119688.8984375000,151396.2031250000,131834.6406250000,144877.9531250000,,,
2.8639999954,22,149510.0312500000,196372.7812500000,153272.1406250000,150306.7187500000,119962.4843750000,151645.6875000000,132075.1093750000,145035.5312500000,,,
2.8679999954,22,149090.5625000000,195616.0781250000,152917.0156250000,149862.8437500000,119530.0312500000,151252.6562500000,131679.7500000000,144804.0937500000,,,
2.8719999953,22,148552.5781250000,199599.2187500000,152423.5781250000,149315.3750000000,118996.8359375000,150730.3750000000,131201.4218750000,144486.7031250000,,,
2.8759999953,22,148651.9062500000,202840.6406250000,152547.6562500000,149369.3125000000,119105.1718750000,150804.7343750000,131300.9375000000,144526.9687500000,,,
2.8799999952,22,149307.9531250000,200886.4531250000,153066.9375000000,149981.9531250000,119748.7421875000,151433.2500000000,131870.3125000000,144933.2656250000,,,
2.8839999954,22,149539.1875000000,196402.9531250000,153292.6718750000,150274.0781250000,119986.7890625000,151674.7500000000,132088.7343750000,145068.0156250000,,,
2.8879999954,22,149148.5156250000,195609.2656250000,152979.1406250000,149856.8593750000,119601.8906250000,151295.9687500000,131752.8906250000,144858.3750000000,,,
2.8919999953,22,148569.3437500000,199591.7343750000,152476.8750000000,149264.3281250000,119027.8437500000,150733.3750000000,131200.6406250000,144505.9843750000,,,
2.8959999953,22,148606.1718750000,202867.2500000000,152527.6250000000,149317.0156250000,119061.7734375000,150771.9531250000,131228.2968750000,144503.7031250000,,,
2.8999999953,22,149222.4062500000,200921.5625000000,153001.6718750000,149914.9062500000,119677.1796875000,151355.6562500000,131814.5781250000,144861.2812500000,,,
2.9039999954,22,149539.2343750000,196416.1562500000,153273.7500000000,150225.7968750000,119985.6562500000,151662.7656250000,132102.6250000000,145066.3750000000,,,
2.9079999954,22,149165.3281250000,195589.7187500000,152985.6250000000,149820.7656250000,119613.8750000000,151294.6562500000,131769.6250000000,144871.7812500000,,,
2.9119999954,22,148595.5468750000,199561.3125000000,152486.2031250000,149233.4062500000,119045.0625000000,150756.6406250000,131249.2968750000,144536.8593750000,,,
2.9159999953,22,148575.5468750000,202854.1875000000,152516.1718750000,149258.5625000000,119042.8593750000,150714.2343750000,131226.8750000000,144465.6250000000,,,
2.9199999953,22,149160.7187500000,200909.9218750000,152961.4062500000,149843.7656250000,119644.0781250000,151267.1875000000,131712.0937500000,144789.1718750000,,,
2.9239999952,22,149529.7656250000,196398.5000000000,153264.9375000000,150207.9843750000,119991.6953125000,151635.1093750000,132086.3437500000,145048.4062500000,,,
2.9279999954,22,149155.8125000000,195540.1250000000,152977.1093750000,149833.3906250000,119604.1171875000,151285.4375000000,131776.2187500000,144861.4375000000,,,
2.9319999954,22,148587.6875000000,199503.1875000000,152473.2187500000,149246.3593750000,119033.2343750000,150739.9843750000,131254.7968750000,144524.3281250000,,,
2.9359999953,22,148601.0468750000,202846.2187500000,152527.8906250000,149252.6718750000,119051.2343750000,150732.5000000000,131258.6562500000,144491.6406250000,,,
2.9399999953,22,149223.3437500000,200971.6250000000,153017.0625000000,149836.2343750000,119673.5546875000,151327.5468750000,131811.3125000000,144856.1562500000,,,
2.9439999952,23,149513.9375000000,196442.1250000000,153285.1250000000,150183.6875000000,119965.5703125000,151612.0937500000,132068.2656250000,145030.7968750000,,,
