Time:250Hz,Epoch,Channel 1,Channel 2,Channel 3,Channel 4,Channel 5,Channel 6,Channel 7,Channel 8,Event Id,Event Date,Event Duration
0.0000000000,0,139862.5781250000,105019.7109375000,142833.9531250000,145300.0312500000,110853.2187500000,119354.0781250000,142048.3593750000,132334.8750000000,,,
0.0040000000,0,137955.8125000000,102792.9375000000,140851.9375000000,142956.0781250000,108753.7968750000,117084.5000000000,139837.5000000000,130718.9218750000,,,
0.0079999999,0,133713.7656250000,98333.0390625000,136537.8437500000,138353.4531250000,104347.8671875000,112562.1640625000,135380.2500000000,126709.2109375000,,,
0.0119999999,0,132863.2656250000,97621.2656250000,135699.3281250000,137817.0156250000,103586.2578125000,111891.0703125000,134689.6875000000,125712.5546875000,,,
0.0159999998,0,136584.8593750000,101721.2656250000,139466.1406250000,142056.2656250000,107513.2500000000,116040.3203125000,138722.4687500000,129136.8984375000,,,
0.0199999998,0,139726.5625000000,104907.8906250000,142663.7187500000,145224.4218750000,110711.7578125000,119227.6406250000,141925.1718750000,132214.1250000000,,,
0.0240000000,0,137991.5937500000,102849.2890625000,140902.9843750000,142978.8750000000,108792.1562500000,117089.8125000000,139884.5156250000,130743.0390625000,,,
0.0279999999,0,133722.5625000000,98323.4921875000,136574.5312500000,138400.6875000000,104370.4296875000,112519.7812500000,135395.7812500000,126697.5703125000,,,
0.0319999999,0,132893.7187500000,97669.9687500000,135722.0468750000,137848.1875000000,103611.7109375000,111894.4296875000,134706.2187500000,125744.9296875000,,,
0.0359999998,0,136621.7968750000,101772.2500000000,139492.6250000000,142113.6718750000,107545.3593750000,116060.4609375000,138750.7656250000,129178.3984375000,,,
0.0399999998,0,139860.7812500000,105052.3750000000,142801.2343750000,145321.4062500000,110840.1328125000,119329.5078125000,142032.4062500000,132332.7343750000,,,
0.0440000000,0,138059.4531250000,102898.3750000000,140978.6406250000,143074.7656250000,108874.4453125000,117135.5937500000,139953.9062500000,130786.3828125000,,,
0.0480000000,0,133756.1250000000,98359.4609375000,136589.0468750000,138475.6875000000,104396.5234375000,112545.2109375000,135419.5000000000,126718.3281250000,,,
0.0519999999,0,132853.5312500000,97612.7343750000,135672.0312500000,137843.4062500000,103566.1640625000,111834.9609375000,134656.3750000000,125688.4140625000,,,
0.0559999999,0,136587.9531250000,101715.1718750000,139471.3750000000,142044.9062500000,107523.0937500000,115998.5312500000,138721.7031250000,129118.5312500000,,,
0.0599999998,0,139826.1562500000,105013.8359375000,142760.7031250000,145292.5781250000,110817.3828125000,119295.3671875000,142003.7500000000,132285.8906250000,,,
0.0639999998,0,138102.2656250000,102965.8359375000,141018.8281250000,143071.6718750000,108924.5468750000,117184.3359375000,139995.2968750000,130826.0000000000,,,
0.0680000000,0,133825.2500000000,98450.0703125000,136673.2656250000,138498.9062500000,104481.0703125000,112619.0781250000,135473.6250000000,126791.2031250000,,,
0.0719999999,0,132868.1250000000,97643.3671875000,135695.7968750000,137849.3593750000,103591.8359375000,111855.8593750000,134653.4843750000,125711.4218750000,,,
0.0759999999,0,136605.4531250000,101764.4687500000,139483.9531250000,142076.1718750000,107541.8203125000,116032.2187500000,138736.6093750000,129149.3437500000,,,
0.0799999998,0,139841.1718750000,105035.2890625000,142795.8593750000,145318.3281250000,110843.5937500000,119310.2500000000,142021.3437500000,132304.1562500000,,,
0.0839999998,0,138096.1718750000,102961.5390625000,141019.4375000000,143100.6718750000,108920.7421875000,117175.4531250000,139967.6093750000,130822.3203125000,,,
0.0880000000,0,133739.6562500000,98362.2265625000,136568.9531250000,138451.9218750000,104391.9375000000,112538.2343750000,135384.9687500000,126711.5390625000,,,
0.0919999999,0,132872.7968750000,97656.7734375000,135694.0156250000,137784.7500000000,103592.7734375000,111853.9765625000,134653.5156250000,125724.6484375000,,,
0.0959999999,0,136618.1718750000,101757.0156250000,139507.0781250000,142039.4843750000,107555.3593750000,116026.1015625000,138733.6250000000,129166.8906250000,,,
0.0999999999,0,139851.5000000000,105023.8671875000,142801.8750000000,145307.9218750000,110853.6250000000,119313.3359375000,142023.0625000000,132320.3125000000,,,
0.1039999998,0,138100.2812500000,102950.3281250000,141008.3906250000,143121.7343750000,108916.9843750000,117184.4687500000,139954.1718750000,130836.1640625000,,,
0.1079999998,0,133766.3750000000,98366.5937500000,136597.5156250000,138464.3593750000,104410.8984375000,112548.4843750000,135377.3906250000,126738.3125000000,,,
0.1120000000,0,132837.5156250000,97590.9843750000,135666.8437500000,137811.5156250000,103556.5937500000,111784.3750000000,134589.4062500000,125675.2734375000,,,
0.1159999999,0,136587.1406250000,101707.1250000000,139494.4218750000,142041.4375000000,107535.1093750000,115970.9296875000,138699.6250000000,129121.1328125000,,,
0.1199999999,0,139826.0937500000,105009.3281250000,142768.1562500000,145312.3437500000,110825.5625000000,119290.8906250000,141991.7656250000,132300.4062500000,,,
0.1239999998,0,138106.1250000000,102962.2968750000,141019.8125000000,143143.2656250000,108924.3593750000,117152.4453125000,139959.3750000000,130830.6093750000,,,
0.1279999998,1,133795.0625000000,98411.5781250000,136640.0937500000,138503.0937500000,104443.4921875000,112536.4921875000,135397.4687500000,126757.1640625000,,,
0.1319999998,1,132864.5312500000,97658.6015625000,135697.4218750000,137766.5625000000,103578.3671875000,111797.0078125000,134596.9375000000,125711.6953125000,,,
0.1359999997,1,136572.9062500000,101742.7734375000,139458.4218750000,141987.9062500000,107508.5546875000,115963.2031250000,138645.5000000000,129126.5468750000,,,
0.1399999997,1,139828.4531250000,105037.4140625000,142783.1562500000,145329.5937500000,110836.1093750000,119262.6406250000,141974.2500000000,132294.1562500000,,,
0.1439999996,1,138110.0156250000,102993.9140625000,141034.0000000000,143147.7968750000,108938.8750000000,117151.9609375000,139963.7968750000,130833.6640625000,,,
0.1479999996,1,133798.3437500000,98443.3906250000,136657.5781250000,138460.2343750000,104457.3281250000,112545.5859375000,135398.5468750000,126768.9140625000,,,
0.1519999998,1,132784.9218750000,97586.5859375000,135615.3750000000,137759.2968750000,103508.5781250000,111730.8671875000,134515.9687500000,125639.8125000000,,,
0.1559999997,1,136523.7656250000,101686.6093750000,139419.3125000000,141995.6093750000,107468.1875000000,115898.5390625000,138584.1562500000,129067.8046875000,,,
0.1599999997,1,139869.9531250000,105089.5781250000,142816.6718750000,145385.4375000000,110876.9296875000,119305.5078125000,141989.6718750000,132335.3593750000,,,
0.1639999996,1,138237.1250000000,103129.2890625000,141158.0000000000,143262.1875000000,109066.4921875000,117274.3515625000,140043.2812500000,130963.8359375000,,,
0.1679999996,1,133896.1093750000,98544.1328125000,136752.8281250000,138535.5468750000,104552.6796875000,112618.1406250000,135447.9843750000,126865.7968750000,,,
0.1719999998,1,132826.4375000000,97620.5390625000,135662.4218750000,137739.6562500000,103550.6875000000,111734.5703125000,134508.2656250000,125682.0000000000,,,
0.1759999997,1,136504.3125000000,101660.9375000000,139408.5000000000,141972.9687500000,107462.7968750000,115851.2187500000,138514.8750000000,129044.0703125000,,,
0.1799999997,1,139865.7343750000,105086.9218750000,142820.7812500000,145365.6406250000,110882.1640625000,119284.7968750000,141896.3906250000,132327.3593750000,,,
0.1839999997,1,138198.0000000000,103079.4531250000,141123.1250000000,143266.3750000000,109033.9296875000,117222.6640625000,139908.1250000000,130914.6718750000,,,
0.1879999996,1,133857.1562500000,98489.9765625000,136716.8750000000,138560.7968750000,104522.8593750000,112572.8359375000,135336.9843750000,126816.5468750000,,,
0.1919999996,1,132810.9687500000,97601.3906250000,135650.5625000000,137743.0625000000,103541.5703125000,111715.1171875000,134413.5781250000,125664.6250000000,,,
0.1959999998,1,136511.3437500000,101667.5078125000,139410.8437500000,141945.1562500000,107466.3906250000,115854.4687500000,138461.9218750000,129060.6484375000,,,
0.1999999997,1,139871.0781250000,105081.3437500000,142840.6093750000,145337.2031250000,110894.8984375000,119259.1015625000,141888.7500000000,132329.2968750000,,,
0.2039999997,1,138240.7812500000,103119.3671875000,141180.3906250000,143255.0937500000,109080.3359375000,117229.4218750000,139950.2500000000,130961.4218750000,,,
0.2079999996,1,133838.7031250000,98468.8671875000,136686.1406250000,138527.4531250000,104498.2109375000,112532.9531250000,135292.9531250000,126830.9531250000,,,
0.2119999996,1,132765.5625000000,97548.7109375000,135600.5937500000,137659.9375000000,103490.3906250000,111636.9375000000,134354.3125000000,125659.9843750000,,,
0.2159999998,1,136441.6875000000,101581.0390625000,139349.8437500000,141885.0156250000,107394.3203125000,115746.0234375000,138374.4062500000,129025.5390625000,,,
0.2199999997,1,139833.9062500000,105043.2578125000,142786.7656250000,145351.8281250000,110853.8593750000,119221.1250000000,141844.5156250000,132336.5156250000,,,
0.2239999997,1,138241.5000000000,103121.5937500000,141168.2500000000,143292.7656250000,109083.8437500000,117228.0546875000,139947.8750000000,131001.8437500000,,,
0.2279999997,1,133841.0625000000,98459.3750000000,136705.0468750000,138543.8125000000,104516.2578125000,112514.5000000000,135296.8125000000,126850.7500000000,,,
0.2319999996,1,132770.0312500000,97551.7421875000,135625.4062500000,137660.4218750000,103515.8203125000,111619.5546875000,134352.3437500000,125664.0312500000,,,
0.2359999996,1,136507.1093750000,101674.1875000000,139427.5468750000,141879.5937500000,107472.9375000000,115795.2968750000,138444.5937500000,129086.7187500000,,,
0.2399999998,1,139898.4843750000,105139.6015625000,142837.9531250000,145424.5625000000,110917.5625000000,119281.7109375000,141896.8906250000,132404.0781250000,,,
0.2439999997,1,138274.9531250000,103183.9531250000,141189.7656250000,143320.9375000000,109119.1953125000,117263.6171875000,139964.7187500000,131040.1953125000,,,
0.2479999997,1,133861.1093750000,98498.3750000000,136716.0156250000,138554.5156250000,104536.9140625000,112523.4062500000,135294.2968750000,126863.8906250000,,,
0.2519999996,1,132736.3750000000,97532.8046875000,135570.9531250000,137646.3750000000,103476.9296875000,111583.3437500000,134299.1406250000,125623.0468750000,,,
0.2559999996,2,136492.7812500000,101680.6562500000,139398.0937500000,141910.8437500000,107464.2187500000,115785.3437500000,138387.3593750000,129055.2031250000,,,
0.2599999995,2,139934.2968750000,105180.6953125000,142899.5000000000,145433.7343750000,110976.6250000000,119295.5546875000,141913.8750000000,132400.4062500000,,,
0.2639999995,2,138298.3125000000,103201.7109375000,141228.1093750000,143384.4218750000,109157.6328125000,117264.6640625000,139975.2031250000,131025.9296875000,,,
0.2679999995,2,133856.4375000000,98504.2968750000,136708.0000000000,138569.9687500000,104530.4218750000,112499.9921875000,135253.5781250000,126842.9453125000,,,
0.2719999994,2,132723.0468750000,97524.7031250000,135569.1406250000,137635.2656250000,103468.5859375000,111548.5312500000,134250.5625000000,125595.7968750000,,,
0.2759999994,2,136445.3125000000,101625.9062500000,139354.4843750000,141873.9062500000,107423.3203125000,115724.2968750000,138325.8281250000,129003.0312500000,,,
0.2799999996,2,139922.8125000000,105175.1718750000,142872.4218750000,145465.1406250000,110963.9687500000,119284.1250000000,141857.9218750000,132389.6406250000,,,
0.2839999995,2,138334.5781250000,103256.5859375000,141255.7187500000,143402.7968750000,109194.8593750000,117301.1718750000,139975.4218750000,131065.7578125000,,,
0.2879999995,2,133889.1406250000,98547.6953125000,136751.4843750000,138578.7343750000,104579.5859375000,112538.0468750000,135281.0937500000,126881.4843750000,,,
0.2919999994,2,132687.2656250000,97499.0078125000,135526.3750000000,137628.1406250000,103440.4531250000,111518.7031250000,134206.3281250000,125577.1796875000,,,
0.2959999994,2,136394.8593750000,101587.3125000000,139291.0156250000,141878.7968750000,107370.8515625000,115675.5937500000,138251.0000000000,128965.9687500000,,,
0.2999999996,2,139913.7187500000,105172.0078125000,142878.2343750000,145443.5781250000,110965.5234375000,119268.2187500000,141842.2812500000,132386.0468750000,,,
0.3039999995,2,138382.9843750000,103306.4453125000,141330.0625000000,143419.4218750000,109257.7109375000,117338.8046875000,140003.1562500000,131115.2656250000,,,
0.3079999995,2,133877.3125000000,98533.8593750000,136725.1718750000,138594.6406250000,104562.7421875000,112525.0156250000,135251.4531250000,126877.1953125000,,,
0.3119999995,2,132677.1718750000,97482.3281250000,135508.4687500000,137602.6562500000,103421.6484375000,111497.5390625000,134164.4375000000,125568.3593750000,,,
0.3159999994,2,136391.4687500000,101572.3437500000,139294.0781250000,141827.0468750000,107371.3593750000,115660.8359375000,138226.4218750000,128958.7500000000,,,
0.3199999994,2,139908.6875000000,105173.1562500000,142857.0468750000,145427.8906250000,110959.8671875000,119276.6953125000,141807.4375000000,132387.7187500000,,,
0.3239999996,2,138371.2343750000,103303.3125000000,141296.1875000000,143418.4375000000,109245.4218750000,117340.4375000000,139986.2187500000,131113.3125000000,,,
0.3279999995,2,133898.0625000000,98550.0078125000,136761.4375000000,138586.7031250000,104599.3515625000,112530.5937500000,135258.0781250000,126892.9921875000,,,
0.3319999995,2,132676.1093750000,97479.3515625000,135521.8281250000,137596.8125000000,103438.0390625000,111478.2812500000,134152.7343750000,125562.5937500000,,,
0.3359999994,2,136376.4062500000,101565.3750000000,139281.8750000000,141832.6562500000,107366.3984375000,115631.0937500000,138205.3125000000,128944.6953125000,,,
0.3399999994,2,139922.0468750000,105185.1171875000,142891.2500000000,145433.1250000000,110992.2421875000,119266.9062500000,141840.1718750000,132391.6250000000,,,
0.3439999996,2,138415.6250000000,103349.6328125000,141355.8750000000,143447.0000000000,109302.2890625000,117365.3281250000,140013.9843750000,131146.5781250000,,,
0.3479999995,2,133913.1093750000,98560.2265625000,136773.1250000000,138596.8906250000,104612.4140625000,112535.1562500000,135259.5312500000,126908.0156250000,,,
0.3519999995,2,132657.3750000000,97457.3828125000,135492.4531250000,137566.2343750000,103415.6640625000,111467.3906250000,134133.1562500000,125554.9218750000,,,
0.3559999994,2,136360.4062500000,101543.5156250000,139271.0937500000,141791.4375000000,107358.8671875000,115622.0234375000,138199.2343750000,128940.7265625000,,,
0.3599999994,2,139875.3750000000,105130.6718750000,142834.9218750000,145431.3281250000,110943.6875000000,119226.0546875000,141775.6875000000,132353.8593750000,,,
0.3639999994,2,138405.7343750000,103343.9453125000,141334.1718750000,143501.0937500000,109292.6015625000,117362.9453125000,140006.0000000000,131145.8281250000,,,
0.3679999996,2,133939.6875000000,98602.7656250000,136810.6250000000,138623.9531250000,104651.1171875000,112554.0390625000,135281.9531250000,126939.7734375000,,,
0.3719999995,2,132694.4218750000,97525.1093750000,135535.9062500000,137557.2187500000,103458.4453125000,111489.7578125000,134151.0312500000,125603.0625000000,,,
0.3759999995,2,136325.5468750000,101529.0781250000,139219.2500000000,141799.9843750000,107319.4062500000,115587.7500000000,138142.1718750000,128918.4609375000,,,
0.3799999994,2,139890.6250000000,105163.6093750000,142845.0312500000,145440.7656250000,110964.9843750000,119232.6796875000,141784.2187500000,132371.4062500000,,,
0.3839999994,3,138474.5312500000,103417.8437500000,141421.3906250000,143505.1250000000,109375.7500000000,117399.7421875000,140064.8125000000,131201.7187500000,,,
0.3879999993,3,133992.7500000000,98671.5078125000,136865.4687500000,138622.8593750000,104707.9296875000,112591.7187500000,135339.0000000000,126992.5000000000,,,
0.3919999993,3,132615.6250000000,97434.6328125000,135436.6562500000,137544.5312500000,103374.6562500000,111399.4765625000,134065.9687500000,125522.7031250000,,,
0.3959999993,3,136273.6250000000,101465.2421875000,139174.4843750000,141741.6718750000,107271.3671875000,115495.5312500000,138075.2031250000,128849.1562500000,,,
0.3999999992,3,139881.6250000000,105159.7500000000,142844.6250000000,145405.1406250000,110957.4765625000,119194.6796875000,141776.2500000000,132354.2187500000,,,
0.4039999992,3,138442.4218750000,103390.4843750000,141373.4843750000,143477.2343750000,109331.7890625000,117356.3671875000,140020.4531250000,131173.1562500000,,,
0.4079999994,3,133940.9218750000,98615.0781250000,136797.7500000000,138611.2968750000,104649.9140625000,112533.0625000000,135256.0625000000,126940.5468750000,,,
0.4119999993,3,132623.4843750000,97435.5468750000,135466.7031250000,137513.2031250000,103393.6718750000,111380.4375000000,134062.9687500000,125523.9921875000,,,
0.4159999993,3,136270.1562500000,101445.3671875000,139186.9218750000,141690.2031250000,107276.0078125000,115468.7421875000,138062.0937500000,128849.5000000000,,,
0.4199999992,3,139841.8437500000,105095.5625000000,142807.7500000000,145370.4062500000,110921.1875000000,119129.7656250000,141714.0781250000,132317.3593750000,,,
0.4239999992,3,138439.4218750000,103363.9296875000,141384.4375000000,143469.5312500000,109341.0937500000,117334.0781250000,140021.0156250000,131165.7031250000,,,
0.4279999994,3,133982.9062500000,98643.9609375000,136844.6562500000,138626.0000000000,104694.6484375000,112554.7890625000,135289.4687500000,126985.0156250000,,,
0.4319999993,3,132594.1562500000,97394.2109375000,135427.9687500000,137507.2968750000,103358.8828125000,111334.1093750000,134012.3750000000,125503.6093750000,,,
0.4359999993,3,136208.1250000000,101392.3984375000,139117.9062500000,141627.5781250000,107211.7734375000,115395.5937500000,137988.2187500000,128790.7343750000,,,
0.4399999992,3,139842.7031250000,105121.1250000000,142822.9062500000,145341.1250000000,110930.0937500000,119129.2265625000,141715.7187500000,132314.5937500000,,,
0.4439999992,3,138418.9843750000,103366.6640625000,141369.6250000000,143489.9218750000,109339.4843750000,117325.3125000000,139999.8750000000,131145.8750000000,,,
0.4479999992,3,133989.1875000000,98658.9843750000,136866.1406250000,138671.6250000000,104719.2734375000,112542.8203125000,135307.6406250000,126976.8906250000,,,
0.4519999993,3,132650.7031250000,97471.8125000000,135484.4062500000,137561.5000000000,103422.8828125000,111372.7343750000,134079.1093750000,125554.5703125000,,,
0.4559999993,3,136226.2031250000,101425.1718750000,139119.8125000000,141661.5937500000,107223.3046875000,115403.0781250000,137986.7968750000,128813.5078125000,,,
0.4599999993,3,139837.2343750000,105133.9140625000,142790.6406250000,145333.3125000000,110911.5312500000,119124.4296875000,141682.9062500000,132317.8750000000,,,
0.4639999992,3,138464.3906250000,103426.4765625000,141409.0312500000,143532.0000000000,109370.9218750000,117357.4140625000,140025.8906250000,131186.5468750000,,,
0.4679999992,3,133989.4531250000,98664.3515625000,136854.9375000000,138703.5156250000,104709.6718750000,112547.9218750000,135285.1718750000,126976.4609375000,,,
0.4719999994,3,132633.1875000000,97453.9218750000,135473.2656250000,137521.3281250000,103405.3437500000,111359.4062500000,134045.9843750000,125532.4921875000,,,
0.4759999993,3,136242.4531250000,101459.9843750000,139155.6718750000,141619.6562500000,107244.2500000000,115415.3125000000,137995.3593750000,128826.5937500000,,,
0.4799999993,3,139835.8906250000,105147.0625000000,142807.7187500000,145294.5625000000,110922.7656250000,119126.0078125000,141683.0781250000,132320.7343750000,,,
0.4839999992,3,138369.1718750000,103316.6640625000,141310.2187500000,143515.3906250000,109288.1796875000,117262.1953125000,139930.5156250000,131085.0468750000,,,
0.4879999992,3,133965.7343750000,98651.1250000000,136825.3750000000,138695.1093750000,104692.3750000000,112521.9062500000,135243.5156250000,126947.2500000000,,,
0.4919999992,3,132595.8281250000,97425.6484375000,135433.6093750000,137499.8906250000,103369.9609375000,111316.7343750000,133993.8750000000,125494.8671875000,,,
0.4959999993,3,136214.2343750000,101431.5312500000,139133.1406250000,141608.9687500000,107225.4218750000,115375.3984375000,137968.5000000000,128794.2265625000,,,
0.4999999993,3,139794.5468750000,105082.0703125000,142782.8906250000,145337.2031250000,110899.3281250000,119053.3203125000,141639.5937500000,132259.8750000000,,,
0.5039999993,3,138413.7500000000,103382.8359375000,141360.1093750000,143517.8593750000,109344.7968750000,117311.6562500000,139971.4218750000,131136.4843750000,,,
0.5079999992,3,134021.6406250000,98724.3203125000,136884.0625000000,138708.2031250000,104754.1953125000,112580.0781250000,135278.7343750000,127012.3750000000,,,
0.5119999992,4,132649.2812500000,97490.6406250000,135502.0312500000,137508.3437500000,103431.6015625000,111349.5859375000,134025.3593750000,125551.7031250000,,,
0.5159999991,4,136187.4843750000,101409.5625000000,139107.4062500000,141602.3437500000,107206.4843750000,115351.2031250000,137935.1875000000,128781.8828125000,,,
0.5199999991,4,139743.1562500000,105045.8046875000,142715.0781250000,145319.4218750000,110849.5156250000,119024.7578125000,141579.5937500000,132225.8906250000,,,
0.5239999990,4,138486.0156250000,103492.2734375000,141416.7812500000,143557.2656250000,109407.1093750000,117398.5625000000,140030.4843750000,131221.4687500000,,,
0.5279999990,4,134036.3906250000,98746.3984375000,136901.9843750000,138739.6406250000,104777.1015625000,112595.7968750000,135326.0781250000,127035.3125000000,,,
0.5319999990,4,132603.1718750000,97449.9531250000,135451.0937500000,137507.6250000000,103397.5078125000,111322.6328125000,134006.5000000000,125516.0000000000,,,
0.5359999991,4,136192.7031250000,101443.2812500000,139103.7500000000,141583.6718750000,107213.1406250000,115371.5859375000,137937.2031250000,128794.1171875000,,,
0.5399999991,4,139822.4218750000,105172.3281250000,142783.0781250000,145314.8906250000,110926.8750000000,119129.5234375000,141661.7812500000,132320.6562500000,,,
0.5439999991,4,138512.6250000000,103517.1875000000,141459.4062500000,143599.0781250000,109449.5390625000,117421.3906250000,140078.5000000000,131241.8750000000,,,
0.5479999990,4,134108.1875000000,98838.4531250000,136984.1562500000,138802.6250000000,104857.1953125000,112681.0390625000,135408.9843750000,127108.9375000000,,,
0.5519999990,4,132652.8750000000,97517.3828125000,135507.4687500000,137540.1875000000,103454.2656250000,111379.8203125000,134060.2031250000,125573.7500000000,,,
0.5559999992,4,136131.8437500000,101359.7812500000,139072.0937500000,141546.7343750000,107175.5859375000,115298.5546875000,137903.2812500000,128730.9765625000,,,
0.5599999991,4,139741.9062500000,105076.7343750000,142717.2187500000,145284.8437500000,110860.9140625000,119045.3593750000,141619.3437500000,132235.9062500000,,,
0.5639999991,4,138521.8750000000,103541.1718750000,141465.8437500000,143612.7031250000,109468.6640625000,117447.3750000000,140114.9687500000,131257.8593750000,,,
0.5679999990,4,134090.2968750000,98817.7187500000,136962.5625000000,138797.7656250000,104847.9375000000,112661.2421875000,135408.6875000000,127093.3828125000,,,
0.5719999990,4,132646.8906250000,97505.8750000000,135495.7031250000,137529.4062500000,103447.3437500000,111363.0000000000,134062.4843750000,125564.7343750000,,,
0.5759999990,4,136153.5625000000,101392.7421875000,139074.5468750000,141585.2187500000,107188.8671875000,115321.1093750000,137925.2187500000,128754.1796875000,,,
0.5799999991,4,139783.6406250000,105123.7265625000,142770.4687500000,145319.2656250000,110915.3906250000,119077.9218750000,141681.3593750000,132269.7812500000,,,
0.5839999991,4,138608.1562500000,103644.9453125000,141570.0937500000,143657.2343750000,109563.6093750000,117518.1328125000,140193.2031250000,131337.5781250000,,,
0.5879999991,4,134213.0625000000,98971.8906250000,137086.0000000000,138864.6562500000,104968.3750000000,112783.3359375000,135503.7187500000,127224.1406250000,,,
0.5919999990,4,132699.7656250000,97588.5390625000,135545.4843750000,137551.8437500000,103499.9140625000,111420.2109375000,134126.7031250000,125637.3984375000,,,
0.5959999990,4,136070.0625000000,101306.5390625000,138988.2343750000,141507.3125000000,107111.8359375000,115233.0546875000,137856.2812500000,128684.7109375000,,,
0.5999999992,4,139702.6406250000,105050.6093750000,142671.6562500000,145272.3437500000,110832.2187500000,118988.3593750000,141577.0468750000,132197.6718750000,,,
0.6039999991,4,138561.2187500000,103605.2421875000,141513.5312500000,143645.8281250000,109525.8984375000,117460.3359375000,140141.0937500000,131293.0468750000,,,
0.6079999991,4,134188.1250000000,98948.8750000000,137058.1093750000,138868.3906250000,104946.1093750000,112741.5234375000,135485.0781250000,127189.5625000000,,,
0.6119999990,4,132673.5000000000,97559.8437500000,135519.4062500000,137536.4218750000,103474.7578125000,111377.8593750000,134078.7968750000,125600.2734375000,,,
0.6159999990,4,136053.5468750000,101305.3828125000,138966.1875000000,141517.6875000000,107091.7968750000,115220.6328125000,137825.0000000000,128674.0078125000,,,
0.6199999989,4,139697.1875000000,105044.6796875000,142669.8750000000,145247.2187500000,110828.1953125000,118975.0312500000,141565.4062500000,132193.7343750000,,,
0.6239999991,4,138565.0312500000,103610.3984375000,141506.3906250000,143641.6250000000,109516.3281250000,117459.2578125000,140134.2500000000,131295.6250000000,,,
0.6279999991,4,134217.3281250000,98997.1328125000,137082.1718750000,138877.6406250000,104971.3515625000,112771.1875000000,135507.0156250000,127228.6406250000,,,
0.6319999991,4,132695.6093750000,97579.2031250000,135559.3437500000,137544.7187500000,103501.9843750000,111379.0156250000,134075.4375000000,125627.0156250000,,,
0.6359999990,4,136006.4218750000,101240.9609375000,138921.0312500000,141460.2031250000,107041.4531250000,115138.7187500000,137731.0156250000,128626.6640625000,,,
0.6399999990,5,139639.6562500000,104976.3906250000,142624.4531250000,145200.9531250000,110771.1171875000,118877.4218750000,141483.4062500000,132129.5468750000,,,
0.6439999989,5,138527.8750000000,103568.1796875000,141483.7031250000,143633.7656250000,109481.7265625000,117387.1093750000,140066.8281250000,131248.0156250000,,,
0.6479999989,5,134189.9375000000,98952.7656250000,137065.1406250000,138878.2031250000,104944.6875000000,112708.7187500000,135436.7968750000,127187.2578125000,,,
0.6519999988,5,132584.5000000000,97447.5078125000,135445.5625000000,137498.5000000000,103394.5859375000,111250.7500000000,133949.1406250000,125511.5468750000,,,
0.6559999988,5,135968.9218750000,101203.9687500000,138897.3750000000,141441.9687500000,107015.0078125000,115072.7890625000,137675.0156250000,128579.7265625000,,,
0.6599999988,5,139675.1718750000,105025.1250000000,142655.1093750000,145247.2500000000,110806.5468750000,118900.3046875000,141480.2656250000,132164.3437500000,,,
0.6639999989,5,138590.8906250000,103643.2812500000,141538.8437500000,143684.2343750000,109536.7109375000,117436.5390625000,140109.3906250000,131316.2187500000,,,
0.6679999989,5,134223.5000000000,98988.5703125000,137103.5781250000,138898.0312500000,104977.9765625000,112716.4140625000,135442.8906250000,127226.1484375000,,,
0.6719999989,5,132570.2656250000,97437.3984375000,135421.6093750000,137475.6562500000,103373.9609375000,111199.3828125000,133894.8437500000,125504.0390625000,,,
0.6759999988,5,135989.6562500000,101241.4687500000,138900.5781250000,141393.4218750000,107023.1562500000,115057.2343750000,137675.2343750000,128608.6406250000,,,
0.6799999988,5,139668.3593750000,105020.5156250000,142635.6250000000,145224.5000000000,110783.9375000000,118849.5859375000,141435.8437500000,132156.1562500000,,,
0.6839999990,5,138548.6718750000,103597.6250000000,141488.6875000000,143655.9375000000,109495.9687500000,117362.8359375000,140032.2031250000,131272.7968750000,,,
0.6879999989,5,134165.4843750000,98918.2734375000,137037.7187500000,138880.3281250000,104930.4687500000,112630.1562500000,135384.3906250000,127163.1718750000,,,
0.6919999989,5,132574.0000000000,97450.1953125000,135412.2500000000,137454.4843750000,103364.0078125000,111165.3984375000,133836.2968750000,125503.3437500000,,,
0.6959999988,5,135986.2187500000,101237.3906250000,138905.2343750000,141343.6875000000,107011.0078125000,115014.8828125000,137627.6562500000,128600.3281250000,,,
0.6999999988,5,139616.8906250000,104959.1718750000,142596.4218750000,145178.6875000000,110748.0000000000,118782.4218750000,141382.2031250000,132110.2187500000,,,
0.7039999987,5,138512.7187500000,103550.6328125000,141461.8906250000,143649.5937500000,109482.5546875000,117308.4687500000,140007.5156250000,131241.3437500000,,,
0.7079999989,5,134185.2031250000,98945.6015625000,137060.2031250000,138876.4531250000,104959.5703125000,112631.3125000000,135428.7500000000,127189.9140625000,,,
0.7119999989,5,132576.3593750000,97464.2187500000,135408.1562500000,137450.1718750000,103371.7031250000,111166.5312500000,133870.9687500000,125521.0937500000,,,
0.7159999989,5,135940.5937500000,101199.4375000000,138841.8125000000,141371.4218750000,106966.2421875000,114974.9453125000,137572.1250000000,128572.7812500000,,,
0.7199999988,5,139603.0781250000,104953.3281250000,142582.4375000000,145175.1406250000,110733.5625000000,118745.5937500000,141343.1562500000,132092.8906250000,,,
0.7239999988,5,138573.6875000000,103628.4453125000,141525.7031250000,143698.7812500000,109540.6015625000,117346.2343750000,140052.1250000000,131290.0937500000,,,
0.7279999990,5,134216.3125000000,98989.2968750000,137089.4375000000,138919.2968750000,104980.3046875000,112635.8125000000,135405.7656250000,127216.7890625000,,,
0.7319999989,5,132550.6093750000,97413.4453125000,135419.8125000000,137433.4062500000,103365.3203125000,111087.1093750000,133843.8281250000,125476.2734375000,,,
0.7359999989,5,135908.2500000000,101159.8750000000,138835.6093750000,141301.0156250000,106945.2968750000,114893.8046875000,137532.2187500000,128524.7109375000,,,
0.7399999988,5,139575.0156250000,104934.3593750000,142546.8750000000,145173.2343750000,110702.6953125000,118695.7031250000,141319.6875000000,132064.1875000000,,,
0.7439999988,5,138561.4843750000,103625.9531250000,141510.6250000000,143716.5625000000,109522.9531250000,117311.6015625000,140024.1718750000,131279.5625000000,,,
0.7479999987,5,134228.4531250000,99005.7421875000,137103.6875000000,138954.8593750000,104984.6562500000,112617.7343750000,135379.3125000000,127225.9921875000,,,
0.7519999989,5,132584.7187500000,97472.9921875000,135435.7187500000,137468.7343750000,103376.2109375000,111091.9921875000,133821.6718750000,125519.0859375000,,,
0.7559999989,5,135852.0781250000,101099.8750000000,138758.9843750000,141288.0156250000,106879.3906250000,114810.6015625000,137458.7031250000,128478.9843750000,,,
0.7599999988,5,139536.7968750000,104894.9843750000,142503.3125000000,145169.8593750000,110662.5703125000,118636.4843750000,141232.3281250000,132030.2031250000,,,
0.7639999988,5,138563.8437500000,103624.3984375000,141517.6093750000,143710.3437500000,109528.6093750000,117278.6640625000,139992.8750000000,131279.9843750000,,,
0.7679999988,6,134220.8125000000,98988.2812500000,137097.3437500000,138945.7187500000,104991.4375000000,112574.4765625000,135375.8281250000,127217.5390625000,,,
0.7719999987,6,132528.0781250000,97411.9453125000,135369.2031250000,137418.2031250000,103329.8671875000,111019.6796875000,133760.1250000000,125472.4687500000,,,
0.7759999987,6,135839.2656250000,101107.6015625000,138739.5625000000,141247.3125000000,106872.4453125000,114784.1562500000,137420.6093750000,128477.0000000000,,,
0.7799999986,6,139531.5156250000,104897.9921875000,142502.0000000000,145131.8281250000,110671.7109375000,118606.6015625000,141245.5000000000,132032.4531250000,,,
0.7839999986,6,138562.8281250000,103640.0625000000,141500.0156250000,143713.8750000000,109526.3281250000,117276.2500000000,139977.7500000000,131294.9062500000,,,
0.7879999985,6,134252.2812500000,99046.9921875000,137132.9375000000,138924.5000000000,105026.6796875000,112601.3750000000,135392.9375000000,127267.5390625000,,,
0.7919999987,6,132520.9062500000,97392.4453125000,135402.8593750000,137405.5312500000,103350.3281250000,110976.6015625000,133778.6250000000,125461.8437500000,,,
0.7959999987,6,135768.8281250000,101021.4218750000,138692.7031250000,141225.3281250000,106831.5390625000,114697.8750000000,137386.3593750000,128406.5937500000,,,
0.7999999986,6,139542.5625000000,104922.6953125000,142524.0468750000,145150.5468750000,110691.9140625000,118597.1875000000,141226.7500000000,132039.7500000000,,,
0.8039999986,6,138587.5000000000,103675.9218750000,141528.2812500000,143754.5468750000,109551.8359375000,117287.0859375000,139975.4218750000,131321.0781250000,,,
0.8079999986,6,134250.1875000000,99044.8750000000,137122.9687500000,138969.6718750000,105017.0781250000,112577.5546875000,135363.9531250000,127263.5390625000,,,
0.8119999988,6,132487.7656250000,97371.2031250000,135341.8125000000,137397.8906250000,103297.2187500000,110931.5703125000,133696.2031250000,125442.0234375000,,,
0.8159999987,6,135754.2031250000,101006.8046875000,138681.3906250000,141197.0312500000,106801.0703125000,114633.8984375000,137311.3437500000,128385.5859375000,,,
0.8199999987,6,139573.2968750000,104966.2500000000,142556.0781250000,145152.8281250000,110712.1875000000,118602.2265625000,141228.7812500000,132070.5625000000,,,
0.8239999986,6,138640.3125000000,103741.1562500000,141597.0781250000,143747.2656250000,109612.6718750000,117312.4375000000,140020.6093750000,131370.1875000000,,,
0.8279999986,6,134366.1093750000,99083.9296875000,137236.5312500000,139001.5625000000,105089.1250000000,112635.6250000000,135449.9843750000,127403.2812500000,,,
0.8319999985,6,132650.9218750000,97299.3437500000,135486.4218750000,137369.9218750000,103330.7500000000,110949.2187500000,133781.5781250000,125657.2734375000,,,
0.8359999987,6,135699.8437500000,100951.5468750000,138609.9062500000,141106.9843750000,106726.1875000000,114542.7031250000,137225.1875000000,128353.0000000000,,,
0.8399999987,6,139531.8906250000,104934.1484375000,142512.0625000000,145101.2031250000,110672.1718750000,118531.3359375000,141159.4218750000,132035.1406250000,,,
0.8439999986,6,138645.3906250000,103750.9140625000,141608.4218750000,143797.1406250000,109631.3906250000,117287.1406250000,140023.9062500000,131372.8437500000,,,
0.8479999986,6,134321.6875000000,99133.9531250000,137207.8906250000,139039.5312500000,105102.0781250000,112594.5078125000,135409.2968750000,127334.3750000000,,,
0.8519999986,6,132482.7500000000,97381.0468750000,135346.4531250000,137383.1875000000,103301.6171875000,110868.5312500000,133652.4531250000,125442.4843750000,,,
0.8559999987,6,135690.5781250000,100962.4140625000,138619.2968750000,141111.4375000000,106737.3984375000,114510.5703125000,137200.4531250000,128329.8828125000,,,
0.8599999987,6,139472.5468750000,104868.4609375000,142463.2968750000,145074.1093750000,110623.7031250000,118443.1171875000,141116.1093750000,131964.7812500000,,,
0.8639999987,6,138629.0468750000,103748.4765625000,141583.9843750000,143773.7187500000,109614.8203125000,117257.9843750000,139995.9375000000,131359.8125000000,,,
0.8679999986,6,134275.1562500000,99080.1953125000,137158.5312500000,139019.1562500000,105067.8828125000,112540.0859375000,135356.4375000000,127292.3437500000,,,
0.8719999986,6,132483.3125000000,97389.0390625000,135336.9843750000,137371.2656250000,103305.5859375000,110866.5000000000,133646.3125000000,125446.9609375000,,,
0.8759999985,6,135747.5625000000,101037.7031250000,138663.4687500000,141143.5937500000,106799.5156250000,114576.9609375000,137267.7031250000,128398.6250000000,,,
0.8799999987,6,139556.3750000000,104976.7968750000,142546.6406250000,145117.2656250000,110716.8593750000,118525.7890625000,141205.7187500000,132063.0312500000,,,
0.8839999987,6,138639.7500000000,103747.8359375000,141614.5937500000,143767.7343750000,109643.9453125000,117255.0390625000,140006.7968750000,131368.8750000000,33029,0.8847064280,0.0000000000
0.8879999986,6,134279.6562500000,99097.2265625000,137169.6875000000,139034.3906250000,105080.1953125000,112547.0859375000,135345.5156250000,127300.2343750000,,,
0.8919999986,6,132499.7031250000,97415.9375000000,135367.8593750000,137371.6562500000,103328.1484375000,110863.1718750000,133625.9843750000,125461.3671875000,,,
0.8959999986,7,135726.4531250000,101026.9687500000,138658.6875000000,141119.8125000000,106776.1796875000,114521.5937500000,137205.9062500000,128374.2187500000,,,
0.8999999985,7,139517.7500000000,104951.5312500000,142509.2500000000,145106.1562500000,110680.0859375000,118482.0937500000,141136.3281250000,132026.0937500000,,,
0.9039999985,7,138679.2968750000,103814.5937500000,141644.4687500000,143853.9375000000,109679.1093750000,117273.0078125000,140029.2812500000,131404.6093750000,,,
0.9079999984,7,134315.0625000000,99132.8750000000,137211.5625000000,139078.4062500000,105116.0781250000,112516.6953125000,135372.2812500000,127323.1093750000,,,
0.9119999984,7,132486.6406250000,97412.9375000000,135351.5781250000,137378.9062500000,103308.7265625000,110813.7656250000,133599.5937500000,125449.2109375000,,,
0.9159999983,7,135664.2500000000,100977.8906250000,138581.6875000000,141102.7500000000,106709.1015625000,114465.9375000000,137111.2656250000,128319.6093750000,,,
0.9199999985,7,139505.8906250000,104948.5000000000,142497.3281250000,145123.7031250000,110667.0234375000,118466.4062500000,141103.3437500000,132006.8437500000,,,
0.9239999985,7,138710.3281250000,103842.4843750000,141694.6562500000,143912.2500000000,109721.6484375000,117306.6406250000,140037.2343750000,131423.7500000000,,,
0.9279999984,7,134431.0937500000,99262.4843750000,137332.8437500000,139181.7031250000,105237.8515625000,112654.5078125000,135476.1406250000,127440.1640625000,,,
0.9319999984,7,132554.5937500000,97472.9609375000,135421.8750000000,137429.2968750000,103380.2343750000,110886.2890625000,133671.5781250000,125524.0468750000,,,
0.9359999984,7,135656.1250000000,100944.6562500000,138577.1718750000,141108.2187500000,106704.9375000000,114443.0312500000,137110.7343750000,128310.1640625000,,,
0.9399999985,7,139503.1562500000,104935.9687500000,142487.4375000000,145131.3437500000,110662.4375000000,118454.0937500000,141084.5625000000,132005.3593750000,,,
0.9439999985,7,138759.4843750000,103901.3046875000,141731.1875000000,143938.3750000000,109764.8359375000,117349.0468750000,140073.4531250000,131477.9687500000,,,
0.9479999985,7,134451.4843750000,99278.4140625000,137351.6250000000,139180.4843750000,105257.2421875000,112653.9218750000,135463.6406250000,127456.6015625000,,,
0.9519999984,7,132544.1406250000,97464.3281250000,135420.8125000000,137403.4375000000,103379.4296875000,110855.7968750000,133622.0625000000,125511.8671875000,,,
0.9559999984,7,135640.0000000000,100931.4609375000,138573.5625000000,141049.7812500000,106704.2734375000,114396.2031250000,137086.1718750000,128292.0078125000,,,
0.9599999983,7,139440.8437500000,104871.1953125000,142430.3125000000,145060.6718750000,110617.7500000000,118371.1015625000,141039.5781250000,131939.9687500000,,,
0.9639999985,7,138748.0937500000,103902.0625000000,141721.4531250000,143927.2500000000,109767.3281250000,117321.0156250000,140059.2343750000,131463.5000000000,,,
0.9679999985,7,134459.5312500000,99311.9375000000,137354.4062500000,139190.9687500000,105268.5937500000,112653.7031250000,135457.7187500000,127471.0859375000,,,
0.9719999984,7,132556.1093750000,97516.5000000000,135405.3281250000,137392.9843750000,103380.7187500000,110866.0156250000,133621.4531250000,125541.3750000000,,,
0.9759999984,7,135634.6562500000,100955.4921875000,138559.3750000000,141016.5468750000,106694.7500000000,114396.4687500000,137076.3281250000,128305.5781250000,,,
0.9799999984,7,139496.5937500000,104942.1093750000,142504.5468750000,145086.1250000000,110682.9531250000,118415.7343750000,141084.7187500000,131994.2343750000,,,
0.9839999985,7,138801.4062500000,103973.3515625000,141776.2031250000,143968.5312500000,109824.8906250000,117378.0703125000,140111.6250000000,131521.3593750000,,,
0.9879999985,7,134490.2187500000,99354.2890625000,137389.5312500000,139236.3593750000,105309.6015625000,112686.2968750000,135499.7968750000,127504.1875000000,,,
0.9919999985,7,132546.5468750000,97495.6562500000,135414.0156250000,137406.6875000000,103384.5000000000,110839.5390625000,133606.2656250000,125520.0000000000,,,
0.9959999984,7,135654.2187500000,100987.0312500000,138572.3437500000,141046.8281250000,106710.7890625000,114401.8359375000,137066.9687500000,128318.1328125000,,,
0.9999999984,7,139537.4687500000,105004.8203125000,142530.0000000000,145125.9218750000,110713.7187500000,118452.4296875000,141089.5468750000,132043.6718750000,,,
1.0039999983,7,138848.7031250000,104018.0625000000,141830.5625000000,143995.2500000000,109867.8593750000,117398.8046875000,140141.6250000000,131565.4062500000,,,
1.0079999985,7,134495.3437500000,99353.2187500000,137392.7968750000,139225.2500000000,105309.4687500000,112664.1406250000,135490.3281250000,127511.1328125000,,,
1.0119999985,7,132468.1718750000,97385.6562500000,135337.4531250000,137390.9531250000,103307.9765625000,110726.6718750000,133528.7812500000,125437.1718750000,,,
1.0159999984,7,135571.9843750000,100879.5078125000,138505.2187500000,141010.1250000000,106642.3906250000,114288.1640625000,136996.7187500000,128228.6250000000,,,
1.0199999984,7,139493.1562500000,104954.7421875000,142490.8437500000,145090.4687500000,110674.8828125000,118383.4921875000,141046.0156250000,131994.7656250000,,,
1.0239999983,8,138847.0937500000,104028.2031250000,141823.3750000000,144019.6250000000,109869.2265625000,117387.4843750000,140126.4218750000,131567.1406250000,,,
1.0279999983,8,134524.5468750000,99384.2500000000,137426.0625000000,139272.0625000000,105344.6562500000,112682.4609375000,135503.3750000000,127541.2265625000,,,
1.0319999983,8,132549.1875000000,97484.7656250000,135428.0312500000,137418.1093750000,103393.3281250000,110791.8203125000,133594.9218750000,125519.5703125000,,,
1.0359999982,8,135634.5312500000,100977.0546875000,138559.4218750000,140998.1093750000,106694.0000000000,114346.1015625000,137021.9531250000,128311.3437500000,,,
1.0399999982,8,139500.2656250000,104960.9687500000,142503.3125000000,145115.3281250000,110681.5859375000,118360.4843750000,141041.1406250000,132008.0000000000,,,
1.0439999981,8,138812.5625000000,103978.7421875000,141808.2812500000,144045.9687500000,109847.3125000000,117326.9453125000,140085.1718750000,131521.7031250000,,,
1.0479999983,8,134513.0156250000,99393.9921875000,137414.4687500000,139263.3750000000,105333.7968750000,112679.4531250000,135496.3437500000,127530.6328125000,,,
1.0519999983,8,132527.0781250000,97483.2343750000,135389.5312500000,137404.1718750000,103365.8046875000,110784.3906250000,133580.1406250000,125508.0312500000,,,
1.0559999982,8,135560.0937500000,100877.7578125000,138484.8281250000,140953.0000000000,106622.5703125000,114246.4531250000,136952.7812500000,128225.6484375000,,,
1.0599999982,8,139440.9062500000,104905.9531250000,142438.0000000000,145015.0156250000,110623.5156250000,118301.3671875000,140967.8906250000,131949.6562500000,,,
1.0639999982,8,138858.2187500000,104054.7031250000,141836.8906250000,144012.2812500000,109891.7578125000,117385.8515625000,140129.5156250000,131581.7656250000,,,
1.0679999983,8,134589.2656250000,99479.2265625000,137493.7031250000,139306.2812500000,105414.1796875000,112739.6171875000,135545.1250000000,127613.7031250000,,,
1.0719999983,8,132521.7656250000,97481.3359375000,135390.6875000000,137389.5000000000,103362.9375000000,110761.8671875000,133544.8750000000,125512.1406250000,,,
1.0759999983,8,135543.6562500000,100872.3437500000,138475.6093750000,140926.0781250000,106609.9609375000,114216.0937500000,136924.6093750000,128221.0078125000,,,
1.0799999982,8,139402.1718750000,104872.7265625000,142400.5312500000,145015.7500000000,110590.1718750000,118254.6718750000,140929.6406250000,131919.8750000000,,,
1.0839999982,8,138816.1875000000,104012.9140625000,141790.4687500000,144020.1562500000,109842.2968750000,117325.6015625000,140053.2031250000,131540.3281250000,,,
1.0879999981,8,134548.2656250000,99432.5312500000,137449.1250000000,139303.0312500000,105371.3203125000,112673.0156250000,135508.2500000000,127561.2343750000,,,
1.0919999983,8,132511.5000000000,97466.9062500000,135388.1875000000,137378.3437500000,103358.1328125000,110730.6171875000,133551.8750000000,125492.2343750000,,,
1.0959999983,8,135489.2656250000,100813.3359375000,138425.1718750000,140902.8750000000,106559.5156250000,114152.8203125000,136858.5468750000,128163.9843750000,,,
1.0999999982,8,139381.1250000000,104858.5859375000,142382.3750000000,144965.2031250000,110571.0781250000,118215.1562500000,140895.7343750000,131895.9375000000,,,
1.1039999982,8,138850.7187500000,104057.4687500000,141839.8437500000,144021.7187500000,109893.7109375000,117336.1484375000,140102.1250000000,131571.1093750000,,,
1.1079999981,8,134563.6562500000,99469.8125000000,137473.2343750000,139299.7656250000,105398.8671875000,112686.1875000000,135515.2968750000,127587.6875000000,,,
1.1119999983,8,132484.0312500000,97448.5000000000,135360.8906250000,137341.0625000000,103331.2890625000,110675.4453125000,133492.0625000000,125472.7656250000,,,
1.1159999983,8,135464.9843750000,100797.2109375000,138403.2968750000,140868.5937500000,106537.8671875000,114089.0937500000,136818.6093750000,128138.6406250000,,,
1.1199999982,8,139429.7656250000,104929.8046875000,142434.7343750000,145028.7500000000,110626.8984375000,118253.3046875000,140933.9843750000,131946.6718750000,,,
1.1239999982,8,138900.4375000000,104130.1015625000,141880.1875000000,144080.1093750000,109939.1484375000,117393.2812500000,140144.1875000000,131626.4687500000,,,
1.1279999982,8,134583.7968750000,99491.1406250000,137491.1562500000,139325.3750000000,105416.4609375000,112683.5859375000,135521.9531250000,127605.7656250000,,,
1.1319999981,8,132465.4375000000,97446.0859375000,135345.4687500000,137310.0156250000,103313.4218750000,110640.8437500000,133453.3281250000,125462.7578125000,,,
1.1359999983,8,135455.1718750000,100807.5937500000,138389.9843750000,140848.2656250000,106528.4765625000,114044.4609375000,136799.7812500000,128140.9453125000,,,
1.1399999983,8,139432.8906250000,104953.1328125000,142429.5781250000,145027.1718750000,110624.3437500000,118216.6640625000,140946.1562500000,131961.5625000000,,,
1.1439999982,8,138932.2187500000,104181.1953125000,141909.6093750000,144111.7500000000,109970.3203125000,117391.8828125000,140155.0156250000,131671.4218750000,,,
1.1479999982,8,134615.5625000000,99538.3750000000,137525.1406250000,139354.0312500000,105449.1328125000,112672.0000000000,135537.1093750000,127649.2109375000,,,
1.1519999981,9,132487.3593750000,97471.6796875000,135362.5000000000,137366.4843750000,103332.8125000000,110606.6171875000,133465.9062500000,125486.7109375000,,,
1.1559999981,9,135455.1875000000,100811.2187500000,138386.9375000000,140894.2031250000,106525.3437500000,114017.4218750000,136789.0000000000,128140.4609375000,,,
1.1599999981,9,139436.3125000000,104952.3359375000,142438.4843750000,145043.9062500000,110634.2187500000,118196.2812500000,140931.6250000000,131955.6406250000,,,
1.1639999980,9,138963.5781250000,104219.8203125000,141942.3281250000,144122.9218750000,110010.9218750000,117398.6718750000,140201.7343750000,131694.8906250000,,,
1.1679999980,9,134639.0468750000,99554.7343750000,137552.0312500000,139388.5156250000,105481.7968750000,112672.4531250000,135586.3750000000,127664.4218750000,,,
1.1719999979,9,132461.6406250000,97440.7500000000,135338.8750000000,137337.7343750000,103315.9687500000,110579.9062500000,133456.6250000000,125464.1562500000,,,
1.1759999981,9,135449.1562500000,100816.0703125000,138380.6250000000,140816.2343750000,106526.9218750000,114019.8593750000,136792.7812500000,128148.1562500000,,,
1.1799999981,9,139467.5625000000,104999.6171875000,142463.6250000000,145062.7656250000,110666.9921875000,118222.2656250000,140969.7031250000,132000.8593750000,,,
1.1839999980,9,139025.9062500000,104278.7500000000,142014.7187500000,144205.1718750000,110081.8437500000,117443.1953125000,140272.4218750000,131760.1562500000,,,
1.1879999980,9,134674.1093750000,99590.1953125000,137592.8125000000,139426.8437500000,105530.7500000000,112700.0312500000,135630.3750000000,127708.8671875000,,,
1.1919999979,9,132496.3906250000,97483.3984375000,135372.2812500000,137348.8593750000,103357.6796875000,110597.7109375000,133521.7812500000,125509.5625000000,,,
1.1959999981,9,135483.0625000000,100854.9921875000,138422.2031250000,140815.8125000000,106565.9218750000,114033.4375000000,136826.9531250000,128185.3593750000,,,
1.1999999981,9,139467.5156250000,104993.0468750000,142483.7031250000,145032.9375000000,110691.0000000000,118217.4921875000,140985.4531250000,132003.1875000000,,,
1.2039999980,9,138982.7812500000,104230.7343750000,141974.3281250000,144173.6562500000,110057.5156250000,117402.3984375000,140243.0156250000,131721.8750000000,,,
1.2079999980,9,134712.0625000000,99634.1796875000,137620.8437500000,139438.8125000000,105560.0390625000,112723.8984375000,135648.9531250000,127746.8984375000,,,
1.2119999980,9,132528.0468750000,97500.5625000000,135410.1093750000,137366.5156250000,103381.5781250000,110585.1875000000,133501.2656250000,125532.7656250000,,,
1.2159999979,9,135437.3906250000,100799.0625000000,138363.5937500000,140806.4687500000,106513.0000000000,113961.0390625000,136771.9687500000,128151.1093750000,,,
1.2199999981,9,139454.4531250000,104968.8828125000,142467.9062500000,145060.4062500000,110675.1718750000,118170.0468750000,140961.9531250000,131992.0937500000,,,
1.2239999981,9,139025.8125000000,104266.1406250000,142020.0625000000,144234.7031250000,110098.1484375000,117408.5625000000,140245.7812500000,131761.9531250000,,,
1.2279999980,9,134730.4687500000,99653.0625000000,137642.5625000000,139465.1718750000,105587.6953125000,112705.0937500000,135639.1875000000,127769.8906250000,,,
1.2319999980,9,132522.1718750000,97500.9921875000,135401.6562500000,137367.6406250000,103386.0859375000,110558.0156250000,133476.2343750000,125542.3359375000,,,
1.2359999979,9,135396.2187500000,100740.0312500000,138336.9843750000,140785.9843750000,106485.1640625000,113869.3359375000,136708.8906250000,128108.7812500000,,,
1.2399999981,9,139444.1562500000,104966.1484375000,142450.7656250000,145017.5156250000,110659.8828125000,118110.6328125000,140911.6875000000,131982.3281250000,,,
1.2439999981,9,139086.7187500000,104343.9531250000,142076.1250000000,144256.4375000000,110151.4765625000,117420.8515625000,140252.0000000000,131821.8750000000,,,
1.2479999980,9,134756.1875000000,99670.1484375000,137672.4218750000,139516.9687500000,105609.8203125000,112682.2421875000,135616.2343750000,127787.8046875000,,,
1.2519999980,9,132488.9062500000,97455.8515625000,135370.5937500000,137334.9687500000,103354.5937500000,110474.4140625000,133413.1562500000,125504.4687500000,,,
1.2559999980,9,135363.7656250000,100707.1718750000,138307.0000000000,140728.1718750000,106454.0234375000,113787.3984375000,136618.3281250000,128071.6640625000,,,
1.2599999979,9,139409.3906250000,104934.8203125000,142408.2031250000,144982.7500000000,110613.9687500000,118039.8515625000,140794.9062500000,131949.0156250000,,,
1.2639999981,9,139061.4218750000,104314.9609375000,142048.6250000000,144248.1718750000,110126.6875000000,117373.9921875000,140201.5781250000,131798.7500000000,,,
1.2679999981,9,134800.4375000000,99721.8125000000,137725.9218750000,139520.4062500000,105678.0859375000,112698.4687500000,135650.2656250000,127837.2343750000,,,
1.2719999980,9,132521.9531250000,97486.5078125000,135417.8125000000,137339.3906250000,103414.9687500000,110462.3437500000,133408.0781250000,125536.6796875000,,,
1.2759999980,9,135345.7031250000,100694.9687500000,138285.1093750000,140702.1562500000,106455.0937500000,113748.0468750000,136557.0156250000,128061.8437500000,,,
1.2799999979,10,139400.7031250000,104933.1015625000,142402.3281250000,144988.8906250000,110643.7890625000,118010.8046875000,140793.2812500000,131945.1718750000,,,
1.2839999979,10,139111.7656250000,104381.5859375000,142107.0937500000,144265.5781250000,110227.1093750000,117390.7812500000,140283.2500000000,131850.9531250000,,,
1.2879999978,10,134784.6406250000,99697.2968750000,137718.9218750000,139541.0781250000,105701.3671875000,112640.4062500000,135641.6562500000,127816.2109375000,,,
1.2919999978,10,132478.4531250000,97445.0390625000,135370.0156250000,137349.3125000000,103389.2187500000,110390.2734375000,133336.4062500000,125495.1875000000,,,
1.2959999978,10,135344.2656250000,100703.7890625000,138277.5000000000,140706.3750000000,106459.6562500000,113709.7968750000,136523.9531250000,128064.1015625000,,,
1.2999999977,10,139392.0312500000,104926.5312500000,142399.1093750000,144980.5468750000,110643.2812500000,117968.8281250000,140772.4531250000,131934.1562500000,,,
1.3039999979,10,139058.3125000000,104326.1953125000,142054.6093750000,144283.6406250000,110182.3437500000,117317.3671875000,140210.0625000000,131795.0781250000,,,
1.3079999979,10,134820.8281250000,99760.3828125000,137743.4375000000,139570.4531250000,105731.2421875000,112668.4609375000,135630.6093750000,127858.9375000000,,,
1.3119999978,10,132526.9687500000,97519.0703125000,135407.7187500000,137379.3125000000,103429.6171875000,110432.0859375000,133340.8125000000,125554.9687500000,,,
1.3159999978,10,135334.8906250000,100703.9531250000,138267.3906250000,140717.9843750000,106453.0781250000,113693.5703125000,136510.0468750000,128061.7109375000,,,
1.3199999977,10,139373.4687500000,104913.8437500000,142383.6406250000,144986.1093750000,110637.5937500000,117936.1796875000,140729.5781250000,131918.6250000000,,,
1.3239999979,10,139116.4375000000,104394.1406250000,142114.3906250000,144325.0937500000,110249.5078125000,117350.8437500000,140233.3906250000,131852.3906250000,,,
1.3279999979,10,134863.8437500000,99805.9765625000,137771.9531250000,139620.2031250000,105759.1953125000,112685.6015625000,135616.6406250000,127904.5859375000,,,
1.3319999978,10,132518.4218750000,97500.3515625000,135393.7500000000,137370.1093750000,103416.8203125000,110393.1953125000,133312.5312500000,125545.1562500000,,,
1.3359999978,10,135310.1875000000,100662.0078125000,138243.3750000000,140692.9531250000,106438.4609375000,113634.0000000000,136471.2968750000,128029.3125000000,,,
1.3399999978,10,139359.6093750000,104886.4296875000,142365.0468750000,144978.0312500000,110622.8750000000,117889.9921875000,140669.5468750000,131898.5625000000,,,
1.3439999977,10,139110.2656250000,104380.4843750000,142105.9218750000,144316.2500000000,110241.7578125000,117329.4921875000,140169.7968750000,131844.7812500000,,,
1.3479999979,10,134870.5781250000,99816.1171875000,137787.7187500000,139613.3906250000,105783.9531250000,112699.8906250000,135590.6406250000,127917.4062500000,,,
1.3519999979,10,132551.7812500000,97536.8281250000,135446.0468750000,137392.0937500000,103476.0937500000,110422.8593750000,133311.1406250000,125584.1015625000,,,
1.3559999978,10,135316.9531250000,100665.6250000000,138263.0937500000,140711.1718750000,106471.0781250000,113626.9453125000,136448.2812500000,128046.2890625000,,,
1.3599999978,10,139425.2343750000,104965.9062500000,142430.2343750000,145040.9531250000,110702.3750000000,117960.8593750000,140686.7031250000,131980.5781250000,,,
1.3639999977,10,139171.1875000000,104448.4218750000,142169.1718750000,144400.8125000000,110312.3750000000,117383.8125000000,140182.5156250000,131919.3437500000,,,
1.3679999979,10,134885.5000000000,99833.8203125000,137804.6562500000,139650.0625000000,105805.8906250000,112692.7031250000,135536.2031250000,127944.8203125000,,,
1.3719999979,10,132538.2656250000,97533.6640625000,135426.9531250000,137365.3281250000,103467.9453125000,110393.3515625000,133160.7812500000,125585.9765625000,,,
1.3759999978,10,135306.1718750000,100671.9843750000,138241.7656250000,140658.5000000000,106451.0156250000,113590.9765625000,136164.6718750000,128050.6875000000,,,
1.3799999978,10,139398.7343750000,104942.0859375000,142410.2187500000,145012.0468750000,110686.4140625000,117887.9609375000,140390.2968750000,131954.2343750000,,,
1.3839999977,10,139229.1718750000,104516.4765625000,142227.5000000000,144471.2500000000,110384.3437500000,117398.3984375000,139955.8281250000,131969.9062500000,,,
1.3879999977,10,134993.2968750000,99939.3359375000,137924.3593750000,139755.3125000000,105939.4375000000,112749.6718750000,135376.2812500000,128038.6953125000,,,
1.3919999979,10,132594.1875000000,97570.3046875000,135500.6093750000,137425.7812500000,103547.5000000000,110383.6718750000,132951.8593750000,125629.4062500000,,,
1.3959999979,10,135326.2343750000,100681.6953125000,138277.3125000000,140673.7812500000,106495.4375000000,113556.1093750000,135996.3281250000,128065.3593750000,,,
1.3999999978,10,139430.1718750000,104974.4609375000,142440.2812500000,145015.0781250000,110723.3203125000,117865.5312500000,140225.6718750000,131987.6562500000,,,
1.4039999978,10,139223.4531250000,104514.7578125000,142214.8125000000,144438.0468750000,110372.4609375000,117325.7656250000,139756.9531250000,131971.4687500000,,,
1.4079999977,11,134980.6562500000,99931.6406250000,137899.4375000000,139729.5312500000,105916.5312500000,112678.0625000000,135126.6562500000,128032.5546875000,,,
1.4119999977,11,132588.5312500000,97582.3750000000,135464.0156250000,137404.4687500000,103519.6328125000,110319.2187500000,132740.6406250000,125633.3750000000,,,
1.4159999976,11,135324.4687500000,100691.1093750000,138255.1562500000,140651.7343750000,106473.2265625000,113478.4843750000,135792.2187500000,128065.5468750000,,,
1.4199999976,11,139419.6406250000,104970.3828125000,142420.4687500000,145006.4687500000,110705.3515625000,117771.8203125000,140034.7500000000,131974.2031250000,,,
1.4239999976,11,139246.2500000000,104536.9687500000,142238.1250000000,144449.6093750000,110404.1093750000,117266.9687500000,139613.2343750000,131979.8593750000,,,
1.4279999975,11,135049.4531250000,100008.0781250000,137971.5937500000,139751.0781250000,105999.0078125000,112647.4062500000,135068.6562500000,128086.1718750000,,,
1.4319999977,11,132600.3125000000,97594.8984375000,135477.4062500000,137379.5156250000,103537.5468750000,110234.0546875000,132581.8437500000,125636.8046875000,,,
1.4359999977,11,135282.2968750000,100647.4687500000,138209.3750000000,140589.6875000000,106436.9609375000,113365.7500000000,135557.5000000000,128023.0078125000,,,
1.4399999976,11,139429.3125000000,104988.5156250000,142429.1562500000,144981.3593750000,110728.2031250000,117732.9765625000,139860.4843750000,131987.6093750000,,,
1.4439999976,11,139330.9843750000,104639.5078125000,142332.2656250000,144485.0156250000,110502.2812500000,117308.5468750000,139479.5781250000,132072.1562500000,,,
1.4479999975,11,135124.1093750000,100084.9531250000,138068.4375000000,139806.6562500000,106105.7109375000,112675.5390625000,134961.4843750000,128167.0390625000,,,
1.4519999977,11,132643.6718750000,97641.8125000000,135527.1875000000,137425.7656250000,103607.4453125000,110272.2265625000,132494.3281250000,125696.5390625000,,,
1.4559999977,11,135301.5312500000,100671.2031250000,138242.4375000000,140587.7343750000,106490.3125000000,113340.3750000000,135435.1562500000,128056.1875000000,,,
1.4599999976,11,139453.5312500000,105029.5000000000,142449.8281250000,144981.2812500000,110764.1953125000,117667.6171875000,139697.5312500000,132028.2500000000,,,
1.4639999976,11,139364.0312500000,104687.1171875000,142338.3281250000,144506.0937500000,110510.8593750000,117288.1328125000,139320.9218750000,132122.8437500000,,,
1.4679999975,11,135074.8906250000,100033.1562500000,137994.7343750000,139798.3906250000,106037.5000000000,112594.4296875000,134731.3281250000,128129.6250000000,,,
1.4719999975,11,132558.6562500000,97545.7031250000,135422.7968750000,137365.4687500000,103503.0234375000,110071.4609375000,132216.6093750000,125611.9140625000,,,
1.4759999977,11,135232.6718750000,100576.8671875000,138158.8125000000,140527.1718750000,106400.7265625000,113185.4296875000,135206.9062500000,127979.6875000000,,,
1.4799999977,11,139386.6406250000,104916.5000000000,142390.3906250000,144903.2812500000,110702.2343750000,117557.2968750000,139533.4062500000,131941.2812500000,,,
1.4839999976,11,139340.1406250000,104619.4687500000,142337.0156250000,144481.3906250000,110529.6640625000,117198.9218750000,139235.4531250000,132075.4843750000,,,
1.4879999976,11,135116.0625000000,100043.8046875000,138044.2187500000,139825.3750000000,106098.2500000000,112551.5703125000,134674.8593750000,128154.1953125000,,,
1.4919999975,11,132622.5625000000,97585.9687500000,135506.7187500000,137402.3125000000,103590.4375000000,110076.8281250000,132169.6562500000,125662.3984375000,,,
1.4959999977,11,135254.4062500000,100600.1015625000,138184.5625000000,140538.6718750000,106439.0781250000,113142.9687500000,135137.2500000000,128000.9609375000,,,
1.4999999977,11,139408.7968750000,104945.4140625000,142435.8125000000,144909.8437500000,110768.7031250000,117510.4375000000,139510.2343750000,131958.8750000000,,,
1.5039999976,11,139363.8437500000,104652.7578125000,142395.0156250000,144470.0781250000,110612.7890625000,117164.2187500000,139245.2656250000,132093.0156250000,,,
1.5079999976,11,135192.4218750000,100158.2031250000,138146.9062500000,139828.7500000000,106226.3515625000,112577.8515625000,134732.2812500000,128235.1171875000,,,
1.5119999975,11,132695.6250000000,97709.9609375000,135577.2031250000,137400.0312500000,103659.6718750000,110095.7656250000,132146.5625000000,125758.0703125000,,,
1.5159999975,11,135292.0156250000,100659.0546875000,138237.5312500000,140510.1718750000,106504.7109375000,113138.1406250000,135239.4375000000,128044.4687500000,,,
1.5199999977,11,139457.9375000000,105009.9453125000,142496.9375000000,144967.0000000000,110843.5390625000,117549.4375000000,139512.9531250000,132007.3750000000,,,
1.5239999976,11,139432.2968750000,104742.8750000000,142466.8125000000,144581.0937500000,110693.8437500000,117219.0390625000,139242.1562500000,132166.3281250000,,,
1.5279999976,11,135222.9375000000,100200.7421875000,138166.3125000000,139875.3125000000,106243.2812500000,112592.9531250000,134672.3437500000,128272.9921875000,,,
1.5319999976,11,132653.4375000000,97661.1250000000,135523.7500000000,137397.7031250000,103631.4218750000,110001.0000000000,131903.4687500000,125705.5546875000,,,
1.5359999975,12,135250.1093750000,100617.0234375000,138198.0468750000,140489.0625000000,106483.5234375000,112995.3906250000,135016.7812500000,128000.0781250000,,,
1.5399999975,12,139411.7812500000,104974.2421875000,142427.8437500000,144921.7812500000,110760.9765625000,117380.5078125000,139230.1406250000,131965.9062500000,,,
1.5439999974,12,139399.2812500000,104718.7109375000,142394.6562500000,144577.2031250000,110618.5234375000,117068.0859375000,138931.9843750000,132131.9375000000,,,
1.5479999974,12,135244.0000000000,100221.6406250000,138213.9062500000,139902.2500000000,106315.2734375000,112482.5000000000,134607.1406250000,128287.0468750000,,,
1.5519999973,12,132778.6718750000,97774.4140625000,135784.5468750000,137422.0937500000,103930.5156250000,109994.5078125000,132314.1406250000,125827.6484375000,,,
1.5559999973,12,135314.0781250000,100682.4453125000,138268.0000000000,140540.1875000000,106549.2109375000,113024.8984375000,134860.5468750000,128072.7109375000,,,
1.5599999975,12,139407.7500000000,104996.1328125000,142381.9687500000,144932.6718750000,110727.2109375000,117371.1484375000,139132.0781250000,131991.9531250000,,,
1.5639999975,12,139452.8750000000,104775.3046875000,142489.9843750000,144586.9843750000,110720.7421875000,117016.6406250000,139003.9218750000,132182.9218750000,,,
1.5679999974,12,135271.1406250000,100239.4765625000,138234.5468750000,139937.4062500000,106314.3593750000,112405.6562500000,134314.0000000000,128293.6406250000,,,
1.5719999974,12,132707.6406250000,97712.9687500000,135605.0468750000,137414.7031250000,103728.0937500000,109868.1796875000,131817.7187500000,125749.8046875000,,,
1.5759999973,12,135182.8437500000,100546.8593750000,138094.6718750000,140443.0625000000,106350.4843750000,112769.1718750000,134501.1093750000,127939.6718750000,,,
1.5799999975,12,139348.2343750000,104912.1562500000,142348.2343750000,144843.1406250000,110690.3593750000,117177.2265625000,138956.3593750000,131908.2187500000,,,
1.5839999975,12,139493.8281250000,104796.4140625000,142588.6093750000,144579.8906250000,110847.7500000000,116993.2265625000,139060.5468750000,132201.5625000000,,,
1.5879999974,12,135375.5625000000,100331.3671875000,138433.8125000000,139970.0312500000,106534.5703125000,112410.5625000000,134669.2031250000,128383.8203125000,,,
1.5919999974,12,132741.1406250000,97740.0625000000,135688.7031250000,137420.5312500000,103798.4453125000,109871.4531250000,131773.8125000000,125793.8515625000,,,
1.5959999973,12,135235.7968750000,100613.0000000000,138163.7187500000,140429.6406250000,106437.6875000000,112788.1406250000,134601.4218750000,128017.9375000000,,,
1.5999999973,12,139409.8906250000,104969.7656250000,142462.6875000000,144866.6875000000,110814.8671875000,117135.0078125000,139018.8593750000,131977.7031250000,,,
1.6039999975,12,139484.2500000000,104798.8593750000,142542.6406250000,144592.0625000000,110767.1171875000,116950.8437500000,138728.4062500000,132207.9531250000,,,
1.6079999974,12,135321.8125000000,100308.7812500000,138291.9062500000,139974.6093750000,106351.2421875000,112341.4687500000,134134.8437500000,128362.8203125000,,,
1.6119999974,12,132617.9843750000,97637.6015625000,135455.9687500000,137385.6093750000,103566.4843750000,109666.2343750000,131448.2187500000,125691.3125000000,,,
1.6159999974,12,135105.8593750000,100493.4843750000,138006.0625000000,140384.4062500000,106301.8359375000,112606.0937500000,134319.5156250000,127892.5156250000,,,
1.6199999973,12,139316.4218750000,104904.3984375000,142358.4218750000,144799.6875000000,110724.9531250000,117159.6875000000,138986.0781250000,131908.5312500000,,,
1.6239999975,12,139482.4531250000,104835.1718750000,142536.0468750000,144612.6562500000,110731.4218750000,116962.4609375000,138806.4062500000,132225.5156250000,,,
1.6279999975,12,135336.3750000000,100334.4296875000,138295.0156250000,140017.0937500000,106358.6953125000,112249.2578125000,134197.7187500000,128370.8125000000,,,
1.6319999974,12,132669.9375000000,97704.6796875000,135531.1093750000,137423.8593750000,103646.2265625000,109697.0546875000,131602.6875000000,125752.9218750000,,,
1.6359999974,12,135169.3281250000,100567.9921875000,138135.9062500000,140398.8593750000,106429.3750000000,112688.8125000000,134648.5937500000,127982.8515625000,,,
1.6399999973,12,139351.2968750000,104946.2968750000,142416.5000000000,144863.9218750000,110749.8437500000,117184.0625000000,139084.3125000000,131966.5468750000,,,
1.6439999973,12,139484.3281250000,104822.9921875000,142508.7031250000,144664.2343750000,110716.7734375000,116949.0234375000,138852.2343750000,132235.5312500000,,,
1.6479999975,12,135369.3437500000,100361.6796875000,138366.8906250000,140045.0156250000,106421.4609375000,112248.0234375000,134316.5781250000,128407.3671875000,,,
1.6519999974,12,132761.6718750000,97784.9296875000,135743.9687500000,137444.4062500000,103885.2968750000,109749.8671875000,131831.5625000000,125841.0312500000,,,
1.6559999974,12,135202.2343750000,100579.4453125000,138192.2812500000,140424.4218750000,106458.9843750000,112442.3750000000,134379.3906250000,127979.1562500000,,,
1.6599999974,12,139327.9843750000,104945.3046875000,142218.2031250000,144877.3437500000,110539.3750000000,116849.0312500000,138574.5468750000,131921.7343750000,,,
1.6639999973,13,139542.9062500000,104912.9062500000,142525.0937500000,144694.9531250000,110789.2187500000,116904.4453125000,138843.0937500000,132308.7812500000,,,
1.6679999973,13,135413.5937500000,100390.5390625000,138388.3593750000,140094.2656250000,106457.4531250000,112131.6640625000,134284.8437500000,128438.0781250000,,,
1.6719999972,13,132687.1875000000,97679.4687500000,135536.9218750000,137449.7968750000,103625.8984375000,109392.0859375000,131482.0312500000,125728.9140625000,,,
1.6759999972,13,135106.8906250000,100464.4609375000,138030.0937500000,140332.1562500000,106308.7812500000,112267.9218750000,134464.0156250000,127872.2656250000,,,
1.6799999971,13,139331.8125000000,104896.1953125000,142393.8906250000,144787.5156250000,110733.5156250000,116748.6875000000,139031.8750000000,131895.4531250000,,,
1.6839999971,13,139519.2031250000,104843.4609375000,142599.9531250000,144624.0625000000,110829.4843750000,116680.0781250000,138760.9843750000,132242.1718750000,,,
1.6879999973,13,135407.4843750000,100398.4765625000,138363.5625000000,140058.5156250000,106437.9296875000,112052.6796875000,134077.0781250000,128453.6093750000,,,
1.6919999972,13,132692.0937500000,97694.0312500000,135579.7343750000,137372.6250000000,103694.2421875000,109269.0781250000,131688.0000000000,125767.2187500000,,,
1.6959999972,13,135077.0312500000,100439.1953125000,138002.8593750000,140288.0000000000,106309.0234375000,112092.1015625000,134512.4531250000,127858.1875000000,,,
1.6999999972,13,139252.1562500000,104818.6796875000,142276.8906250000,144756.2968750000,110595.1640625000,116523.2187500000,138524.3906250000,131809.8906250000,,,
1.7039999971,13,139493.5000000000,104869.0234375000,142502.3281250000,144607.5312500000,110761.2187500000,116660.3671875000,138692.9687500000,132260.6562500000,,,
1.7079999973,13,135450.8437500000,100493.1562500000,138411.6875000000,140070.1250000000,106487.1718750000,112129.1484375000,134268.9375000000,128528.4140625000,,,
1.7119999973,13,132703.0625000000,97738.8750000000,135628.3281250000,137410.5000000000,103738.9296875000,109175.0390625000,131565.8906250000,125793.8515625000,,,
1.7159999972,13,135015.7968750000,100406.0937500000,137938.7031250000,140291.5156250000,106187.5156250000,111993.0546875000,134084.7187500000,127830.3203125000,,,
1.7199999972,13,139249.7656250000,104853.8125000000,142289.0312500000,144775.4687500000,110624.3984375000,116501.9765625000,138494.0781250000,131862.1875000000,,,
1.7239999971,13,139506.2500000000,104848.9062500000,142565.4375000000,144701.3281250000,110786.1640625000,116313.8203125000,138862.1718750000,132220.5781250000,,,
1.7279999971,13,135376.2812500000,100403.4921875000,138272.6093750000,140136.4218750000,106374.9218750000,111714.5312500000,134012.8437500000,128413.7500000000,,,
1.7319999973,13,132616.5000000000,97637.1406250000,135453.6718750000,137418.4375000000,103549.4843750000,108846.6015625000,131132.5781250000,125656.7890625000,,,
1.7359999972,13,134986.6406250000,100372.7265625000,137852.8750000000,140283.5937500000,106095.4921875000,111689.9921875000,134017.0781250000,127755.3515625000,,,
1.7399999972,13,139238.7500000000,104836.5156250000,142259.1093750000,144760.7500000000,110599.8593750000,116277.0468750000,138632.0000000000,131807.8437500000,,,
1.7439999972,13,139525.2656250000,104896.8906250000,142602.5312500000,144682.0781250000,110855.5546875000,116209.6953125000,138710.0312500000,132260.0937500000,,,
1.7479999971,13,135450.7968750000,100462.1562500000,138460.8593750000,140138.4062500000,106560.2109375000,111672.3906250000,134287.0937500000,128477.9921875000,,,
1.7519999973,13,132741.9531250000,97752.4765625000,135728.7812500000,137417.6093750000,103839.6406250000,109051.9843750000,131534.8281250000,125787.3359375000,,,
1.7559999973,13,135059.7343750000,100458.7734375000,138020.4375000000,140269.6562500000,106274.4453125000,111692.7265625000,134053.2031250000,127860.4921875000,,,
1.7599999972,13,139201.7812500000,104810.0156250000,142184.2656250000,144731.5937500000,110528.9921875000,116098.8671875000,138340.6406250000,131791.5156250000,,,
1.7639999972,13,139412.8750000000,104788.6406250000,142334.0625000000,144660.7500000000,110590.2812500000,115975.1406250000,138381.0625000000,132149.5625000000,,,
1.7679999971,13,135374.3750000000,100409.5312500000,138261.9687500000,140111.5937500000,106378.7812500000,111539.5703125000,134066.1093750000,128408.0390625000,,,
1.7719999971,13,132668.1718750000,97710.7187500000,135580.4218750000,137393.4687500000,103688.9609375000,108806.3437500000,131319.8125000000,125737.0937500000,,,
1.7759999973,13,134994.6093750000,100388.8203125000,137950.8281250000,140215.6875000000,106200.7109375000,111535.4921875000,134015.5937500000,127779.5937500000,,,
1.7799999972,13,139160.5625000000,104778.4687500000,142156.6718750000,144668.3437500000,110536.3437500000,115986.4609375000,138347.6093750000,131757.7500000000,,,
1.7839999972,13,139436.7500000000,104839.3828125000,142421.2656250000,144614.6250000000,110726.7265625000,115932.7578125000,138516.7812500000,132186.5468750000,,,
1.7879999971,13,135433.2500000000,100483.9843750000,138391.4375000000,140125.7500000000,106540.2812500000,111631.7031250000,134244.4687500000,128486.0390625000,,,
1.7919999971,14,132685.9687500000,97733.8593750000,135630.6093750000,137421.6875000000,103766.6875000000,108866.6640625000,131209.4687500000,125779.5781250000,,,
1.7959999971,14,134943.2343750000,100326.8593750000,137918.4218750000,140197.7656250000,106201.8359375000,111391.2421875000,133870.7812500000,127735.2031250000,,,
1.7999999970,14,139102.4062500000,104714.9531250000,142109.7500000000,144658.4687500000,110464.6484375000,115754.7421875000,138089.2812500000,131694.2343750000,,,
1.8039999970,14,139427.4062500000,104843.1640625000,142391.0156250000,144669.2343750000,110624.2656250000,115827.2421875000,138229.9062500000,132186.2187500000,,,
1.8079999969,14,135410.1093750000,100452.9765625000,138336.4531250000,140182.9687500000,106431.1171875000,111374.9375000000,133933.6875000000,128435.1562500000,,,
1.8119999969,14,132664.1875000000,97688.1562500000,135609.0000000000,137414.2500000000,103738.1250000000,108606.7656250000,131228.9687500000,125703.0546875000,,,
1.8159999971,14,134954.7812500000,100333.1093750000,137929.6875000000,140184.1250000000,106234.9140625000,111288.5156250000,133990.2500000000,127721.6640625000,,,
1.8199999970,14,139117.7187500000,104731.7500000000,142081.8281250000,144693.5625000000,110447.5859375000,115695.6250000000,138159.2031250000,131695.8437500000,,,
1.8239999970,14,139482.4843750000,104893.1875000000,142443.0468750000,144748.3593750000,110688.1796875000,115812.1406250000,138111.4062500000,132220.3750000000,,,
1.8279999970,14,135442.5156250000,100495.3828125000,138365.0156250000,140227.3281250000,106485.4843750000,111371.2109375000,133979.0937500000,128478.5234375000,,,
1.8319999969,14,132672.4218750000,97723.6718750000,135562.2343750000,137457.6250000000,103704.4843750000,108620.9218750000,131372.3125000000,125746.0546875000,,,
1.8359999971,14,134939.3593750000,100344.6953125000,137873.1250000000,140182.3750000000,106167.6640625000,111501.8593750000,133773.8593750000,127752.6406250000,,,
1.8399999971,14,139144.3906250000,104756.8828125000,142190.8437500000,144672.6875000000,110547.9062500000,115715.9609375000,138084.1562500000,131737.5937500000,,,
1.8439999970,14,139487.9843750000,104880.1562500000,142492.1250000000,144709.8125000000,110757.5156250000,115588.3671875000,138201.3281250000,132213.5312500000,,,
1.8479999970,14,135505.0000000000,100561.5546875000,138449.6093750000,140186.5000000000,106618.1953125000,111282.7500000000,133967.7187500000,128548.4531250000,,,
1.8519999969,14,132714.0625000000,97774.8203125000,135640.7500000000,137432.3125000000,103795.4453125000,108589.2187500000,131263.5937500000,125810.0781250000,,,
1.8559999969,14,134872.1562500000,100275.0156250000,137792.1250000000,140136.0781250000,106074.8359375000,111088.7734375000,133664.9843750000,127682.1796875000,,,
1.8599999971,14,139058.0468750000,104664.6093750000,142053.0468750000,144601.9062500000,110437.3984375000,115516.7734375000,138080.6718750000,131641.2500000000,,,
1.8639999970,14,139476.0468750000,104902.0390625000,142428.0312500000,144697.5312500000,110698.8046875000,115632.2500000000,138082.0781250000,132233.5156250000,,,
1.8679999970,14,135517.9843750000,100595.5625000000,138427.1093750000,140247.6093750000,106565.0078125000,111380.1093750000,133923.6250000000,128585.0937500000,,,
1.8719999969,14,132695.1406250000,97740.5937500000,135620.3437500000,137438.1250000000,103758.3437500000,108353.7187500000,131065.3046875000,125763.3281250000,,,
1.8759999969,14,134855.2656250000,100252.1640625000,137786.3593750000,140096.8125000000,106104.1015625000,110985.7500000000,133679.9687500000,127661.0468750000,,,
1.8799999971,14,139045.1718750000,104670.8359375000,142045.1093750000,144585.1093750000,110478.2187500000,115485.2578125000,138186.4687500000,131656.0937500000,,,
1.8839999971,14,139472.0156250000,104885.0078125000,142469.5156250000,144724.6718750000,110752.1562500000,115540.7578125000,138057.3906250000,132213.9843750000,,,
1.8879999970,14,135515.3593750000,100588.7265625000,138469.9687500000,140295.0000000000,106609.2109375000,111249.4375000000,133844.3125000000,128568.6250000000,,,
1.8919999970,14,132694.2031250000,97753.2031250000,135614.3593750000,137473.9843750000,103755.2890625000,108335.8593750000,131041.8593750000,125773.1953125000,,,
1.8959999969,14,134827.4531250000,100239.3984375000,137711.8750000000,140111.7500000000,106038.1953125000,110792.7890625000,133418.4375000000,127633.6328125000,,,
1.8999999969,14,139015.9375000000,104652.7265625000,141983.3906250000,144577.3593750000,110429.9375000000,115374.3281250000,137975.7812500000,131629.4843750000,,,
1.9039999971,14,139549.2187500000,104967.1406250000,142585.6875000000,144770.5937500000,110918.4531250000,115683.0234375000,138420.4375000000,132290.8593750000,,,
1.9079999970,14,135575.2968750000,100650.2031250000,138515.5625000000,140342.3437500000,106673.3984375000,111082.1718750000,133881.1093750000,128617.0625000000,,,
1.9119999970,14,132655.5781250000,97714.7890625000,135537.7031250000,137421.2031250000,103724.3593750000,108169.4531250000,131043.0156250000,125735.5156250000,,,
1.9159999969,14,134856.0156250000,100276.0859375000,137795.9375000000,140101.3437500000,106131.4296875000,110850.5078125000,133442.6250000000,127691.0000000000,,,
1.9199999969,15,139070.4375000000,104702.4843750000,142052.4375000000,144631.1875000000,110465.6171875000,115251.8828125000,137893.3750000000,131675.7968750000,,,
1.9239999969,15,139567.8281250000,104994.6328125000,142567.8281250000,144798.0781250000,110905.4921875000,115632.0078125000,138248.5312500000,132318.7031250000,,,
1.9279999968,15,135612.7968750000,100707.0078125000,138527.1875000000,140372.4062500000,106740.6953125000,111281.6250000000,134025.8750000000,128690.8203125000,,,
1.9319999968,15,132705.5000000000,97767.5781250000,135582.7343750000,137490.6718750000,103763.7656250000,108035.5859375000,130955.7343750000,125787.9218750000,,,
1.9359999967,15,134804.9218750000,100200.7968750000,137741.7500000000,140047.7343750000,106079.0468750000,110606.4843750000,133293.6875000000,127600.4531250000,,,
1.9399999967,15,139051.8281250000,104710.9296875000,142037.5312500000,144557.0625000000,110474.3281250000,115243.0859375000,137962.1250000000,131676.7187500000,,,
1.9439999969,15,139583.2031250000,105030.1718750000,142565.6250000000,144800.5781250000,110883.1796875000,115460.6093750000,138194.2187500000,132339.4843750000,,,
1.9479999968,15,135584.1250000000,100655.3828125000,138505.2187500000,140376.2656250000,106686.8593750000,110984.8906250000,133880.8125000000,128619.0234375000,,,
1.9519999968,15,132702.4687500000,97768.6796875000,135591.2343750000,137455.0781250000,103796.4843750000,108148.5312500000,131012.0625000000,125791.4921875000,,,
1.9559999967,15,134843.3281250000,100251.1718750000,137811.0000000000,140038.1718750000,106183.2812500000,110760.4453125000,133597.8437500000,127667.1875000000,,,
1.9599999967,15,139066.5000000000,104713.5625000000,142052.3906250000,144589.8906250000,110506.3593750000,115022.6093750000,137945.8437500000,131670.8437500000,,,
1.9639999969,15,139544.9218750000,104981.8125000000,142506.8281250000,144808.1406250000,110842.8671875000,115292.9765625000,138023.3593750000,132276.6093750000,,,
1.9679999969,15,135595.4531250000,100681.8281250000,138517.7656250000,140386.9687500000,106697.2968750000,110940.6875000000,133747.1093750000,128634.1484375000,,,
1.9719999968,15,132674.7656250000,97749.9843750000,135571.1406250000,137431.0781250000,103765.8828125000,108080.4609375000,130942.1328125000,125773.0390625000,,,
1.9759999968,15,134795.1250000000,100227.2187500000,137725.8125000000,140034.3750000000,106106.1406250000,110675.2812500000,133569.2812500000,127648.6250000000,,,
1.9799999967,15,139022.1562500000,104655.8671875000,142017.3281250000,144616.3125000000,110462.9296875000,114999.4609375000,137764.4218750000,131621.0781250000,,,
1.9839999967,15,139557.3906250000,104987.8203125000,142563.3437500000,144839.1250000000,110902.0625000000,115338.1718750000,138023.9687500000,132292.6250000000,,,
1.9879999969,15,135656.8125000000,100744.2421875000,138632.9687500000,140408.3750000000,106836.2343750000,110993.2812500000,133895.7812500000,128700.3984375000,,,
1.9919999968,15,132697.0312500000,97769.7812500000,135600.3906250000,137451.7812500000,103828.0000000000,108048.8359375000,130957.3437500000,125797.3359375000,,,
1.9959999968,15,134751.0312500000,100170.4375000000,137664.1093750000,139995.7968750000,106063.4921875000,110489.6171875000,133301.0625000000,127591.6015625000,,,
1.9999999967,15,139017.1406250000,104668.0703125000,142009.7968750000,144586.0000000000,110497.0468750000,114943.1875000000,137804.3281250000,131624.9218750000,,,
2.0039999967,15,139634.5312500000,105085.1562500000,142633.6250000000,144921.5625000000,111042.6093750000,115333.6640625000,138272.0000000000,132380.3906250000,,,
2.0079999969,15,135734.2031250000,100836.8046875000,138683.8437500000,140509.6562500000,106974.5000000000,111112.3203125000,134177.9843750000,128804.2031250000,,,
2.0119999968,15,132728.0000000000,97809.6093750000,135613.2031250000,137492.3593750000,103869.7109375000,108194.1328125000,130768.8671875000,125861.8984375000,,,
2.0159999968,15,134746.5312500000,100161.2890625000,137659.5156250000,140023.9375000000,106051.0156250000,110396.8125000000,132975.5937500000,127585.7031250000,,,
2.0199999968,15,138952.2812500000,104593.3984375000,141925.4687500000,144582.1406250000,110430.2890625000,114732.8437500000,137593.1562500000,131539.9218750000,,,
2.0239999967,15,139614.9843750000,105069.0078125000,142631.2656250000,144908.0468750000,111050.2265625000,115256.2265625000,138213.0625000000,132343.4375000000,,,
2.0279999967,15,135721.2968750000,100822.3437500000,138703.6718750000,140469.7500000000,106994.2734375000,111031.5625000000,134249.2500000000,128770.6171875000,,,
2.0319999969,15,132698.6875000000,97781.6328125000,135599.5312500000,137460.0468750000,103893.3984375000,107921.1640625000,130777.9609375000,125805.7578125000,,,
2.0359999968,15,134695.8906250000,100143.8046875000,137562.1562500000,139975.3593750000,105994.5312500000,110301.9218750000,133051.3437500000,127549.0312500000,,,
2.0399999968,15,139027.6875000000,104706.6953125000,142026.7187500000,144577.4218750000,110553.0546875000,115008.8437500000,137595.4062500000,131659.0156250000,,,
2.0439999967,15,139629.6562500000,105088.1328125000,142626.7031250000,144912.2031250000,111055.0312500000,115388.2968750000,138148.7031250000,132377.0937500000,,,
2.0479999967,16,135703.4531250000,100804.2656250000,138653.2187500000,140492.0937500000,106967.6093750000,110878.8046875000,134087.9062500000,128749.8359375000,,,
2.0519999966,16,132677.3125000000,97749.3906250000,135597.4062500000,137438.7968750000,103894.0156250000,107817.4687500000,130860.3593750000,125775.2890625000,,,
2.0559999966,16,134671.0312500000,100093.0000000000,137580.2031250000,139957.9843750000,105994.4218750000,110234.2187500000,132960.9843750000,127501.3437500000,,,
2.0599999966,16,138947.3750000000,104621.0546875000,141924.9062500000,144540.6093750000,110463.3359375000,114878.1718750000,137588.4062500000,131571.7031250000,,,
2.0639999965,16,139645.0156250000,105117.4453125000,142650.9218750000,144918.5937500000,111108.5625000000,115338.8671875000,138155.6406250000,132400.1093750000,,,
2.0679999965,16,135721.2187500000,100837.9531250000,138636.9375000000,140533.3906250000,106908.1171875000,110928.3984375000,133765.8593750000,128783.7109375000,,,
2.0719999967,16,132661.7031250000,97743.0390625000,135545.1250000000,137443.5937500000,103830.1796875000,107854.1640625000,130802.1796875000,125779.9062500000,,,
2.0759999966,16,134639.7500000000,100075.7500000000,137563.2187500000,139884.6250000000,106009.8203125000,110223.0078125000,133062.0000000000,127501.3984375000,,,
2.0799999966,16,138934.0000000000,104593.0000000000,141956.9531250000,144502.2812500000,110507.2109375000,114771.7109375000,137642.8281250000,131542.5468750000,,,
2.0839999965,16,139629.4062500000,105106.9609375000,142627.5625000000,144900.0781250000,111067.4218750000,115258.8593750000,138074.0468750000,132384.8125000000,,,
2.0879999965,16,135730.4218750000,100856.8906250000,138640.4062500000,140494.6875000000,106940.2265625000,110970.5156250000,133948.6250000000,128813.6171875000,,,
2.0919999967,16,132656.5468750000,97731.8515625000,135577.2031250000,137384.4843750000,103908.0703125000,107777.5546875000,130833.3437500000,125779.6328125000,,,
2.0959999966,16,134618.0468750000,100049.8437500000,137527.2812500000,139874.7812500000,105955.7968750000,110189.9609375000,132837.1718750000,127476.9062500000,,,
2.0999999966,16,138909.7187500000,104580.3125000000,141876.1562500000,144491.3750000000,110393.0078125000,114758.1953125000,137488.9843750000,131529.4531250000,,,
2.1039999966,16,139660.6250000000,105134.6718750000,142670.9218750000,144942.9531250000,111097.4609375000,115204.3281250000,138061.9531250000,132400.9062500000,,,
2.1079999965,16,135777.4375000000,100882.3203125000,138729.3125000000,140547.3437500000,107023.0000000000,110953.2890625000,133864.9062500000,128829.6250000000,,,
2.1119999965,16,132667.0156250000,97729.1171875000,135569.2656250000,137412.2500000000,103873.1171875000,107802.2578125000,130876.8281250000,125772.1796875000,,,
2.1159999967,16,134603.6718750000,100028.1171875000,137504.9375000000,139844.5156250000,105937.6171875000,110226.4921875000,132827.1718750000,127465.0546875000,,,
2.1199999966,16,138901.1093750000,104562.3671875000,141893.8593750000,144479.7812500000,110445.0390625000,114703.5078125000,137457.2031250000,131520.6875000000,,,
2.1239999966,16,139637.0468750000,105103.5546875000,142637.7500000000,144947.7968750000,111077.0781250000,115176.4296875000,138094.1093750000,132376.6875000000,,,
2.1279999965,16,135790.5000000000,100907.5859375000,138728.5156250000,140615.9531250000,107012.6406250000,110963.5390625000,133885.6406250000,128849.5312500000,,,
2.1319999965,16,132672.7031250000,97750.9453125000,135565.4375000000,137426.4375000000,103847.8281250000,107777.6406250000,130730.9687500000,125793.9062500000,,,
2.1359999967,16,134569.3750000000,99987.2421875000,137485.4375000000,139785.0312500000,105946.7109375000,110059.5234375000,132970.1562500000,127421.7890625000,,,
2.1399999966,16,138872.4062500000,104548.3125000000,141860.3125000000,144419.4375000000,110406.2812500000,114726.0312500000,137485.0625000000,131510.5000000000,,,
2.1439999966,16,139653.5468750000,105132.6562500000,142688.4218750000,144919.2343750000,111122.5390625000,115206.8984375000,138039.2343750000,132401.9531250000,,,
2.1479999966,16,135771.9375000000,100894.3671875000,138716.2031250000,140560.9218750000,107020.7421875000,110945.5156250000,133764.5781250000,128836.3359375000,,,
2.1519999965,16,132638.4218750000,97743.5468750000,135501.4062500000,137412.9062500000,103786.8281250000,107891.2812500000,130496.0859375000,125795.0546875000,,,
2.1559999965,16,134512.0156250000,99944.4296875000,137413.0000000000,139780.8750000000,105846.1484375000,110052.8203125000,132724.6250000000,127378.0156250000,,,
2.1599999967,16,138882.7031250000,104559.5781250000,141893.3281250000,144453.2031250000,110439.7812500000,114621.3203125000,137524.9687500000,131499.6093750000,,,
2.1639999966,16,139697.3750000000,105179.6796875000,142708.6875000000,145012.7343750000,111160.1718750000,115193.4062500000,138109.2187500000,132430.7031250000,,,
2.1679999966,16,135821.9531250000,100957.1562500000,138746.9375000000,140637.2500000000,107050.8359375000,110974.6718750000,133912.2812500000,128885.8750000000,,,
2.1719999965,16,132657.1406250000,97753.7343750000,135528.8750000000,137426.6406250000,103837.3671875000,107809.9609375000,130675.9296875000,125796.5859375000,,,
2.1759999965,17,134517.3125000000,99953.8984375000,137415.7031250000,139776.5781250000,105860.0468750000,110019.4843750000,132718.0468750000,127391.5078125000,,,
2.1799999964,17,138819.5468750000,104504.6718750000,141826.8437500000,144398.9218750000,110374.4687500000,114611.0468750000,137402.1875000000,131458.6562500000,,,
2.1839999964,17,139684.9843750000,105195.0703125000,142711.6718750000,144964.0000000000,111156.0156250000,115252.2343750000,138077.6718750000,132454.3437500000,,,
2.1879999964,17,135866.9375000000,101026.7343750000,138795.3281250000,140633.3593750000,107076.5625000000,111071.0390625000,133815.0468750000,128956.1250000000,,,
2.1919999963,17,132664.5468750000,97757.3359375000,135550.9843750000,137404.7656250000,103843.1562500000,107735.1796875000,130552.4687500000,125793.5546875000,,,
2.1959999963,17,134463.2656250000,99886.3906250000,137382.0468750000,139719.2343750000,105823.3281250000,109908.7031250000,132805.5937500000,127323.1640625000,,,
2.1999999965,17,138811.5000000000,104494.1562500000,141812.2968750000,144396.4218750000,110351.2968750000,114600.4296875000,137385.3437500000,131442.2343750000,,,
2.2039999964,17,139680.2343750000,105180.8046875000,142697.1875000000,144985.1875000000,111147.9140625000,115226.4843750000,137963.0312500000,132425.0000000000,,,
2.2079999964,17,135860.4843750000,101006.9921875000,138800.0468750000,140649.9687500000,107111.9921875000,111008.9218750000,134018.2343750000,128923.9062500000,,,
2.2119999963,17,132667.8125000000,97764.3359375000,135563.8281250000,137419.2656250000,103864.6953125000,107768.1953125000,130611.0468750000,125803.1328125000,,,
2.2159999963,17,134484.5312500000,99917.4531250000,137410.6406250000,139717.6562500000,105843.1484375000,109946.5546875000,132613.3437500000,127347.6562500000,,,
2.2199999965,17,138835.0156250000,104533.6406250000,141809.8281250000,144408.0312500000,110346.3593750000,114622.1796875000,137305.2187500000,131469.5156250000,,,
2.2239999964,17,139746.0000000000,105257.7031250000,142749.1718750000,145021.7031250000,111212.4218750000,115310.1640625000,138133.7031250000,132493.7343750000,,,
2.2279999964,17,135924.2031250000,101070.9609375000,138874.8750000000,140699.2968750000,107190.7187500000,111044.0078125000,133964.6406250000,128995.4687500000,,,
2.2319999964,17,132676.8593750000,97767.2812500000,135543.5156250000,137443.1875000000,103835.0078125000,107767.5781250000,130534.3046875000,125816.8906250000,,,
2.2359999963,17,134446.4375000000,99862.0625000000,137351.0937500000,139710.8437500000,105800.2578125000,109936.1484375000,132637.3125000000,127313.6406250000,,,
2.2399999963,17,138796.6406250000,104475.3828125000,141802.4218750000,144392.9531250000,110360.9296875000,114578.5390625000,137336.0468750000,131432.9531250000,,,
2.2439999965,17,139731.4218750000,105236.3281250000,142748.5000000000,145027.4062500000,111227.1171875000,115307.1328125000,138073.3593750000,132483.0312500000,,,
2.2479999964,17,135962.9375000000,101116.8281250000,138923.3750000000,140734.8906250000,107263.7812500000,111112.0000000000,134002.5156250000,129024.2500000000,,,
2.2519999964,17,132719.6406250000,97825.7265625000,135610.1718750000,137470.9843750000,103923.7578125000,107816.6093750000,130646.6875000000,125855.8593750000,,,
2.2559999963,17,134463.4218750000,99901.2187500000,137385.5000000000,139691.2031250000,105835.3125000000,110030.0781250000,132652.8750000000,127349.4531250000,,,
2.2599999963,17,138765.8125000000,104465.2968750000,141759.1875000000,144342.7812500000,110323.4296875000,114537.7734375000,137181.6250000000,131416.3750000000,,,
2.2639999965,17,139669.6093750000,105193.5468750000,142671.4062500000,144966.4375000000,111150.5703125000,115231.0390625000,138027.5937500000,132433.5312500000,,,
2.2679999964,17,135913.1562500000,101074.4765625000,138855.6406250000,140706.3750000000,107179.7968750000,111058.1953125000,133891.7343750000,128976.9375000000,,,
2.2719999964,17,132651.5312500000,97757.8437500000,135544.4531250000,137390.5156250000,103865.4218750000,107733.5937500000,130522.5078125000,125787.5703125000,,,
2.2759999963,17,134399.0468750000,99836.3359375000,137331.9687500000,139616.8593750000,105799.5625000000,109876.8671875000,132535.7968750000,127269.0625000000,,,
2.2799999963,17,138743.3125000000,104438.2343750000,141765.8437500000,144304.2031250000,110345.2109375000,114533.3437500000,137231.2968750000,131373.2187500000,,,
2.2839999963,17,139757.1406250000,105280.4218750000,142790.0781250000,145051.8437500000,111269.1484375000,115353.9140625000,138058.3593750000,132495.0000000000,,,
2.2879999964,17,135989.8593750000,101161.7031250000,138918.0156250000,140798.1093750000,107227.7578125000,111130.9062500000,133881.4375000000,129045.9453125000,,,
2.2919999964,17,132723.1562500000,97836.2187500000,135609.4218750000,137455.2187500000,103912.9218750000,107794.5859375000,130585.3515625000,125851.0859375000,,,
2.2959999964,17,134410.5625000000,99836.2890625000,137340.0156250000,139639.5156250000,105808.2812500000,109888.1328125000,132687.1250000000,127280.4921875000,,,
2.2999999963,17,138725.1562500000,104400.8671875000,141726.2031250000,144319.3281250000,110286.7656250000,114520.1250000000,137083.8281250000,131358.9531250000,,,
2.3039999963,18,139731.6093750000,105233.9140625000,142743.5156250000,145060.9843750000,111216.8984375000,115327.1718750000,137982.5625000000,132471.4531250000,,,
2.3079999962,18,136014.7031250000,101166.0156250000,138970.9218750000,140817.7031250000,107296.4453125000,111179.2656250000,133927.7343750000,129066.8671875000,,,
2.3119999962,18,132699.2500000000,97793.9140625000,135597.2968750000,137450.0312500000,103921.8281250000,107803.3046875000,130603.1328125000,125833.8125000000,,,
2.3159999961,18,134362.2968750000,99793.9062500000,137280.5156250000,139621.6250000000,105752.7578125000,109871.7187500000,132494.7031250000,127239.2890625000,,,
2.3199999961,18,138691.6250000000,104390.5937500000,141693.0156250000,144286.6875000000,110270.1640625000,114514.5703125000,137039.5781250000,131330.5156250000,,,
2.3239999961,18,139714.4843750000,105247.1875000000,142732.0625000000,145048.6250000000,111219.6093750000,115349.5937500000,137983.3125000000,132460.3281250000,,,
2.3279999963,18,135995.1562500000,101179.3515625000,138944.0000000000,140821.7343750000,107274.7265625000,111241.3046875000,133950.7500000000,129063.3828125000,,,
2.3319999962,18,132710.7031250000,97832.1640625000,135615.0000000000,137441.9062500000,103942.1328125000,107870.1718750000,130623.0078125000,125855.9687500000,,,
2.3359999962,18,134343.8437500000,99780.2265625000,137282.2656250000,139569.8593750000,105756.2968750000,109881.1562500000,132491.5937500000,127229.9062500000,,,
2.3399999961,18,138656.7031250000,104361.8437500000,141658.2031250000,144248.0156250000,110234.0078125000,114533.8281250000,136967.3125000000,131309.1093750000,,,
2.3439999961,18,139731.8125000000,105268.8593750000,142757.8906250000,145036.4687500000,111254.2109375000,115426.7343750000,137973.6562500000,132488.2500000000,,,
2.3479999963,18,136020.7656250000,101193.4843750000,138983.2187500000,140829.8593750000,107330.0546875000,111274.9140625000,133903.7500000000,129085.3203125000,,,
2.3519999962,18,132710.1406250000,97823.5859375000,135608.3437500000,137482.4843750000,103933.4140625000,107904.9609375000,130492.2734375000,125853.5312500000,,,
2.3559999962,18,134361.0625000000,99802.9765625000,137293.2343750000,139599.6875000000,105766.1171875000,109958.6796875000,132457.4843750000,127246.1562500000,,,
2.3599999961,18,138680.5781250000,104380.7031250000,141694.4375000000,144253.0625000000,110267.7968750000,114587.2343750000,136980.4062500000,131317.9062500000,,,
2.3639999961,18,139752.5000000000,105290.9062500000,142760.0781250000,145061.7968750000,111245.3828125000,115481.1875000000,137974.8125000000,132492.5937500000,,,
2.3679999961,18,136089.1406250000,101274.7812500000,139042.1875000000,140870.6093750000,107377.6406250000,111395.9609375000,134024.6875000000,129141.8906250000,,,
2.3719999962,18,132745.7031250000,97855.2031250000,135653.7656250000,137478.5468750000,103966.8906250000,107992.0781250000,130430.8828125000,125882.3593750000,,,
2.3759999962,18,134329.1562500000,99760.8359375000,137271.7500000000,139537.2812500000,105744.7343750000,109985.4453125000,132352.0625000000,127212.1250000000,,,
2.3799999962,18,138677.6875000000,104375.5234375000,141695.0312500000,144239.2656250000,110270.3515625000,114663.0859375000,136985.6875000000,131312.0937500000,,,
2.3839999961,18,139818.9843750000,105353.6718750000,142845.7500000000,145155.2968750000,111330.8437500000,115615.7265625000,137910.3281250000,132550.2812500000,,,
2.3879999961,18,136145.8125000000,101322.6562500000,139104.9531250000,140960.9375000000,107446.6562500000,111511.3515625000,133951.6250000000,129193.9296875000,,,
2.3919999963,18,132758.8281250000,97857.1640625000,135677.7187500000,137509.3437500000,103995.5078125000,108040.8984375000,130459.6875000000,125886.5234375000,,,
2.3959999962,18,134323.5937500000,99751.8750000000,137258.1562500000,139558.2812500000,105727.2187500000,110017.7343750000,132313.3281250000,127202.3281250000,,,
2.3999999962,18,138670.8906250000,104374.1796875000,141677.2500000000,144267.0781250000,110255.6484375000,114704.7109375000,136878.1406250000,131304.9531250000,,,
2.4039999961,18,139802.8125000000,105343.9609375000,142829.4218750000,145142.9531250000,111321.2890625000,115655.5546875000,137799.1562500000,132534.3437500000,,,
2.4079999961,18,136120.9218750000,101301.8984375000,139094.6250000000,140947.6406250000,107434.3125000000,111552.9296875000,133758.1406250000,129169.1718750000,,,
2.4119999961,18,132743.2187500000,97858.0468750000,135650.6250000000,137491.4531250000,103971.9296875000,108100.3593750000,130358.0859375000,125883.6484375000,,,
2.4159999962,18,134353.6406250000,99792.7031250000,137302.1875000000,139551.3281250000,105780.9765625000,110101.7187500000,132220.7968750000,127232.6171875000,,,
2.4199999962,18,138692.0312500000,104403.7421875000,141688.0937500000,144285.6406250000,110265.6562500000,114779.3828125000,136698.4843750000,131327.9687500000,,,
2.4239999962,18,139817.7500000000,105367.8046875000,142821.4218750000,145174.9531250000,111321.1875000000,115694.9843750000,137732.8125000000,132548.3750000000,,,
2.4279999961,18,136155.5000000000,101340.0156250000,139113.0781250000,140974.8125000000,107463.1484375000,111605.6328125000,133690.9375000000,129205.2968750000,,,
2.4319999961,19,132758.0781250000,97867.4921875000,135665.6406250000,137487.3125000000,104004.2265625000,108131.3437500000,130173.2031250000,125898.8281250000,,,
2.4359999960,19,134298.4687500000,99729.0234375000,137240.5000000000,139506.4062500000,105724.3281250000,110061.2734375000,132008.4218750000,127180.6328125000,,,
2.4399999960,19,138654.8281250000,104365.4609375000,141666.2812500000,144242.7500000000,110248.5390625000,114752.7265625000,136554.2031250000,131286.9843750000,,,
2.4439999959,19,139864.5000000000,105422.6015625000,142896.6875000000,145213.2656250000,111413.1875000000,115795.5156250000,137686.3593750000,132595.1562500000,,,
2.4479999959,19,136218.2031250000,101410.3125000000,139201.3906250000,141012.9687500000,107567.0312500000,111708.6328125000,133717.1562500000,129267.2343750000,,,
2.4519999959,19,132776.6406250000,97892.8359375000,135691.2500000000,137496.3593750000,104022.8359375000,108179.6171875000,130068.4296875000,125920.7187500000,,,
2.4559999960,19,134300.9375000000,99742.3046875000,137234.7031250000,139486.6875000000,105731.1640625000,110098.5000000000,131865.2968750000,127189.4609375000,,,
2.4599999960,19,138681.6562500000,104395.4218750000,141700.5625000000,144237.9531250000,110302.2968750000,114775.1718750000,136542.9062500000,131310.0000000000,,,
2.4639999960,19,139885.4531250000,105438.4531250000,142918.2031250000,145206.0156250000,111429.2265625000,115786.8750000000,137591.0156250000,132615.7500000000,,,
2.4679999959,19,136229.5000000000,101410.8515625000,139199.7812500000,141041.1093750000,107567.4296875000,111699.1093750000,133628.6718750000,129275.3046875000,,,
2.4719999959,19,132800.4843750000,97897.5078125000,135735.2656250000,137538.4375000000,104082.0078125000,108187.7500000000,130069.9375000000,125930.2109375000,,,
2.4759999961,19,134291.0937500000,99724.8906250000,137227.8906250000,139525.8281250000,105717.8359375000,110086.0234375000,131812.4531250000,127176.5000000000,,,
2.4799999960,19,138673.4375000000,104388.2890625000,141687.4687500000,144274.8593750000,110287.3828125000,114829.8359375000,136502.7343750000,131307.7968750000,,,
2.4839999960,19,139903.0781250000,105456.3203125000,142949.9375000000,145237.5000000000,111476.1875000000,115838.7734375000,137535.5468750000,132625.8593750000,,,
2.4879999959,19,136264.4375000000,101449.1015625000,139259.5625000000,141082.5468750000,107632.6640625000,111761.7109375000,133586.0781250000,129300.4062500000,,,
2.4919999959,19,132809.0312500000,97921.9375000000,135731.7031250000,137540.4218750000,104075.8906250000,108224.7578125000,130053.2500000000,125948.2343750000,,,
2.4959999959,19,134266.7031250000,99700.8046875000,137208.5000000000,139463.0312500000,105692.7031250000,110052.2812500000,131631.6562500000,127151.0234375000,,,
2.4999999960,19,138621.9531250000,104332.3906250000,141644.2343750000,144188.4218750000,110255.4062500000,114745.3203125000,136345.5000000000,131253.6250000000,,,
2.5039999960,19,139871.4062500000,105436.6015625000,142890.7656250000,145208.0312500000,111412.0859375000,115813.1875000000,137478.6250000000,132600.2187500000,,,
2.5079999960,19,136262.6250000000,101469.8828125000,139216.9375000000,141098.8281250000,107573.7343750000,111773.2187500000,133441.8437500000,129314.5468750000,,,
2.5119999959,19,132811.7187500000,97932.2421875000,135725.9687500000,137551.2343750000,104078.7109375000,108218.5937500000,129966.2656250000,125959.8515625000,,,
2.5159999959,19,134255.7968750000,99690.2421875000,137212.2031250000,139460.6718750000,105715.7968750000,110035.0625000000,131682.7500000000,127144.0234375000,,,
2.5199999961,19,138627.7343750000,104352.8593750000,141632.6250000000,144245.0156250000,110239.2109375000,114750.9765625000,136265.1093750000,131261.5625000000,,,
2.5239999960,19,139913.8593750000,105485.5546875000,142945.6406250000,145295.6562500000,111478.7343750000,115851.9453125000,137510.0625000000,132633.4062500000,,,
2.5279999960,19,136308.0781250000,101517.0156250000,139282.3593750000,141147.8906250000,107667.0000000000,111806.6406250000,133542.8281250000,129351.9921875000,,,
2.5319999959,19,132824.6718750000,97964.5859375000,135727.5937500000,137575.0468750000,104083.1875000000,108233.9921875000,129850.3125000000,125978.0390625000,,,
2.5359999959,19,134263.2500000000,99716.2031250000,137209.7968750000,139455.5468750000,105718.1328125000,110059.7656250000,131651.1250000000,127160.7578125000,,,
2.5399999958,19,138621.9687500000,104352.7500000000,141646.0000000000,144211.6093750000,110270.9921875000,114763.5078125000,136248.8125000000,131262.1250000000,,,
2.5439999960,19,139930.0312500000,105514.7109375000,142955.5625000000,145304.3281250000,111485.4453125000,115900.8984375000,137410.9531250000,132659.7187500000,,,
2.5479999960,19,136359.9843750000,101577.8437500000,139337.7968750000,141205.6875000000,107718.5234375000,111882.9453125000,133574.5312500000,129410.2500000000,,,
2.5519999960,19,132889.0468750000,98008.6250000000,135837.6250000000,137609.4843750000,104205.5546875000,108280.9531250000,129979.1718750000,126032.9687500000,,,
2.5559999959,19,134273.0312500000,99705.0468750000,137218.4531250000,139435.0312500000,105720.0312500000,110048.7187500000,131550.3750000000,127162.9296875000,,,
2.5599999959,20,138627.3125000000,104349.2109375000,141626.9062500000,144183.0468750000,110230.0078125000,114751.3515625000,136162.9687500000,131260.5625000000,,,
2.5639999958,20,139973.8125000000,105547.3828125000,143012.3437500000,145286.7031250000,111553.9453125000,115914.5781250000,137486.1406250000,132688.2812500000,,,
2.5679999958,20,136408.1875000000,101612.3125000000,139402.0156250000,141201.1250000000,107785.9765625000,111908.7500000000,133553.5312500000,129439.6953125000,,,
2.5719999957,20,132878.5000000000,98003.1328125000,135793.6093750000,137576.5000000000,104163.0390625000,108278.9453125000,129974.2578125000,126019.1796875000,,,
2.5759999957,20,134248.8125000000,99681.4140625000,137196.8281250000,139406.9687500000,105702.4375000000,110011.1093750000,131531.4218750000,127131.8437500000,,,
2.5799999957,20,138594.4062500000,104309.0546875000,141616.2343750000,144141.6875000000,110230.8359375000,114701.8125000000,136127.2031250000,131217.8125000000,,,
2.5839999958,20,139924.7187500000,105494.8906250000,142963.7187500000,145259.0156250000,111518.1640625000,115871.5234375000,137339.7968750000,132641.8593750000,,,
2.5879999958,20,136369.1875000000,101581.0625000000,139344.9843750000,141199.7968750000,107734.5312500000,111883.5625000000,133425.4375000000,129412.9296875000,,,
2.5919999958,20,132826.0468750000,97961.3437500000,135725.1562500000,137555.3125000000,104087.5312500000,108265.3437500000,129777.2500000000,125991.4453125000,,,
2.5959999957,20,134181.9531250000,99630.1875000000,137125.5156250000,139364.1406250000,105631.5234375000,109997.9140625000,131413.0000000000,127091.3437500000,,,
2.5999999957,20,138553.7343750000,104296.1015625000,141574.2500000000,144120.5312500000,110193.4531250000,114717.4765625000,136105.5781250000,131202.3125000000,,,
2.6039999959,20,139934.4843750000,105531.2890625000,142991.7187500000,145289.8906250000,111549.6250000000,115923.3750000000,137360.2656250000,132666.4687500000,,,
2.6079999958,20,136374.8125000000,101600.6406250000,139357.2500000000,141242.0625000000,107746.5000000000,111922.3984375000,133451.2031250000,129428.5625000000,,,
2.6119999958,20,132809.9218750000,97944.5781250000,135732.9687500000,137583.4687500000,104104.0000000000,108250.3750000000,129812.9296875000,125972.8359375000,,,
2.6159999957,20,134122.3437500000,99563.6093750000,137079.4843750000,139334.8281250000,105605.0468750000,109928.8203125000,131475.8437500000,127027.8828125000,,,
2.6199999957,20,138495.1875000000,104220.7578125000,141526.1875000000,144092.3437500000,110164.0781250000,114644.4140625000,136050.3281250000,131134.1562500000,,,
2.6239999956,20,139927.0625000000,105513.7734375000,142975.7343750000,145315.0781250000,111525.1406250000,115905.2109375000,137265.7968750000,132642.1250000000,,,
2.6279999958,20,136429.8906250000,101650.3437500000,139430.3906250000,141246.8437500000,107827.6328125000,111962.1015625000,133446.7812500000,129463.0078125000,,,
2.6319999958,20,132844.9218750000,97974.0312500000,135771.5312500000,137562.3125000000,104152.5781250000,108262.7656250000,129792.9453125000,125991.4218750000,,,
2.6359999957,20,134137.5312500000,99578.4687500000,137088.0468750000,139303.0625000000,105618.5156250000,109928.1015625000,131446.9062500000,127034.7187500000,,,
2.6399999957,20,138495.5625000000,104219.0703125000,141532.9218750000,144032.7656250000,110173.1484375000,114623.8437500000,136111.0781250000,131123.4531250000,,,
2.6439999957,20,139930.8125000000,105516.1093750000,142970.6093750000,145266.8750000000,111529.7265625000,115895.0468750000,137211.6875000000,132639.2968750000,,,
2.6479999959,20,136436.2343750000,101651.2031250000,139420.1250000000,141257.4375000000,107825.2734375000,111970.7890625000,133505.7968750000,129467.2734375000,,,
2.6519999958,20,132866.4375000000,97987.6015625000,135796.9062500000,137578.8125000000,104173.5546875000,108289.4843750000,129779.3437500000,126011.2734375000,,,
2.6559999958,20,134145.6406250000,99578.6562500000,137098.6875000000,139298.1093750000,105623.8203125000,109944.4843750000,131361.6093750000,127043.6015625000,,,
2.6599999957,20,138520.3437500000,104254.3125000000,141526.6406250000,144069.0625000000,110143.8281250000,114676.0078125000,135909.7187500000,131157.6718750000,,,
2.6639999957,20,139981.0937500000,105576.0781250000,143017.0625000000,145310.8593750000,111566.4453125000,115976.6171875000,137289.1562500000,132695.3593750000,,,
2.6679999956,20,136485.9218750000,101714.9843750000,139465.3906250000,141316.4687500000,107860.4921875000,112044.3593750000,133475.2968750000,129525.8515625000,,,
2.6719999958,20,132908.3593750000,98044.3046875000,135834.6406250000,137623.8750000000,104207.7265625000,108348.0625000000,129785.2968750000,126063.6250000000,,,
2.6759999958,20,134118.7500000000,99552.6171875000,137066.5625000000,139297.4375000000,105582.8125000000,109921.8203125000,131309.2500000000,127023.4843750000,,,
2.6799999957,20,138452.1875000000,104174.0390625000,141477.9843750000,144040.4843750000,110107.8906250000,114607.6406250000,135948.7968750000,131085.7187500000,,,
2.6839999957,20,139919.1406250000,105507.4921875000,142973.6406250000,145294.7187500000,111533.5859375000,115922.5390625000,137240.6406250000,132627.0468750000,,,
2.6879999957,21,136455.6875000000,101677.7031250000,139467.1406250000,141314.6718750000,107870.6328125000,112022.5312500000,133469.7656250000,129487.4140625000,,,
2.6919999956,21,132853.7968750000,97979.2812500000,135804.8281250000,137596.9687500000,104176.1015625000,108309.0078125000,129695.1250000000,126009.3906250000,,,
2.6959999956,21,134056.1875000000,99491.5390625000,137005.4375000000,139246.3125000000,105520.8515625000,109886.9765625000,131246.2187500000,126972.3828125000,,,
2.6999999955,21,138418.1250000000,104149.6250000000,141452.7187500000,143995.8906250000,110085.4140625000,114604.7968750000,135867.2656250000,131063.1875000000,,,
2.7039999955,21,139977.9687500000,105572.4062500000,143046.8906250000,145348.9531250000,111613.8671875000,115998.2031250000,137363.7968750000,132687.1875000000,,,
2.7079999954,21,136524.7812500000,101750.5546875000,139525.2656250000,141370.8593750000,107951.5546875000,112091.2187500000,133595.1406250000,129558.5703125000,,,
2.7119999956,21,132899.7968750000,98027.9375000000,135820.9687500000,137635.1875000000,104203.4296875000,108362.8984375000,129707.3046875000,126057.4609375000,,,
2.7159999956,21,134077.7187500000,99506.4531250000,137022.4062500000,139242.5000000000,105546.4921875000,109899.3984375000,131175.5937500000,126985.9609375000,,,
2.7199999955,21,138434.5625000000,104150.9687500000,141471.0468750000,143986.3125000000,110111.0234375000,114600.5859375000,135825.4218750000,131066.5937500000,,,
2.7239999955,21,139976.5625000000,105562.9609375000,143030.2343750000,145345.8125000000,111602.4687500000,115995.5781250000,137306.6406250000,132679.5312500000,,,
2.7279999955,21,136560.8281250000,101779.4687500000,139558.1718750000,141390.3593750000,107987.3046875000,112139.2890625000,133584.0312500000,129584.2109375000,,,
2.7319999957,21,132917.1250000000,98033.2265625000,135842.7968750000,137620.9687500000,104231.5156250000,108382.7421875000,129713.7343750000,126066.3359375000,,,
2.7359999956,21,134078.5000000000,99495.5078125000,137034.3437500000,139202.4062500000,105563.6328125000,109902.8046875000,131255.9843750000,126981.5625000000,,,
2.7399999956,21,138457.8281250000,104169.3437500000,141499.2343750000,143984.3281250000,110140.5859375000,114639.5625000000,135842.4843750000,131089.6875000000,,,
2.7439999955,21,140023.4062500000,105603.2265625000,143079.2343750000,145373.1250000000,111653.3750000000,116029.5312500000,137308.4375000000,132723.0625000000,,,
2.7479999955,21,136604.9531250000,101820.9296875000,139611.0312500000,141435.1250000000,108032.2343750000,112178.3671875000,133560.0312500000,129629.8359375000,,,
2.7519999954,21,132939.5000000000,98062.6718750000,135876.3750000000,137651.0625000000,104261.9062500000,108412.3046875000,129726.3750000000,126098.7343750000,,,
2.7559999956,21,134063.6875000000,99491.6718750000,137013.1093750000,139212.9375000000,105549.3906250000,109903.5546875000,131152.2031250000,126982.5546875000,,,
2.7599999956,21,138450.2812500000,104178.9140625000,141470.6875000000,144012.6250000000,110124.2187500000,114639.3203125000,135832.2812500000,131091.8593750000,,,
2.7639999955,21,140087.1093750000,105695.9765625000,143136.9375000000,145448.7343750000,111716.3828125000,116136.9296875000,137346.7656250000,132796.2656250000,,,
2.7679999955,21,136655.0000000000,101890.0546875000,139655.3437500000,141489.3281250000,108082.9531250000,112259.8750000000,133664.5312500000,129692.0156250000,,,
2.7719999955,21,132950.2187500000,98076.7812500000,135885.7187500000,137641.1406250000,104277.2187500000,108417.6093750000,129813.3281250000,126115.2343750000,,,
2.7759999956,21,134048.4375000000,99477.1640625000,136999.1875000000,139172.6875000000,105516.9921875000,109874.5312500000,131049.7500000000,126971.5312500000,,,
2.7799999956,21,138360.6406250000,104086.4843750000,141385.7500000000,143890.5312500000,110018.1171875000,114550.3515625000,135639.5625000000,131012.9765625000,,,
2.7839999956,21,139928.2031250000,105525.2812500000,142983.6250000000,145303.3281250000,111562.9843750000,115976.8046875000,137177.2812500000,132640.7812500000,,,
2.7879999955,21,136562.8437500000,101798.9375000000,139568.0156250000,141431.7968750000,107991.8125000000,112180.3750000000,133445.2343750000,129597.6796875000,,,
2.7919999955,21,132879.8437500000,97998.5156250000,135840.6250000000,137609.2500000000,104241.3828125000,108367.4843750000,129694.6953125000,126040.9375000000,,,
2.7959999954,21,133973.6562500000,99394.7421875000,136936.8281250000,139142.0000000000,105491.5390625000,109836.2890625000,131171.3906250000,126897.2812500000,,,
2.7999999956,21,138364.0000000000,104091.8828125000,141387.5156250000,143947.6406250000,110044.7734375000,114569.5781250000,135728.2187500000,131007.2343750000,,,
2.8039999956,21,140031.3906250000,105627.8984375000,143084.9062500000,145389.4531250000,111664.9375000000,116075.7187500000,137276.1406250000,132730.3593750000,,,
2.8079999955,21,136622.7812500000,101851.1328125000,139603.0468750000,141477.9687500000,108021.9062500000,112224.2578125000,133440.7968750000,129650.7890625000,,,
2.8119999955,21,132929.2500000000,98039.0468750000,135868.6093750000,137636.5312500000,104282.1250000000,108404.4453125000,129775.4531250000,126085.7265625000,,,
2.8159999955,22,133994.5156250000,99396.4062500000,136976.2031250000,139120.7031250000,105514.4687500000,109815.3906250000,131089.4218750000,126904.8750000000,,,
2.8199999954,22,138353.0000000000,104060.9531250000,141392.4218750000,143898.8750000000,110036.3515625000,114524.8125000000,135588.2656250000,130984.1093750000,,,
2.8239999954,22,140029.2187500000,105632.7265625000,143056.4218750000,145383.2812500000,111644.0703125000,116074.0625000000,137210.9218750000,132733.6718750000,,,
2.8279999953,22,136689.0937500000,101919.6640625000,139684.3906250000,141497.8593750000,108123.3984375000,112282.8125000000,133618.6562500000,129715.1093750000,,,
2.8319999953,22,132935.4218750000,98052.7500000000,135887.3750000000,137610.7187500000,104306.6406250000,108407.9843750000,129844.3046875000,126097.3671875000,,,
2.8359999952,22,133969.5937500000,99390.8515625000,136929.4218750000,139104.7656250000,105476.6484375000,109787.6328125000,131081.6093750000,126892.1328125000,,,
2.8399999954,22,138353.2343750000,104082.2265625000,141380.0156250000,143894.6875000000,110024.6015625000,114527.3125000000,135518.9218750000,130997.9296875000,,,
2.8439999954,22,140067.5468750000,105664.2187500000,143135.5468750000,145437.4062500000,111721.8281250000,116101.2578125000,137229.0000000000,132768.7187500000,,,
2.8479999953,22,136708.8281250000,101932.5937500000,139721.1406250000,141543.7031250000,108149.5000000000,112324.0625000000,133609.9375000000,129742.6015625000,,,
2.8519999953,22,132940.0312500000,98047.9765625000,135863.2343750000,137647.2343750000,104252.3281250000,108403.7421875000,129647.5937500000,126111.5312500000,,,
2.8559999953,22,133938.5156250000,99345.4140625000,136872.1562500000,139045.2187500000,105405.4921875000,109754.8281250000,130865.7500000000,126868.9296875000,,,
2.8599999954,22,138327.1406250000,104039.0937500000,141357.1562500000,143838.4375000000,110012.3984375000,114492.9765625000,135619.0468750000,130972.9843750000,,,
2.8639999954,22,140019.0781250000,105613.9296875000,143075.7500000000,145358.4687500000,111672.0468750000,116048.5234375000,137258.3125000000,132727.8750000000,,,
2.8679999954,22,136655.3281250000,101891.7187500000,139634.3125000000,141490.4687500000,108059.5625000000,112279.1328125000,133417.1718750000,129696.1953125000,,,
2.8719999953,22,132907.8281250000,98023.2734375000,135846.1562500000,137587.6250000000,104241.0078125000,108397.6875000000,129642.2812500000,126076.2031250000,,,
2.8759999953,22,133888.8593750000,99301.4296875000,136852.9531250000,139019.3750000000,105393.0703125000,109716.7109375000,130865.8828125000,126816.5468750000,,,
2.8799999952,22,138217.0937500000,103926.2812500000,141251.6875000000,143817.2031250000,109923.6171875000,114394.6171875000,135546.9843750000,130857.0000000000,,,
2.8839999954,22,139996.7656250000,105596.8437500000,143060.5468750000,145427.8593750000,111661.9609375000,116061.9609375000,137245.3750000000,132692.3281250000,,,
2.8879999954,22,136662.7500000000,101907.7578125000,139643.0625000000,141531.3593750000,108062.2187500000,112309.5781250000,133370.2031250000,129694.9062500000,,,
2.8919999953,22,132895.9843750000,98023.6484375000,135836.3593750000,137611.0937500000,104228.0781250000,108396.1796875000,129572.0078125000,126066.2031250000,,,
2.8959999953,22,133852.5156250000,99280.4765625000,136804.6718750000,139022.6718750000,105331.2500000000,109733.8281250000,130815.5859375000,126791.3125000000,,,
2.8999999953,22,138205.6718750000,103934.1406250000,141246.1718750000,143832.4062500000,109892.2656250000,114415.3828125000,135441.6718750000,130848.0468750000,,,
2.9039999954,22,139954.0156250000,105574.5546875000,143014.0937500000,145381.3281250000,111604.3437500000,116003.3281250000,137152.9843750000,132655.1093750000,,,
2.9079999954,22,136662.7031250000,101917.8984375000,139669.0468750000,141574.2343750000,108103.0390625000,112305.6875000000,133522.1562500000,129690.3203125000,,,
2.9119999954,22,132889.5468750000,98022.4921875000,135849.2968750000,137596.5156250000,104251.2031250000,108377.8359375000,129614.9765625000,126058.4218750000,,,
2.9159999953,22,133790.4531250000,99197.6796875000,136775.7343750000,138936.0625000000,105317.2500000000,109636.0312500000,130845.3906250000,126723.0234375000,,,
2.9199999953,22,138165.2656250000,103900.2890625000,141191.7187500000,143757.4062500000,109846.8828125000,114407.3046875000,135354.0156250000,130824.9531250000,,,
2.9239999952,22,139977.5625000000,105591.1796875000,143026.0312500000,145399.2187500000,111637.3359375000,116098.4140625000,137150.1406250000,132687.0937500000,,,
2.9279999954,22,136698.9687500000,101929.7500000000,139692.8437500000,141575.1875000000,108137.8593750000,112319.4218750000,133508.0937500000,129730.1796875000,,,
2.9319999954,22,132884.4062500000,97993.1015625000,135836.3125000000,137593.2343750000,104249.8046875000,108359.3515625000,129604.2500000000,126054.1328125000,,,
2.9359999953,22,133802.1250000000,99209.2421875000,136777.6875000000,138927.2343750000,105324.3515625000,109632.6562500000,130765.4609375000,126736.4296875000,,,
2.9399999953,22,138203.7656250000,103934.0312500000,141222.0312500000,143759.4531250000,109879.1484375000,114400.6796875000,135415.8437500000,130857.7812500000,,,
2.9439999952,23,140073.9375000000,105698.0390625000,143116.4218750000,145450.5625000000,111716.8125000000,116121.0000000000,137171.6406250000,132775.8281250000,,,
2.9479999952,23,136784.3125000000,102031.2968750000,139789.0625000000,141644.2343750000,108245.3906250000,112391.5234375000,133653.9062500000,129812.8203125000,,,
