Time:250Hz,Epoch,Channel 1,Channel 2,Channel 3,Channel 4,Channel 5,Channel 6,Channel 7,Channel 8,Event Id,Event Date,Event Duration
0.0000000000,0,175872.6875000000,209246.2656250000,165817.5625000000,165074.1875000000,132459.8593750000,120593.6093750000,131248.3125000000,152755.4687500000,,,
0.0040000000,0,176178.3437500000,192231.9687500000,166229.3906250000,165701.7187500000,133053.0156250000,121181.8203125000,131904.1718750000,149839.0468750000,,,
0.0079999999,0,175954.8593750000,184173.0781250000,165872.7343750000,165242.4375000000,132576.5937500000,120733.0000000000,131409.1093750000,149871.9062500000,,,
0.0119999999,0,175529.9218750000,198788.5156250000,165243.7656250000,164307.2187500000,131669.5312500000,119850.9296875000,130416.4218750000,153260.3125000000,,,
0.0159999998,0,175494.6250000000,212805.9218750000,165252.9843750000,164289.1406250000,131688.4687500000,119848.6796875000,130409.9843750000,154654.0468750000,,,
0.0199999998,0,175872.1406250000,209447.9375000000,165812.6093750000,165045.9687500000,132450.2812500000,120585.4296875000,131234.8125000000,152788.4375000000,,,
0.0240000000,0,176159.5468750000,192420.0625000000,166217.7500000000,165671.9531250000,133036.3593750000,121160.9531250000,131889.1406250000,149842.0625000000,,,
0.0279999999,0,175962.1093750000,184252.1718750000,165885.9531250000,165255.3125000000,132586.1718750000,120734.7187500000,131417.7187500000,149876.7031250000,,,
0.0319999999,0,175520.3281250000,198793.5312500000,165232.2500000000,164310.9687500000,131656.9375000000,119834.3593750000,130405.1562500000,153236.5312500000,,,
0.0359999998,0,175486.9218750000,212850.7031250000,165249.7656250000,164283.4687500000,131683.9062500000,119834.8906250000,130413.0703125000,154642.8125000000,,,
0.0399999998,0,175845.5156250000,209543.3125000000,165787.9218750000,165032.0312500000,132423.6250000000,120549.5390625000,131214.3750000000,152770.0312500000,,,
0.0440000000,0,176144.6093750000,192502.2812500000,166205.2187500000,165677.2343750000,133018.9687500000,121123.5859375000,131873.8750000000,149809.8750000000,,,
0.0480000000,0,175953.1562500000,184221.4375000000,165882.7343750000,165274.2812500000,132579.4062500000,120716.2421875000,131413.2187500000,149833.0468750000,,,
0.0519999999,0,175520.1093750000,198689.2812500000,165243.0937500000,164333.3593750000,131663.2812500000,119818.8281250000,130416.6953125000,153218.9062500000,,,
0.0559999999,0,175464.1875000000,212783.9375000000,165232.9218750000,164263.9687500000,131658.0468750000,119818.2656250000,130392.6328125000,154631.3906250000,,,
0.0599999998,0,175813.4375000000,209539.7968750000,165753.0312500000,165012.4375000000,132384.8125000000,120519.1250000000,131181.1718750000,152768.4218750000,,,
0.0639999998,0,176131.3281250000,192531.8906250000,166187.2187500000,165677.1562500000,133000.6718750000,121117.6562500000,131865.4531250000,149834.4687500000,,,
0.0680000000,0,175925.9218750000,184156.8437500000,165851.9218750000,165245.1875000000,132551.9375000000,120697.8125000000,131396.4531250000,149820.5156250000,,,
0.0719999999,0,175493.6093750000,198588.5312500000,165209.2968750000,164279.9843750000,131635.2656250000,119821.6171875000,130398.3203125000,153213.5468750000,,,
0.0759999999,0,175453.7968750000,212789.0781250000,165218.2031250000,164238.6250000000,131651.5000000000,119795.4140625000,130394.2109375000,154661.3750000000,,,
0.0799999998,0,175815.2031250000,209771.3906250000,165756.2187500000,164984.5468750000,132391.6875000000,120504.8046875000,131194.3125000000,152827.2812500000,,,
0.0839999998,0,176109.2031250000,192762.1250000000,166170.2500000000,165635.3281250000,132991.0781250000,121091.0000000000,131856.5625000000,149840.1718750000,,,
0.0880000000,0,175914.7968750000,184199.5468750000,165846.3125000000,165223.1093750000,132555.0781250000,120689.4687500000,131407.1562500000,149805.3437500000,,,
0.0919999999,0,175486.3125000000,198577.0781250000,165214.2500000000,164264.5156250000,131641.9531250000,119799.6250000000,130415.2187500000,153200.9531250000,,,
0.0959999999,0,175447.3125000000,212863.1875000000,165217.8281250000,164225.2500000000,131650.2656250000,119783.9843750000,130395.9062500000,154673.4062500000,,,
0.0999999999,0,175807.7968750000,209922.0156250000,165745.3125000000,164981.2500000000,132380.4687500000,120499.5156250000,131186.1406250000,152847.1562500000,,,
0.1039999998,0,176125.1093750000,192917.6406250000,166182.1562500000,165651.6093750000,133001.4218750000,121103.5781250000,131876.8125000000,149856.8906250000,,,
0.1079999998,0,175926.7812500000,184295.0312500000,165853.5625000000,165247.8593750000,132562.7343750000,120696.3125000000,131428.8281250000,149804.5000000000,,,
0.1120000000,0,175467.2187500000,198613.9375000000,165188.7500000000,164275.8281250000,131617.8593750000,119773.0703125000,130404.7812500000,153179.3125000000,,,
0.1159999999,0,175411.8593750000,212927.4062500000,165177.3281250000,164222.7812500000,131609.7343750000,119743.3203125000,130368.4140625000,154646.1406250000,,,
0.1199999999,0,175770.4843750000,210003.3437500000,165710.8437500000,164975.1562500000,132344.0781250000,120447.9375000000,131163.3593750000,152811.7656250000,,,
0.1239999998,0,176091.6562500000,193080.5000000000,166152.3906250000,165643.2812500000,132968.4687500000,121063.0234375000,131857.3906250000,149836.4843750000,,,
0.1279999998,1,175906.9375000000,184449.8593750000,165837.8906250000,165251.3437500000,132542.1250000000,120678.3671875000,131418.6875000000,149793.7187500000,,,
0.1319999998,1,175469.2031250000,198711.7500000000,165191.3281250000,164299.4062500000,131616.9218750000,119791.1171875000,130416.2343750000,153201.4375000000,,,
0.1359999997,1,175423.6250000000,213081.0468750000,165194.4531250000,164267.1718750000,131619.2812500000,119760.8906250000,130395.1015625000,154687.4687500000,,,
0.1399999997,1,175767.7500000000,210172.9062500000,165709.6093750000,164990.6093750000,132336.5312500000,120448.6640625000,131172.5625000000,152830.5000000000,,,
0.1439999996,1,176083.3125000000,193256.3437500000,166135.8125000000,165640.0781250000,132946.6875000000,121055.3281250000,131854.2187500000,149849.8906250000,,,
0.1479999996,1,175909.9062500000,184552.1718750000,165835.1562500000,165257.5781250000,132537.8125000000,120676.7031250000,131435.6406250000,149794.6406250000,,,
0.1519999998,1,175483.8125000000,198676.6718750000,165199.5000000000,164313.9687500000,131627.5000000000,119804.8281250000,130448.6875000000,153201.1406250000,,,
0.1559999997,1,175434.8125000000,213015.3906250000,165201.2500000000,164277.8125000000,131631.5156250000,119760.2968750000,130427.2031250000,154687.7343750000,,,
0.1599999997,1,175806.8281250000,210157.1093750000,165747.8281250000,165026.1718750000,132379.3750000000,120464.6718750000,131221.7031250000,152862.0312500000,,,
0.1639999996,1,176123.4687500000,193268.6093750000,166182.3437500000,165688.0625000000,132998.7968750000,121073.2968750000,131915.4531250000,149878.9062500000,,,
0.1679999996,1,175934.2187500000,184467.7656250000,165866.7343750000,165297.2187500000,132577.2656250000,120693.6015625000,131489.8125000000,149792.0312500000,,,
0.1719999998,1,175491.5937500000,198474.1875000000,165212.9062500000,164333.5468750000,131646.5625000000,119806.1953125000,130478.8671875000,153179.1875000000,,,
0.1759999997,1,175434.0312500000,212835.1718750000,165194.7500000000,164258.1875000000,131627.9531250000,119758.8750000000,130426.7500000000,154690.0937500000,,,
0.1799999997,1,175790.6562500000,210061.2812500000,165724.9218750000,164976.1562500000,132358.5312500000,120454.1640625000,131213.1718750000,152865.3125000000,,,
0.1839999997,1,176108.1875000000,193202.2500000000,166155.9218750000,165626.9375000000,132977.2968750000,121070.4765625000,131900.2812500000,149870.7812500000,,,
0.1879999996,1,175922.5937500000,184309.5781250000,165843.5468750000,165234.1250000000,132561.1718750000,120691.6718750000,131472.8125000000,149763.4375000000,,,
0.1919999996,1,175485.7187500000,198247.7031250000,165194.1718750000,164277.9218750000,131636.3125000000,119799.8359375000,130466.9296875000,153142.9218750000,,,
0.1959999998,1,175436.7968750000,212649.8750000000,165189.7187500000,164219.8281250000,131628.5937500000,119752.4687500000,130428.6015625000,154661.4531250000,,,
0.1999999997,1,175798.2031250000,210010.2656250000,165726.0156250000,164961.8281250000,132363.5000000000,120443.3515625000,131214.0625000000,152862.7656250000,,,
0.2039999997,1,176119.3437500000,193239.2656250000,166164.6718750000,165626.7812500000,132989.8125000000,121058.8125000000,131906.3437500000,149873.7031250000,,,
0.2079999996,1,175935.2031250000,184260.4687500000,165854.3593750000,165242.1562500000,132575.6093750000,120682.1484375000,131482.5000000000,149745.6875000000,,,
0.2119999996,1,175494.9218750000,198096.7187500000,165201.0000000000,164267.8906250000,131640.6718750000,119798.2812500000,130467.6015625000,153122.7187500000,,,
0.2159999998,1,175439.3750000000,212539.7968750000,165183.6250000000,164201.1250000000,131619.1718750000,119766.6328125000,130424.2265625000,154656.4375000000,,,
0.2199999997,1,175790.6875000000,209975.1718750000,165712.2343750000,164944.1562500000,132343.5312500000,120443.9140625000,131206.3593750000,152848.7031250000,,,
0.2239999997,1,176116.1718750000,193265.6875000000,166164.4218750000,165604.9218750000,132982.3281250000,121061.9765625000,131915.0312500000,149850.5937500000,,,
0.2279999997,1,175931.5000000000,184214.9218750000,165853.6406250000,165239.6250000000,132573.0000000000,120694.1953125000,131497.7031250000,149702.7656250000,,,
0.2319999996,1,175494.4062500000,197950.9218750000,165202.7500000000,164301.5000000000,131644.0781250000,119803.4062500000,130487.9062500000,153076.4062500000,,,
0.2359999996,1,175453.4062500000,212417.5156250000,165202.8750000000,164252.9218750000,131638.8437500000,119767.3828125000,130452.9843750000,154645.5468750000,,,
0.2399999998,1,175800.1875000000,209919.3281250000,165726.8593750000,164954.5156250000,132360.3281250000,120448.6640625000,131223.4218750000,152858.7343750000,,,
0.2439999997,1,176112.3125000000,193211.7656250000,166164.7968750000,165619.0468750000,132986.5156250000,121060.7187500000,131890.7500000000,149851.3125000000,,,
0.2479999997,1,175920.9843750000,184054.0468750000,165852.2500000000,165231.0468750000,132577.9687500000,120680.0859375000,131482.8437500000,149671.5468750000,,,
0.2519999996,1,175486.6562500000,197737.0625000000,165201.4843750000,164259.3125000000,131648.6250000000,119786.8281250000,130499.6796875000,153056.3281250000,,,
0.2559999996,2,175431.8906250000,212280.7500000000,165186.7812500000,164193.3593750000,131627.4687500000,119743.9921875000,130454.9921875000,154637.6250000000,,,
0.2599999995,2,175780.4375000000,209879.6406250000,165714.0312500000,164930.9843750000,132350.7812500000,120429.7265625000,131229.4531250000,152858.8750000000,,,
0.2639999995,2,176095.2500000000,193207.3437500000,166151.5468750000,165599.0156250000,132977.2031250000,121048.8593750000,131924.1718750000,149836.2968750000,,,
0.2679999995,2,175934.6718750000,183990.9531250000,165869.7656250000,165247.5468750000,132600.1718750000,120710.4453125000,131537.5312500000,149669.5156250000,,,
0.2719999994,2,175521.7500000000,197569.1875000000,165245.7656250000,164312.6875000000,131694.3906250000,119831.5390625000,130550.5078125000,153065.2187500000,,,
0.2759999994,2,175449.8281250000,212087.9062500000,165209.6406250000,164220.0468750000,131647.5312500000,119753.4062500000,130473.6093750000,154635.7031250000,,,
0.2799999996,2,175784.3125000000,209736.6562500000,165713.8125000000,164934.7656250000,132347.4218750000,120435.7109375000,131223.1250000000,152859.8125000000,,,
0.2839999995,2,176103.2187500000,193106.1250000000,166155.9843750000,165605.0000000000,132978.0156250000,121066.0234375000,131918.4531250000,149850.7812500000,,,
0.2879999995,2,175918.9218750000,183795.3437500000,165852.6250000000,165227.9531250000,132580.3281250000,120708.3828125000,131512.3437500000,149644.9218750000,,,
0.2919999994,2,175480.3281250000,197252.0937500000,165203.1250000000,164264.5156250000,131651.7656250000,119804.5312500000,130509.0703125000,152999.7656250000,,,
0.2959999994,2,175410.6718750000,211806.0000000000,165162.7500000000,164183.5156250000,131604.3437500000,119735.8125000000,130432.0625000000,154595.0156250000,,,
0.2999999996,2,175777.3125000000,209583.7656250000,165704.0312500000,164927.3906250000,132336.1875000000,120440.4296875000,131219.6718750000,152865.3125000000,,,
0.3039999995,2,176103.7812500000,193074.3437500000,166158.5312500000,165623.1875000000,132976.7812500000,121058.8671875000,131927.9843750000,149859.5468750000,,,
0.3079999995,2,175933.5625000000,183735.7968750000,165872.8125000000,165260.5000000000,132598.7812500000,120714.1484375000,131540.1093750000,149636.0156250000,,,
0.3119999995,2,175498.8125000000,197093.1250000000,165220.1093750000,164291.0156250000,131669.6250000000,119828.1328125000,130529.6953125000,152978.0937500000,,,
0.3159999994,2,175445.7031250000,211700.3750000000,165200.1250000000,164207.0312500000,131637.3437500000,119771.5390625000,130464.0859375000,154594.5625000000,,,
0.3199999994,2,175788.0937500000,209593.7187500000,165714.6406250000,164931.0156250000,132341.8437500000,120440.3984375000,131218.1093750000,152859.7343750000,,,
0.3239999996,2,176096.6718750000,193201.1250000000,166147.6093750000,165603.7343750000,132962.3750000000,121056.3437500000,131904.6718750000,149856.5468750000,,,
0.3279999995,2,175930.4375000000,183837.5781250000,165866.5937500000,165256.8750000000,132589.0625000000,120722.8359375000,131522.5625000000,149622.9218750000,,,
0.3319999995,2,175493.9843750000,197080.9062500000,165211.8437500000,164302.9687500000,131659.0312500000,119837.5781250000,130517.5390625000,152951.8437500000,,,
0.3359999994,2,175418.6093750000,211698.1562500000,165170.6718750000,164202.9843750000,131603.2812500000,119750.4296875000,130435.7343750000,154565.9062500000,,,
0.3399999994,2,175772.7187500000,209680.2656250000,165702.0468750000,164922.0312500000,132323.4687500000,120424.4140625000,131210.4375000000,152865.0468750000,,,
0.3439999996,2,176093.7031250000,193348.7812500000,166148.9843750000,165601.4062500000,132958.3750000000,121047.5234375000,131911.9218750000,149887.8125000000,,,
0.3479999995,2,175925.2812500000,183910.8437500000,165864.2031250000,165260.0156250000,132585.2812500000,120720.5078125000,131528.7968750000,149641.0781250000,,,
0.3519999995,2,175491.2500000000,197063.6406250000,165215.6718750000,164311.1250000000,131660.3750000000,119825.7734375000,130529.7968750000,152960.2656250000,,,
0.3559999994,2,175409.9218750000,211723.9218750000,165164.8437500000,164193.8906250000,131597.4843750000,119733.9609375000,130437.2343750000,154595.6250000000,,,
0.3599999994,2,175768.5312500000,209804.0000000000,165699.8750000000,164916.4218750000,132322.3750000000,120421.7578125000,131211.2500000000,152927.9062500000,,,
0.3639999994,2,176094.9062500000,193513.7031250000,166153.9062500000,165590.6562500000,132963.0156250000,121053.4453125000,131918.0781250000,149954.6875000000,,,
0.3679999996,2,175939.6250000000,183989.3125000000,165881.3125000000,165259.2031250000,132603.1718750000,120730.7812500000,131551.0781250000,149684.0937500000,,,
0.3719999995,2,175512.0625000000,197061.7656250000,165238.5000000000,164321.6406250000,131683.6093750000,119831.1640625000,130555.6875000000,152981.3906250000,,,
0.3759999995,2,175446.9062500000,211761.6093750000,165206.3437500000,164218.3437500000,131633.2656250000,119752.6328125000,130473.1484375000,154635.0000000000,,,
0.3799999994,2,175762.3906250000,209895.7343750000,165692.7656250000,164903.2812500000,132310.8125000000,120404.7578125000,131196.0000000000,152944.7031250000,,,
0.3839999994,3,176073.9843750000,193570.4687500000,166133.9843750000,165557.7343750000,132946.2343750000,121041.7500000000,131898.7500000000,149959.9687500000,,,
0.3879999993,3,175932.2343750000,183904.9062500000,165879.6093750000,165245.2656250000,132607.3281250000,120739.4140625000,131565.7812500000,149685.3281250000,,,
0.3919999993,3,175521.7187500000,196886.7500000000,165248.0781250000,164328.6718750000,131699.3281250000,119862.6250000000,130582.5312500000,152999.2031250000,,,
0.3959999993,3,175462.0312500000,211627.5312500000,165218.8906250000,164231.1250000000,131650.7031250000,119781.7031250000,130493.5625000000,154678.5156250000,,,
0.3999999992,3,175783.8437500000,209816.1718750000,165715.4218750000,164920.0156250000,132335.3281250000,120433.6953125000,131218.7031250000,153001.7812500000,,,
0.4039999992,3,176084.4218750000,193481.3906250000,166144.7968750000,165588.8750000000,132956.4218750000,121046.7187500000,131919.1875000000,149986.5468750000,,,
0.4079999994,3,175933.7343750000,183693.3593750000,165883.7812500000,165269.4531250000,132609.7500000000,120731.7187500000,131576.2968750000,149655.7187500000,,,
0.4119999993,3,175517.5937500000,196574.0625000000,165250.8125000000,164320.2968750000,131699.8281250000,119853.4296875000,130592.5078125000,152949.7500000000,,,
0.4159999993,3,175459.4375000000,211336.1875000000,165220.4218750000,164219.0781250000,131651.9843750000,119773.3593750000,130507.9375000000,154638.7656250000,,,
0.4199999992,3,175799.7500000000,209581.4375000000,165732.7187500000,164930.1875000000,132353.0625000000,120434.0703125000,131262.4687500000,152989.7343750000,,,
0.4239999992,3,176119.7968750000,193316.9218750000,166179.5000000000,165603.3281250000,132989.3593750000,121072.0859375000,131966.8281250000,150009.2656250000,,,
0.4279999994,3,175985.6562500000,183525.5937500000,165935.0156250000,165305.0156250000,132659.7500000000,120780.9375000000,131623.9062500000,149691.1093750000,,,
0.4319999993,3,175567.5781250000,196368.8125000000,165301.1093750000,164373.6562500000,131747.2031250000,119897.1171875000,130629.0937500000,152971.5312500000,,,
0.4359999993,3,175462.2031250000,211182.6250000000,165227.5781250000,164220.3125000000,131657.9843750000,119772.0781250000,130516.1718750000,154634.5937500000,,,
0.4399999992,3,175798.5156250000,209568.7187500000,165732.2656250000,164928.7343750000,132353.0781250000,120440.9375000000,131267.6562500000,153007.9531250000,,,
0.4439999992,3,176131.4375000000,193388.4531250000,166185.4843750000,165636.2187500000,132998.6406250000,121087.8359375000,131978.1875000000,150044.4218750000,,,
0.4479999992,3,175954.8906250000,183518.4062500000,165896.9531250000,165287.7500000000,132630.3125000000,120752.4218750000,131607.1406250000,149663.6093750000,,,
0.4519999993,3,175539.7656250000,196308.5156250000,165267.9218750000,164334.5937500000,131722.7968750000,119882.2343750000,130624.9140625000,152930.0781250000,,,
0.4559999993,3,175479.9062500000,211188.4843750000,165233.9687500000,164232.1406250000,131667.9375000000,119802.1406250000,130532.2421875000,154647.2031250000,,,
0.4599999993,3,175813.4843750000,209690.4062500000,165740.8593750000,164933.9062500000,132360.1875000000,120456.3046875000,131269.7187500000,153048.3750000000,,,
0.4639999992,3,176117.1093750000,193581.5468750000,166172.2343750000,165606.5312500000,132984.9062500000,121072.0625000000,131963.5156250000,150072.9687500000,,,
0.4679999992,3,175963.6875000000,183668.2031250000,165912.4375000000,165291.3906250000,132647.6718750000,120768.7343750000,131626.7500000000,149689.9687500000,,,
0.4719999994,3,175547.2187500000,196379.7343750000,165283.4062500000,164353.2187500000,131739.7656250000,119891.4843750000,130642.3984375000,152925.0468750000,,,
0.4759999993,3,175489.6406250000,211259.7968750000,165256.4531250000,164238.3281250000,131689.2656250000,119809.2500000000,130554.6875000000,154636.4843750000,,,
0.4799999993,3,175795.0312500000,209849.7343750000,165716.7968750000,164907.8906250000,132339.5625000000,120446.7031250000,131257.0781250000,153045.5000000000,,,
0.4839999992,3,176121.2187500000,193804.2968750000,166162.0937500000,165594.5937500000,132978.4218750000,121091.6718750000,131971.9687500000,150100.9218750000,,,
0.4879999992,3,175978.5000000000,183806.0156250000,165920.7500000000,165315.2656250000,132654.1875000000,120781.1250000000,131650.5312500000,149695.6875000000,,,
0.4919999992,3,175535.1562500000,196399.0468750000,165264.9531250000,164355.8125000000,131717.3281250000,119869.7890625000,130635.2890625000,152876.7812500000,,,
0.4959999993,3,175458.6093750000,211305.2812500000,165211.3906250000,164205.3437500000,131644.6093750000,119783.6640625000,130527.1953125000,154592.0625000000,,,
0.4999999993,3,175794.7187500000,209935.4218750000,165714.6406250000,164905.2343750000,132334.2500000000,120445.6562500000,131263.0156250000,153031.4687500000,,,
0.5039999993,3,176139.2656250000,193910.1093750000,166184.7812500000,165615.7343750000,132996.9531250000,121092.9296875000,131992.6250000000,150102.3125000000,,,
0.5079999992,3,176016.4843750000,183855.9531250000,165959.1562500000,165361.9062500000,132692.9531250000,120811.8046875000,131687.0937500000,149699.3906250000,,,
0.5119999992,4,175607.5781250000,196395.6562500000,165338.4687500000,164421.7968750000,131789.6562500000,119944.0625000000,130714.6015625000,152907.8437500000,,,
0.5159999991,4,175528.2031250000,211361.6875000000,165282.1093750000,164274.6250000000,131708.7187500000,119839.4218750000,130598.6250000000,154639.2343750000,,,
0.5199999991,4,175829.7968750000,210010.0000000000,165747.6093750000,164954.1093750000,132365.1875000000,120456.1171875000,131301.6093750000,153062.4531250000,,,
0.5239999990,4,176122.3437500000,193947.7500000000,166165.3906250000,165596.8125000000,132981.3906250000,121067.1250000000,131985.3281250000,150092.3593750000,,,
0.5279999990,4,175988.8281250000,183842.5000000000,165930.5625000000,165295.9218750000,132668.3593750000,120792.0625000000,131668.5312500000,149673.8750000000,,,
0.5319999990,4,175577.3125000000,196325.0937500000,165304.0312500000,164362.9218750000,131760.3437500000,119920.3515625000,130688.3750000000,152878.0000000000,,,
0.5359999991,4,175501.5468750000,211345.8437500000,165247.4375000000,164238.5468750000,131679.0156250000,119813.4609375000,130572.2031250000,154632.7500000000,,,
0.5399999991,4,175841.2968750000,210124.5468750000,165751.1250000000,164942.4062500000,132369.9531250000,120471.5390625000,131303.9062500000,153111.7187500000,,,
0.5439999991,4,176155.9843750000,194120.6406250000,166191.9218750000,165632.6562500000,133010.9218750000,121108.8593750000,132009.3906250000,150159.7031250000,,,
0.5479999990,4,175995.3906250000,183885.1093750000,165931.7656250000,165318.0000000000,132679.1093750000,120805.3984375000,131681.8437500000,149689.5937500000,,,
0.5519999990,4,175579.9531250000,196298.5468750000,165304.7031250000,164374.2187500000,131765.8906250000,119921.6640625000,130696.5234375000,152883.0625000000,,,
0.5559999992,4,175514.1875000000,211384.9531250000,165264.1718750000,164235.6718750000,131694.3281250000,119826.3906250000,130589.6406250000,154668.8281250000,,,
0.5599999991,4,175821.7187500000,210290.7343750000,165736.8281250000,164912.7968750000,132355.5781250000,120455.4218750000,131297.3437500000,153145.2500000000,,,
0.5639999991,4,176147.1562500000,194278.0312500000,166194.8906250000,165602.1562500000,133013.7343750000,121097.5390625000,132017.5937500000,150172.6875000000,,,
0.5679999990,4,176007.2031250000,183851.2968750000,165952.3125000000,165320.9843750000,132699.4687500000,120814.5937500000,131700.7968750000,149685.2031250000,,,
0.5719999990,4,175588.6406250000,196191.7031250000,165323.3593750000,164374.5312500000,131779.2031250000,119926.6484375000,130705.0859375000,152882.6093750000,,,
0.5759999990,4,175486.6562500000,211317.6250000000,165235.5000000000,164217.4062500000,131662.3593750000,119796.6953125000,130556.5156250000,154659.2968750000,,,
0.5799999991,4,175797.3750000000,210316.6250000000,165710.4062500000,164882.5781250000,132325.2656250000,120417.2265625000,131265.7500000000,153140.5781250000,,,
0.5839999991,4,176122.6406250000,194317.6406250000,166170.0312500000,165584.2656250000,132992.8750000000,121069.8359375000,131998.7968750000,150155.4687500000,,,
0.5879999991,4,175988.0468750000,183772.8125000000,165931.0781250000,165307.7343750000,132685.2812500000,120806.9218750000,131696.2968750000,149654.2500000000,,,
0.5919999990,4,175560.6562500000,196040.1562500000,165289.0000000000,164345.2500000000,131749.6718750000,119909.4609375000,130684.6406250000,152851.5000000000,,,
0.5959999990,4,175484.8437500000,211240.9062500000,165238.0781250000,164204.8906250000,131658.7656250000,119792.8906250000,130553.1093750000,154663.1875000000,,,
0.5999999992,4,175819.5781250000,210260.2500000000,165737.6406250000,164901.5312500000,132345.4218750000,120451.8046875000,131292.2968750000,153169.1562500000,,,
0.6039999991,4,176145.9218750000,194297.0781250000,166191.5468750000,165612.6718750000,133007.0156250000,121105.8046875000,132020.0312500000,150195.5781250000,,,
0.6079999991,4,175981.8750000000,183755.5156250000,165926.1718750000,165314.3281250000,132674.4375000000,120806.9218750000,131690.2656250000,149657.3281250000,,,
0.6119999990,4,175553.0156250000,195956.0781250000,165280.2343750000,164354.1562500000,131735.1875000000,119906.4843750000,130682.5781250000,152838.6718750000,,,
0.6159999990,4,175463.4062500000,211195.6406250000,165211.5781250000,164213.5156250000,131630.5000000000,119771.1875000000,130542.6250000000,154647.0000000000,,,
0.6199999989,4,175781.4375000000,210185.4843750000,165702.1718750000,164881.0468750000,132310.5000000000,120400.9218750000,131266.5468750000,153118.5625000000,,,
0.6239999991,4,176106.3906250000,194234.9062500000,166157.6718750000,165578.1718750000,132968.5937500000,121045.6953125000,131983.9062500000,150146.8593750000,,,
0.6279999991,4,175977.0156250000,183686.7656250000,165930.4531250000,165324.4375000000,132670.9218750000,120781.7109375000,131683.5000000000,149628.1562500000,,,
0.6319999991,4,175557.6093750000,195777.7968750000,165293.4062500000,164361.3437500000,131742.3750000000,119897.3906250000,130684.4843750000,152808.0156250000,,,
0.6359999990,4,175459.1718750000,211042.7031250000,165214.5000000000,164180.0468750000,131628.7343750000,119770.7109375000,130537.6562500000,154637.7656250000,,,
0.6399999990,5,175792.5625000000,210154.1562500000,165715.1562500000,164880.9062500000,132320.5312500000,120434.3125000000,131273.9218750000,153159.1718750000,,,
0.6439999989,5,176110.1406250000,194241.1562500000,166164.9843750000,165594.3281250000,132976.2968750000,121060.6093750000,131994.7187500000,150172.6406250000,,,
0.6479999989,5,175985.4375000000,183632.5312500000,165943.8125000000,165311.0781250000,132684.7656250000,120797.2187500000,131699.2187500000,149643.0156250000,,,
0.6519999988,5,175554.5781250000,195726.4218750000,165289.2968750000,164328.6093750000,131740.1718750000,119902.8359375000,130682.5546875000,152819.1250000000,,,
0.6559999988,5,175415.7187500000,211057.3125000000,165169.4062500000,164143.8125000000,131585.5468750000,119721.4375000000,130493.7265625000,154621.7500000000,,,
0.6599999988,5,175748.3906250000,210295.8125000000,165672.5937500000,164840.4687500000,132274.7968750000,120367.8515625000,131231.3906250000,153154.2656250000,,,
0.6639999989,5,176095.8906250000,194449.5625000000,166150.7187500000,165573.9375000000,132960.0156250000,121043.8984375000,131986.3750000000,150204.8281250000,,,
0.6679999989,5,175971.1250000000,183741.7500000000,165924.9062500000,165316.9218750000,132669.7187500000,120785.8437500000,131695.2812500000,149649.9531250000,,,
0.6719999989,5,175560.6406250000,195746.0000000000,165294.4531250000,164364.6406250000,131747.2812500000,119895.5390625000,130702.8828125000,152817.4843750000,,,
0.6759999988,5,175487.8750000000,211133.7031250000,165241.4843750000,164226.1875000000,131650.8593750000,119772.3437500000,130569.2031250000,154699.7500000000,,,
0.6799999988,5,175786.5781250000,210441.4218750000,165708.5781250000,164896.0312500000,132305.0937500000,120390.4609375000,131272.4218750000,153228.3437500000,,,
0.6839999990,5,176106.0625000000,194624.4687500000,166155.8750000000,165581.2656250000,132964.8437500000,121058.3593750000,131996.7343750000,150257.3437500000,,,
0.6879999989,5,175980.2343750000,183849.4062500000,165937.1562500000,165328.6562500000,132681.6250000000,120800.1640625000,131717.3750000000,149675.5937500000,,,
0.6919999989,5,175538.9687500000,195754.5937500000,165277.6406250000,164350.8437500000,131731.1875000000,119885.4218750000,130703.9843750000,152797.4531250000,,,
0.6959999988,5,175448.0156250000,211166.9375000000,165203.1562500000,164176.1093750000,131617.9218750000,119757.1328125000,130557.6406250000,154669.3906250000,,,
0.6999999988,5,175771.9062500000,210572.2187500000,165690.5625000000,164853.4375000000,132292.9843750000,120402.6093750000,131277.2187500000,153234.6250000000,,,
0.7039999987,5,176112.2031250000,194773.5468750000,166164.7187500000,165576.0625000000,132974.3125000000,121070.2656250000,132021.4843750000,150266.7343750000,,,
0.7079999989,5,176001.4062500000,183896.9375000000,165961.4687500000,165331.8750000000,132706.9531250000,120830.1250000000,131752.7812500000,149673.7968750000,,,
0.7119999989,5,175571.0937500000,195733.1875000000,165310.9531250000,164363.4531250000,131763.9062500000,119922.7890625000,130735.2812500000,152798.7343750000,,,
0.7159999989,5,175477.4843750000,211185.3906250000,165225.2812500000,164190.5937500000,131639.0625000000,119786.3437500000,130576.6328125000,154683.5781250000,,,
0.7199999988,5,175809.5781250000,210634.0312500000,165729.0000000000,164876.9687500000,132324.1250000000,120430.2343750000,131311.1875000000,153262.7656250000,,,
0.7239999988,5,176114.2187500000,194838.6093750000,166175.2343750000,165593.9531250000,132979.3281250000,121061.0078125000,132034.9218750000,150263.0781250000,,,
0.7279999990,5,175980.0312500000,183874.8437500000,165940.6562500000,165341.7343750000,132686.0625000000,120809.9531250000,131745.7812500000,149634.5000000000,,,
0.7319999989,5,175551.0000000000,195609.3437500000,165285.0625000000,164357.5781250000,131739.8593750000,119912.7031250000,130732.4140625000,152743.9687500000,,,
0.7359999989,5,175462.0937500000,211093.3437500000,165208.8906250000,164185.8750000000,131621.0000000000,119776.1484375000,130579.1015625000,154640.0781250000,,,
0.7399999988,5,175789.9375000000,210622.4531250000,165703.0312500000,164874.0156250000,132301.4843750000,120419.1875000000,131302.2187500000,153232.1250000000,,,
0.7439999988,5,176125.0000000000,194891.3125000000,166176.0937500000,165596.5468750000,132980.5937500000,121076.8125000000,132044.9062500000,150267.3281250000,,,
0.7479999987,5,176017.7968750000,183897.6093750000,165977.6093750000,165346.7031250000,132718.9062500000,120850.7812500000,131788.1093750000,149641.9375000000,,,
0.7519999989,5,175615.0625000000,195582.6093750000,165354.2343750000,164385.6093750000,131802.6718750000,119972.3828125000,130799.5000000000,152761.6718750000,,,
0.7559999989,5,175488.3437500000,211115.8437500000,165242.9062500000,164184.1562500000,131651.3437500000,119781.1406250000,130611.7656250000,154636.5000000000,,,
0.7599999988,5,175786.2656250000,210738.1875000000,165700.6718750000,164851.8593750000,132298.3125000000,120404.1953125000,131298.1250000000,153229.2812500000,,,
0.7639999988,5,176113.9687500000,195064.7031250000,166159.1718750000,165568.1250000000,132966.0468750000,121068.7109375000,132035.4531250000,150275.7500000000,,,
0.7679999988,6,175995.1562500000,183997.8437500000,165951.2187500000,165332.8281250000,132697.4062500000,120829.3515625000,131773.0000000000,149627.4218750000,,,
0.7719999987,6,175575.4375000000,195597.6562500000,165311.2656250000,164380.1093750000,131765.5000000000,119938.7187500000,130767.5234375000,152719.5312500000,,,
0.7759999987,6,175476.2343750000,211167.0781250000,165223.7500000000,164192.5937500000,131634.5000000000,119783.7421875000,130600.3437500000,154640.6562500000,,,
0.7799999986,6,175796.7968750000,210881.3125000000,165708.3906250000,164858.4062500000,132302.2812500000,120415.4296875000,131315.9843750000,153272.6093750000,,,
0.7839999986,6,176143.2968750000,195264.5468750000,166188.7812500000,165583.9218750000,132988.4531250000,121097.9453125000,132066.6718750000,150341.1875000000,,,
0.7879999985,6,176033.4843750000,184117.0937500000,165987.2968750000,165355.0781250000,132728.3593750000,120870.6250000000,131807.9531250000,149677.9843750000,,,
0.7919999987,6,175598.0781250000,195617.4531250000,165334.5000000000,164394.7343750000,131787.2187500000,119950.9531250000,130792.6562500000,152726.4531250000,,,
0.7959999987,6,175484.3750000000,211196.7968750000,165230.6093750000,164206.6875000000,131641.5156250000,119786.9062500000,130605.1953125000,154635.7031250000,,,
0.7999999986,6,175781.4375000000,210917.8906250000,165690.9062500000,164862.2187500000,132285.7968750000,120404.7812500000,131296.2343750000,153252.7812500000,,,
0.8039999986,6,176118.9062500000,195295.9375000000,166163.7031250000,165574.9062500000,132962.1093750000,121074.6328125000,132043.7656250000,150312.2187500000,,,
0.8079999986,6,176004.4687500000,184109.2343750000,165960.7343750000,165353.9218750000,132701.8593750000,120846.6718750000,131791.7500000000,149633.1718750000,,,
0.8119999988,6,175586.8437500000,195520.5937500000,165323.2812500000,164409.1875000000,131776.5156250000,119956.7421875000,130794.0234375000,152685.8125000000,,,
0.8159999987,6,175491.4062500000,211133.9687500000,165233.2968750000,164215.8750000000,131641.8437500000,119800.3750000000,130618.7968750000,154624.1718750000,,,
0.8199999987,6,175800.1093750000,210942.5156250000,165707.3281250000,164851.2187500000,132297.7812500000,120416.3671875000,131320.9375000000,153266.5156250000,,,
0.8239999986,6,176145.4843750000,195364.8125000000,166192.2656250000,165576.5625000000,132985.3125000000,121093.5468750000,132078.7812500000,150336.8437500000,,,
0.8279999986,6,176026.0000000000,184107.6250000000,165983.7500000000,165349.2500000000,132720.6562500000,120858.5078125000,131816.9687500000,149635.2031250000,,,
0.8319999985,6,175593.9218750000,195433.2656250000,165334.0625000000,164377.1562500000,131784.8906250000,119951.1093750000,130809.6640625000,152662.4062500000,,,
0.8359999987,6,175484.3281250000,211085.4218750000,165228.1250000000,164199.9218750000,131636.7812500000,119784.4375000000,130620.3750000000,154602.8125000000,,,
0.8399999987,6,175787.3125000000,210947.6875000000,165693.5156250000,164861.8125000000,132284.5781250000,120392.8984375000,131310.5156250000,153249.7187500000,,,
0.8439999986,6,176120.2500000000,195412.4218750000,166163.3593750000,165555.1093750000,132958.6718750000,121057.9765625000,132054.5781250000,150317.8750000000,,,
0.8479999986,6,176013.0156250000,184122.4062500000,165972.9218750000,165335.4375000000,132713.1718750000,120849.0625000000,131814.6875000000,149616.2968750000,,,
0.8519999986,6,175602.1562500000,195365.4062500000,165346.2968750000,164396.9531250000,131798.4531250000,119960.5000000000,130825.0312500000,152647.2968750000,,,
0.8559999987,6,175484.2968750000,211055.0156250000,165230.0312500000,164198.6093750000,131637.3593750000,119779.4531250000,130623.1406250000,154598.2812500000,,,
0.8599999987,6,175769.7656250000,211014.5312500000,165672.8125000000,164835.6875000000,132264.0156250000,120381.2578125000,131300.4062500000,153258.4687500000,,,
0.8639999987,6,176091.5000000000,195532.0156250000,166134.2031250000,165540.2812500000,132928.9843750000,121040.6796875000,132041.1718750000,150318.7343750000,,,
0.8679999986,6,175989.0156250000,184151.0781250000,165947.2968750000,165349.4062500000,132687.2968750000,120833.0234375000,131808.3281250000,149593.8125000000,,,
0.8719999986,6,175572.2187500000,195307.2031250000,165309.0156250000,164404.1718750000,131762.6718750000,119940.1171875000,130813.8984375000,152607.6093750000,,,
0.8759999985,6,175459.1718750000,211029.0156250000,165202.2656250000,164165.8125000000,131608.8281250000,119761.1562500000,130624.9140625000,154570.5312500000,,,
0.8799999987,6,175766.0625000000,211079.9062500000,165673.9062500000,164812.2656250000,132259.0156250000,120381.2578125000,131315.9218750000,153264.7656250000,,,
0.8839999987,6,176102.5781250000,195648.4843750000,166146.7500000000,165550.2031250000,132936.5000000000,121053.4218750000,132058.3593750000,150342.5000000000,,,
0.8879999986,6,175994.1406250000,184188.7656250000,165956.4218750000,165340.6875000000,132695.9062500000,120840.7734375000,131829.1718750000,149588.7812500000,,,
0.8919999986,6,175570.0000000000,195252.3750000000,165312.3437500000,164369.4062500000,131769.4843750000,119950.2578125000,130835.6015625000,152584.9375000000,,,
0.8959999986,7,175454.9843750000,210996.2968750000,165201.1093750000,164158.0312500000,131610.2812500000,119772.0781250000,130636.0937500000,154560.6250000000,,,
0.8999999985,7,175759.2812500000,211134.6718750000,165664.2812500000,164806.9375000000,132250.1718750000,120387.4296875000,131315.2812500000,153271.4687500000,,,
0.9039999985,7,176113.7031250000,195785.3281250000,166159.2031250000,165536.9218750000,132947.6250000000,121076.1406250000,132085.2968750000,150372.5468750000,,,
0.9079999984,7,176027.6562500000,184273.2343750000,165992.9218750000,165374.8593750000,132731.4375000000,120879.1562500000,131878.8750000000,149617.3437500000,,,
0.9119999984,7,175576.8437500000,195212.6250000000,165319.8750000000,164396.6562500000,131778.9531250000,119956.2890625000,130853.5156250000,152566.9687500000,,,
0.9159999983,7,175457.5781250000,210970.7656250000,165196.8125000000,164175.5156250000,131610.1875000000,119775.7500000000,130651.5468750000,154552.9062500000,,,
0.9199999985,7,175767.4375000000,211200.8437500000,165660.7343750000,164834.5312500000,132251.7187500000,120397.9687500000,131341.6562500000,153292.3750000000,,,
0.9239999985,7,176105.5000000000,195905.1875000000,166139.4062500000,165553.1250000000,132933.1406250000,121070.4765625000,132088.7031250000,150381.7968750000,,,
0.9279999984,7,176004.2500000000,184330.8750000000,165964.8750000000,165355.7343750000,132710.3593750000,120858.5859375000,131874.8750000000,149588.6406250000,,,
0.9319999984,7,175587.6250000000,195195.5156250000,165329.7500000000,164403.2656250000,131791.8593750000,119971.4140625000,130886.2656250000,152557.1718750000,,,
0.9359999984,7,175467.9687500000,210978.8125000000,165209.4218750000,164175.7812500000,131620.4687500000,119781.8359375000,130672.6562500000,154556.9843750000,,,
0.9399999985,7,175761.5000000000,211264.8593750000,165660.2031250000,164809.0468750000,132247.5625000000,120384.3437500000,131339.7500000000,153292.8593750000,,,
0.9439999985,7,176111.7031250000,196000.0625000000,166151.6406250000,165553.6562500000,132940.9218750000,121066.6406250000,132104.2343750000,150397.4843750000,,,
0.9479999985,7,176023.1562500000,184381.4531250000,165985.3437500000,165375.9843750000,132727.5000000000,120881.6796875000,131904.0000000000,149615.1875000000,,,
0.9519999984,7,175602.1093750000,195158.3593750000,165347.2187500000,164418.3281250000,131804.9687500000,119994.7265625000,130914.1640625000,152571.8281250000,,,
0.9559999984,7,175482.1562500000,210981.3906250000,165220.9531250000,164190.0781250000,131628.2187500000,119809.0078125000,130695.2890625000,154588.1718750000,,,
0.9599999983,7,175769.4531250000,211362.4218750000,165662.2968750000,164820.1250000000,132247.4531250000,120405.1875000000,131358.4687500000,153338.2968750000,,,
0.9639999985,7,176099.3593750000,196125.5937500000,166132.5937500000,165552.2968750000,132924.1562500000,121069.3281250000,132102.6718750000,150419.2187500000,,,
0.9679999985,7,175998.3437500000,184401.0937500000,165959.5000000000,165365.6093750000,132706.0937500000,120863.1953125000,131892.5312500000,149588.3750000000,,,
0.9719999984,7,175586.7656250000,195082.8281250000,165329.7968750000,164421.5312500000,131794.6562500000,119981.4218750000,130910.9921875000,152539.2656250000,,,
0.9759999984,7,175465.8750000000,210925.4375000000,165209.7187500000,164195.2031250000,131622.0156250000,119786.5078125000,130693.1171875000,154561.8125000000,,,
0.9799999984,7,175766.0937500000,211356.4062500000,165666.3750000000,164841.3125000000,132253.3281250000,120391.2656250000,131361.0156250000,153327.9843750000,,,
0.9839999985,7,176121.2656250000,196161.1875000000,166162.0468750000,165582.8125000000,132952.5625000000,121079.0390625000,132124.9843750000,150434.9843750000,,,
0.9879999985,7,176029.3593750000,184397.7968750000,165991.3750000000,165383.8281250000,132738.8906250000,120898.7343750000,131920.6875000000,149616.2656250000,,,
0.9919999985,7,175601.3750000000,194995.2031250000,165339.5156250000,164409.8906250000,131804.3281250000,120010.5781250000,130914.4296875000,152547.5156250000,,,
0.9959999984,7,175475.2031250000,210865.7812500000,165210.3906250000,164177.1562500000,131619.0937500000,119805.3046875000,130686.2031250000,154577.9062500000,,,
0.9999999984,7,175758.1875000000,211350.1406250000,165652.6875000000,164803.9375000000,132234.2656250000,120383.0312500000,131344.8125000000,153332.8750000000,,,
1.0039999983,7,176105.9062500000,196183.8437500000,166141.8437500000,165547.4687500000,132927.2968750000,121063.4765625000,132106.3281250000,150431.5312500000,,,
1.0079999985,7,176021.3125000000,184367.7812500000,165986.8125000000,165373.3437500000,132729.4843750000,120886.9062500000,131917.5781250000,149597.4375000000,,,
1.0119999985,7,175604.8906250000,194900.0156250000,165351.7500000000,164424.3125000000,131812.3281250000,120002.0234375000,130930.3906250000,152526.6875000000,,,
1.0159999984,7,175493.3906250000,210814.9218750000,165237.4531250000,164205.0937500000,131642.9687500000,119809.8437500000,130714.6328125000,154581.5156250000,,,
1.0199999984,7,175789.1562500000,211401.7187500000,165685.7812500000,164857.4687500000,132267.1250000000,120406.2812500000,131375.0468750000,153372.4687500000,,,
1.0239999983,8,176123.5781250000,196291.7031250000,166159.4843750000,165573.5156250000,132948.8281250000,121075.3046875000,132123.7031250000,150461.6406250000,,,
1.0279999983,8,176037.4062500000,184405.1406250000,165998.6875000000,165371.4843750000,132747.9531250000,120904.5546875000,131927.9843750000,149608.9218750000,,,
1.0319999983,8,175604.9687500000,194828.0781250000,165341.6875000000,164420.6093750000,131810.4531250000,120007.8125000000,130932.9062500000,152512.5937500000,,,
1.0359999982,8,175472.7343750000,210764.1718750000,165202.4062500000,164185.7031250000,131612.9062500000,119797.3437500000,130695.7500000000,154562.2656250000,,,
1.0399999982,8,175763.9687500000,211569.2187500000,165649.3125000000,164806.0000000000,132227.7656250000,120380.2109375000,131348.9531250000,153388.0781250000,,,
1.0439999981,8,176123.7656250000,196544.8750000000,166156.0000000000,165562.1406250000,132942.3906250000,121082.6562500000,132131.3281250000,150487.6093750000,,,
1.0479999983,8,176031.9062500000,184374.5937500000,165993.6562500000,165398.3593750000,132740.8593750000,120903.9140625000,131936.7187500000,149577.9375000000,33029,1.0489800700,0.0000000000
1.0519999983,8,175604.0625000000,194737.6250000000,165342.3281250000,164434.2187500000,131803.9843750000,120002.4765625000,130925.5625000000,152500.7500000000,,,
1.0559999982,8,175471.0468750000,210741.8906250000,165205.9687500000,164175.3750000000,131609.9218750000,119792.9687500000,130691.0781250000,154578.1406250000,,,
1.0599999982,8,175775.0468750000,211519.9375000000,165666.0468750000,164807.0468750000,132243.8906250000,120399.3359375000,131362.6250000000,153404.0312500000,,,
1.0639999982,8,176126.1250000000,196470.7343750000,166159.8750000000,165556.2968750000,132947.0312500000,121080.1093750000,132128.5781250000,150489.6562500000,,,
1.0679999983,8,176039.0156250000,184340.4687500000,166002.1875000000,165398.9531250000,132752.0312500000,120909.2265625000,131942.8750000000,149584.7031250000,,,
1.0719999983,8,175597.4062500000,194625.3750000000,165337.6562500000,164427.2343750000,131805.5937500000,120002.0234375000,130927.0625000000,152483.4218750000,,,
1.0759999983,8,175471.5625000000,210671.2968750000,165206.8750000000,164179.2656250000,131615.1093750000,119794.0937500000,130694.4609375000,154576.9531250000,,,
1.0799999982,8,175772.9375000000,211488.3437500000,165667.2812500000,164825.5781250000,132246.6562500000,120391.0234375000,131364.3750000000,153411.7812500000,,,
1.0839999982,8,176125.0000000000,196466.3593750000,166163.4062500000,165577.9843750000,132950.3281250000,121083.2734375000,132132.5468750000,150514.0625000000,,,
1.0879999981,8,176030.2656250000,184341.0312500000,165998.4218750000,165396.4062500000,132748.7187500000,120911.7187500000,131937.7187500000,149609.6093750000,,,
1.0919999983,8,175620.1875000000,194555.0312500000,165364.1562500000,164457.7343750000,131828.3437500000,120029.3515625000,130948.7343750000,152542.1562500000,,,
1.0959999983,8,175476.2343750000,210628.4531250000,165208.4843750000,164185.9531250000,131610.1875000000,119798.5468750000,130687.1406250000,154651.1562500000,,,
1.0999999982,8,175756.5781250000,211462.1406250000,165647.7187500000,164808.7812500000,132222.2500000000,120376.0312500000,131344.9218750000,153465.4218750000,,,
1.1039999982,8,176109.5000000000,196463.3593750000,166141.5781250000,165556.5312500000,132925.2343750000,121066.1093750000,132125.1718750000,150560.8125000000,,,
1.1079999981,8,176036.2968750000,184384.1406250000,165998.7968750000,165405.6875000000,132748.9218750000,120916.7656250000,131956.2187500000,149658.8593750000,,,
1.1119999983,8,175619.8593750000,194508.2656250000,165366.3281250000,164464.1250000000,131833.3281250000,120026.9140625000,130966.9765625000,152525.0781250000,,,
1.1159999983,8,175477.5468750000,210596.4375000000,165213.0000000000,164195.8437500000,131620.0625000000,119793.9062500000,130708.4921875000,154607.6250000000,,,
1.1199999982,8,175771.0625000000,211514.3593750000,165663.1562500000,164810.2656250000,132241.7500000000,120389.3593750000,131369.5468750000,153445.5468750000,,,
1.1239999982,8,176112.1250000000,196565.8750000000,166149.4531250000,165550.4687500000,132935.6406250000,121069.4062500000,132133.7812500000,150543.0000000000,,,
1.1279999982,8,176017.7343750000,184383.0156250000,165990.0000000000,165374.0000000000,132742.7031250000,120903.7031250000,131955.8750000000,149600.4375000000,,,
1.1319999981,8,175597.0937500000,194408.3125000000,165346.7031250000,164402.5937500000,131814.5000000000,120014.5468750000,130960.6953125000,152458.9531250000,,,
1.1359999983,8,175461.0468750000,210539.6250000000,165195.9687500000,164149.3125000000,131597.6093750000,119780.8750000000,130698.3203125000,154568.2968750000,,,
1.1399999983,8,175740.2031250000,211567.2656250000,165626.2656250000,164771.3750000000,132197.5468750000,120354.7890625000,131335.6093750000,153416.0937500000,,,
1.1439999982,8,176103.0000000000,196676.4687500000,166135.8593750000,165532.4218750000,132914.4687500000,121064.3359375000,132119.6562500000,150532.7812500000,,,
1.1479999982,8,176022.0312500000,184380.9687500000,165989.4062500000,165384.5000000000,132736.3125000000,120914.5078125000,131953.7343750000,149574.9843750000,,,
1.1519999981,9,175592.8750000000,194312.1250000000,165337.3125000000,164424.2343750000,131804.1406250000,120015.2968750000,130952.5468750000,152416.0937500000,,,
1.1559999981,9,175448.0625000000,210480.5625000000,165180.6250000000,164142.4218750000,131585.2031250000,119776.0468750000,130685.5859375000,154543.9375000000,,,
1.1599999981,9,175740.3437500000,211618.4375000000,165630.8750000000,164764.8281250000,132204.4375000000,120361.7890625000,131342.8593750000,153438.5000000000,,,
1.1639999980,9,176110.5937500000,196786.2656250000,166153.3750000000,165534.7187500000,132931.3125000000,121074.4218750000,132141.2656250000,150575.8281250000,,,
1.1679999980,9,176044.1250000000,184367.3750000000,166019.7500000000,165398.1406250000,132764.8281250000,120940.7968750000,131983.5625000000,149613.7500000000,,,
1.1719999979,9,175625.2812500000,194214.9218750000,165374.8906250000,164458.1406250000,131840.1875000000,120055.5078125000,130987.6015625000,152459.9687500000,,,
1.1759999981,9,175478.1093750000,210408.2812500000,165215.9375000000,164202.4687500000,131616.9062500000,119798.6015625000,130713.7500000000,154592.2968750000,,,
1.1799999981,9,175754.4062500000,211717.5937500000,165643.2968750000,164808.7656250000,132210.2812500000,120362.9140625000,131354.5781250000,153501.7500000000,,,
1.1839999980,9,176096.7812500000,196974.4843750000,166135.0781250000,165535.3750000000,132914.3593750000,121058.2500000000,132129.7656250000,150602.8593750000,,,
1.1879999980,9,176020.8281250000,184370.4062500000,165995.0468750000,165402.0312500000,132749.7500000000,120919.7421875000,131970.9531250000,149583.4843750000,,,
1.1919999979,9,175609.5937500000,194127.7968750000,165357.7812500000,164457.6875000000,131834.2343750000,120037.4296875000,130996.1328125000,152422.3750000000,,,
1.1959999981,9,175472.2343750000,210353.4218750000,165206.4218750000,164176.1875000000,131614.9218750000,119800.7187500000,130738.2109375000,154576.0468750000,,,
1.1999999981,9,175751.2031250000,211588.0781250000,165640.5937500000,164770.9687500000,132214.3906250000,120364.1171875000,131372.1718750000,153461.0781250000,,,
1.2039999980,9,176098.0156250000,196808.0000000000,166136.8281250000,165515.5000000000,132916.7031250000,121054.8671875000,132142.7187500000,150565.0156250000,,,
1.2079999980,9,176030.2656250000,184365.7656250000,166005.8593750000,165393.1875000000,132757.4843750000,120922.2578125000,131996.8125000000,149570.9375000000,,,
1.2119999980,9,175627.6406250000,194047.5468750000,165379.0781250000,164467.8281250000,131849.1250000000,120047.2187500000,131019.9218750000,152385.6250000000,,,
1.2159999979,9,175496.4218750000,210299.1093750000,165232.8437500000,164191.8281250000,131632.0000000000,119810.1640625000,130753.2578125000,154551.6875000000,,,
1.2199999981,9,175768.1562500000,211532.2343750000,165659.3125000000,164793.1718750000,132226.3437500000,120373.2656250000,131381.4531250000,153441.6093750000,,,
1.2239999981,9,176108.9062500000,196761.4062500000,166144.6875000000,165531.6875000000,132916.4531250000,121056.7734375000,132142.9062500000,150563.2031250000,,,
1.2279999980,9,176037.1093750000,184375.0156250000,166009.2656250000,165400.2968750000,132749.5937500000,120921.8281250000,131994.2343750000,149576.4375000000,,,
1.2319999980,9,175623.7500000000,193975.1875000000,165371.7812500000,164470.6406250000,131836.3593750000,120042.9765625000,131014.2343750000,152368.6718750000,,,
1.2359999979,9,175479.7968750000,210243.2656250000,165210.9062500000,164199.1250000000,131610.5937500000,119798.0390625000,130740.7031250000,154536.7812500000,,,
1.2399999981,9,175754.5312500000,211558.8437500000,165643.3750000000,164796.2343750000,132211.6562500000,120371.0156250000,131380.2812500000,153449.8906250000,,,
1.2439999981,9,176104.2187500000,196858.8281250000,166141.7968750000,165527.8281250000,132915.0156250000,121065.2734375000,132154.4218750000,150584.8125000000,,,
1.2479999980,9,176037.1093750000,184407.8750000000,166012.2968750000,165398.6093750000,132758.3906250000,120931.5937500000,132013.4062500000,149578.4687500000,,,
1.2519999980,9,175611.2968750000,193896.7343750000,165363.8750000000,164456.7968750000,131835.3593750000,120043.5390625000,131020.4062500000,152340.1875000000,,,
1.2559999980,9,175474.5937500000,210173.6093750000,165209.6406250000,164176.1875000000,131614.2500000000,119808.8984375000,130749.0703125000,154524.9531250000,,,
1.2599999979,9,175758.9843750000,211638.8125000000,165646.5937500000,164777.1093750000,132215.4687500000,120383.9921875000,131385.6406250000,153481.4062500000,,,
1.2639999981,9,176106.4062500000,197064.5781250000,166143.4062500000,165523.8906250000,132915.4687500000,121070.2656250000,132154.5781250000,150627.6718750000,,,
1.2679999981,9,176042.2500000000,184478.1250000000,166022.1406250000,165415.7656250000,132770.3281250000,120939.8593750000,132020.5156250000,149589.1718750000,,,
1.2719999980,9,175630.0000000000,193833.0000000000,165381.7343750000,164475.8750000000,131857.6562500000,120064.1171875000,131040.1953125000,152346.6250000000,,,
1.2759999980,9,175479.8281250000,210102.4531250000,165209.4531250000,164178.7812500000,131616.4375000000,119813.6484375000,130756.9843750000,154534.0156250000,,,
1.2799999979,10,175765.5781250000,211693.4843750000,165647.5937500000,164781.7187500000,132217.5468750000,120391.0468750000,131393.0156250000,153517.7500000000,,,
1.2839999979,10,176127.5468750000,197216.1718750000,166159.2187500000,165537.8906250000,132934.6093750000,121099.0703125000,132175.7968750000,150682.6406250000,,,
1.2879999978,10,176059.7187500000,184537.9687500000,166033.4062500000,165431.2656250000,132786.3750000000,120973.3593750000,132045.1875000000,149621.2500000000,,,
1.2919999978,10,175637.0468750000,193796.7968750000,165385.6406250000,164487.0000000000,131865.8281250000,120084.2812500000,131059.3515625000,152347.8593750000,,,
1.2959999978,10,175484.0312500000,210079.9687500000,165210.3125000000,164185.2031250000,131621.2656250000,119817.2187500000,130766.3203125000,154529.4062500000,,,
1.2999999977,10,175750.3437500000,211720.4375000000,165631.0156250000,164766.6250000000,132199.9375000000,120367.4453125000,131379.1250000000,153503.2187500000,,,
1.3039999979,10,176101.2812500000,197279.5625000000,166134.0937500000,165519.7656250000,132903.7656250000,121067.7968750000,132152.4375000000,150662.8593750000,,,
1.3079999979,10,176050.7500000000,184580.8593750000,166027.1718750000,165418.2968750000,132773.4218750000,120960.8828125000,132037.8750000000,149599.0781250000,,,
1.3119999978,10,175653.7031250000,193765.4375000000,165405.5000000000,164487.6718750000,131878.5468750000,120092.1953125000,131074.7656250000,152327.5312500000,,,
1.3159999978,10,175504.8125000000,210095.4531250000,165233.9687500000,164207.7343750000,131636.8750000000,119831.1093750000,130781.0703125000,154527.6562500000,,,
1.3199999977,10,175763.2968750000,211783.6093750000,165644.1093750000,164789.9531250000,132210.2812500000,120387.2109375000,131385.3125000000,153511.4218750000,,,
1.3239999979,10,176097.6875000000,197365.2031250000,166132.3750000000,165518.7343750000,132900.6093750000,121068.8671875000,132145.7812500000,150662.8906250000,,,
1.3279999979,10,176033.7968750000,184649.2187500000,166013.7187500000,165405.8125000000,132758.1562500000,120951.2578125000,132023.0625000000,149580.5625000000,,,
1.3319999978,10,175630.0312500000,193749.2031250000,165383.8437500000,164473.4531250000,131858.1718750000,120080.0468750000,131055.3281250000,152288.7656250000,,,
1.3359999978,10,175466.8906250000,210082.9531250000,165194.7812500000,164184.7187500000,131600.4843750000,119798.1484375000,130752.2343750000,154481.4218750000,,,
1.3399999978,10,175729.7968750000,211829.4218750000,165612.0468750000,164771.6406250000,132177.8593750000,120352.9609375000,131371.0781250000,153479.7500000000,,,
1.3439999977,10,176080.6093750000,197453.0156250000,166117.5625000000,165506.0312500000,132883.3906250000,121053.0156250000,132146.6562500000,150654.8125000000,,,
1.3479999979,10,176043.0000000000,184678.4062500000,166027.0156250000,165425.1875000000,132769.0156250000,120960.4843750000,132046.6093750000,149582.8281250000,,,
1.3519999979,10,175648.0468750000,193658.2343750000,165401.3437500000,164513.5468750000,131874.6562500000,120098.5546875000,131085.6875000000,152284.1250000000,,,
1.3559999978,10,175510.6718750000,210041.8125000000,165237.4843750000,164221.7343750000,131640.9375000000,119842.9375000000,130799.4453125000,154517.7343750000,,,
1.3599999978,10,175792.2187500000,211906.5312500000,165674.0312500000,164819.9687500000,132236.3593750000,120405.3437500000,131420.8593750000,153554.4531250000,,,
1.3639999977,10,176139.4531250000,197593.7812500000,166175.7656250000,165556.5781250000,132939.6250000000,121095.5546875000,132195.4531250000,150729.3281250000,,,
1.3679999979,10,176073.1250000000,184712.3593750000,166060.8593750000,165446.4843750000,132804.4687500000,120974.5937500000,132082.1562500000,149611.4687500000,,,
1.3719999979,10,175644.0312500000,193603.0468750000,165404.2968750000,164508.2500000000,131879.7812500000,120087.2890625000,131091.0312500000,152274.2343750000,,,
1.3759999978,10,175494.8906250000,210005.3750000000,165223.1875000000,164205.0000000000,131626.3750000000,119828.6406250000,130785.5781250000,154510.3125000000,,,
1.3799999978,10,175769.8437500000,212146.1562500000,165643.8437500000,164791.6250000000,132199.3437500000,120382.5156250000,131392.3125000000,153593.8750000000,,,
1.3839999977,10,176106.6875000000,198046.2343750000,166141.3906250000,165545.9687500000,132903.3750000000,121075.9765625000,132170.2968750000,150758.6250000000,,,
1.3879999977,10,176052.0468750000,184774.2343750000,166041.2656250000,165456.5937500000,132791.1250000000,120982.9062500000,132079.7968750000,149566.4062500000,,,
1.3919999979,10,175639.8125000000,193535.5156250000,165399.0781250000,164517.2500000000,131875.0625000000,120100.0859375000,131098.5937500000,152239.7343750000,,,
1.3959999979,10,175491.1718750000,209959.2812500000,165220.9531250000,164207.2968750000,131620.7656250000,119831.0859375000,130791.4531250000,154487.4531250000,,,
1.3999999978,10,175754.7968750000,212138.1875000000,165634.9375000000,164767.1250000000,132188.3750000000,120364.4375000000,131390.6093750000,153564.2656250000,,,
1.4039999978,10,176102.3281250000,198054.4687500000,166141.5781250000,165509.7500000000,132901.6250000000,121063.7500000000,132175.0625000000,150738.2343750000,,,
1.4079999977,11,176060.2968750000,184727.3593750000,166056.3281250000,165437.7031250000,132803.2187500000,120979.0156250000,132098.2968750000,149546.2031250000,,,
1.4119999977,11,175667.7031250000,193410.3437500000,165438.3281250000,164520.5781250000,131909.3906250000,120114.2187500000,131134.7187500000,152230.1562500000,,,
1.4159999976,11,175493.9843750000,209864.0625000000,165228.1250000000,164190.8281250000,131625.1562500000,119824.8906250000,130796.7578125000,154480.9375000000,,,
1.4199999976,11,175732.2656250000,212009.2343750000,165614.8125000000,164736.5781250000,132169.8593750000,120340.7812500000,131375.9843750000,153527.3593750000,,,
1.4239999976,11,176089.4375000000,197854.0000000000,166127.5937500000,165503.6406250000,132888.3437500000,121041.8359375000,132168.7968750000,150695.8906250000,,,
1.4279999975,11,176058.8281250000,184660.2968750000,166045.3593750000,165453.8593750000,132792.5312500000,120972.4140625000,132088.7812500000,149535.6718750000,,,
1.4319999977,11,175657.8906250000,193327.2187500000,165417.4375000000,164520.6562500000,131894.0000000000,120108.9375000000,131123.1875000000,152214.5468750000,,,
1.4359999977,11,175506.7031250000,209852.6562500000,165240.7031250000,164190.6718750000,131639.3750000000,119828.4296875000,130818.0312500000,154493.0000000000,,,
1.4399999976,11,175779.2343750000,211916.4062500000,165666.6875000000,164781.1250000000,132224.4218750000,120384.7968750000,131436.1406250000,153548.7343750000,,,
1.4439999976,11,176128.4531250000,197664.3281250000,166164.1250000000,165527.3750000000,132929.5781250000,121088.3125000000,132212.1562500000,150716.0781250000,,,
1.4479999975,11,176064.5625000000,184671.5625000000,166048.1875000000,165435.7031250000,132799.0312500000,120986.0703125000,132100.5625000000,149563.2343750000,,,
1.4519999977,11,175644.9843750000,193270.1875000000,165401.3593750000,164484.0156250000,131882.5156250000,120102.8984375000,131119.1093750000,152209.1562500000,,,
1.4559999977,11,175491.8437500000,209845.3125000000,165219.9687500000,164165.8593750000,131619.6406250000,119823.4375000000,130805.9609375000,154504.0312500000,,,
1.4599999976,11,175766.6250000000,211971.3125000000,165648.7187500000,164763.9843750000,132205.1093750000,120377.1796875000,131424.1250000000,153565.4218750000,,,
1.4639999976,11,176107.8281250000,197724.0468750000,166145.2500000000,165508.3906250000,132906.2343750000,121069.9140625000,132193.9531250000,150718.1406250000,,,
1.4679999975,11,176058.9687500000,184668.4531250000,166046.3281250000,165435.6250000000,132794.5468750000,120986.9296875000,132089.7187500000,149562.4843750000,,,
1.4719999975,11,175650.8125000000,193192.2500000000,165410.0000000000,164513.6093750000,131886.9375000000,120115.3437500000,131121.5781250000,152211.2187500000,,,
1.4759999977,11,175488.4843750000,209811.4531250000,165213.2343750000,164178.9218750000,131608.0468750000,119823.2265625000,130799.3593750000,154513.6875000000,,,
1.4799999977,11,175744.6093750000,212065.0000000000,165621.7343750000,164743.5312500000,132175.3281250000,120362.9687500000,131400.6562500000,153578.4218750000,,,
1.4839999976,11,176087.6093750000,197894.1562500000,166122.5000000000,165503.5625000000,132884.6406250000,121061.5781250000,132185.2812500000,150719.5625000000,,,
1.4879999976,11,176065.1250000000,184673.8437500000,166055.5312500000,165458.2031250000,132806.5156250000,121006.5390625000,132127.2187500000,149542.9375000000,,,
1.4919999975,11,175669.1093750000,193093.4062500000,165434.4687500000,164529.8281250000,131911.3750000000,120144.9062500000,131162.6875000000,152201.2968750000,,,
1.4959999977,11,175472.6562500000,209737.9375000000,165200.7968750000,164157.8125000000,131597.4062500000,119818.4531250000,130797.4843750000,154493.1093750000,,,
1.4999999977,11,175729.8593750000,212167.0312500000,165607.4687500000,164717.9062500000,132160.0156250000,120344.8906250000,131394.9531250000,153579.7343750000,,,
1.5039999976,11,176102.7031250000,198124.4531250000,166133.2812500000,165504.8125000000,132894.5625000000,121072.8359375000,132193.2500000000,150747.7812500000,,,
1.5079999976,11,176046.2812500000,184687.3125000000,166032.5625000000,165420.4375000000,132788.2187500000,120987.3281250000,132104.7968750000,149499.9687500000,,,
1.5119999975,11,175634.4531250000,192978.3750000000,165397.2031250000,164493.7656250000,131879.1718750000,120108.9609375000,131129.8125000000,152135.2343750000,,,
1.5159999975,11,175483.5000000000,209656.1875000000,165214.3906250000,164161.2187500000,131610.0937500000,119822.6328125000,130808.8593750000,154483.0312500000,,,
1.5199999977,11,175758.8437500000,212143.8750000000,165636.7031250000,164731.4843750000,132187.2968750000,120372.6250000000,131417.4843750000,153608.4375000000,,,
1.5239999976,11,176108.2968750000,198117.6875000000,166143.1250000000,165499.2968750000,132904.6562500000,121068.8437500000,132206.5312500000,150748.2656250000,,,
1.5279999976,11,176066.6875000000,184641.2812500000,166056.6875000000,165448.7812500000,132811.6562500000,120996.2656250000,132132.0468750000,149496.5937500000,,,
1.5319999976,11,175646.0625000000,192847.5000000000,165407.9062500000,164514.0625000000,131887.7812500000,120112.3671875000,131144.3281250000,152122.3906250000,,,
1.5359999975,12,175474.1875000000,209546.1406250000,165200.6875000000,164160.0937500000,131593.5625000000,119809.3593750000,130796.5468750000,154471.9843750000,,,
1.5399999975,12,175735.6250000000,212041.7656250000,165613.1718750000,164721.2656250000,132162.9687500000,120347.3281250000,131395.5937500000,153584.6250000000,,,
1.5439999974,12,176098.0625000000,198012.1250000000,166126.9843750000,165489.9843750000,132888.9062500000,121066.5625000000,132192.1250000000,150743.0937500000,,,
1.5479999974,12,176065.6718750000,184612.9375000000,166048.5000000000,165441.9531250000,132802.6250000000,121006.1875000000,132125.9843750000,149514.2968750000,,,
1.5519999973,12,175651.0468750000,192769.2812500000,165412.0625000000,164511.5468750000,131891.6406250000,120120.6796875000,131153.6093750000,152124.7500000000,,,
1.5559999973,12,175475.4531250000,209496.4843750000,165202.7187500000,164153.4687500000,131591.7656250000,119805.2265625000,130801.5859375000,154475.4687500000,,,
1.5599999975,12,175729.3437500000,212055.7187500000,165607.8906250000,164736.0468750000,132153.8281250000,120338.2656250000,131396.6562500000,153589.3906250000,,,
1.5639999975,12,176109.4687500000,198082.2656250000,166143.7812500000,165521.0156250000,132902.5625000000,121071.6328125000,132219.5312500000,150763.0468750000,,,
1.5679999974,12,176075.5156250000,184653.4843750000,166062.6406250000,165470.5625000000,132817.4843750000,121011.8984375000,132152.7187500000,149517.6406250000,,,
1.5719999974,12,175646.5937500000,192714.8125000000,165406.6250000000,164520.1250000000,131888.8750000000,120121.7265625000,131157.7031250000,152108.5781250000,,,
1.5759999973,12,175467.4531250000,209468.9062500000,165197.2968750000,164132.9531250000,131588.3593750000,119801.6875000000,130802.5312500000,154466.7187500000,,,
1.5799999975,12,175724.4375000000,212117.1406250000,165603.6093750000,164699.9218750000,132149.1250000000,120328.6093750000,131407.6406250000,153589.5781250000,,,
1.5839999975,12,176089.1718750000,198203.6875000000,166117.9375000000,165477.7812500000,132878.3750000000,121053.3125000000,132211.3593750000,150751.7031250000,,,
1.5879999974,12,176065.3750000000,184678.1875000000,166052.6562500000,165439.6406250000,132809.8593750000,121007.5312500000,132160.3750000000,149492.3281250000,,,
1.5919999974,12,175664.0312500000,192659.4531250000,165429.3125000000,164529.8593750000,131909.5000000000,120139.2734375000,131192.4375000000,152102.9375000000,,,
1.5959999973,12,175491.9687500000,209447.4062500000,165225.8750000000,164172.8281250000,131611.8281250000,119815.7656250000,130844.3125000000,154482.0156250000,,,
1.5999999973,12,175745.6875000000,212176.6875000000,165623.7187500000,164716.3906250000,132167.3750000000,120342.7656250000,131430.7812500000,153625.9375000000,,,
1.6039999975,12,176091.8750000000,198304.7031250000,166122.8593750000,165483.5781250000,132882.1718750000,121049.3984375000,132215.5625000000,150771.5000000000,,,
1.6079999974,12,176067.3125000000,184720.1875000000,166057.0312500000,165458.0937500000,132814.7187500000,121010.5078125000,132174.7968750000,149492.0312500000,,,
1.6119999974,12,175657.8125000000,192595.3281250000,165424.4375000000,164540.1562500000,131904.9687500000,120134.5781250000,131205.6562500000,152078.1406250000,,,
1.6159999974,12,175476.4375000000,209413.5781250000,165206.1250000000,164160.5156250000,131590.8750000000,119808.4765625000,130837.2656250000,154468.5937500000,,,
1.6199999973,12,175731.4062500000,212237.4843750000,165607.3281250000,164703.8281250000,132146.6406250000,120334.9921875000,131422.8125000000,153626.9218750000,,,
1.6239999975,12,176097.2656250000,198415.0468750000,166127.2812500000,165493.7343750000,132881.1875000000,121051.3281250000,132225.9218750000,150788.6406250000,,,
1.6279999975,12,176066.0468750000,184745.3281250000,166057.8437500000,165467.4531250000,132813.6250000000,121003.1562500000,132182.4375000000,149479.6875000000,,,
1.6319999974,12,175661.2187500000,192540.0156250000,165428.7031250000,164547.8281250000,131910.5000000000,120136.5078125000,131216.2031250000,152062.2500000000,,,
1.6359999974,12,175480.5781250000,209386.3750000000,165206.8750000000,164173.8281250000,131595.1718750000,119808.1796875000,130844.2343750000,154468.3281250000,,,
1.6399999973,12,175748.3125000000,212302.3750000000,165620.6562500000,164713.9375000000,132162.5937500000,120345.1796875000,131439.2343750000,153655.0781250000,,,
1.6439999973,12,176099.3281250000,198537.6250000000,166123.2500000000,165478.0781250000,132880.9218750000,121056.1796875000,132226.7343750000,150808.3281250000,,,
1.6479999975,12,176061.9375000000,184800.0156250000,166046.4375000000,165448.2968750000,132806.2968750000,121007.1484375000,132173.5312500000,149480.2031250000,,,
1.6519999974,12,175652.5625000000,192504.2343750000,165414.9687500000,164522.5625000000,131899.0625000000,120133.0234375000,131201.4531250000,152048.4218750000,,,
1.6559999974,12,175486.6093750000,209379.1093750000,165210.5000000000,164164.1093750000,131596.6718750000,119809.0625000000,130842.7031250000,154473.7031250000,,,
1.6599999974,12,175752.3593750000,212343.3593750000,165624.9218750000,164730.3281250000,132165.9531250000,120342.9531250000,131439.4218750000,153662.2812500000,,,
1.6639999973,13,176126.7500000000,198600.0625000000,166155.1250000000,165517.4531250000,132913.7812500000,121074.3671875000,132254.8125000000,150834.2656250000,,,
1.6679999973,13,176092.5781250000,184817.5000000000,166081.2031250000,165482.0468750000,132845.4531250000,121028.6640625000,132205.0000000000,149501.4687500000,,,
1.6719999972,13,175672.4843750000,192428.5156250000,165437.1406250000,164544.8750000000,131927.5468750000,120157.1328125000,131222.3437500000,152054.9531250000,,,
1.6759999972,13,175489.0937500000,209323.8906250000,165214.9843750000,164165.3437500000,131604.1875000000,119821.6718750000,130850.0000000000,154481.9062500000,,,
1.6799999971,13,175729.9843750000,212347.3750000000,165599.9062500000,164709.2187500000,132143.2031250000,120337.1328125000,131421.8437500000,153665.5000000000,,,
1.6839999971,13,176094.3125000000,198635.3125000000,166120.9687500000,165487.6718750000,132880.7031250000,121059.7734375000,132228.8750000000,150824.1406250000,,,
1.6879999973,13,176077.6250000000,184840.2500000000,166069.4843750000,165469.5937500000,132833.3593750000,121022.9765625000,132202.4062500000,149491.3593750000,,,
1.6919999972,13,175678.1093750000,192379.9687500000,165448.8437500000,164549.7031250000,131935.7812500000,120153.7500000000,131232.8593750000,152046.0312500000,,,
1.6959999972,13,175494.7656250000,209305.6406250000,165225.4062500000,164160.6562500000,131608.9531250000,119817.4062500000,130838.2578125000,154487.8281250000,,,
1.6999999972,13,175736.0781250000,212390.8593750000,165612.3281250000,164707.6406250000,132149.5000000000,120337.7500000000,131416.4375000000,153680.7812500000,,,
1.7039999971,13,176093.4843750000,198726.5781250000,166124.5937500000,165490.2343750000,132878.0937500000,121056.1796875000,132226.7031250000,150835.2031250000,,,
1.7079999973,13,176078.1093750000,184862.9375000000,166072.0468750000,165476.2500000000,132831.6250000000,121031.2421875000,132202.1562500000,149486.0468750000,,,
1.7119999973,13,175672.5937500000,192314.5468750000,165439.1093750000,164549.2812500000,131924.4375000000,120161.0468750000,131233.2343750000,152032.9062500000,,,
1.7159999972,13,175493.6875000000,209278.9531250000,165216.0781250000,164169.9687500000,131598.2343750000,119824.6171875000,130855.4218750000,154491.9687500000,,,
1.7199999972,13,175749.5156250000,212455.3593750000,165618.6562500000,164730.0156250000,132151.4843750000,120340.3515625000,131431.6875000000,153702.2187500000,,,
1.7239999971,13,176127.0312500000,198843.3906250000,166153.8593750000,165511.0625000000,132901.6250000000,121076.1406250000,132249.5781250000,150870.7343750000,,,
1.7279999971,13,176097.7187500000,184885.3437500000,166092.8125000000,165485.1562500000,132846.8281250000,121032.2578125000,132216.1875000000,149485.9375000000,,,
1.7319999973,13,175673.0937500000,192230.4375000000,165441.7343750000,164557.0312500000,131924.8125000000,120152.0937500000,131230.7968750000,152005.3437500000,,,
1.7359999972,13,175476.2500000000,209213.9218750000,165200.0312500000,164153.3125000000,131583.0468750000,119801.0468750000,130836.4843750000,154462.0781250000,,,
1.7399999972,13,175726.5000000000,212455.7968750000,165593.9218750000,164689.5937500000,132127.7031250000,120315.9453125000,131407.3593750000,153678.4687500000,,,
1.7439999972,13,176093.3750000000,198870.7187500000,166113.7343750000,165477.5156250000,132866.1718750000,121047.3281250000,132211.2187500000,150837.4218750000,,,
1.7479999971,13,176084.0468750000,184852.0000000000,166070.1406250000,165477.5625000000,132831.6250000000,121036.0937500000,132196.2031250000,149459.7031250000,,,
1.7519999973,13,175674.3281250000,192124.0625000000,165437.0312500000,164552.5000000000,131924.5000000000,120161.9609375000,131226.9062500000,151989.7031250000,,,
1.7559999973,13,175489.6718750000,209146.3281250000,165210.1250000000,164162.8593750000,131592.2187500000,119818.2343750000,130844.9843750000,154475.5937500000,,,
1.7599999972,13,175741.8750000000,212471.9687500000,165608.5937500000,164707.8750000000,132141.2500000000,120335.6093750000,131427.0312500000,153714.1718750000,,,
1.7639999972,13,176103.5156250000,198944.8593750000,166127.8437500000,165485.9062500000,132878.2031250000,121055.5390625000,132233.8593750000,150867.1093750000,,,
1.7679999971,13,176099.7343750000,184878.5312500000,166089.9375000000,165503.4843750000,132849.0312500000,121048.2734375000,132222.4843750000,149473.8906250000,,,
1.7719999971,13,175691.2343750000,192056.2812500000,165460.5312500000,164575.5156250000,131944.0000000000,120173.8203125000,131252.2031250000,151988.2812500000,,,
1.7759999973,13,175487.1093750000,209085.7343750000,165211.9687500000,164149.2812500000,131591.1562500000,119807.3437500000,130843.8046875000,154466.1250000000,,,
1.7799999972,13,175716.2343750000,212482.0312500000,165581.4218750000,164667.8906250000,132115.1406250000,120309.9375000000,131399.2656250000,153696.8437500000,,,
1.7839999972,13,176081.1250000000,199000.4062500000,166101.8750000000,165457.4218750000,132855.0937500000,121040.4921875000,132212.0312500000,150858.5312500000,,,
1.7879999971,13,176076.6718750000,184898.5937500000,166063.5000000000,165474.7031250000,132825.7187500000,121026.5156250000,132209.2187500000,149451.8281250000,,,
1.7919999971,14,175680.2656250000,192004.2968750000,165439.6093750000,164566.1562500000,131927.1250000000,120159.4687500000,131247.6875000000,151967.1406250000,,,
1.7959999971,14,175495.0625000000,209069.0468750000,165209.6875000000,164166.5781250000,131589.8125000000,119803.5937500000,130851.2890625000,154476.7031250000,,,
1.7999999970,14,175748.0625000000,212542.7500000000,165612.3437500000,164698.9531250000,132142.1093750000,120325.0937500000,131428.9062500000,153745.6093750000,,,
1.8039999970,14,176106.4687500000,199086.7968750000,166132.1093750000,165486.2343750000,132881.5625000000,121045.1875000000,132237.3281250000,150896.9218750000,,,
1.8079999969,14,176071.1718750000,184927.3125000000,166060.2187500000,165469.3281250000,132828.8281250000,121017.9609375000,132210.6093750000,149454.3437500000,,,
1.8119999969,14,175668.1875000000,191937.8906250000,165431.7343750000,164551.9843750000,131927.0468750000,120159.4687500000,131245.0156250000,151958.8281250000,,,
1.8159999971,14,175483.5468750000,209040.1562500000,165199.6562500000,164141.9843750000,131583.1875000000,119807.0781250000,130840.6171875000,154484.1562500000,,,
1.8199999970,14,175734.8125000000,212566.8125000000,165593.9218750000,164682.6718750000,132125.3125000000,120320.1015625000,131412.8125000000,153750.9531250000,,,
1.8239999970,14,176096.8593750000,199129.2968750000,166114.5937500000,165479.5781250000,132866.0000000000,121040.3593750000,132227.6875000000,150896.1875000000,,,
1.8279999970,14,176088.3593750000,184938.3906250000,166077.5468750000,165489.3906250000,132842.9687500000,121029.5781250000,132226.3750000000,149455.4218750000,,,
1.8319999969,14,175677.9218750000,191874.6093750000,165443.2343750000,164568.8593750000,131937.2968750000,120159.8671875000,131255.4218750000,151944.2968750000,,,
1.8359999971,14,175484.1093750000,208997.1718750000,165200.6093750000,164162.4062500000,131584.7187500000,119797.6875000000,130851.3437500000,154477.8593750000,,,
1.8399999971,14,175726.1250000000,212591.1875000000,165588.4531250000,164692.9375000000,132120.6250000000,120299.9062500000,131419.5156250000,153746.4218750000,,,
1.8439999970,14,176096.8593750000,199195.4062500000,166120.9687500000,165486.1250000000,132872.0937500000,121043.1718750000,132243.0156250000,150901.3437500000,,,
1.8479999970,14,176084.7187500000,184964.7500000000,166080.2812500000,165495.0312500000,132844.3906250000,121040.2812500000,132238.2656250000,149452.8906250000,,,
1.8519999969,14,175661.0781250000,191808.5781250000,165430.3593750000,164555.9843750000,131923.6406250000,120157.0000000000,131257.6406250000,151918.2187500000,,,
1.8559999969,14,175463.5625000000,208946.9843750000,165185.9375000000,164128.5781250000,131567.1718750000,119779.4765625000,130848.6093750000,154451.0781250000,,,
1.8599999971,14,175713.4218750000,212624.8281250000,165576.5156250000,164670.6718750000,132106.1093750000,120286.3359375000,131415.2031250000,153740.4375000000,,,
1.8639999970,14,176090.8750000000,199292.3437500000,166111.3750000000,165481.0468750000,132859.9687500000,121023.7265625000,132238.8437500000,150895.4375000000,,,
1.8679999970,14,176093.8281250000,184988.7031250000,166084.7968750000,165497.4375000000,132848.2968750000,121031.9062500000,132252.5625000000,149433.6406250000,,,
1.8719999969,14,175682.5937500000,191757.0156250000,165449.2187500000,164563.9531250000,131938.6250000000,120163.1953125000,131283.2031250000,151911.2812500000,,,
1.8759999969,14,175474.6406250000,208932.5312500000,165188.3437500000,164150.7343750000,131564.5937500000,119783.5546875000,130853.6484375000,154463.7968750000,,,
1.8799999971,14,175714.2968750000,212680.4843750000,165574.0781250000,164678.8906250000,132098.8125000000,120287.0859375000,131415.8750000000,153756.2031250000,,,
1.8839999971,14,176076.0781250000,199391.6406250000,166099.5781250000,165446.1093750000,132845.9687500000,121017.9062500000,132232.5468750000,150899.9687500000,,,
1.8879999970,14,176085.0625000000,185029.2656250000,166079.9062500000,165481.4843750000,132844.5781250000,121039.2890625000,132253.6875000000,149429.4843750000,,,
1.8919999970,14,175697.8593750000,191710.0625000000,165468.0781250000,164583.6875000000,131959.0625000000,120188.8906250000,131302.6718750000,151917.5781250000,,,
1.8959999969,14,175482.4687500000,208902.2187500000,165199.7187500000,164166.8593750000,131577.1562500000,119788.0312500000,130862.4218750000,154472.5468750000,,,
1.8999999969,14,175697.8281250000,212720.0468750000,165553.0781250000,164663.4843750000,132081.9687500000,120270.2968750000,131392.5937500000,153756.4687500000,,,
1.9039999971,14,176072.6406250000,199466.9843750000,166089.9375000000,165442.3750000000,132840.5468750000,121016.7265625000,132224.6562500000,150907.6250000000,,,
1.9079999970,14,176082.2968750000,185058.7343750000,166071.0937500000,165479.9531250000,132838.7500000000,121036.4687500000,132254.6562500000,149421.1718750000,,,
1.9119999970,14,175687.4218750000,191648.2812500000,165451.3125000000,164580.2656250000,131942.5468750000,120179.4765625000,131299.2968750000,151889.8750000000,,,
1.9159999969,14,175498.0000000000,208868.6875000000,165212.3750000000,164171.4062500000,131585.4062500000,119811.2656250000,130882.9921875000,154484.1093750000,,,
1.9199999969,15,175739.5156250000,212790.9375000000,165599.3906250000,164705.9218750000,132118.9531250000,120314.1796875000,131440.7031250000,153810.2031250000,,,
1.9239999969,15,176097.0781250000,199623.2656250000,166118.4531250000,165489.0781250000,132861.1250000000,121044.3828125000,132259.6406250000,150952.8437500000,,,
1.9279999968,15,176090.8593750000,185123.7031250000,166086.7187500000,165506.0781250000,132851.8125000000,121057.3125000000,132280.8750000000,149427.3281250000,,,
1.9319999968,15,175678.4843750000,191600.4062500000,165447.6093750000,164587.3750000000,131940.5937500000,120187.7656250000,131308.5781250000,151874.6406250000,,,
1.9359999967,15,175473.1093750000,208826.8437500000,165190.4062500000,164148.7187500000,131566.6406250000,119804.3437500000,130878.1640625000,154470.5000000000,,,
1.9399999967,15,175715.4531250000,212839.5937500000,165576.5625000000,164664.2968750000,132099.5937500000,120307.3671875000,131435.6406250000,153815.7187500000,,,
1.9439999969,15,176076.2656250000,199743.6562500000,166100.9687500000,165459.0937500000,132849.9062500000,121037.4375000000,132254.2187500000,150957.2343750000,,,
1.9479999968,15,176071.8593750000,185123.2500000000,166072.8281250000,165505.5468750000,132844.8125000000,121036.6562500000,132274.4218750000,149394.6406250000,,,
1.9519999968,15,175674.8750000000,191501.0625000000,165449.1875000000,164593.5625000000,131944.7500000000,120170.7031250000,131314.3750000000,151841.9062500000,,,
1.9559999967,15,175470.6718750000,208748.1562500000,165190.4062500000,164157.8593750000,131561.6250000000,119779.5312500000,130877.2500000000,154451.1406250000,,,
1.9599999967,15,175700.5937500000,212835.3281250000,165560.9531250000,164668.9062500000,132073.6875000000,120271.7734375000,131418.1718750000,153797.8281250000,,,
1.9639999969,15,176077.9062500000,199824.5937500000,166099.0625000000,165471.9062500000,132833.2500000000,121024.4765625000,132250.2031250000,150959.4062500000,,,
1.9679999969,15,176097.2656250000,185150.2656250000,166092.6718750000,165525.1250000000,132851.6562500000,121062.1406250000,132289.7656250000,149406.0625000000,,,
1.9719999968,15,175680.5000000000,191428.7500000000,165446.9687500000,164587.8437500000,131936.6718750000,120182.6406250000,131309.6718750000,151831.5781250000,,,
1.9759999968,15,175468.3906250000,208714.8125000000,165177.3437500000,164133.7500000000,131549.7968750000,119785.7812500000,130859.9765625000,154451.6406250000,,,
1.9799999967,15,175702.7968750000,212839.7187500000,165556.2656250000,164647.7656250000,132074.9375000000,120275.6093750000,131404.7968750000,153802.0937500000,,,
1.9839999967,15,176075.2187500000,199797.1562500000,166091.0156250000,165446.8750000000,132835.3750000000,121017.8515625000,132227.5625000000,150950.2343750000,,,
1.9879999969,15,176078.7343750000,185156.2968750000,166069.7656250000,165486.5000000000,132840.9531250000,121043.7109375000,132254.9218750000,149386.8593750000,,,
1.9919999968,15,175676.5000000000,191342.8125000000,165445.3593750000,164583.1875000000,131945.7343750000,120181.0859375000,131300.7187500000,151806.9843750000,,,
1.9959999968,15,175462.4062500000,208645.5468750000,165175.0468750000,164128.4375000000,131554.5625000000,119776.1250000000,130857.0312500000,154440.9218750000,,,
1.9999999967,15,175714.5937500000,212809.9843750000,165576.3281250000,164648.8437500000,132097.2031250000,120275.5234375000,131425.4687500000,153802.9218750000,,,
2.0039999967,15,176091.4375000000,199766.0156250000,166107.8593750000,165471.7187500000,132852.5468750000,121020.7265625000,132247.7812500000,150952.4062500000,,,
2.0079999969,15,176103.1093750000,185146.5312500000,166092.0937500000,165534.2656250000,132862.6250000000,121052.5078125000,132283.2968750000,149400.5312500000,,,
2.0119999968,15,175694.3437500000,191269.2968750000,165459.2812500000,164604.7500000000,131960.3281250000,120188.0859375000,131319.5156250000,151810.7968750000,,,
2.0159999968,15,175490.0625000000,208607.5937500000,165195.6875000000,164151.7031250000,131573.2031250000,119798.5781250000,130873.3906250000,154470.6406250000,,,
2.0199999968,15,175735.5156250000,212887.2343750000,165584.5312500000,164674.4843750000,132105.3906250000,120295.8281250000,131430.6718750000,153856.7031250000,,,
2.0239999967,15,176116.4687500000,199937.5000000000,166131.2187500000,165475.8750000000,132876.2187500000,121045.2656250000,132272.6406250000,151010.8593750000,,,
2.0279999967,15,176131.5156250000,185219.2500000000,166126.2812500000,165522.7343750000,132901.2500000000,121087.6953125000,132324.1718750000,149434.1718750000,,,
2.0319999969,15,175723.9843750000,191222.8125000000,165495.0312500000,164608.8593750000,132000.9687500000,120230.8671875000,131364.3750000000,151833.3750000000,,,
2.0359999968,15,175500.9062500000,208567.3750000000,165215.3593750000,164139.7031250000,131594.5312500000,119814.0234375000,130903.9140625000,154486.3593750000,,,
2.0399999968,15,175715.0781250000,212913.8906250000,165572.2031250000,164644.2812500000,132092.2187500000,120275.6093750000,131430.2187500000,153851.7500000000,,,
2.0439999967,15,176078.8125000000,200029.4062500000,166098.4218750000,165443.1250000000,132841.5468750000,121008.1484375000,132251.2656250000,150987.8125000000,,,
2.0479999967,16,176103.0000000000,185234.9687500000,166099.5156250000,165523.6250000000,132872.3125000000,121062.5156250000,132307.7812500000,149393.8593750000,,,
2.0519999966,16,175701.6718750000,191131.4531250000,165470.9375000000,164621.6406250000,131972.1562500000,120209.3593750000,131347.0468750000,151787.8593750000,,,
2.0559999966,16,175482.1562500000,208482.0468750000,165192.1875000000,164152.5000000000,131563.4375000000,119792.5390625000,130882.4609375000,154458.2187500000,,,
2.0599999966,16,175706.6093750000,212911.0156250000,165558.7031250000,164642.7031250000,132070.2187500000,120261.1796875000,131412.0937500000,153854.5625000000,,,
2.0639999965,16,176091.5468750000,200082.2031250000,166109.1250000000,165459.3281250000,132846.3125000000,121019.1718750000,132255.2968750000,151016.5937500000,,,
2.0679999965,16,176125.1562500000,185236.8125000000,166127.8906250000,165547.4375000000,132898.4531250000,121084.0000000000,132334.0937500000,149412.9531250000,,,
2.0719999967,16,175733.0000000000,191030.3281250000,165509.6406250000,164655.2812500000,132013.4062500000,120239.7968750000,131387.5781250000,151800.7968750000,,,
2.0759999966,16,175492.9062500000,208393.1250000000,165206.0468750000,164170.7187500000,131583.5937500000,119801.8515625000,130902.0937500000,154466.4531250000,,,
2.0799999966,16,175698.0468750000,212933.1406250000,165551.3750000000,164632.3750000000,132069.5000000000,120255.8359375000,131421.3593750000,153866.0937500000,,,
2.0839999965,16,176077.9531250000,200234.2031250000,166094.0156250000,165431.2656250000,132837.4375000000,121006.7265625000,132258.7031250000,151029.9062500000,,,
2.0879999965,16,176106.9687500000,185304.3437500000,166106.5468750000,165506.7500000000,132883.5468750000,121067.7968750000,132326.0781250000,149388.0312500000,,,
2.0919999967,16,175718.1875000000,190985.1406250000,165492.0781250000,164607.5625000000,131999.8437500000,120224.6953125000,131380.7031250000,151753.3437500000,,,
2.0959999966,16,175503.9375000000,208357.4062500000,165214.4687500000,164139.4375000000,131591.3593750000,119807.8281250000,130912.3125000000,154449.6406250000,,,
2.0999999966,16,175734.3593750000,212980.2187500000,165583.7500000000,164644.5312500000,132096.6093750000,120276.6562500000,131438.4843750000,153889.9375000000,,,
2.1039999966,16,176113.9218750000,200346.5781250000,166123.8750000000,165453.1875000000,132859.7031250000,121025.3671875000,132269.1875000000,151065.5468750000,,,
2.1079999965,16,176136.7812500000,185394.8437500000,166128.5625000000,165541.4843750000,132900.2343750000,121086.1718750000,132336.2968750000,149413.5781250000,,,
2.1119999965,16,175732.2656250000,190975.4843750000,165502.7187500000,164633.0937500000,132006.8593750000,120232.9609375000,131387.2031250000,151757.2656250000,,,
2.1159999967,16,175513.2656250000,208359.6093750000,165222.3281250000,164158.4531250000,131592.8906250000,119818.4531250000,130917.3828125000,154471.3281250000,,,
2.1199999966,16,175723.2656250000,213008.5468750000,165576.1718750000,164647.3906250000,132085.7031250000,120277.4843750000,131437.5937500000,153900.7500000000,,,
2.1239999966,16,176073.8437500000,200349.4062500000,166089.3281250000,165436.5000000000,132828.2968750000,121009.6484375000,132245.7187500000,151045.5625000000,,,
2.1279999965,16,176095.9218750000,185405.7656250000,166095.4375000000,165525.0156250000,132870.8593750000,121069.9140625000,132317.8906250000,149383.9375000000,,,
2.1319999965,16,175704.4843750000,190876.8906250000,165476.7968750000,164631.5468750000,131983.9843750000,120223.3828125000,131379.1562500000,151714.3125000000,,,
2.1359999967,16,175481.0000000000,208259.2968750000,165185.3906250000,164148.6406250000,131559.5781250000,119790.1250000000,130895.1406250000,154427.3750000000,,,
2.1399999966,16,175701.7812500000,212975.0468750000,165543.9843750000,164637.0625000000,132056.4531250000,120255.5468750000,131415.6250000000,153877.7031250000,,,
2.1439999966,16,176080.6406250000,200346.3750000000,166091.9218750000,165442.7500000000,132828.2968750000,121008.1718750000,132258.2968750000,151041.3281250000,,,
2.1479999966,16,176110.2812500000,185381.6562500000,166113.8750000000,165520.9062500000,132886.3593750000,121084.2421875000,132347.8750000000,149385.3593750000,,,
2.1519999965,16,175711.7812500000,190778.4218750000,165499.0468750000,164622.1250000000,132003.1875000000,120235.6406250000,131408.9687500000,151704.2656250000,,,
2.1559999965,16,175474.2968750000,208182.1250000000,165188.4218750000,164145.3906250000,131560.6875000000,119795.3281250000,130905.7890625000,154424.9062500000,,,
2.1599999967,16,175692.1250000000,212960.8593750000,165543.6250000000,164637.7968750000,132053.9687500000,120250.1250000000,131420.4843750000,153880.8750000000,,,
2.1639999966,16,176082.8906250000,200403.0468750000,166100.0468750000,165448.9687500000,132834.5625000000,121006.1093750000,132272.5156250000,151059.4062500000,,,
2.1679999966,16,176115.1250000000,185388.7031250000,166122.1875000000,165538.9687500000,132892.8593750000,121076.5703125000,132360.4062500000,149378.3281250000,,,
2.1719999965,16,175714.4375000000,190682.9375000000,165498.8437500000,164631.0937500000,132002.5156250000,120230.0078125000,131409.8593750000,151680.6562500000,,,
2.1759999965,17,175478.0781250000,208110.3125000000,165195.1093750000,164123.6718750000,131560.2500000000,119781.4062500000,130908.3906250000,154413.6718750000,,,
2.1799999964,17,175704.9062500000,212994.2187500000,165557.2500000000,164615.6093750000,132059.8125000000,120252.6718750000,131430.3593750000,153905.2031250000,,,
2.1839999964,17,176074.9531250000,200500.3750000000,166091.2500000000,165428.1562500000,132821.0781250000,121002.2187500000,132258.4843750000,151070.0468750000,,,
2.1879999964,17,176096.3750000000,185431.5937500000,166100.4843750000,165515.3593750000,132869.3906250000,121064.9843750000,132335.5781250000,149362.3750000000,,,
2.1919999963,17,175690.0468750000,190625.1250000000,165472.3906250000,164606.6250000000,131975.3750000000,120208.5234375000,131385.9375000000,151643.1093750000,,,
2.1959999963,17,175460.9687500000,208062.2343750000,165172.5937500000,164114.5468750000,131537.7812500000,119764.8906250000,130887.5234375000,154391.0781250000,,,
2.1999999965,17,175684.5468750000,213033.9375000000,165529.6562500000,164596.2968750000,132029.0468750000,120227.5703125000,131399.3437500000,153893.1875000000,,,
2.2039999964,17,176069.8750000000,200607.2343750000,166078.1875000000,165428.2656250000,132803.1093750000,120987.8437500000,132245.7968750000,151075.2812500000,,,
2.2079999964,17,176116.2500000000,185483.1250000000,166112.0781250000,165539.0937500000,132878.9375000000,121076.6484375000,132351.4218750000,149373.8750000000,,,
2.2119999963,17,175732.2500000000,190595.6875000000,165500.6406250000,164644.2343750000,132004.3750000000,120246.7421875000,131417.9062500000,151667.5625000000,,,
2.2159999963,17,175488.6250000000,208055.1718750000,165185.2343750000,164136.7500000000,131551.8906250000,119785.5937500000,130907.0546875000,154419.0625000000,,,
2.2199999965,17,175693.3593750000,213065.6718750000,165527.0312500000,164603.8593750000,132029.5312500000,120225.6406250000,131404.5781250000,153909.6562500000,,,
2.2239999964,17,176073.6093750000,200662.1406250000,166074.8750000000,165414.6406250000,132804.5000000000,120985.9062500000,132244.7500000000,151093.0312500000,,,
2.2279999964,17,176112.4218750000,185523.7031250000,166108.0781250000,165523.4062500000,132880.2187500000,121078.2578125000,132351.9062500000,149382.5156250000,,,
2.2319999964,17,175708.5625000000,190522.4218750000,165486.5468750000,164637.2031250000,131995.3593750000,120230.2734375000,131416.5156250000,151636.4843750000,,,
2.2359999963,17,175466.8906250000,207988.8125000000,165173.2656250000,164136.2968750000,131541.3125000000,119770.3046875000,130905.1484375000,154398.2500000000,,,
2.2399999963,17,175680.8593750000,213077.4531250000,165523.6406250000,164610.1406250000,132024.3750000000,120218.9062500000,131412.8437500000,153912.2500000000,,,
2.2439999965,17,176071.1718750000,200721.0937500000,166081.4375000000,165431.0000000000,132805.5468750000,120975.1250000000,132262.2968750000,151095.5312500000,,,
2.2479999964,17,176121.4531250000,185523.0000000000,166122.0156250000,165547.2968750000,132888.6093750000,121079.0078125000,132371.9218750000,149373.5625000000,,,
2.2519999964,17,175736.0781250000,190453.3125000000,165516.5625000000,164659.5000000000,132020.6250000000,120251.0625000000,131449.3906250000,151640.6093750000,,,
2.2559999963,17,175497.2343750000,207941.9531250000,165205.2968750000,164144.2343750000,131571.8906250000,119794.1484375000,130944.1718750000,154422.2500000000,,,
2.2599999963,17,175714.9687500000,213117.7031250000,165555.6406250000,164632.0781250000,132058.0625000000,120248.4921875000,131450.8906250000,153958.6875000000,,,
2.2639999965,17,176104.4218750000,200830.5312500000,166114.7031250000,165468.1718750000,132842.2187500000,121004.7421875000,132306.4375000000,151146.6093750000,,,
2.2679999964,17,176141.0468750000,185585.5312500000,166144.4687500000,165565.1093750000,132916.6406250000,121100.9765625000,132411.9375000000,149400.0625000000,,,
2.2719999964,17,175718.5937500000,190397.3281250000,165499.9375000000,164625.5937500000,132012.9531250000,120243.8203125000,131458.8906250000,151617.4687500000,,,
2.2759999963,17,175470.6250000000,207883.6406250000,165177.3437500000,164113.0156250000,131549.0937500000,119773.6875000000,130936.2343750000,154392.9062500000,,,
2.2799999963,17,175684.1250000000,213121.4843750000,165523.7031250000,164590.3125000000,132028.2968750000,120219.5468750000,131435.4531250000,153933.6875000000,,,
2.2839999963,17,176081.9531250000,200898.5000000000,166090.0000000000,165419.6875000000,132818.4687500000,120987.0859375000,132296.1406250000,151135.5468750000,,,
2.2879999964,17,176138.2500000000,185624.1250000000,166139.1093750000,165552.2968750000,132911.1250000000,121096.3593750000,132419.1718750000,149389.7500000000,,,
2.2919999964,17,175740.6718750000,190352.3750000000,165520.5937500000,164674.2656250000,132033.2031250000,120264.8203125000,131488.5781250000,151614.9218750000,,,
2.2959999964,17,175485.0312500000,207853.0625000000,165188.9375000000,164147.8125000000,131559.8750000000,119794.0703125000,130953.5390625000,154401.5156250000,,,
2.2999999963,17,175692.9218750000,213160.3906250000,165531.0312500000,164604.1562500000,132032.9843750000,120234.3828125000,131447.6562500000,153951.2031250000,,,
2.3039999963,18,176080.6406250000,200962.5781250000,166085.9687500000,165421.2656250000,132811.6406250000,120985.9375000000,132294.4062500000,151139.6093750000,,,
2.3079999962,18,176127.0625000000,185643.8906250000,166128.0781250000,165559.0312500000,132898.7343750000,121082.6562500000,132411.8750000000,149369.8593750000,,,
2.3119999962,18,175736.7812500000,190279.4687500000,165516.4843750000,164687.2343750000,132026.5468750000,120249.8828125000,131481.8750000000,151588.7187500000,,,
2.3159999961,18,175483.6562500000,207798.1718750000,165187.2968750000,164143.4843750000,131554.4843750000,119774.5468750000,130948.4921875000,154390.2187500000,,,
2.3199999961,18,175685.5000000000,213162.3906250000,165525.5312500000,164593.5312500000,132025.9687500000,120214.3984375000,131443.0625000000,153952.3593750000,,,
2.3239999961,18,176076.9375000000,201013.6562500000,166086.7968750000,165428.1875000000,132811.9531250000,120977.9140625000,132295.7968750000,151157.4375000000,,,
2.3279999963,18,176132.5625000000,185693.3593750000,166136.3437500000,165566.4218750000,132910.9062500000,121084.8046875000,132424.2500000000,149390.6093750000,,,
2.3319999962,18,175744.0937500000,190231.4843750000,165528.2812500000,164663.4062500000,132047.2031250000,120254.6328125000,131500.2187500000,151590.5156250000,,,
2.3359999962,18,175501.7656250000,207760.1093750000,165205.0000000000,164143.0625000000,131582.5156250000,119784.5234375000,130964.9921875000,154410.1875000000,,,
2.3399999961,18,175711.5312500000,213207.7500000000,165542.9843750000,164619.0781250000,132052.3906250000,120228.7734375000,131454.6562500000,153992.7500000000,,,
2.3439999961,18,176103.9375000000,201116.2968750000,166102.3593750000,165441.1718750000,132835.0000000000,120992.9375000000,132310.2031250000,151201.5312500000,,,
2.3479999963,18,176147.2656250000,185745.7968750000,166141.8906250000,165547.2187500000,132921.3437500000,121095.6953125000,132431.2968750000,149407.2187500000,,,
2.3519999962,18,175742.4843750000,190184.5781250000,165519.1718750000,164645.7812500000,132039.4843750000,120258.8437500000,131495.4687500000,151578.7343750000,,,
2.3559999962,18,175485.4062500000,207711.5312500000,165188.8593750000,164121.8125000000,131562.4531250000,119780.6562500000,130958.3125000000,154397.3125000000,,,
2.3599999961,18,175684.5781250000,213240.8437500000,165523.3593750000,164575.5468750000,132028.4062500000,120218.6875000000,131447.0156250000,153991.5625000000,,,
2.3639999961,18,176073.7968750000,201221.5156250000,166084.0937500000,165389.5625000000,132814.5000000000,120980.8125000000,132302.6093750000,151198.5781250000,,,
2.3679999961,18,176149.6718750000,185794.8437500000,166157.9687500000,165545.0000000000,132936.1718750000,121108.9687500000,132451.8750000000,149411.1093750000,,,
2.3719999962,18,175759.1718750000,190144.2968750000,165540.6562500000,164674.7812500000,132061.4531250000,120265.6562500000,131512.5156250000,151579.4531250000,,,
2.3759999962,18,175492.5937500000,207672.2343750000,165184.7500000000,164133.8125000000,131562.2031250000,119766.4453125000,130945.9218750000,154394.2500000000,,,
2.3799999962,18,175708.5937500000,213265.1562500000,165531.6875000000,164593.0000000000,132038.0312500000,120214.1015625000,131448.5937500000,154009.8593750000,,,
2.3839999961,18,176104.5937500000,201309.2812500000,166098.2031250000,165419.4218750000,132828.9843750000,120988.4062500000,132310.9218750000,151232.2187500000,,,
2.3879999961,18,176144.9218750000,185816.8906250000,166138.8906250000,165562.4062500000,132921.1562500000,121097.5703125000,132435.3437500000,149398.5781250000,,,
2.3919999963,18,175741.6562500000,190043.3281250000,165521.3437500000,164675.6718750000,132046.4062500000,120259.0312500000,131506.9062500000,151537.1875000000,,,
2.3959999962,18,175489.3906250000,207567.5156250000,165191.1093750000,164124.4218750000,131568.7031250000,119777.5468750000,130966.3593750000,154376.7031250000,,,
2.3999999962,18,175687.3750000000,213227.0937500000,165522.3593750000,164572.7031250000,132029.4218750000,120207.2109375000,131446.8281250000,153995.1875000000,,,
2.4039999961,18,176080.4531250000,201309.9218750000,166086.4531250000,165402.8906250000,132818.1250000000,120969.4140625000,132302.5312500000,151212.2031250000,,,
2.4079999961,18,176148.8125000000,185807.4531250000,166153.2500000000,165561.8125000000,132935.8281250000,121095.7734375000,132450.1562500000,149392.6718750000,,,
2.4119999961,18,175761.7187500000,189955.9687500000,165543.4375000000,164688.5468750000,132069.7968750000,120268.5781250000,131530.3750000000,151534.0000000000,,,
2.4159999962,18,175507.3750000000,207500.4687500000,165204.2031250000,164143.5625000000,131581.6250000000,119780.5234375000,130981.6953125000,154383.1250000000,,,
2.4199999962,18,175710.7031250000,213233.4687500000,165542.0937500000,164589.6250000000,132046.8281250000,120211.7421875000,131466.4531250000,154017.8593750000,,,
2.4239999962,18,176105.3437500000,201374.2187500000,166111.8750000000,165412.3906250000,132839.8750000000,120983.4921875000,132327.1562500000,151245.4687500000,,,
2.4279999961,18,176153.7187500000,185865.2812500000,166158.4687500000,165566.7031250000,132940.6562500000,121110.4453125000,132456.8125000000,149406.6875000000,,,
2.4319999961,19,175751.7187500000,189912.9531250000,165536.3593750000,164699.2187500000,132064.1875000000,120284.1093750000,131525.5781250000,151521.6093750000,,,
2.4359999960,19,175497.0156250000,207459.8593750000,165201.1875000000,164155.8750000000,131578.7031250000,119785.7031250000,130977.8359375000,154375.9218750000,,,
2.4399999960,19,175689.5156250000,213259.3281250000,165524.1562500000,164580.5312500000,132028.7812500000,120201.1484375000,131445.1875000000,154015.3593750000,,,
2.4439999959,19,176074.5156250000,201457.9531250000,166078.7812500000,165384.7343750000,132808.2812500000,120955.1406250000,132292.6093750000,151236.6406250000,,,
2.4479999959,19,176145.6250000000,185903.6093750000,166147.6562500000,165541.4531250000,132930.5156250000,121091.0546875000,132445.1718750000,149393.8906250000,,,
2.4519999959,19,175759.6562500000,189856.5156250000,165539.6875000000,164676.6093750000,132067.9375000000,120271.9296875000,131527.0781250000,151505.8906250000,,,
2.4559999960,19,175504.7656250000,207418.5781250000,165199.7656250000,164132.2187500000,131574.9843750000,119777.8437500000,130970.2968750000,154378.7187500000,,,
2.4599999960,19,175703.0937500000,213300.7968750000,165526.2968750000,164581.6562500000,132027.4062500000,120206.0312500000,131441.1562500000,154041.7812500000,,,
2.4639999960,19,176091.4218750000,201569.2187500000,166085.6562500000,165415.8281250000,132811.3906250000,120968.2890625000,132294.9843750000,151272.9375000000,,,
2.4679999959,19,176156.2812500000,185951.9375000000,166154.3437500000,165581.5781250000,132936.0156250000,121105.6171875000,132451.7656250000,149406.5000000000,,,
2.4719999959,19,175763.9531250000,189799.8437500000,165544.7031250000,164703.8281250000,132074.9687500000,120288.7187500000,131539.5937500000,151498.7968750000,,,
2.4759999961,19,175480.3906250000,207354.7343750000,165177.5156250000,164139.6250000000,131557.4375000000,119767.0859375000,130964.6640625000,154355.2187500000,,,
2.4799999960,19,175670.2812500000,213296.0156250000,165500.5781250000,164562.4218750000,132005.4375000000,120183.9531250000,131433.0312500000,154021.0781250000,,,
2.4839999960,19,176062.4843750000,201624.0625000000,166062.5312500000,165380.1562500000,132791.7812500000,120949.5625000000,132285.8125000000,151256.8437500000,,,
2.4879999959,19,176140.3906250000,185971.3437500000,166141.4062500000,165560.0781250000,132927.5937500000,121093.0625000000,132450.5625000000,149382.3593750000,,,
2.4919999959,19,175756.6562500000,189727.7968750000,165535.1250000000,164691.9218750000,132068.5781250000,120275.7421875000,131538.7968750000,151462.1406250000,,,
2.4959999959,19,175500.7968750000,207294.7656250000,165192.4218750000,164146.4687500000,131571.3750000000,119776.2578125000,130981.2734375000,154355.3281250000,,,
2.4999999960,19,175702.8437500000,213331.6406250000,165526.2031250000,164591.1562500000,132027.8437500000,120198.0937500000,131454.8437500000,154058.0937500000,,,
2.5039999960,19,176094.5000000000,201748.4375000000,166093.0000000000,165416.7656250000,132817.4843750000,120961.5781250000,132310.6875000000,151303.1093750000,,,
2.5079999960,19,176159.4375000000,186031.2812500000,166165.9843750000,165575.0312500000,132947.9531250000,121107.1953125000,132472.9843750000,149401.6093750000,,,
2.5119999959,19,175757.4843750000,189672.6718750000,165540.7031250000,164701.6250000000,132072.8437500000,120282.2031250000,131542.6093750000,151456.9375000000,,,
2.5159999959,19,175482.0000000000,207246.0312500000,165177.7187500000,164123.2343750000,131556.0468750000,119764.4296875000,130962.9531250000,154343.2812500000,,,
2.5199999961,19,175686.5625000000,213351.5937500000,165513.6406250000,164557.8906250000,132014.7500000000,120189.2656250000,131441.0312500000,154053.2656250000,,,
2.5239999960,19,176076.4843750000,201804.9843750000,166074.5468750000,165381.1875000000,132800.4218750000,120947.4765625000,132296.1718750000,151294.9218750000,,,
2.5279999960,19,176147.6875000000,186070.8437500000,166148.8125000000,165558.0937500000,132933.3750000000,121091.5312500000,132461.8281250000,149389.0625000000,,,
2.5319999959,19,175762.0625000000,189620.2968750000,165544.7343750000,164697.9218750000,132076.5000000000,120275.1250000000,131552.8281250000,151437.3750000000,,,
2.5359999959,19,175497.4687500000,207193.5156250000,165190.7656250000,164126.5156250000,131565.7500000000,119769.3125000000,130979.9843750000,154343.1718750000,,,
2.5399999958,19,175689.5156250000,213345.7187500000,165512.8125000000,164552.7968750000,132011.0468750000,120186.1562500000,131439.7656250000,154057.0937500000,,,
2.5439999960,19,176089.2187500000,201842.9843750000,166084.5312500000,165384.9218750000,132807.0781250000,120957.6406250000,132296.6718750000,151312.5468750000,,,
2.5479999960,19,176172.9843750000,186106.1250000000,166174.9218750000,165567.6093750000,132958.5625000000,121118.4140625000,132483.9218750000,149410.7500000000,,,
2.5519999960,19,175788.1875000000,189562.3281250000,165576.9687500000,164729.6406250000,132111.7343750000,120299.7187500000,131595.3281250000,151440.5156250000,,,
2.5559999959,19,175515.2812500000,207144.0312500000,165209.1562500000,164173.5625000000,131589.2968750000,119780.4453125000,131012.4375000000,154351.8437500000,,,
2.5599999959,20,175688.5312500000,213370.8593750000,165507.7656250000,164586.9375000000,132011.7500000000,120182.9062500000,131452.9843750000,154069.4843750000,,,
2.5639999958,20,176076.5312500000,201899.4531250000,166065.1875000000,165388.0156250000,132793.1250000000,120957.4531250000,132301.4218750000,151322.2343750000,,,
2.5679999958,20,176144.6875000000,186122.8750000000,166139.8906250000,165548.4375000000,132928.4531250000,121110.8203125000,132471.7968750000,149394.0156250000,,,
2.5719999957,20,175764.3437500000,189502.3593750000,165541.9687500000,164709.8593750000,132081.2968750000,120302.6718750000,131571.7812500000,151418.4687500000,,,
2.5759999957,20,175504.9062500000,207085.4218750000,165193.9843750000,164149.3125000000,131574.3281250000,119786.6093750000,130997.4687500000,154345.8906250000,,,
2.5799999957,20,175705.8437500000,213389.9843750000,165526.8593750000,164556.9531250000,132026.5000000000,120207.8828125000,131465.0937500000,154101.0781250000,,,
2.5839999958,20,176109.8125000000,201996.1406250000,166108.7187500000,165387.9531250000,132830.2812500000,120978.3984375000,132336.8125000000,151364.2343750000,,,
2.5879999958,20,176168.0781250000,186170.1093750000,166175.2968750000,165576.9687500000,132959.6093750000,121112.0234375000,132500.8281250000,149401.7968750000,,,
2.5919999958,20,175776.6562500000,189437.8437500000,165560.6875000000,164725.0468750000,132097.5000000000,120306.2109375000,131589.3750000000,151402.3750000000,,,
2.5959999957,20,175508.5937500000,207020.5625000000,165199.2656250000,164140.9687500000,131576.6718750000,119789.9687500000,131005.7890625000,154338.9218750000,,,
2.5999999957,20,175689.4062500000,213390.5156250000,165509.3437500000,164553.2968750000,132005.7187500000,120184.6796875000,131449.7968750000,154088.8593750000,,,
2.6039999959,20,176080.0937500000,202054.0000000000,166073.9218750000,165385.7343750000,132793.8593750000,120950.7734375000,132302.5781250000,151351.1406250000,,,
2.6079999958,20,176162.4218750000,186204.8281250000,166166.1093750000,165583.0625000000,132949.2343750000,121121.5468750000,132491.5625000000,149405.7968750000,,,
2.6119999958,20,175783.3125000000,189380.9843750000,165573.1406250000,164732.2656250000,132107.4687500000,120318.0625000000,131600.1406250000,151400.8750000000,,,
2.6159999957,20,175509.4062500000,206970.9375000000,165209.0468750000,164141.1875000000,131582.2187500000,119783.7968750000,131014.5546875000,154336.6406250000,,,
2.6199999957,20,175691.6562500000,213404.7656250000,165521.1250000000,164562.1875000000,132013.4062500000,120180.3906250000,131465.8437500000,154095.8593750000,,,
2.6239999956,20,176093.5625000000,202130.8906250000,166096.9375000000,165399.4375000000,132813.5625000000,120957.7421875000,132333.6093750000,151371.5000000000,,,
2.6279999958,20,176173.8906250000,186253.4218750000,166186.3906250000,165600.1718750000,132968.0625000000,121127.2578125000,132524.1875000000,149412.0937500000,,,
2.6319999958,20,175784.9687500000,189315.1875000000,165577.9687500000,164741.1718750000,132114.1250000000,120316.8359375000,131623.7656250000,151379.9843750000,,,
2.6359999957,20,175497.8125000000,206900.6093750000,165191.9062500000,164131.8437500000,131569.5000000000,119777.3046875000,131015.1718750000,154318.6875000000,,,
2.6399999957,20,175671.8125000000,213402.9375000000,165493.9531250000,164535.3906250000,131991.9843750000,120171.6406250000,131452.5312500000,154090.2968750000,,,
2.6439999957,20,176062.2343750000,202178.6718750000,166061.2968750000,165366.6093750000,132782.0000000000,120935.9140625000,132309.3437500000,151356.6250000000,,,
2.6479999959,20,176136.3437500000,186266.9687500000,166149.0312500000,165567.4531250000,132933.0937500000,121096.6562500000,132494.6562500000,149374.2812500000,,,
2.6519999958,20,175750.5937500000,189248.4531250000,165540.7656250000,164724.2343750000,132078.9375000000,120297.8125000000,131586.0000000000,151332.1250000000,,,
2.6559999958,20,175480.2812500000,206835.6875000000,165169.2500000000,164142.2031250000,131545.9531250000,119766.6562500000,130981.2187500000,154288.9375000000,,,
2.6599999957,20,175656.6250000000,213403.1562500000,165472.0156250000,164530.5000000000,131968.4843750000,120153.1640625000,131416.4531250000,154077.2968750000,,,
2.6639999957,20,176048.7187500000,202233.8906250000,166039.4687500000,165356.9218750000,132760.0625000000,120921.6171875000,132281.0468750000,151355.9531250000,,,
2.6679999956,20,176143.8281250000,186310.9062500000,166146.8125000000,165574.6875000000,132932.8125000000,121106.6093750000,132492.5000000000,149387.0937500000,,,
2.6719999958,20,175773.1250000000,189195.1718750000,165559.7500000000,164744.7656250000,132098.2812500000,120313.0781250000,131609.3906250000,151340.7343750000,,,
2.6759999958,20,175496.3750000000,206783.0312500000,165184.2187500000,164149.3593750000,131559.0468750000,119769.4765625000,131001.8671875000,154302.5781250000,,,
2.6799999957,20,175685.8906250000,213433.7500000000,165502.5937500000,164550.6718750000,131994.3593750000,120171.2968750000,131443.9218750000,154117.1562500000,,,
2.6839999957,20,176076.7500000000,202316.4218750000,166071.2812500000,165383.5000000000,132784.9531250000,120936.6875000000,132295.8281250000,151399.3750000000,,,
2.6879999957,21,176153.3281250000,186366.1093750000,166162.4218750000,165589.8906250000,132943.2500000000,121106.6640625000,132501.5781250000,149402.3906250000,,,
2.6919999956,21,175783.1250000000,189163.2968750000,165574.6875000000,164759.3750000000,132111.3125000000,120320.1328125000,131626.7187500000,151337.9843750000,,,
2.6959999956,21,175507.8281250000,206741.5937500000,165201.5156250000,164164.6250000000,131574.5781250000,119782.9921875000,131025.6328125000,154306.5468750000,,,
2.6999999955,21,175688.9062500000,213444.1562500000,165510.0156250000,164546.9687500000,131998.9062500000,120175.2109375000,131462.5156250000,154126.1406250000,,,
2.7039999955,21,176072.6406250000,202384.3906250000,166066.8750000000,165357.9062500000,132781.0625000000,120937.8203125000,132314.4843750000,151405.1875000000,,,
2.7079999954,21,176151.1250000000,186395.4687500000,166159.8906250000,165578.2500000000,132944.6250000000,121113.4765625000,132513.0468750000,149393.8593750000,,,
2.7119999956,21,175778.1406250000,189066.9062500000,165571.3437500000,164737.6250000000,132113.9062500000,120322.0625000000,131628.9375000000,151311.0468750000,,,
2.7159999956,21,175498.4375000000,206640.7968750000,165193.8906250000,164131.0937500000,131570.7656250000,119774.2187500000,131019.6015625000,154289.4843750000,,,
2.7199999955,21,175674.3125000000,213416.8281250000,165496.9843750000,164534.8750000000,131990.3125000000,120157.0546875000,131455.5937500000,154121.0156250000,,,
2.7239999955,21,176076.8281250000,202434.8437500000,166072.2968750000,165371.4531250000,132790.8281250000,120944.7656250000,132322.6718750000,151429.6250000000,,,
2.7279999955,21,176172.6875000000,186426.9687500000,166180.8750000000,165595.5781250000,132969.7812500000,121137.9609375000,132537.9687500000,149422.4218750000,,,
2.7319999957,21,175790.2031250000,189000.2500000000,165582.2031250000,164752.2500000000,132128.9843750000,120332.5000000000,131644.9062500000,151308.0937500000,,,
2.7359999956,21,175501.5937500000,206579.6875000000,165191.5312500000,164147.2968750000,131571.3281250000,119769.7421875000,131020.0312500000,154281.2968750000,,,
2.7399999956,21,175677.2031250000,213423.1562500000,165494.4062500000,164533.7812500000,131988.3281250000,120150.4843750000,131452.6875000000,154116.0781250000,,,
2.7439999955,21,176080.0156250000,202497.3906250000,166071.2968750000,165360.5937500000,132786.5781250000,120934.8125000000,132319.1875000000,151421.8281250000,,,
2.7479999955,21,176183.6093750000,186462.1875000000,166189.5000000000,165606.6875000000,132974.1718750000,121137.3984375000,132539.7187500000,149407.7187500000,,,
2.7519999954,21,175804.5781250000,188951.7812500000,165596.7656250000,164778.3750000000,132138.1406250000,120340.7343750000,131651.6562500000,151288.4687500000,,,
2.7559999956,21,175510.0000000000,206535.4375000000,165202.6093750000,164148.0156250000,131573.9375000000,119774.8125000000,131020.9140625000,154275.4531250000,,,
2.7599999956,21,175668.5937500000,213460.5000000000,165482.4218750000,164507.2187500000,131969.2031250000,120143.2968750000,131433.7656250000,154126.4062500000,,,
2.7639999955,21,176061.7187500000,202615.6718750000,166051.1562500000,165330.2343750000,132761.5937500000,120913.7578125000,132296.9531250000,151436.0937500000,,,
2.7679999955,21,176167.8125000000,186534.3906250000,166177.6562500000,165577.7812500000,132960.0937500000,121120.1250000000,132530.0625000000,149406.2031250000,,,
2.7719999955,21,175801.8750000000,188929.2812500000,165597.8906250000,164755.1875000000,132138.6718750000,120342.4218750000,131659.4375000000,151284.1406250000,,,
2.7759999956,21,175525.7187500000,206521.2187500000,165216.2187500000,164147.5468750000,131587.4531250000,119794.0703125000,131042.5859375000,154300.0781250000,,,
2.7799999956,21,175691.5781250000,213536.0312500000,165504.7187500000,164527.3750000000,131990.5781250000,120164.1640625000,131449.0468750000,154174.4375000000,,,
2.7839999956,21,176086.5937500000,202783.7500000000,166074.7343750000,165363.5156250000,132784.2187500000,120938.3281250000,132307.2500000000,151493.0937500000,,,
2.7879999955,21,176176.7343750000,186624.0781250000,166179.6093750000,165590.2500000000,132963.8281250000,121137.4296875000,132532.7343750000,149428.0781250000,,,
2.7919999955,21,175796.4843750000,188885.3437500000,165583.3593750000,164757.9375000000,132127.1875000000,120349.0468750000,131655.2031250000,151275.1406250000,,,
2.7959999954,21,175502.9375000000,206442.4375000000,165185.3437500000,164134.3125000000,131559.7656250000,119779.5078125000,131023.9453125000,154275.8281250000,,,
2.7999999956,21,175665.5625000000,213496.4375000000,165473.5781250000,164512.7187500000,131960.6250000000,120140.5000000000,131439.6250000000,154152.1718750000,,,
2.8039999956,21,176064.3750000000,202759.9531250000,166050.0312500000,165349.5937500000,132762.9531250000,120921.2656250000,132312.1875000000,151470.9062500000,,,
2.8079999955,21,176159.0937500000,186603.3125000000,166169.6562500000,165588.4531250000,132958.2187500000,121123.8515625000,132547.9218750000,149400.4531250000,,,
2.8119999955,21,175791.9218750000,188776.2031250000,165593.6875000000,164763.7812500000,132142.5000000000,120345.6640625000,131685.2500000000,151240.4843750000,,,
2.8159999955,22,175490.7656250000,206330.6250000000,165183.2968750000,164136.0000000000,131562.6093750000,119769.0703125000,131037.3281250000,154249.6718750000,,,
2.8199999954,22,175668.2500000000,213459.4218750000,165484.3750000000,164517.9062500000,131975.4062500000,120147.2343750000,131454.9531250000,154159.6562500000,,,
2.8239999954,22,176082.1093750000,202782.6406250000,166076.4531250000,165359.4687500000,132789.2343750000,120938.5390625000,132334.3906250000,151500.5156250000,,,
2.8279999953,22,176176.0937500000,186616.3593750000,166188.1093750000,165597.0937500000,132974.6562500000,121135.9765625000,132554.6562500000,149422.6718750000,,,
2.8319999953,22,175793.9843750000,188704.0468750000,165590.8593750000,164775.0625000000,132137.6250000000,120339.1484375000,131665.7187500000,151230.8437500000,,,
2.8359999952,22,175501.7812500000,206265.7656250000,165194.7500000000,164146.6875000000,131566.5625000000,119762.3671875000,131032.2578125000,154246.5625000000,,,
2.8399999954,22,175669.4062500000,213459.9062500000,165485.9687500000,164505.3437500000,131966.4218750000,120136.2421875000,131448.8593750000,154164.2031250000,,,
2.8439999954,22,176050.5625000000,202832.5312500000,166043.8593750000,165326.8593750000,132747.9843750000,120899.8359375000,132305.9531250000,151481.3750000000,,,
2.8479999953,22,176138.0312500000,186668.3281250000,166155.6562500000,165562.6250000000,132936.5000000000,121100.8671875000,132540.4062500000,149390.3125000000,,,
2.8519999953,22,175776.9218750000,188666.5468750000,165586.0937500000,164753.0781250000,132127.6250000000,120326.0078125000,131682.0312500000,151195.2031250000,,,
2.8559999953,22,175486.9843750000,206236.7656250000,165188.7812500000,164123.7500000000,131556.9218750000,119749.8906250000,131041.8359375000,154223.6562500000,,,
2.8599999954,22,175654.1875000000,213504.2500000000,165479.1562500000,164510.6093750000,131960.5781250000,120116.9296875000,131452.4531250000,154153.6875000000,,,
2.8639999954,22,176060.4687500000,202923.2812500000,166061.3437500000,165353.1875000000,132768.7968750000,120900.2968750000,132325.0312500000,151497.9687500000,,,
2.8679999954,22,176175.2343750000,186747.7343750000,166194.5000000000,165604.5468750000,132981.2343750000,121126.8046875000,132576.1718750000,149430.2031250000,,,
2.8719999953,22,175786.4843750000,188647.8906250000,165592.7343750000,164780.4843750000,132144.7031250000,120330.0546875000,131695.4375000000,151201.4062500000,,,
2.8759999953,22,175487.4843750000,206196.7031250000,165183.2187500000,164137.6093750000,131559.5312500000,119749.7890625000,131047.8671875000,154229.5937500000,,,
2.8799999952,22,175651.3437500000,213518.1562500000,165467.4531250000,164499.2656250000,131950.6250000000,120110.4375000000,131454.2968750000,154168.5937500000,,,
2.8839999954,22,176040.6718750000,203021.6093750000,166033.8281250000,165321.4843750000,132737.1562500000,120882.1328125000,132311.6718750000,151506.1250000000,,,
2.8879999954,22,176147.3750000000,186783.8593750000,166161.7500000000,165580.8125000000,132944.2187500000,121108.6171875000,132560.6562500000,149407.2500000000,,,
2.8919999953,22,175787.1562500000,188580.6718750000,165592.4531250000,164767.7500000000,132137.7812500000,120346.6015625000,131708.9843750000,151190.4843750000,,,
2.8959999953,22,175492.6093750000,206136.0468750000,165191.4843750000,164133.1406250000,131557.1093750000,119767.0625000000,131060.2890625000,154238.6562500000,,,
2.8999999953,22,175638.5468750000,213538.7031250000,165453.5312500000,164507.9687500000,131931.7968750000,120116.1250000000,131445.7187500000,154182.7031250000,,,
2.9039999954,22,176024.4375000000,203099.3593750000,166019.3750000000,165343.1875000000,132722.0312500000,120879.0234375000,132311.1562500000,151514.1718750000,,,
2.9079999954,22,176131.0312500000,186816.0156250000,166152.7031250000,165579.9687500000,132934.0312500000,121097.4609375000,132570.6406250000,149389.9218750000,,,
2.9119999954,22,175774.3281250000,188508.6562500000,165584.8750000000,164764.8437500000,132131.9687500000,120326.4062500000,131716.4375000000,151147.8125000000,,,
2.9159999953,22,175498.1875000000,206060.0156250000,165194.1718750000,164144.0468750000,131564.8593750000,119760.4609375000,131074.2343750000,154213.5000000000,,,
2.9199999953,22,175671.7812500000,213537.6875000000,165485.0781250000,164519.9062500000,131963.5781250000,120119.6328125000,131477.3125000000,154190.5937500000,,,
2.9239999952,22,176056.3593750000,203180.1250000000,166046.7656250000,165328.5781250000,132749.2812500000,120878.3515625000,132333.8593750000,151535.3593750000,,,
2.9279999954,22,176161.0468750000,186869.3125000000,166170.8125000000,165595.8593750000,132954.7031250000,121108.1875000000,132583.6250000000,149405.9218750000,,,
2.9319999954,22,175796.8593750000,188470.9218750000,165594.6250000000,164781.8750000000,132143.0156250000,120344.2734375000,131731.9375000000,151150.3593750000,,,
2.9359999953,22,175502.9375000000,206015.8593750000,165190.3593750000,164124.1250000000,131557.7031250000,119758.6640625000,131078.2812500000,154211.8281250000,,,
2.9399999953,22,175659.3125000000,213561.7812500000,165467.7500000000,164478.9531250000,131941.3437500000,120109.5546875000,131468.0156250000,154194.3125000000,,,
2.9439999952,23,176047.1406250000,203246.0312500000,166038.2343750000,165317.5000000000,132736.9843750000,120883.0468750000,132332.7812500000,151548.2343750000,,,
