Time:250Hz,Epoch,Channel 1,Channel 2,Channel 3,Channel 4,Channel 5,Channel 6,Channel 7,Channel 8,Event Id,Event Date,Event Duration
0.0000000000,0,158896.4218750000,145884.6406250000,168924.7656250000,158918.5937500000,128715.9062500000,65941.4453125000,115035.9140625000,149110.1406250000,,,
0.0040000000,0,158720.4687500000,145742.7812500000,168767.8125000000,158756.1875000000,128535.6015625000,65718.7968750000,114880.8515625000,148936.0937500000,,,
0.0079999999,0,159631.6406250000,145680.5312500000,169682.2187500000,159613.6875000000,129341.7421875000,66522.7109375000,115725.9609375000,148041.3281250000,,,
0.0119999999,0,160353.8281250000,145766.8437500000,170391.7812500000,160293.1562500000,130008.8593750000,67221.8828125000,116397.7187500000,147647.7343750000,,,
0.0159999998,0,159900.7500000000,145885.3125000000,169926.8437500000,159872.3906250000,129624.1484375000,66858.6562500000,115969.6718750000,148297.1093750000,,,
0.0199999998,0,158876.4375000000,145857.4531250000,168907.1406250000,158913.7656250000,128697.1015625000,65921.9765625000,115009.5703125000,149082.3750000000,,,
0.0240000000,0,158696.6250000000,145715.2968750000,168743.1093750000,158743.1562500000,128510.1250000000,65699.9140625000,114850.2187500000,148911.6718750000,,,
0.0279999999,0,159611.9531250000,145657.5625000000,169662.5937500000,159600.3437500000,129324.2578125000,66505.1640625000,115717.0312500000,148021.6718750000,,,
0.0319999999,0,160336.5000000000,145742.9687500000,170370.1562500000,160284.7812500000,129989.2265625000,67209.6250000000,116375.0312500000,147619.9843750000,,,
0.0359999998,0,159886.8281250000,145864.0937500000,169904.0156250000,159868.5781250000,129603.3671875000,66856.0781250000,115936.5937500000,148262.0156250000,,,
0.0399999998,0,158874.7500000000,145854.5468750000,168896.9531250000,158918.3906250000,128690.2343750000,65929.0546875000,115001.3125000000,149067.9218750000,,,
0.0440000000,0,158694.0781250000,145720.3281250000,168731.7031250000,158748.7031250000,128499.4453125000,65699.4843750000,114831.5000000000,148910.5000000000,,,
0.0480000000,0,159601.3593750000,145661.2500000000,169646.3437500000,159598.9375000000,129304.5937500000,66490.8437500000,115688.0859375000,148019.8750000000,,,
0.0519999999,0,160334.7812500000,145750.9375000000,170366.4531250000,160282.0468750000,129978.6875000000,67199.9140625000,116361.0546875000,147618.2656250000,,,
0.0559999999,0,159888.5937500000,145868.3125000000,169909.8593750000,159865.7968750000,129599.8515625000,66839.0781250000,115940.0859375000,148255.8593750000,,,
0.0599999998,0,158868.0937500000,145847.3281250000,168895.8750000000,158914.2343750000,128678.4609375000,65896.6250000000,114990.0156250000,149055.0937500000,,,
0.0639999998,0,158681.4687500000,145716.2343750000,168726.7656250000,158736.0468750000,128488.8515625000,65674.9453125000,114826.1328125000,148911.0156250000,,,
0.0680000000,0,159584.0312500000,145657.3593750000,169634.7968750000,159579.0156250000,129290.8359375000,66470.5390625000,115667.2187500000,148025.1875000000,,,
0.0719999999,0,160337.5625000000,145753.2968750000,170378.0937500000,160288.7031250000,129990.5703125000,67190.4687500000,116373.8750000000,147619.1562500000,,,
0.0759999999,0,159919.2812500000,145886.5156250000,169950.0468750000,159893.9843750000,129643.8359375000,66864.4218750000,115994.7500000000,148267.4687500000,,,
0.0799999998,0,158893.1250000000,145865.1406250000,168925.2031250000,158935.3906250000,128712.5000000000,65931.5234375000,115025.4218750000,149069.0468750000,,,
0.0839999998,0,158691.1250000000,145726.6562500000,168737.0625000000,158744.2031250000,128503.0703125000,65691.7343750000,114838.3359375000,148923.3125000000,,,
0.0880000000,0,159598.9375000000,145671.0000000000,169651.0312500000,159594.5625000000,129309.9296875000,66484.1093750000,115693.0781250000,148041.2187500000,,,
0.0919999999,0,160345.1875000000,145760.8281250000,170382.3125000000,160298.9218750000,129994.7265625000,67197.7968750000,116366.8750000000,147627.8437500000,,,
0.0959999999,0,159931.5937500000,145893.8125000000,169956.2343750000,159910.2656250000,129647.0546875000,66869.3281250000,115976.6718750000,148272.5156250000,,,
0.0999999999,0,158915.5625000000,145879.8906250000,168946.1718750000,158955.0312500000,128731.9687500000,65937.9296875000,115038.5625000000,149079.7187500000,,,
0.1039999998,0,158693.9062500000,145733.4531250000,168739.6093750000,158748.7812500000,128505.6171875000,65690.3359375000,114833.5937500000,148932.6562500000,,,
0.1079999998,0,159582.8437500000,145663.3906250000,169631.4843750000,159588.4531250000,129290.8359375000,66471.9609375000,115655.2890625000,148041.6562500000,,,
0.1120000000,0,160340.8125000000,145754.6093750000,170376.6562500000,160300.2812500000,129993.6250000000,67197.6875000000,116365.4843750000,147630.0312500000,,,
0.1159999999,0,159929.8437500000,145883.3281250000,169953.2656250000,159907.0468750000,129652.7187500000,66879.7343750000,115992.2500000000,148264.1093750000,,,
0.1199999999,0,158911.2812500000,145867.6875000000,168937.3750000000,158945.4531250000,128731.5156250000,65943.4843750000,115038.8906250000,149070.2031250000,,,
0.1239999998,0,158689.6718750000,145724.3750000000,168730.1406250000,158731.2968750000,128503.5546875000,65686.2343750000,114827.9062500000,148935.4687500000,,,
0.1279999998,1,159585.0156250000,145661.7500000000,169630.5468750000,159570.4843750000,129295.1250000000,66465.3125000000,115657.0000000000,148052.7031250000,,,
0.1319999998,1,160357.9843750000,145757.7812500000,170391.5625000000,160296.4531250000,130005.1328125000,67195.5390625000,116362.4765625000,147630.6562500000,,,
0.1359999997,1,159950.5468750000,145886.1250000000,169975.6875000000,159912.6875000000,129663.1484375000,66874.3750000000,115985.0390625000,148252.1718750000,,,
0.1399999997,1,158920.6718750000,145871.7187500000,168953.1250000000,158948.6406250000,128732.8828125000,65928.8671875000,115029.7421875000,149060.3281250000,,,
0.1439999996,1,158693.7500000000,145732.2968750000,168740.5781250000,158738.1875000000,128498.5937500000,65670.8125000000,114813.3671875000,148925.3281250000,,,
0.1479999996,1,159589.9375000000,145673.5468750000,169639.2812500000,159576.4687500000,129289.6250000000,66460.3984375000,115649.7109375000,148043.8437500000,,,
0.1519999998,1,160362.1093750000,145768.7656250000,170397.2812500000,160304.9062500000,130001.3515625000,67194.3046875000,116360.9218750000,147622.6093750000,,,
0.1559999997,1,159963.0312500000,145900.9531250000,169984.7500000000,159928.1093750000,129667.7656250000,66882.6093750000,115975.0312500000,148249.8906250000,,,
0.1599999997,1,158941.7500000000,145890.1718750000,168969.8281250000,158965.0625000000,128749.2421875000,65947.5859375000,115020.6250000000,149068.3125000000,,,
0.1639999996,1,158702.6562500000,145744.7968750000,168749.0781250000,158736.5781250000,128512.0546875000,65672.1250000000,114815.1953125000,148945.3125000000,,,
0.1679999996,1,159586.5156250000,145679.0781250000,169640.8125000000,159568.0937500000,129298.5625000000,66448.6562500000,115655.3437500000,148068.5312500000,,,
0.1719999998,1,160360.9843750000,145770.0625000000,170401.3750000000,160296.9531250000,130011.8671875000,67187.9218750000,116373.3906250000,147636.7656250000,,,
0.1759999997,1,159973.3437500000,145904.3281250000,170001.1875000000,159930.1875000000,129687.6953125000,66883.8671875000,116011.2968750000,148255.4687500000,,,
0.1799999997,1,158943.4687500000,145888.8750000000,168974.8125000000,158965.9375000000,128756.3515625000,65945.2812500000,115043.9062500000,149070.0312500000,,,
0.1839999997,1,158698.1562500000,145747.2343750000,168744.4375000000,158731.5156250000,128508.3828125000,65683.5546875000,114814.9218750000,148952.2812500000,,,
0.1879999996,1,159582.5781250000,145681.9531250000,169633.7500000000,159553.9843750000,129291.4218750000,66451.2265625000,115643.3515625000,148074.7968750000,,,
0.1919999996,1,160370.9843750000,145778.9062500000,170411.5781250000,160288.5312500000,130023.1562500000,67191.3046875000,116383.2656250000,147645.6562500000,,,
0.1959999998,1,159984.2343750000,145909.2187500000,170010.5781250000,159924.8593750000,129698.4765625000,66891.1093750000,116012.5546875000,148260.2968750000,,,
0.1999999997,1,158960.2812500000,145900.5156250000,168987.9062500000,158965.8593750000,128771.7734375000,65964.1953125000,115045.8906250000,149081.6562500000,,,
0.2039999997,1,158705.7656250000,145752.1718750000,168748.8906250000,158728.9687500000,128517.6093750000,65676.8203125000,114813.3437500000,148964.3593750000,,,
0.2079999996,1,159592.9531250000,145689.1093750000,169642.1875000000,159560.5000000000,129305.6640625000,66448.1171875000,115656.6250000000,148092.1250000000,,,
0.2119999996,1,160372.5468750000,145775.1250000000,170406.9843750000,160297.6093750000,130019.4531250000,67188.2187500000,116373.7421875000,147648.5937500000,,,
0.2159999998,1,159984.2343750000,145895.8593750000,170006.5312500000,159934.2968750000,129692.7656250000,66887.8359375000,116010.6484375000,148247.4843750000,,,
0.2199999997,1,158955.6093750000,145885.3125000000,168981.2343750000,158964.4062500000,128763.3515625000,65960.2500000000,115046.8828125000,149066.3125000000,,,
0.2239999997,1,158697.8593750000,145742.5937500000,168738.1093750000,158722.6718750000,128500.6796875000,65671.0234375000,114795.9843750000,148954.8125000000,,,
0.2279999997,1,159576.6250000000,145677.5000000000,169622.5937500000,159545.8906250000,129277.4218750000,66432.7734375000,115618.0859375000,148076.6250000000,,,
0.2319999996,1,160369.8593750000,145770.2812500000,170404.1718750000,160290.1718750000,130009.9843750000,67176.6015625000,116356.7109375000,147629.7500000000,,,
0.2359999996,1,160001.2656250000,145906.0781250000,170023.2968750000,159948.9687500000,129703.1171875000,66892.9375000000,116008.5312500000,148236.5468750000,,,
0.2399999998,1,158972.3750000000,145897.7812500000,168997.9687500000,158988.7187500000,128774.4531250000,65960.3281250000,115050.6328125000,149063.8125000000,,,
0.2439999997,1,158703.2968750000,145754.1562500000,168746.5156250000,158736.1875000000,128509.6953125000,65667.1640625000,114808.5937500000,148967.5468750000,,,
0.2479999997,1,159567.0781250000,145683.4531250000,169615.7656250000,159543.6093750000,129273.6718750000,66428.4843750000,115615.6953125000,148091.5937500000,,,
0.2519999996,1,160362.4843750000,145773.1250000000,170398.4218750000,160290.2500000000,130006.3671875000,67185.9921875000,116351.9375000000,147639.2968750000,,,
0.2559999996,2,159989.8125000000,145897.8906250000,170012.2500000000,159942.0468750000,129693.5937500000,66897.2500000000,115996.5937500000,148230.6718750000,,,
0.2599999995,2,158956.7187500000,145885.9843750000,168982.1406250000,158976.4218750000,128758.7343750000,65952.4687500000,115027.7812500000,149051.9531250000,,,
0.2639999995,2,158685.2812500000,145746.8906250000,168728.4531250000,158724.1093750000,128488.5546875000,65650.3437500000,114780.6953125000,148956.8750000000,,,
0.2679999995,2,159555.5937500000,145680.9375000000,169606.1250000000,159539.7656250000,129260.5234375000,66413.8671875000,115600.5703125000,148084.8593750000,,,
0.2719999994,2,160357.4687500000,145774.8906250000,170393.7656250000,160294.0312500000,129998.3750000000,67175.7500000000,116339.4375000000,147633.1562500000,,,
0.2759999994,2,159987.5937500000,145897.8125000000,170008.8906250000,159949.4843750000,129687.3984375000,66885.9375000000,115980.9843750000,148217.7031250000,,,
0.2799999996,2,158959.1250000000,145888.7968750000,168984.1250000000,158979.3281250000,128762.0625000000,65953.8671875000,115027.3828125000,149045.6562500000,,,
0.2839999995,2,158685.5468750000,145751.5781250000,168727.3593750000,158717.2187500000,128493.1484375000,65651.7656250000,114785.9531250000,148962.8593750000,,,
0.2879999995,2,159554.9218750000,145686.9375000000,169601.1406250000,159533.3906250000,129260.8437500000,66411.7187500000,115596.6015625000,148093.3125000000,,,
0.2919999994,2,160354.3125000000,145770.9218750000,170387.7812500000,160288.0000000000,129992.9062500000,67175.0234375000,116325.6484375000,147626.3593750000,,,
0.2959999994,2,159992.6875000000,145894.0625000000,170012.1406250000,159955.1406250000,129688.7968750000,66897.0937500000,115969.5312500000,148204.8437500000,,,
0.2999999996,2,158959.4687500000,145883.4375000000,168985.9843750000,158983.7500000000,128762.1718750000,65965.2890625000,115025.8515625000,149036.3281250000,,,
0.3039999995,2,158671.7031250000,145740.2812500000,168716.6250000000,158711.2343750000,128480.4296875000,65657.9609375000,114775.8437500000,148957.8437500000,,,
0.3079999995,2,159530.7812500000,145665.4843750000,169580.7500000000,159523.2187500000,129235.7968750000,66399.1953125000,115569.2656250000,148080.0312500000,,,
0.3119999995,2,160341.5937500000,145754.2343750000,170380.0000000000,160282.8281250000,129983.5703125000,67168.5546875000,116326.0000000000,147609.5156250000,,,
0.3159999994,2,159982.5781250000,145877.3281250000,170005.8125000000,159943.6562500000,129682.6796875000,66899.7734375000,115983.1875000000,148183.4531250000,,,
0.3199999994,2,158952.9062500000,145872.1718750000,168980.6875000000,158975.9375000000,128754.3906250000,65962.3984375000,115024.7812500000,149018.4062500000,,,
0.3239999996,2,158671.7812500000,145743.5312500000,168718.7812500000,158709.9531250000,128481.3437500000,65650.3203125000,114779.0859375000,148953.2500000000,,,
0.3279999995,2,159533.2031250000,145678.1875000000,169586.1250000000,159515.6250000000,129243.7890625000,66400.0000000000,115575.5468750000,148091.6718750000,,,
0.3319999995,2,160340.1718750000,145759.4062500000,170377.8906250000,160275.8750000000,129982.6328125000,67167.4296875000,116308.7500000000,147611.9062500000,,,
0.3359999994,2,159993.8437500000,145881.9843750000,170016.6406250000,159956.4531250000,129689.6250000000,66899.7187500000,115973.9843750000,148175.1406250000,,,
0.3399999994,2,158965.0781250000,145880.4375000000,168992.5000000000,158989.5937500000,128762.6250000000,65969.4531250000,115026.2578125000,149016.0468750000,,,
0.3439999996,2,158666.2500000000,145743.9062500000,168709.4687500000,158708.3750000000,128467.3437500000,65647.2343750000,114755.0546875000,148953.5156250000,,,
0.3479999995,2,159527.1718750000,145680.9375000000,169577.6250000000,159518.8437500000,129226.9687500000,66389.9375000000,115556.4218750000,148095.1562500000,,,
0.3519999995,2,160345.5156250000,145767.9687500000,170386.2187500000,160286.6562500000,129981.6640625000,67162.6875000000,116324.9296875000,147617.1406250000,,,
0.3559999994,2,160003.8281250000,145890.1406250000,170029.3593750000,159965.3906250000,129697.4296875000,66906.8281250000,115996.3281250000,148179.7500000000,,,
0.3599999994,2,158966.7968750000,145880.0625000000,168993.0781250000,158996.0312500000,128761.3359375000,65964.3828125000,115020.2500000000,149013.6875000000,,,
0.3639999994,2,158660.0937500000,145743.4062500000,168700.5156250000,158711.6406250000,128458.2500000000,65638.9218750000,114732.6875000000,148953.6562500000,,,
0.3679999996,2,159513.5937500000,145676.3437500000,169558.5781250000,159513.7031250000,129212.4062500000,66377.1171875000,115533.5937500000,148089.3906250000,,,
0.3719999995,2,160336.0156250000,145760.3750000000,170371.0937500000,160287.4843750000,129971.9296875000,67151.2812500000,116310.5468750000,147604.5000000000,,,
0.3759999995,2,159989.6093750000,145875.9531250000,170010.7500000000,159960.5312500000,129683.0234375000,66899.2343750000,115980.9843750000,148159.3125000000,,,
0.3799999994,2,158956.5468750000,145870.1875000000,168981.0937500000,158991.1250000000,128751.8203125000,65969.0234375000,115015.5000000000,148998.9531250000,,,
0.3839999994,3,158647.4843750000,145735.2656250000,168687.8281250000,158697.0156250000,128448.1875000000,65631.7578125000,114732.5234375000,148948.5625000000,,,
0.3879999993,3,159499.4375000000,145665.7031250000,169545.8593750000,159495.2968750000,129198.7500000000,66362.2343750000,115522.3828125000,148087.1093750000,,,
0.3919999993,3,160325.3906250000,145747.8281250000,170359.5312500000,160271.5625000000,129955.8359375000,67146.6171875000,116277.4765625000,147596.5312500000,,,
0.3959999993,3,159995.9062500000,145871.1250000000,170016.4531250000,159961.5156250000,129680.8515625000,66906.8515625000,115955.5625000000,148154.1406250000,,,
0.3999999992,3,158971.5937500000,145870.4218750000,168996.5937500000,158998.3906250000,128759.2187500000,65966.5000000000,115001.0390625000,148999.1250000000,,,
0.4039999992,3,158668.9375000000,145742.6718750000,168712.9218750000,158712.4687500000,128465.8906250000,65631.2734375000,114737.6484375000,148957.2812500000,,,
0.4079999994,3,159504.1718750000,145666.0781250000,169553.2968750000,159497.5468750000,129200.7656250000,66356.7343750000,115513.5078125000,148094.3750000000,,,
0.4119999993,3,160331.4531250000,145748.2500000000,170368.1718750000,160274.4531250000,129961.3828125000,67155.3906250000,116282.1718750000,147598.0156250000,,,
0.4159999993,3,160012.2500000000,145876.5468750000,170036.4687500000,159974.4531250000,129702.1484375000,66928.5234375000,115990.8046875000,148152.8593750000,,,
0.4199999992,3,158984.7656250000,145878.0781250000,169012.5781250000,159010.5781250000,128777.9921875000,65995.3593750000,115033.4687500000,149002.8750000000,,,
0.4239999992,3,158661.0781250000,145747.1250000000,168703.5468750000,158706.4843750000,128461.2812500000,65640.8281250000,114730.3515625000,148970.3125000000,,,
0.4279999994,3,159491.0312500000,145670.1406250000,169540.7343750000,159485.4062500000,129193.2812500000,66351.2343750000,115498.5078125000,148108.5937500000,,,
0.4319999993,3,160336.9531250000,145758.4687500000,170374.5000000000,160275.8750000000,129970.3750000000,67154.1562500000,116283.2734375000,147611.1250000000,,,
0.4359999993,3,160027.6718750000,145890.3906250000,170047.1875000000,159982.1562500000,129713.4687500000,66933.8125000000,115983.6953125000,148163.4531250000,,,
0.4399999992,3,158992.2812500000,145888.4531250000,169008.5156250000,159011.4062500000,128774.1093750000,65993.7500000000,115001.6328125000,149008.2187500000,,,
0.4439999992,3,158662.0156250000,145753.5312500000,168694.9843750000,158704.9375000000,128452.6953125000,65636.6406250000,114704.8750000000,148972.5312500000,,,
0.4479999992,3,159501.7968750000,145685.6250000000,169545.0000000000,159491.2500000000,129199.9843750000,66366.6015625000,115509.8281250000,148123.4375000000,,,
0.4519999993,3,160338.0312500000,145764.8281250000,170371.0156250000,160276.6093750000,129968.9765625000,67157.3750000000,116286.8125000000,147617.7812500000,,,
0.4559999993,3,160042.2500000000,145897.8437500000,170060.3437500000,159996.4531250000,129727.4453125000,66942.1562500000,116001.2109375000,148160.2500000000,,,
0.4599999993,3,159018.1562500000,145907.5781250000,169036.2187500000,159029.2343750000,128805.8125000000,66020.5703125000,115043.1562500000,149016.0468750000,,,
0.4639999992,3,158670.7968750000,145764.8281250000,168704.3125000000,158698.5468750000,128467.9843750000,65654.1796875000,114724.1015625000,148985.3281250000,,,
0.4679999992,3,159491.9218750000,145680.8437500000,169531.1562500000,159473.7968750000,129189.2343750000,66358.2890625000,115485.9609375000,148124.5312500000,,,
0.4719999994,3,160331.2968750000,145756.5937500000,170360.0156250000,160264.5781250000,129959.1093750000,67149.2968750000,116260.7109375000,147610.4062500000,,,
0.4759999993,3,160043.1718750000,145888.3125000000,170060.0625000000,159992.4531250000,129724.6250000000,66945.0234375000,115989.5703125000,148149.2656250000,,,
0.4799999993,3,159011.4843750000,145885.2031250000,169034.1250000000,159024.3906250000,128797.7343750000,66009.3046875000,115031.2187500000,148996.8906250000,,,
0.4839999992,3,158667.2500000000,145750.6875000000,168710.1406250000,158700.8906250000,128466.7812500000,65642.5156250000,114714.5546875000,148976.1093750000,,,
0.4879999992,3,159493.3906250000,145677.8750000000,169545.2500000000,159477.4375000000,129194.2734375000,66350.6953125000,115484.5390625000,148124.4843750000,,,
0.4919999992,3,160336.2343750000,145753.6250000000,170375.6875000000,160269.4687500000,129965.2734375000,67145.4609375000,116262.1328125000,147601.6562500000,,,
0.4959999993,3,160043.4062500000,145882.6250000000,170067.1718750000,160002.7500000000,129726.2109375000,66937.2968750000,115978.7578125000,148131.2656250000,,,
0.4999999993,3,159000.0000000000,145881.2656250000,169024.5468750000,159031.5937500000,128785.4531250000,65996.0859375000,115001.7890625000,148982.1718750000,,,
0.5039999993,3,158645.2031250000,145747.6562500000,168687.7187500000,158700.9062500000,128443.8437500000,65625.6953125000,114689.0234375000,148969.4218750000,,,
0.5079999992,3,159468.8750000000,145675.6406250000,169518.7500000000,159476.5781250000,129170.7265625000,66340.5078125000,115460.7421875000,148117.5781250000,,,
0.5119999992,4,160317.9062500000,145751.9062500000,170354.6562500000,160270.8593750000,129945.9609375000,67141.8125000000,116241.8828125000,147589.2656250000,,,
0.5159999991,4,160033.0312500000,145880.3281250000,170052.5000000000,159999.4218750000,129713.9531250000,66938.9375000000,115971.0390625000,148115.5937500000,,,
0.5199999991,4,159001.1250000000,145886.8906250000,169019.2968750000,159031.7656250000,128784.7578125000,66012.9531250000,115004.9062500000,148980.3906250000,,,
0.5239999990,4,158648.2031250000,145756.4062500000,168682.5156250000,158701.3906250000,128443.2578125000,65641.5468750000,114681.2968750000,148979.4531250000,,,
0.5279999990,4,159467.4375000000,145681.0625000000,169510.5156250000,159469.7656250000,129168.2578125000,66342.6015625000,115456.1328125000,148131.6718750000,,,
0.5319999990,4,160326.9531250000,145758.3593750000,170360.0468750000,160274.7187500000,129959.7500000000,67147.5546875000,116261.0625000000,147603.9687500000,,,
0.5359999991,4,160053.1406250000,145887.0000000000,170070.3750000000,160016.9062500000,129735.5156250000,66952.5078125000,115986.7031250000,148125.8437500000,,,
0.5399999991,4,159020.8750000000,145895.2968750000,169037.6093750000,159047.6718750000,128805.4062500000,66025.6718750000,115015.0937500000,148989.3750000000,,,
0.5439999991,4,158656.5781250000,145764.9375000000,168690.7968750000,158701.4687500000,128455.4062500000,65646.9375000000,114688.3515625000,148994.0156250000,,,
0.5479999990,4,159463.2812500000,145682.2968750000,169505.8750000000,159458.2031250000,129165.0937500000,66336.0781250000,115444.0078125000,148143.3125000000,,,
0.5519999990,4,160326.8906250000,145759.6250000000,170359.1875000000,160265.6093750000,129956.9375000000,67149.9453125000,116248.7812500000,147609.4687500000,,,
0.5559999992,4,160062.4218750000,145890.2187500000,170080.3125000000,160020.3125000000,129741.2031250000,66969.3203125000,115991.6093750000,148124.6718750000,,,
0.5599999991,4,159032.4843750000,145896.0937500000,169053.0000000000,159059.3906250000,128813.5312500000,66034.5468750000,115023.6562500000,148983.7500000000,,,
0.5639999991,4,158663.5156250000,145766.3906250000,168704.2968750000,158711.3437500000,128462.3828125000,65642.4843750000,114692.9375000000,148996.4062500000,,,
0.5679999990,4,159465.0156250000,145684.6093750000,169517.4375000000,159463.7656250000,129173.7812500000,66330.7187500000,115451.8437500000,148148.7812500000,,,
0.5719999990,4,160322.8906250000,145752.2187500000,170363.6093750000,160269.5781250000,129959.6406250000,67139.5625000000,116241.0234375000,147599.6562500000,,,
0.5759999990,4,160063.6562500000,145879.5468750000,170089.4843750000,160026.2656250000,129749.6562500000,66958.7812500000,115988.1718750000,148103.5000000000,,,
0.5799999991,4,159042.2500000000,145895.1093750000,169070.2187500000,159068.6406250000,128831.7500000000,66040.6875000000,115032.0468750000,148970.5312500000,,,
0.5839999991,4,158647.9062500000,145758.2812500000,168690.7968750000,158698.6093750000,128451.2734375000,65636.9921875000,114665.5781250000,148982.3593750000,,,
0.5879999991,4,159442.6718750000,145676.6093750000,169493.0781250000,159445.5468750000,129150.9531250000,66320.5234375000,115412.7343750000,148141.6406250000,,,
0.5919999990,4,160315.3281250000,145754.1562500000,170353.0937500000,160266.6250000000,129948.5156250000,67144.3125000000,116219.6250000000,147599.4687500000,,,
0.5959999990,4,160068.8593750000,145888.0781250000,170090.2500000000,160035.6875000000,129750.0859375000,66974.8515625000,115979.2421875000,148106.4843750000,,,
0.5999999992,4,159044.2656250000,145901.2812500000,169068.1875000000,159075.3750000000,128830.9687500000,66042.6484375000,115023.6796875000,148974.8906250000,,,
0.6039999991,4,158651.1562500000,145766.5468750000,168691.3593750000,158702.3125000000,128453.3671875000,65633.4218750000,114661.4765625000,148993.8125000000,,,
0.6079999991,4,159439.3437500000,145679.8906250000,169486.1093750000,159440.0156250000,129146.1562500000,66315.8593750000,115397.6328125000,148150.2187500000,,,
0.6119999990,4,160303.8281250000,145746.7500000000,170338.1250000000,160253.1093750000,129937.2968750000,67131.6250000000,116192.8046875000,147594.2812500000,,,
0.6159999990,4,160064.8906250000,145879.3593750000,170084.0156250000,160033.1875000000,129747.6718750000,66963.4531250000,115957.3828125000,148091.4375000000,,,
0.6199999989,4,159041.8437500000,145892.5312500000,169062.7187500000,159071.4531250000,128828.9062500000,66040.9062500000,115001.5546875000,148960.0625000000,,,
0.6239999991,4,158640.1093750000,145759.9218750000,168677.2812500000,158689.8906250000,128443.3359375000,65630.2343750000,114630.6796875000,148992.2031250000,,,
0.6279999991,4,159429.0468750000,145676.8593750000,169473.8906250000,159429.0312500000,129136.3906250000,66306.7109375000,115366.8984375000,148156.6093750000,,,
0.6319999991,4,160302.0781250000,145745.7031250000,170334.4062500000,160249.4531250000,129933.4921875000,67122.6406250000,116169.6562500000,147599.5468750000,,,
0.6359999990,4,160074.5000000000,145884.0781250000,170092.2500000000,160033.3281250000,129751.6093750000,66966.8828125000,115948.7968750000,148093.9531250000,,,
0.6399999990,5,159061.2343750000,145909.4531250000,169080.0937500000,159081.6250000000,128842.4218750000,66047.0156250000,115000.6406250000,148970.4218750000,,,
0.6439999989,5,158667.1093750000,145788.7031250000,168701.4218750000,158708.7500000000,128465.4921875000,65643.7187500000,114635.4843750000,149012.2656250000,,,
0.6479999989,5,159448.6093750000,145702.7343750000,169491.7656250000,159437.0156250000,129154.9296875000,66318.9921875000,115373.2265625000,148176.7812500000,,,
0.6519999988,5,160316.7031250000,145762.1406250000,170349.3125000000,160253.2343750000,129948.4296875000,67131.8359375000,116172.4687500000,147609.0625000000,,,
0.6559999988,5,160081.5312500000,145886.5156250000,170098.3750000000,160028.7656250000,129758.8515625000,66975.2812500000,115935.4453125000,148092.9062500000,,,
0.6599999988,5,159072.9531250000,145911.5937500000,169093.3437500000,159079.0781250000,128857.5234375000,66063.7031250000,114995.9218750000,148974.7656250000,,,
0.6639999989,5,158677.4687500000,145791.8593750000,168716.5000000000,158708.2656250000,128481.0234375000,65648.1171875000,114631.8125000000,149026.5312500000,,,
0.6679999989,5,159449.0937500000,145703.1406250000,169500.2656250000,159434.2500000000,129161.9843750000,66311.8906250000,115355.9531250000,148189.3593750000,,,
0.6719999989,5,160317.0156250000,145761.0000000000,170358.5156250000,160249.0625000000,129955.4843750000,67132.8281250000,116154.3125000000,147613.8906250000,,,
0.6759999988,5,160090.0312500000,145885.6093750000,170115.7968750000,160037.9375000000,129775.3984375000,66978.5781250000,115927.5859375000,148088.8593750000,,,
0.6799999988,5,159085.0781250000,145914.0156250000,169111.1562500000,159097.5781250000,128874.7421875000,66065.9843750000,114984.9453125000,148970.5781250000,,,
0.6839999990,5,158673.3125000000,145788.1093750000,168715.4843750000,158710.8593750000,128482.0156250000,65640.7187500000,114604.1796875000,149021.7812500000,,,
0.6879999989,5,159430.6093750000,145693.3437500000,169481.3281250000,159420.1718750000,129146.2890625000,66292.7656250000,115313.0078125000,148185.9843750000,,,
0.6919999989,5,160312.3593750000,145759.3906250000,170352.0468750000,160251.2500000000,129950.1718750000,67121.1640625000,116128.0546875000,147611.2656250000,,,
0.6959999988,5,160104.0000000000,145894.9687500000,170127.6875000000,160059.5781250000,129785.2187500000,66982.1953125000,115922.8125000000,148089.3437500000,,,
0.6999999988,5,159099.5156250000,145927.3750000000,169122.2656250000,159116.5468750000,128883.1093750000,66071.8828125000,114977.4375000000,148977.7968750000,,,
0.7039999987,5,158677.0937500000,145799.4375000000,168713.7343750000,158714.6250000000,128477.5625000000,65633.7968750000,114580.5546875000,149034.2343750000,,,
0.7079999989,5,159430.6875000000,145702.3281250000,169475.6406250000,159415.3437500000,129140.8437500000,66286.3515625000,115294.1562500000,148199.5468750000,,,
0.7119999989,5,160317.8281250000,145764.8281250000,170352.7187500000,160247.3437500000,129952.0000000000,67113.0078125000,116118.5546875000,147619.0937500000,,,
0.7159999989,5,160121.0937500000,145901.4062500000,170139.8125000000,160063.6093750000,129797.2890625000,66984.4218750000,115919.0546875000,148090.7656250000,,,
0.7199999988,5,159112.3125000000,145934.2343750000,169131.9687500000,159117.5625000000,128893.4140625000,66083.5234375000,114975.1328125000,148978.7343750000,,,
0.7239999988,5,158671.4062500000,145801.4218750000,168707.7187500000,158707.6093750000,128471.7656250000,65637.0937500000,114568.1328125000,149036.4531250000,,,
0.7279999990,5,159413.5937500000,145697.2343750000,169459.3281250000,159407.4062500000,129120.7031250000,66273.7968750000,115263.8437500000,148195.6406250000,,,
0.7319999989,5,160300.9375000000,145754.4218750000,170335.7500000000,160245.1093750000,129930.3281250000,67104.8828125000,116078.8906250000,147605.2812500000,,,
0.7359999989,5,160099.0468750000,145882.3593750000,170117.8750000000,160062.7500000000,129770.6015625000,66970.9296875000,115873.2421875000,148063.5312500000,,,
0.7399999988,5,159078.6250000000,145901.2500000000,169100.0000000000,159109.7812500000,128857.4140625000,66051.5000000000,114922.4531250000,148941.5625000000,,,
0.7439999988,5,158651.6406250000,145782.2031250000,168689.9375000000,158705.8125000000,128454.5234375000,65614.3750000000,114533.3203125000,149019.0156250000,,,
0.7479999987,5,159398.0156250000,145685.9218750000,169444.3125000000,159403.3281250000,129110.0000000000,66250.3593750000,115230.8828125000,148195.3906250000,,,
0.7519999989,5,160294.8125000000,145744.7343750000,170332.2031250000,160245.5468750000,129929.7343750000,67089.5390625000,116058.2109375000,147604.1875000000,,,
0.7559999989,5,160107.0625000000,145875.7656250000,170132.0000000000,160073.4218750000,129786.9609375000,66968.0078125000,115874.0468750000,148058.7968750000,,,
0.7599999988,5,159111.9062500000,145912.8593750000,169138.0000000000,159138.3281250000,128894.7265625000,66074.7500000000,114942.5390625000,148947.1406250000,,,
0.7639999988,5,158672.5000000000,145792.8125000000,168713.6250000000,158724.5937500000,128475.3593750000,65635.9687500000,114536.1875000000,149027.8750000000,,,
0.7679999988,6,159404.4531250000,145693.1875000000,169453.9687500000,159410.7656250000,129115.2812500000,66263.6328125000,115218.2968750000,148202.1562500000,,,
0.7719999987,6,160286.7968750000,145744.3593750000,170323.6718750000,160237.3125000000,129917.8515625000,67087.5312500000,116032.7500000000,147600.0781250000,,,
0.7759999987,6,160106.2812500000,145881.2968750000,170126.2187500000,160072.4531250000,129777.8125000000,66974.4453125000,115855.4609375000,148054.7656250000,,,
0.7799999986,6,159106.0937500000,145920.4531250000,169126.1718750000,159137.3593750000,128880.9140625000,66073.2265625000,114916.5781250000,148945.8281250000,,,
0.7839999986,6,158656.6875000000,145794.6093750000,168693.9687500000,158718.0000000000,128454.8984375000,65613.8437500000,114504.6718750000,149027.7187500000,,,
0.7879999985,6,159381.2031250000,145689.5156250000,169428.8437500000,159398.8750000000,129089.2656250000,66237.7812500000,115186.4921875000,148201.7500000000,,,
0.7919999987,6,160273.0625000000,145744.1718750000,170311.0468750000,160235.5625000000,129903.1796875000,67077.4453125000,116018.3750000000,147599.7812500000,,,
0.7959999987,6,160110.1718750000,145885.3125000000,170132.4843750000,160081.3437500000,129781.1171875000,66982.0937500000,115856.6093750000,148048.7343750000,,,
0.7999999986,6,159110.4843750000,145921.3906250000,169133.1250000000,159141.6718750000,128883.7031250000,66076.2578125000,114911.6406250000,148935.7343750000,,,
0.8039999986,6,158664.3281250000,145802.4062500000,168702.1406250000,158715.8750000000,128457.1250000000,65599.6562500000,114492.7343750000,149028.7812500000,,,
0.8079999986,6,159392.3593750000,145702.3281250000,169435.5156250000,159394.3906250000,129090.1250000000,66197.9453125000,115172.4921875000,148210.8437500000,,,
0.8119999988,6,160281.6718750000,145752.0937500000,170313.2968750000,160224.8125000000,129899.3203125000,67029.5390625000,115999.8671875000,147604.9062500000,,,
0.8159999987,6,160118.6250000000,145889.0156250000,170135.5156250000,160070.9375000000,129777.3906250000,66939.0703125000,115834.2968750000,148050.0156250000,,,
0.8199999987,6,159114.6406250000,145921.4375000000,169131.2968750000,159131.9375000000,128876.3281250000,66039.7500000000,114882.4843750000,148936.6718750000,,,
0.8239999986,6,158668.5937500000,145809.5625000000,168702.6250000000,158712.8437500000,128457.5234375000,65580.5859375000,114480.0781250000,149042.0625000000,,,
0.8279999986,6,159390.5937500000,145707.0781250000,169436.6718750000,159386.7812500000,129094.6875000000,66192.1250000000,115168.8671875000,148225.0625000000,,,
0.8319999985,6,160287.4687500000,145754.4531250000,170322.8906250000,160229.5781250000,129914.0468750000,67029.5937500000,115999.9531250000,147613.8906250000,,,
0.8359999987,6,160119.6093750000,145876.8593750000,170138.3125000000,160070.8437500000,129784.6562500000,66927.8046875000,115825.2812500000,148038.4062500000,,,
0.8399999987,6,159122.3125000000,145912.1406250000,169140.9062500000,159136.2656250000,128889.7343750000,66030.2265625000,114881.7890625000,148927.4843750000,,,
0.8439999986,6,158657.7343750000,145790.6562500000,168692.6562500000,158698.5312500000,128449.8828125000,65564.7031250000,114456.6328125000,149034.3125000000,,,
0.8479999986,6,159383.8281250000,145693.2187500000,169428.2968750000,159380.7500000000,129084.3828125000,66180.8906250000,115139.5000000000,148223.5312500000,,,
0.8519999986,6,160287.2500000000,145744.9062500000,170322.7656250000,160232.7968750000,129906.8593750000,67017.1171875000,115971.4375000000,147607.1562500000,,,
0.8559999987,6,160132.7500000000,145878.1250000000,170154.6406250000,160087.1562500000,129792.2734375000,66927.1093750000,115819.6250000000,148033.2500000000,,,
0.8599999987,6,159135.7187500000,145919.6250000000,169159.0312500000,159152.4687500000,128897.4375000000,66028.7031250000,114887.5859375000,148925.9687500000,,,
0.8639999987,6,158662.1250000000,145801.0468750000,168702.6093750000,158708.3437500000,128446.9843750000,65548.3984375000,114448.1328125000,149036.1406250000,,,
0.8679999986,6,159369.7187500000,145700.5937500000,169418.4843750000,159371.4375000000,129063.4375000000,66154.3046875000,115102.2968750000,148227.0781250000,,,
0.8719999986,6,160272.3906250000,145752.1718750000,170310.7187500000,160221.3437500000,129886.3671875000,66998.1875000000,115934.8828125000,147608.6562500000,,,
0.8759999985,6,160135.8906250000,145896.0468750000,170158.5781250000,160096.2812500000,129787.7109375000,66928.1484375000,115802.4062500000,148039.3750000000,,,
0.8799999987,6,159142.5937500000,145938.4687500000,169163.6406250000,159162.0625000000,128895.2656250000,66030.1171875000,114874.3046875000,148932.4375000000,,,
0.8839999987,6,158662.9375000000,145813.0625000000,168699.5468750000,158711.7187500000,128438.2968750000,65541.2578125000,114429.2500000000,149042.5468750000,,,
0.8879999986,6,159366.1250000000,145703.8906250000,169412.3437500000,159372.1562500000,129050.7265625000,66137.1406250000,115089.2343750000,148233.2343750000,,,
0.8919999986,6,160278.6718750000,145753.5156250000,170314.6406250000,160229.2656250000,129878.7187500000,66984.0468750000,115930.9921875000,147610.5937500000,,,
0.8959999986,7,160140.2968750000,145885.8750000000,170159.0625000000,160099.3125000000,129774.0859375000,66916.7812500000,115785.0234375000,148024.1562500000,,,
0.8999999985,7,159149.2500000000,145928.5000000000,169167.5156250000,159165.5468750000,128882.8437500000,66026.0703125000,114866.8515625000,148918.5781250000,,,
0.9039999985,7,158672.9843750000,145811.2812500000,168707.7500000000,158718.2343750000,128424.2890625000,65535.1718750000,114432.8437500000,149041.0937500000,,,
0.9079999984,7,159361.9687500000,145695.6250000000,169407.2187500000,159365.5625000000,129013.7343750000,66118.8515625000,115079.7343750000,148230.2343750000,,,
0.9119999984,7,160260.6406250000,145735.5937500000,170295.7031250000,160209.5000000000,129819.1718750000,66964.6328125000,115906.9843750000,147596.9687500000,,,
0.9159999983,7,160129.8593750000,145869.7031250000,170149.9531250000,160088.5000000000,129714.5937500000,66903.1796875000,115769.2265625000,148004.0156250000,,,
0.9199999985,7,159135.4531250000,145907.7968750000,169155.5468750000,159159.1093750000,128818.1250000000,66004.8515625000,114839.1406250000,148891.1093750000,,,
0.9239999985,7,158645.5468750000,145787.8437500000,168681.7031250000,158699.8593750000,128351.6562500000,65503.2539062500,114386.1718750000,149018.1562500000,,,
0.9279999984,7,159332.0625000000,145676.5000000000,169378.5937500000,159344.7968750000,128949.8984375000,66096.9375000000,115035.1093750000,148212.6875000000,,,
0.9319999984,7,160245.2968750000,145722.5781250000,170283.7968750000,160208.6093750000,129782.5390625000,66954.5468750000,115888.9062500000,147582.0312500000,,,
0.9359999984,7,160119.7500000000,145853.8750000000,170143.7812500000,160091.7656250000,129693.0859375000,66896.7421875000,115759.8906250000,147982.9062500000,,,
0.9399999985,7,159128.3750000000,145895.6406250000,169151.6562500000,159159.4843750000,128803.5546875000,66006.9765625000,114827.8515625000,148872.2968750000,,,
0.9439999985,7,158630.6093750000,145777.3593750000,168668.6406250000,158689.3281250000,128332.0781250000,65511.9179687500,114367.6953125000,149006.6875000000,,,
0.9479999985,7,159312.9062500000,145665.4062500000,169357.9531250000,159333.2500000000,128922.5937500000,66084.5156250000,114997.1250000000,148207.2968750000,,,
0.9519999984,7,160231.1093750000,145708.4531250000,170263.4531250000,160191.8906250000,129756.2812500000,66933.5156250000,115844.7578125000,147570.0312500000,,,
0.9559999984,7,160125.0625000000,145851.9687500000,170141.7656250000,160085.8906250000,129687.8515625000,66892.9843750000,115743.9843750000,147975.7187500000,,,
0.9599999983,7,159129.8281250000,145894.5937500000,169148.2812500000,159154.8750000000,128798.0078125000,65999.5937500000,114814.5468750000,148865.8593750000,,,
0.9639999985,7,158630.6875000000,145781.8593750000,168665.7187500000,158689.5312500000,128328.0000000000,65492.2304687500,114353.4765625000,149008.6406250000,,,
0.9679999985,7,159308.8906250000,145673.1562500000,169351.4531250000,159325.9687500000,128917.7421875000,66063.2500000000,114983.6093750000,148213.6093750000,,,
0.9719999984,7,160232.4062500000,145723.7343750000,170263.9218750000,160194.0937500000,129757.1640625000,66925.5234375000,115837.9453125000,147579.7968750000,,,
0.9759999984,7,160125.9218750000,145860.5312500000,170140.7500000000,160094.0781250000,129682.5937500000,66880.1640625000,115727.4375000000,147975.4218750000,,,
0.9799999984,7,159145.2656250000,145910.7500000000,169159.5937500000,159173.4062500000,128803.1796875000,66002.2265625000,114802.4218750000,148874.3125000000,,,
0.9839999985,7,158636.9062500000,145791.6718750000,168667.7031250000,158698.2031250000,128322.8515625000,65492.4726562500,114325.0703125000,149019.9375000000,33029,0.9857775909,0.0000000000
0.9879999985,7,159313.2343750000,145682.6250000000,169353.6875000000,159332.1718750000,128912.9140625000,66061.5546875000,114958.3125000000,148227.3437500000,,,
0.9919999985,7,160237.8125000000,145728.2187500000,170271.1250000000,160194.7656250000,129758.4765625000,66918.6562500000,115825.5781250000,147586.0781250000,,,
0.9959999984,7,160138.2031250000,145865.2812500000,170158.1093750000,160100.4843750000,129696.3828125000,66887.7031250000,115722.4765625000,147973.7968750000,,,
0.9999999984,7,159147.0156250000,145907.9218750000,169166.3750000000,159172.0937500000,128809.9687500000,66008.3437500000,114784.2890625000,148863.7500000000,,,
1.0039999983,7,158638.3125000000,145795.2656250000,168673.0781250000,158695.4062500000,128330.5468750000,65491.6953125000,114309.2734375000,149018.0781250000,,,
1.0079999985,7,159313.3437500000,145687.7968750000,169359.0937500000,159328.5781250000,128921.4687500000,66055.9218750000,114950.2656250000,148231.2500000000,,,
1.0119999985,7,160235.7812500000,145728.2968750000,170271.1875000000,160194.5312500000,129760.5703125000,66916.4062500000,115805.7031250000,147584.3281250000,,,
1.0159999984,7,160145.2500000000,145865.2812500000,170164.4531250000,160112.9843750000,129701.2421875000,66888.2109375000,115701.3359375000,147964.2968750000,,,
1.0199999984,7,159161.3437500000,145911.1406250000,169181.5937500000,159189.2812500000,128822.7890625000,66011.5625000000,114779.2265625000,148853.5312500000,,,
1.0239999983,8,158638.4375000000,145792.8593750000,168677.6562500000,158696.7031250000,128334.3593750000,65486.4375000000,114301.9765625000,149009.7656250000,,,
1.0279999983,8,159309.0781250000,145688.0312500000,169358.6406250000,159326.5312500000,128918.8906250000,66059.1406250000,114931.6015625000,148236.0000000000,,,
1.0319999983,8,160238.4375000000,145732.2656250000,170278.3437500000,160200.4218750000,129763.7343750000,66922.5703125000,115791.0625000000,147588.4062500000,,,
1.0359999982,8,160153.4687500000,145869.1093750000,170178.8437500000,160121.2812500000,129712.6640625000,66887.3515625000,115709.0625000000,147961.4062500000,,,
1.0399999982,8,159176.7656250000,145924.7500000000,169200.6875000000,159204.7031250000,128837.3515625000,66015.5546875000,114788.7734375000,148859.3437500000,,,
1.0439999981,8,158654.0000000000,145817.4218750000,168691.3906250000,158709.5468750000,128344.8437500000,65502.6367187500,114302.1640625000,149032.5156250000,,,
1.0479999983,8,159308.8593750000,145704.6093750000,169355.9062500000,159321.2187500000,128916.8828125000,66057.8281250000,114918.2187500000,148258.4062500000,,,
1.0519999983,8,160244.1718750000,145746.7031250000,170282.4218750000,160196.0000000000,129767.7031250000,66922.1171875000,115784.3515625000,147608.3125000000,,,
1.0559999982,8,160165.4843750000,145881.0156250000,170186.5937500000,160121.4843750000,129717.2265625000,66898.1875000000,115690.6406250000,147975.1875000000,,,
1.0599999982,8,159193.3593750000,145934.4843750000,169212.2968750000,159206.0000000000,128846.1250000000,66027.2500000000,114777.2890625000,148867.1875000000,,,
1.0639999982,8,158669.9843750000,145829.5312500000,168704.6875000000,158709.6093750000,128355.4375000000,65504.1406250000,114299.0234375000,149045.9218750000,,,
1.0679999983,8,159324.6562500000,145721.4531250000,169370.4218750000,159324.8750000000,128925.4609375000,66053.4531250000,114914.7265625000,148275.0781250000,,,
1.0719999983,8,160248.0625000000,145754.5000000000,170285.8593750000,160193.5625000000,129765.3671875000,66913.6953125000,115769.4375000000,147613.3281250000,,,
1.0759999983,8,160159.5312500000,145876.8437500000,170180.0468750000,160109.9062500000,129706.2812500000,66897.0390625000,115668.3984375000,147968.1250000000,,,
1.0799999982,8,159186.2812500000,145931.3437500000,169203.2031250000,159197.5468750000,128832.1250000000,66027.3281250000,114746.2343750000,148864.0625000000,,,
1.0839999982,8,158655.3125000000,145822.4218750000,168688.8750000000,158698.8437500000,128333.9843750000,65482.7617187500,114258.4453125000,149042.3593750000,,,
1.0879999981,8,159313.7500000000,145718.2343750000,169361.7031250000,159314.8906250000,128913.9843750000,66034.6250000000,114895.0703125000,148280.6406250000,,,
1.0919999983,8,160248.2031250000,145754.6406250000,170285.3125000000,160191.0625000000,129763.6015625000,66912.0078125000,115761.1796875000,147620.7031250000,,,
1.0959999983,8,160174.0625000000,145880.7500000000,170193.7500000000,160122.7187500000,129716.5312500000,66896.1015625000,115672.0468750000,147967.3281250000,,,
1.0999999982,8,159203.7656250000,145936.1406250000,169221.4687500000,159211.6250000000,128847.6250000000,66030.3359375000,114760.9296875000,148860.7500000000,,,
1.1039999982,8,158662.4531250000,145826.4687500000,168694.0937500000,158707.7187500000,128334.7343750000,65489.9257812500,114253.5625000000,149046.4531250000,,,
1.1079999981,8,159315.0781250000,145722.6406250000,169356.6875000000,159314.2812500000,128902.9843750000,66041.6015625000,114869.5859375000,148288.7031250000,,,
1.1119999983,8,160253.4531250000,145759.2031250000,170285.9375000000,160189.5156250000,129755.3906250000,66917.9843750000,115743.1250000000,147624.8125000000,,,
1.1159999983,8,160187.3437500000,145884.0468750000,170204.7968750000,160127.5781250000,129719.9609375000,66914.6093750000,115675.7265625000,147969.2500000000,,,
1.1199999982,8,159215.7812500000,145934.8281250000,169233.0312500000,159222.0625000000,128852.5312500000,66041.4921875000,114767.1250000000,148857.0625000000,,,
1.1239999982,8,158663.7968750000,145822.4687500000,168694.7187500000,158705.2500000000,128333.2890625000,65491.0234375000,114247.8203125000,149043.1562500000,,,
1.1279999982,8,159304.2812500000,145712.9218750000,169345.5468750000,159303.6875000000,128891.2421875000,66032.4843750000,114850.4921875000,148282.0781250000,,,
1.1319999981,8,160245.9375000000,145754.2812500000,170280.0625000000,160192.1718750000,129751.1796875000,66908.4140625000,115736.3671875000,147618.3437500000,,,
1.1359999983,8,160190.3437500000,145885.2812500000,170208.0781250000,160143.3437500000,129723.3437500000,66910.0234375000,115674.2500000000,147960.7812500000,,,
1.1399999983,8,159220.4531250000,145937.3750000000,169234.4375000000,159232.4687500000,128852.0234375000,66041.7109375000,114755.9453125000,148851.7812500000,,,
1.1439999982,8,158664.8281250000,145831.7187500000,168693.1562500000,158707.8281250000,128328.6953125000,65499.7695312500,114236.8515625000,149051.6406250000,,,
1.1479999982,8,159297.7812500000,145722.7968750000,169342.4687500000,159296.8906250000,128885.2812500000,66026.2578125000,114852.3671875000,148298.0625000000,,,
1.1519999981,9,160237.0468750000,145755.6562500000,170274.6250000000,160178.6250000000,129740.4765625000,66894.0859375000,115729.6406250000,147624.5937500000,,,
1.1559999981,9,160193.2656250000,145888.7500000000,170214.4531250000,160138.2812500000,129724.3593750000,66911.3359375000,115675.0546875000,147962.0937500000,,,
1.1599999981,9,159222.1406250000,145939.5781250000,169240.6875000000,159228.5781250000,128855.9375000000,66041.4140625000,114758.8125000000,148849.6406250000,,,
1.1639999980,9,158663.4687500000,145831.2656250000,168695.6875000000,158703.7500000000,128331.8671875000,65488.5820312500,114238.3281250000,149053.2187500000,,,
1.1679999980,9,159284.3125000000,145715.3750000000,169326.7500000000,159285.4687500000,128869.8593750000,66001.1796875000,114816.4218750000,148295.9843750000,,,
1.1719999979,9,160222.3906250000,145744.4375000000,170255.9218750000,160168.3750000000,129720.5234375000,66861.8750000000,115682.7500000000,147612.2343750000,,,
1.1759999981,9,160186.9843750000,145877.4218750000,170205.0625000000,160131.4218750000,129712.4765625000,66884.4609375000,115644.7421875000,147943.1875000000,,,
1.1799999981,9,159226.5156250000,145938.6406250000,169241.4843750000,159227.8593750000,128853.6875000000,66033.2031250000,114747.3281250000,148839.6406250000,,,
1.1839999980,9,158660.8437500000,145832.7656250000,168689.7812500000,158697.2656250000,128320.8125000000,65472.6757812500,114223.6562500000,149052.6250000000,,,
1.1879999980,9,159276.5468750000,145715.0468750000,169316.3125000000,159274.1250000000,128854.8125000000,65984.5000000000,114804.5937500000,148301.5000000000,,,
1.1919999979,9,160221.7187500000,145740.3437500000,170252.7031250000,160160.5156250000,129714.3515625000,66856.1093750000,115682.6953125000,147614.4531250000,,,
1.1959999981,9,160198.7656250000,145869.8437500000,170215.5312500000,160136.0000000000,129720.0156250000,66887.7031250000,115659.0390625000,147930.7343750000,,,
1.1999999981,9,159245.1875000000,145936.2187500000,169260.2343750000,159240.0156250000,128869.1406250000,66039.3750000000,114767.3125000000,148827.6406250000,,,
1.2039999980,9,158673.8437500000,145833.6250000000,168701.2031250000,158703.0625000000,128332.3437500000,65474.4726562500,114230.9765625000,149048.7187500000,,,
1.2079999980,9,159278.6875000000,145713.6562500000,169314.5781250000,159267.5312500000,128855.8593750000,65970.3359375000,114790.4375000000,148301.2031250000,,,
1.2119999980,9,160227.3906250000,145745.2812500000,170254.4687500000,160151.9843750000,129720.4687500000,66856.1093750000,115676.7187500000,147622.7500000000,,,
1.2159999979,9,160202.0625000000,145881.8593750000,170212.7343750000,160127.6250000000,129723.2578125000,66894.5468750000,115647.0234375000,147947.8281250000,,,
1.2199999981,9,159243.7968750000,145941.4531250000,169251.2500000000,159229.7343750000,128865.0859375000,66040.2578125000,114745.5078125000,148838.8906250000,,,
1.2239999981,9,158675.2500000000,145842.3750000000,168698.4687500000,158698.4375000000,128331.2968750000,65476.5664062500,114219.2812500000,149062.8437500000,,,
1.2279999980,9,159269.1406250000,145723.7187500000,169305.2968750000,159256.9843750000,128845.3437500000,65970.7890625000,114779.5156250000,148318.6406250000,,,
1.2319999980,9,160214.2343750000,145750.1875000000,170244.9843750000,160151.3125000000,129704.4296875000,66847.5000000000,115659.6328125000,147628.1406250000,,,
1.2359999979,9,160198.1718750000,145881.4531250000,170214.9687500000,160139.4531250000,129713.6328125000,66893.9765625000,115634.3671875000,147937.2343750000,,,
1.2399999981,9,159253.0468750000,145948.9687500000,169270.1875000000,159251.3593750000,128871.4140625000,66049.0312500000,114755.4609375000,148836.1406250000,,,
1.2439999981,9,158676.3750000000,145850.0156250000,168708.3906250000,158710.4843750000,128331.1640625000,65474.9023437500,114218.8828125000,149071.3750000000,,,
1.2479999980,9,159264.9843750000,145729.7812500000,169306.1250000000,159259.3750000000,128838.6640625000,65971.6718750000,114764.6015625000,148331.8906250000,,,
1.2519999980,9,160217.8281250000,145757.2656250000,170254.1250000000,160149.5156250000,129706.0937500000,66852.8906250000,115656.5234375000,147639.3750000000,,,
1.2559999980,9,160212.5781250000,145886.6562500000,170236.0468750000,160147.8281250000,129727.7421875000,66898.4062500000,115648.1796875000,147942.9687500000,,,
1.2599999979,9,159257.5312500000,145945.0000000000,169279.2187500000,159255.5156250000,128875.0625000000,66044.4453125000,114752.8828125000,148831.2187500000,,,
1.2639999981,9,158663.8125000000,145840.9218750000,168699.1406250000,158695.4062500000,128317.5156250000,65462.3515625000,114200.5390625000,149066.0156250000,,,
1.2679999981,9,159243.1250000000,145711.8906250000,169287.4062500000,159240.2031250000,128812.6796875000,65938.4140625000,114731.5312500000,148322.4218750000,,,
1.2719999980,9,160207.3750000000,145742.7500000000,170243.1093750000,160146.2187500000,129686.6718750000,66821.0234375000,115628.3046875000,147628.4218750000,,,
1.2759999980,9,160220.6562500000,145884.3750000000,170242.8593750000,160158.0468750000,129725.7031250000,66882.9062500000,115642.0078125000,147938.0312500000,,,
1.2799999979,10,159271.9531250000,145949.4218750000,169291.9843750000,159266.8593750000,128876.9921875000,66041.6796875000,114751.0859375000,148829.0625000000,,,
1.2839999979,10,158673.5781250000,145847.3906250000,168706.0312500000,158701.5312500000,128314.0234375000,65462.5664062500,114195.8984375000,149071.2500000000,,,
1.2879999978,10,159258.8437500000,145728.6250000000,169302.0156250000,159249.7656250000,128817.3671875000,65945.5546875000,114740.9765625000,148338.5156250000,,,
1.2919999978,10,160214.8281250000,145751.7656250000,170248.3125000000,160147.3750000000,129680.2109375000,66823.8906250000,115617.0078125000,147635.5937500000,,,
1.2959999978,10,160216.8906250000,145874.1875000000,170233.9531250000,160149.3281250000,129703.6250000000,66875.9843750000,115606.8984375000,147920.4687500000,,,
1.2999999977,10,159279.6718750000,145950.6562500000,169294.3750000000,159267.8281250000,128868.4375000000,66047.1015625000,114735.6875000000,148823.4531250000,,,
1.3039999979,10,158685.1875000000,145856.7500000000,168714.5156250000,158710.2968750000,128311.2890625000,65461.7070312500,114184.5000000000,149080.5781250000,,,
1.3079999979,10,159256.7500000000,145729.9843750000,169297.5468750000,159246.9843750000,128802.7265625000,65933.2968750000,114725.7656250000,148347.8437500000,,,
1.3119999978,10,160215.9843750000,145752.1093750000,170249.6250000000,160152.5156250000,129671.5468750000,66814.7500000000,115618.1875000000,147637.8750000000,,,
1.3159999978,10,160225.0156250000,145879.3281250000,170242.5937500000,160165.9687500000,129700.7265625000,66870.3203125000,115614.3281250000,147918.1562500000,,,
1.3199999977,10,159289.6250000000,145954.7500000000,169304.2812500000,159284.8593750000,128864.1484375000,66045.5937500000,114736.0937500000,148814.5625000000,,,
1.3239999979,10,158670.6250000000,145851.1406250000,168699.9531250000,158704.2968750000,128284.1718750000,65444.2460937500,114161.4296875000,149067.6718750000,,,
1.3279999979,10,159231.6093750000,145720.0937500000,169272.2812500000,159230.2656250000,128766.9687500000,65901.3203125000,114691.0625000000,148333.4687500000,,,
1.3319999978,10,160188.5468750000,145736.1562500000,170220.6562500000,160129.7187500000,129632.4140625000,66779.7421875000,115573.4218750000,147620.3593750000,,,
1.3359999978,10,160219.4687500000,145872.3125000000,170237.0937500000,160155.0781250000,129685.8671875000,66863.6718750000,115597.8906250000,147904.1562500000,,,
1.3399999978,10,159295.7187500000,145957.2812500000,169312.1562500000,159286.9531250000,128863.1796875000,66043.8828125000,114734.9375000000,148812.3593750000,,,
1.3439999977,10,158691.6093750000,145868.0156250000,168722.3125000000,158721.7812500000,128297.3437500000,65451.2460937500,114170.2578125000,149082.4062500000,,,
1.3479999979,10,159248.6406250000,145738.5937500000,169292.6875000000,159241.3750000000,128778.7500000000,65912.3750000000,114702.0859375000,148354.8593750000,,,
1.3519999979,10,160197.7968750000,145744.5000000000,170235.5156250000,160131.2187500000,129638.6328125000,66791.5703125000,115586.5390625000,147633.2500000000,,,
1.3559999978,10,160227.1718750000,145872.7343750000,170249.1406250000,160162.6875000000,129688.0156250000,66873.1406250000,115604.0312500000,147902.4687500000,,,
1.3599999978,10,159291.6093750000,145945.6093750000,169310.7343750000,159283.3593750000,128854.4921875000,66045.2734375000,114733.0859375000,148797.3593750000,,,
1.3639999977,10,158675.8281250000,145849.2656250000,168709.5156250000,158706.8125000000,128280.0703125000,65443.7382812500,114166.9296875000,149067.5156250000,,,
1.3679999979,10,159231.7968750000,145724.2812500000,169275.6250000000,159228.5000000000,128758.4453125000,65901.4531250000,114689.7734375000,148353.3437500000,,,
1.3719999979,10,160187.4218750000,145734.8437500000,170223.5468750000,160123.1562500000,129623.4296875000,66782.5312500000,115576.3750000000,147629.9531250000,,,
1.3759999978,10,160223.3593750000,145864.2812500000,170244.6875000000,160161.4531250000,129678.4921875000,66868.7109375000,115600.2187500000,147890.5156250000,,,
1.3799999978,10,159293.3281250000,145938.8593750000,169310.6093750000,159293.6562500000,128847.5468750000,66042.3750000000,114729.0390625000,148783.1718750000,,,
1.3839999977,10,158679.2968750000,145853.0468750000,168709.4375000000,158719.5468750000,128273.5234375000,65444.7812500000,114160.2500000000,149066.7031250000,,,
1.3879999977,10,159225.3125000000,145728.6406250000,169267.0937500000,159235.3437500000,128740.9296875000,65900.8359375000,114674.1328125000,148352.0937500000,,,
1.3919999979,10,160173.8750000000,145736.0781250000,170208.9375000000,160127.5468750000,129597.8671875000,66779.3437500000,115550.9765625000,147621.0781250000,,,
1.3959999979,10,160212.6093750000,145860.0468750000,170231.6250000000,160164.8125000000,129653.6796875000,66864.2343750000,115573.4765625000,147873.1250000000,,,
1.3999999978,10,159293.6718750000,145941.9375000000,169306.4218750000,159299.3125000000,128830.3828125000,66048.0078125000,114704.9531250000,148771.6093750000,,,
1.4039999978,10,158666.0625000000,145850.5468750000,168693.0781250000,158707.1406250000,128244.4218750000,65436.8984375000,114122.5937500000,149061.3125000000,,,
1.4079999977,11,159205.4687500000,145724.0625000000,169248.3281250000,159213.4062500000,128714.6171875000,65880.2890625000,114644.0937500000,148354.4687500000,,,
1.4119999977,11,160168.1875000000,145734.8437500000,170204.3125000000,160113.4687500000,129589.5000000000,66764.9921875000,115542.7656250000,147628.4531250000,,,
1.4159999976,11,160231.8593750000,145869.5156250000,170249.5156250000,160166.2031250000,129670.1484375000,66869.1406250000,115588.6328125000,147885.1718750000,,,
1.4199999976,11,159316.2031250000,145955.1093750000,169330.7968750000,159306.9062500000,128855.0312500000,66054.3984375000,114729.3046875000,148787.8750000000,,,
1.4239999976,11,158686.3750000000,145869.7812500000,168715.4218750000,158711.2656250000,128268.8593750000,65448.0273437500,114148.0468750000,149087.6875000000,,,
1.4279999975,11,159216.2500000000,145736.1875000000,169256.8750000000,159203.3750000000,128722.1484375000,65881.4765625000,114646.4296875000,148377.8437500000,,,
1.4319999977,11,160184.0156250000,145749.6718750000,170218.2343750000,160109.9843750000,129597.3046875000,66771.3750000000,115543.2500000000,147644.2343750000,,,
1.4359999977,11,160241.8750000000,145877.4218750000,170259.8593750000,160161.7500000000,129670.9843750000,66878.7187500000,115583.1093750000,147889.6718750000,,,
1.4399999976,11,159319.5937500000,145953.7187500000,169334.1250000000,159297.9218750000,128848.7500000000,66061.1562500000,114715.4140625000,148780.7343750000,,,
1.4439999976,11,158688.1250000000,145867.5000000000,168717.4375000000,158709.0625000000,128262.1562500000,65446.1250000000,114130.3671875000,149080.9062500000,,,
1.4479999975,11,159217.7187500000,145738.7343750000,169259.4218750000,159205.7812500000,128720.9453125000,65880.8828125000,114638.2734375000,148383.8125000000,,,
1.4519999977,11,160188.2187500000,145748.2812500000,170221.0312500000,160115.6406250000,129600.4687500000,66774.8359375000,115540.2734375000,147648.5937500000,,,
1.4559999977,11,160253.3750000000,145873.4062500000,170266.0312500000,160177.6093750000,129678.8984375000,66889.3671875000,115587.4765625000,147883.7812500000,,,
1.4599999976,11,159331.9062500000,145952.9375000000,169339.0625000000,159314.5156250000,128857.2031250000,66076.8750000000,114723.5703125000,148780.3593750000,,,
1.4639999976,11,158689.3437500000,145867.1093750000,168710.5937500000,158711.8593750000,128259.4687500000,65448.6171875000,114126.7500000000,149086.6718750000,,,
1.4679999975,11,159205.8593750000,145731.6250000000,169240.2031250000,159197.2812500000,128702.4140625000,65865.0078125000,114610.6718750000,148377.8593750000,,,
1.4719999975,11,160180.6250000000,145742.1718750000,170211.3437500000,160112.3125000000,129586.4140625000,66759.2031250000,115521.0390625000,147633.0625000000,,,
1.4759999977,11,160252.3281250000,145872.5468750000,170267.6250000000,160182.5156250000,129672.8593750000,66878.9609375000,115576.3203125000,147865.2343750000,,,
1.4799999977,11,159331.9843750000,145953.0937500000,169342.2343750000,159322.5625000000,128849.1796875000,66069.4140625000,114704.8437500000,148762.4687500000,,,
1.4839999976,11,158687.7968750000,145869.7656250000,168712.5312500000,158719.8281250000,128249.9218750000,65441.8867187500,114109.7187500000,149079.9531250000,,,
1.4879999976,11,159199.9062500000,145742.1406250000,169239.1718750000,159194.0312500000,128693.6953125000,65864.2812500000,114604.8515625000,148392.3750000000,,,
1.4919999975,11,160171.0781250000,145749.4375000000,170205.3125000000,160099.7656250000,129576.0312500000,66761.6640625000,115515.1640625000,147649.2656250000,,,
1.4959999977,11,160267.4062500000,145886.0156250000,170285.8906250000,160193.3125000000,129687.0234375000,66901.6484375000,115597.5937500000,147874.8750000000,,,
1.4999999977,11,159354.0000000000,145967.3593750000,169367.3281250000,159342.5468750000,128871.8984375000,66093.6093750000,114738.9609375000,148766.6718750000,,,
1.5039999976,11,158688.8750000000,145873.4531250000,168714.0781250000,158719.6406250000,128252.2031250000,65447.4921875000,114117.4921875000,149084.0156250000,,,
1.5079999976,11,159191.3750000000,145739.7500000000,169231.4218750000,159185.2343750000,128686.5859375000,65853.3359375000,114594.2343750000,148395.1875000000,,,
1.5119999975,11,160169.0156250000,145747.6406250000,170205.8750000000,160096.1406250000,129576.9453125000,66756.1406250000,115513.5312500000,147649.6250000000,,,
1.5159999975,11,160275.3125000000,145887.7500000000,170297.2031250000,160187.6406250000,129698.5000000000,66913.4296875000,115609.7421875000,147879.4062500000,,,
1.5199999977,11,159381.8437500000,145986.0781250000,169399.2031250000,159346.0156250000,128904.1640625000,66124.7500000000,114770.3437500000,148786.9218750000,,,
1.5239999976,11,158716.5156250000,145898.7187500000,168746.3281250000,158721.7187500000,128284.6015625000,65478.2304687500,114149.8984375000,149111.3125000000,,,
1.5279999976,11,159214.8281250000,145767.1875000000,169255.4531250000,159189.2031250000,128711.8281250000,65882.9453125000,114620.2187500000,148428.3125000000,,,
1.5319999976,11,160183.2656250000,145768.3125000000,170218.7187500000,160097.4062500000,129590.5156250000,66780.0156250000,115521.8750000000,147673.8437500000,,,
1.5359999975,12,160275.0781250000,145888.3750000000,170294.9218750000,160183.6093750000,129698.4765625000,66924.2890625000,115601.1093750000,147878.3906250000,,,
1.5399999975,12,159377.1562500000,145976.9687500000,169394.8750000000,159342.0468750000,128905.6171875000,66130.7812500000,114774.6640625000,148778.3750000000,,,
1.5439999974,12,158708.4531250000,145891.0625000000,168741.1718750000,158714.3750000000,128289.5156250000,65485.9531250000,114172.3437500000,149114.0468750000,,,
1.5479999974,12,159196.0468750000,145755.4375000000,169239.0468750000,159168.0468750000,128704.2109375000,65888.5781250000,114635.9375000000,148430.2812500000,,,
1.5519999973,12,160167.1718750000,145757.3125000000,170201.6562500000,160078.0312500000,129579.5468750000,66787.4453125000,115535.6093750000,147670.2500000000,,,
1.5559999973,12,160281.6250000000,145892.2812500000,170300.2812500000,160189.8906250000,129705.4765625000,66950.1171875000,115630.4218750000,147878.9531250000,,,
1.5599999975,12,159381.7656250000,145977.7968750000,169396.8906250000,159350.5468750000,128905.1093750000,66161.1484375000,114783.0859375000,148773.4843750000,,,
1.5639999975,12,158706.1406250000,145890.6562500000,168737.4375000000,158718.0312500000,128281.5156250000,65511.7304687500,114160.4921875000,149108.0625000000,,,
1.5679999974,12,159179.9062500000,145746.5625000000,169222.5781250000,159166.2500000000,128681.9453125000,65888.1250000000,114600.0546875000,148420.1562500000,,,
1.5719999974,12,160157.7031250000,145746.5937500000,170194.5781250000,160086.8906250000,129565.4375000000,66780.5781250000,115511.6015625000,147656.3437500000,,,
1.5759999973,12,160276.5156250000,145881.1562500000,170300.2031250000,160200.8906250000,129700.7031250000,66950.1718750000,115630.2109375000,147862.7968750000,,,
1.5799999975,12,159384.7343750000,145974.8437500000,169404.2343750000,159367.7031250000,128908.6171875000,66171.2578125000,114795.5859375000,148764.9062500000,,,
1.5839999975,12,158710.3593750000,145895.7968750000,168741.3125000000,158732.0312500000,128280.6640625000,65523.0781250000,114161.3750000000,149116.3593750000,,,
1.5879999974,12,159188.0468750000,145765.3593750000,169230.3281250000,159177.8906250000,128687.7421875000,65907.7343750000,114608.2890625000,148446.2343750000,,,
1.5919999974,12,160165.0781250000,145768.0468750000,170203.2968750000,160093.0781250000,129575.2265625000,66804.0703125000,115523.8828125000,147684.3593750000,,,
1.5959999973,12,160289.6406250000,145900.1718750000,170314.3750000000,160208.3437500000,129714.7031250000,66973.3984375000,115637.4531250000,147880.6406250000,,,
1.5999999973,12,159407.3281250000,145997.1406250000,169429.3750000000,159381.0625000000,128934.3125000000,66199.7421875000,114816.6953125000,148783.3593750000,,,
1.6039999975,12,158734.1406250000,145922.7656250000,168771.5312500000,158754.9062500000,128313.0078125000,65550.2734375000,114195.6796875000,149143.5781250000,,,
1.6079999974,12,159205.1718750000,145787.0937500000,169252.8281250000,159191.9687500000,128711.4531250000,65925.1640625000,114632.0781250000,148474.2656250000,,,
1.6119999974,12,160184.1718750000,145782.7968750000,170224.0000000000,160104.1406250000,129594.3281250000,66822.8515625000,115541.3750000000,147701.0312500000,,,
1.6159999974,12,160311.0156250000,145905.5625000000,170334.7812500000,160220.1406250000,129732.5390625000,66991.3750000000,115655.9843750000,147883.7812500000,,,
1.6199999973,12,159422.8593750000,145995.0937500000,169441.2812500000,159383.5312500000,128943.8359375000,66207.7890625000,114827.0234375000,148781.8906250000,,,
1.6239999975,12,158728.9375000000,145911.5468750000,168759.5468750000,158730.9062500000,128299.0312500000,65535.5468750000,114186.5859375000,149143.9531250000,,,
1.6279999975,12,159193.6093750000,145773.4062500000,169236.2812500000,159167.7031250000,128695.1718750000,65906.5234375000,114628.2656250000,148471.9375000000,,,
1.6319999974,12,160170.5468750000,145764.7500000000,170205.6250000000,160085.3593750000,129578.5546875000,66807.6640625000,115530.9375000000,147687.6250000000,,,
1.6359999974,12,160307.3593750000,145890.9687500000,170325.8750000000,160212.4218750000,129726.9062500000,66997.1953125000,115651.9609375000,147865.7187500000,,,
1.6399999973,12,159430.8437500000,145990.6718750000,169446.7343750000,159390.7968750000,128953.1171875000,66227.7734375000,114842.0703125000,148773.9218750000,,,
1.6439999973,12,158733.7656250000,145908.7343750000,168766.3906250000,158738.0625000000,128310.0859375000,65549.6015625000,114202.7656250000,149138.4531250000,,,
1.6479999975,12,159190.6250000000,145774.4375000000,169236.7968750000,159164.0000000000,128699.1953125000,65917.3359375000,114633.7656250000,148476.4062500000,,,
1.6519999974,12,160169.3125000000,145767.5937500000,170209.4062500000,160087.0468750000,129581.7734375000,66809.1406250000,115533.5937500000,147694.0937500000,,,
1.6559999974,12,160303.4531250000,145882.7968750000,170327.7812500000,160218.6718750000,129724.5234375000,66970.6406250000,115642.8125000000,147853.7812500000,,,
1.6599999974,12,159421.5937500000,145979.0781250000,169439.8906250000,159389.4375000000,128942.5234375000,66203.4453125000,114820.2578125000,148754.6093750000,,,
1.6639999973,13,158716.6093750000,145901.0937500000,168746.3281250000,158724.9687500000,128287.7968750000,65536.5156250000,114165.9921875000,149129.9843750000,,,
1.6679999973,13,159162.3593750000,145761.7500000000,169204.8125000000,159142.3281250000,128665.3984375000,65887.7734375000,114586.9921875000,148467.8281250000,,,
1.6719999972,13,160144.6406250000,145759.3906250000,170184.8125000000,160064.1718750000,129556.1328125000,66784.3593750000,115508.5937500000,147686.0468750000,,,
1.6759999972,13,160301.2812500000,145891.7500000000,170327.5312500000,160212.0937500000,129722.8046875000,66985.1250000000,115650.1875000000,147858.3437500000,,,
1.6799999971,13,159426.6093750000,145989.2968750000,169446.1406250000,159389.4843750000,128945.3671875000,66223.0234375000,114824.6093750000,148759.1718750000,,,
1.6839999971,13,158715.6562500000,145907.8750000000,168747.0156250000,158719.5000000000,128285.0078125000,65539.1718750000,114153.6250000000,149137.3906250000,,,
1.6879999973,13,159161.7187500000,145774.7500000000,169203.3125000000,159135.7031250000,128659.4453125000,65888.8203125000,114564.3750000000,148486.9218750000,,,
1.6919999972,13,160148.9843750000,145770.6250000000,170185.2968750000,160059.2031250000,129552.0546875000,66791.2812500000,115488.7500000000,147701.2187500000,,,
1.6959999972,13,160312.8437500000,145897.6562500000,170334.4843750000,160208.0468750000,129725.1406250000,66995.8515625000,115640.0546875000,147860.5156250000,,,
1.6999999972,13,159451.0156250000,145999.3281250000,169464.6250000000,159398.9531250000,128960.8437500000,66234.4531250000,114828.7343750000,148759.1718750000,,,
1.7039999971,13,158729.9062500000,145914.0937500000,168754.1875000000,158726.5312500000,128291.8203125000,65537.6171875000,114153.4609375000,149138.3750000000,,,
1.7079999973,13,159160.9375000000,145773.5937500000,169198.0625000000,159133.7656250000,128657.4296875000,65877.6406250000,114564.1875000000,148488.0781250000,,,
1.7119999973,13,160144.5000000000,145762.8750000000,170176.7656250000,160058.7812500000,129545.4296875000,66775.6953125000,115482.3671875000,147693.6406250000,,,
1.7159999972,13,160304.9062500000,145880.4375000000,170321.0937500000,160211.7500000000,129711.7500000000,66974.0468750000,115621.2187500000,147835.4375000000,,,
1.7199999972,13,159425.0781250000,145966.9843750000,169434.8437500000,159389.0312500000,128930.4531250000,66199.8515625000,114793.5468750000,148722.0781250000,,,
1.7239999971,13,158714.4843750000,145894.1875000000,168738.4687500000,158724.7031250000,128274.2734375000,65506.4726562500,114134.5546875000,149118.9531250000,,,
1.7279999971,13,159140.9531250000,145753.6406250000,169177.8906250000,159126.5312500000,128634.2265625000,65821.9843750000,114530.5859375000,148470.5156250000,,,
1.7319999973,13,160128.5468750000,145744.8281250000,170160.4843750000,160053.9531250000,129525.6093750000,66691.4218750000,115445.5078125000,147673.5468750000,,,
1.7359999972,13,160309.2656250000,145876.4843750000,170328.4531250000,160221.4062500000,129717.2812500000,66882.7187500000,115618.9453125000,147826.4375000000,,,
1.7399999972,13,159443.5312500000,145977.0781250000,169456.6562500000,159408.2656250000,128949.7343750000,66116.5390625000,114806.5781250000,148725.3125000000,,,
1.7439999972,13,158719.0468750000,145901.2968750000,168743.4843750000,158729.4218750000,128278.5937500000,65418.7382812500,114127.4765625000,149125.5781250000,,,
1.7479999971,13,159137.2812500000,145761.7968750000,169174.5937500000,159121.7187500000,128631.2500000000,65743.5234375000,114520.8984375000,148483.1093750000,,,
1.7519999973,13,160127.4218750000,145753.0000000000,170159.3906250000,160048.3437500000,129523.7578125000,66642.4140625000,115442.0234375000,147683.0156250000,,,
1.7559999973,13,160305.7031250000,145872.7812500000,170319.0312500000,160215.2343750000,129702.5781250000,66852.4843750000,115583.0546875000,147815.5156250000,,,
1.7599999972,13,159442.1875000000,145968.2187500000,169450.3437500000,159404.4062500000,128937.1015625000,66088.3281250000,114768.9218750000,148706.8437500000,,,
1.7639999972,13,158734.6562500000,145911.4375000000,168760.4375000000,158735.4531250000,128291.7656250000,65412.3828125000,114135.7343750000,149130.6562500000,,,
1.7679999971,13,159154.5468750000,145776.4375000000,169193.7343750000,159128.8593750000,128647.3437500000,65743.4218750000,114535.8125000000,148499.9375000000,,,
1.7719999971,13,160136.5937500000,145760.2187500000,170170.9218750000,160050.0937500000,129532.1015625000,66640.7812500000,115445.2187500000,147690.9218750000,,,
1.7759999973,13,160325.4687500000,145884.3281250000,170344.4062500000,160224.2968750000,129726.1328125000,66866.8906250000,115612.3203125000,147821.7968750000,,,
1.7799999972,13,159450.5937500000,145970.2343750000,169464.0781250000,159407.5937500000,128950.7031250000,66100.2890625000,114787.5937500000,148707.3281250000,,,
1.7839999972,13,158724.2656250000,145900.9062500000,168752.2187500000,158723.9218750000,128281.6796875000,65397.5742187500,114118.7812500000,149122.9062500000,,,
1.7879999971,13,159145.1718750000,145773.6250000000,169186.3593750000,159114.9843750000,128639.5937500000,65726.7656250000,114525.1875000000,148497.3281250000,,,
1.7919999971,14,160134.5000000000,145761.6875000000,170169.2343750000,160042.9531250000,129532.5546875000,66633.6953125000,115448.7031250000,147689.1562500000,,,
1.7959999971,14,160322.5781250000,145878.0468750000,170339.6875000000,160216.9218750000,129726.6093750000,66857.2343750000,115619.2109375000,147812.1406250000,,,
1.7999999970,14,159459.8906250000,145970.5312500000,169466.8437500000,159406.0625000000,128959.0703125000,66098.4375000000,114802.0234375000,148706.5937500000,,,
1.8039999970,14,158714.0000000000,145890.4687500000,168730.0156250000,158707.2187500000,128266.0937500000,65386.4453125000,114102.2343750000,149122.3593750000,,,
1.8079999969,14,159127.5468750000,145761.6718750000,169156.3750000000,159096.5156250000,128613.2812500000,65715.1796875000,114496.0078125000,148500.4687500000,,,
1.8119999969,14,160122.6406250000,145752.9531250000,170147.7187500000,160031.5312500000,129509.8125000000,66624.8984375000,115428.3437500000,147688.5937500000,,,
1.8159999971,14,160324.2187500000,145876.2812500000,170335.9531250000,160223.4375000000,129716.6875000000,66866.9140625000,115610.7109375000,147808.4531250000,,,
1.8199999970,14,159467.2500000000,145976.5156250000,169475.0000000000,159420.8125000000,128961.4843750000,66119.0390625000,114812.9687500000,148707.5156250000,,,
1.8239999970,14,158727.5781250000,145906.9062500000,168752.6250000000,158731.6250000000,128284.3906250000,65413.0781250000,114140.6953125000,149135.4843750000,,,
1.8279999970,14,159125.7968750000,145770.4062500000,169167.1406250000,159105.7343750000,128624.4375000000,65730.3281250000,114531.3593750000,148513.3906250000,,,
1.8319999969,14,160121.8437500000,145760.5312500000,170158.9062500000,160041.5000000000,129525.5312500000,66641.1562500000,115465.5468750000,147703.0000000000,,,
1.8359999971,14,160340.2187500000,145890.2187500000,170359.3750000000,160248.1406250000,129746.1953125000,66895.4531250000,115664.6171875000,147824.1718750000,,,
1.8399999971,14,159482.8593750000,145985.8125000000,169493.3125000000,159444.8281250000,128987.6640625000,66146.5312500000,114863.8984375000,148714.9062500000,,,
1.8439999970,14,158741.1718750000,145918.2500000000,168764.7812500000,158749.0625000000,128307.8046875000,65441.2968750000,114181.7109375000,149152.2500000000,,,
1.8479999970,14,159135.6093750000,145785.1562500000,169174.4218750000,159119.5000000000,128641.2578125000,65747.9531250000,114557.1875000000,148540.0625000000,,,
1.8519999969,14,160115.3750000000,145763.7500000000,170151.1562500000,160041.8593750000,129522.6328125000,66635.4140625000,115468.6015625000,147717.4843750000,,,
1.8559999969,14,160339.9843750000,145890.9218750000,170361.8437500000,160251.6875000000,129750.2421875000,66897.8671875000,115679.2109375000,147823.4218750000,,,
1.8599999971,14,159499.2187500000,145997.7187500000,169515.5000000000,159461.8750000000,129008.7187500000,66171.3359375000,114892.4687500000,148717.0312500000,,,
1.8639999970,14,158754.0156250000,145934.7968750000,168781.2656250000,158757.0000000000,128320.6250000000,65460.6601562500,114196.3828125000,149161.0937500000,,,
1.8679999970,14,159139.5312500000,145799.1562500000,169178.6406250000,159114.7031250000,128641.2812500000,65758.1171875000,114558.8281250000,148552.8750000000,,,
1.8719999969,14,160132.6718750000,145782.5625000000,170168.5937500000,160044.5937500000,129536.4687500000,66664.1171875000,115487.9140625000,147734.1093750000,,,
1.8759999969,14,160351.7031250000,145898.8281250000,170373.6406250000,160251.4375000000,129760.1640625000,66913.2421875000,115687.2578125000,147827.6093750000,,,
1.8799999971,14,159506.9375000000,145993.3281250000,169522.6875000000,159459.7343750000,129014.5703125000,66169.8671875000,114885.7031250000,148710.1093750000,,,
1.8839999971,14,158741.4687500000,145913.7500000000,168767.3437500000,158739.7500000000,128309.2265625000,65438.3984375000,114174.9765625000,149147.4687500000,,,
1.8879999970,14,159125.9375000000,145781.1718750000,169164.3437500000,159092.1093750000,128635.0312500000,65741.4921875000,114557.0546875000,148549.1718750000,,,
1.8919999970,14,160130.7968750000,145770.9531250000,170164.8906250000,160030.7968750000,129541.4296875000,66655.5312500000,115496.2343750000,147728.6093750000,,,
1.8959999969,14,160371.8437500000,145897.3906250000,170389.2031250000,160257.9062500000,129780.3906250000,66923.2421875000,115707.5078125000,147822.4843750000,,,
1.8999999969,14,159535.3437500000,146001.8593750000,169543.2031250000,159475.7968750000,129035.6484375000,66188.1015625000,114910.8359375000,148712.8437500000,,,
1.9039999971,14,158774.8593750000,145934.1250000000,168791.8125000000,158762.0625000000,128330.8437500000,65457.2265625000,114195.8125000000,149160.8750000000,,,
1.9079999970,14,159145.8437500000,145800.1875000000,169177.8906250000,159104.3125000000,128641.5781250000,65733.9765625000,114551.7421875000,148562.9687500000,,,
1.9119999970,14,160138.4218750000,145784.8593750000,170168.5625000000,160034.9062500000,129536.2812500000,66638.6640625000,115478.0468750000,147742.4843750000,,,
1.9159999969,14,160376.6250000000,145907.1250000000,170391.7812500000,160257.6406250000,129773.7109375000,66915.3828125000,115688.7578125000,147826.6406250000,,,
1.9199999969,15,159530.5937500000,146005.9375000000,169541.0312500000,159465.2656250000,129025.1640625000,66178.1015625000,114892.0625000000,148711.4218750000,,,
1.9239999969,15,158763.3593750000,145938.1250000000,168787.2500000000,158746.2343750000,128319.8750000000,65445.4257812500,114176.8515625000,149164.9531250000,,,
1.9279999968,15,159130.0625000000,145803.5937500000,169168.6406250000,159090.7187500000,128627.0937500000,65728.7734375000,114521.2187500000,148569.9843750000,,,
1.9319999968,15,160123.4218750000,145784.5468750000,170157.2187500000,160029.2968750000,129520.7500000000,66633.2968750000,115441.8593750000,147740.7031250000,,,
1.9359999967,15,160367.7187500000,145905.2500000000,170385.1562500000,160266.8125000000,129764.0546875000,66903.3671875000,115659.4453125000,147817.4218750000,,,
1.9399999967,15,159534.7812500000,146006.4687500000,169545.0312500000,159482.1562500000,129028.5937500000,66173.3515625000,114874.3593750000,148704.3437500000,,,
1.9439999969,15,158766.9218750000,145942.2031250000,168789.7500000000,158755.0625000000,128324.7031250000,65447.3593750000,114166.8750000000,149167.5625000000,,,
1.9479999968,15,159114.9375000000,145797.7968750000,169151.5468750000,159081.0625000000,128614.5937500000,65712.6015625000,114503.9453125000,148569.0312500000,,,
1.9519999968,15,160113.1718750000,145778.3281250000,170146.3750000000,160023.0468750000,129512.0859375000,66609.3984375000,115432.0703125000,147736.0468750000,,,
1.9559999967,15,160363.0156250000,145895.9687500000,170378.7187500000,160262.5937500000,129757.5390625000,66886.8984375000,115647.5625000000,147806.6093750000,,,
1.9599999967,15,159519.8125000000,145987.1562500000,169525.2656250000,159475.4062500000,129009.2578125000,66158.6562500000,114844.9921875000,148680.8750000000,,,
1.9639999969,15,158739.6718750000,145917.4687500000,168758.3593750000,158741.7656250000,128293.0546875000,65424.4765625000,114124.0703125000,149142.9687500000,,,
1.9679999969,15,159090.5000000000,145779.7968750000,169125.3437500000,159071.3750000000,128587.6953125000,65692.8906250000,114467.0703125000,148554.7031250000,,,
1.9719999968,15,160077.0937500000,145750.2656250000,170110.0625000000,160000.5781250000,129475.9296875000,66589.2812500000,115385.9921875000,147712.3281250000,,,
1.9759999968,15,160346.9531250000,145871.5000000000,170366.2500000000,160250.8281250000,129745.2578125000,66885.5312500000,115632.4375000000,147778.1718750000,,,
1.9799999967,15,159516.5937500000,145967.8125000000,169529.6093750000,159473.3125000000,129013.1171875000,66155.6484375000,114851.7734375000,148654.4218750000,,,
1.9839999967,15,158738.1875000000,145901.4687500000,168763.8906250000,158742.6250000000,128299.3515625000,65410.1289062500,114131.2031250000,149123.0156250000,,,
1.9879999969,15,159091.8125000000,145771.8593750000,169133.3906250000,159067.1093750000,128597.8828125000,65682.1562500000,114472.1875000000,148550.2968750000,,,
1.9919999968,15,160098.6406250000,145760.4375000000,170136.7812500000,160007.4218750000,129504.8984375000,66596.6328125000,115406.4609375000,147722.4687500000,,,
1.9959999968,15,160371.9218750000,145884.3281250000,170392.8281250000,160261.6406250000,129772.1328125000,66892.5859375000,115648.2343750000,147784.5937500000,,,
1.9999999967,15,159548.0937500000,145982.9687500000,169561.5312500000,159489.5312500000,129041.9218750000,66170.5312500000,114872.2421875000,148661.0468750000,,,
2.0039999967,15,158756.0781250000,145911.1406250000,168779.3906250000,158745.1093750000,128310.8906250000,65415.8398437500,114134.9062500000,149135.9687500000,,,
2.0079999969,15,159101.9531250000,145780.0625000000,169137.5156250000,159067.5625000000,128597.2109375000,65670.2734375000,114463.0156250000,148564.0312500000,,,
2.0119999968,15,160110.9218750000,145772.8437500000,170141.6406250000,160014.9062500000,129504.6328125000,66587.1640625000,115397.7968750000,147735.8593750000,,,
2.0159999968,15,160374.3906250000,145881.9375000000,170387.6406250000,160267.6718750000,129761.1562500000,66873.0859375000,115625.1093750000,147778.0468750000,,,
2.0199999968,15,159554.0156250000,145980.1250000000,169562.0312500000,159499.7031250000,129039.3203125000,66160.3671875000,114865.6718750000,148650.6406250000,,,
2.0239999967,15,158759.0625000000,145914.5000000000,168780.2812500000,158753.0312500000,128311.5625000000,65412.3554687500,114136.5625000000,149134.9687500000,,,
2.0279999967,15,159078.3750000000,145771.2187500000,169113.9218750000,159055.3125000000,128575.6796875000,65651.8515625000,114441.0468750000,148558.1406250000,,,
2.0319999969,15,160068.0000000000,145746.8593750000,170100.0312500000,159991.1562500000,129466.2812500000,66555.7500000000,115362.4687500000,147717.0000000000,,,
2.0359999968,15,160343.6875000000,145862.2500000000,170358.5156250000,160250.5781250000,129737.2890625000,66864.2109375000,115614.2187500000,147759.3750000000,,,
2.0399999968,15,159538.2656250000,145971.6093750000,169544.3125000000,159495.8593750000,129027.7343750000,66164.0937500000,114857.2187500000,148636.1875000000,,,
2.0439999967,15,158742.8906250000,145906.1093750000,168760.3437500000,158748.2500000000,128298.0937500000,65407.6875000000,114115.7500000000,149123.3906250000,,,
2.0479999967,16,159055.8281250000,145759.7343750000,169089.3437500000,159038.5000000000,128558.1093750000,65646.1093750000,114418.6562500000,148550.8125000000,,,
2.0519999966,16,160056.0156250000,145738.6250000000,170087.1875000000,159973.3750000000,129459.4140625000,66558.4062500000,115348.2031250000,147707.6406250000,,,
2.0559999966,16,160354.2031250000,145866.1562500000,170370.3750000000,160251.1718750000,129753.0625000000,66882.3125000000,115621.4609375000,147755.8281250000,,,
2.0599999966,16,159550.5000000000,145974.5781250000,169562.2031250000,159500.3437500000,129047.1015625000,66183.2187500000,114878.1718750000,148635.6250000000,,,
2.0639999965,16,158740.5468750000,145905.4531250000,168763.7031250000,158742.5156250000,128301.4218750000,65420.5351562500,114131.4453125000,149127.7343750000,,,
2.0679999965,16,159059.3125000000,145769.6875000000,169093.2187500000,159037.0468750000,128561.9140625000,65666.5468750000,114434.7500000000,148567.1250000000,,,
2.0719999967,16,160070.3125000000,145755.4375000000,170098.3125000000,159980.4843750000,129470.0312500000,66587.9687500000,115375.8281250000,147728.7656250000,,,
2.0759999966,16,160369.7343750000,145878.3125000000,170380.5625000000,160258.9531250000,129762.3671875000,66910.2109375000,115647.5625000000,147769.1093750000,,,
2.0799999966,16,159568.7656250000,145986.1718750000,169572.2031250000,159505.6562500000,129055.6875000000,66219.4296875000,114895.2031250000,148646.7812500000,,,
2.0839999965,16,158760.3437500000,145922.2031250000,168775.3750000000,158747.8437500000,128312.8437500000,65462.5117187500,114141.3125000000,149144.7343750000,,,
2.0879999965,16,159068.4218750000,145788.3593750000,169100.3750000000,159038.6562500000,128569.1015625000,65699.8046875000,114431.8750000000,148591.9843750000,,,
2.0919999967,16,160080.9687500000,145778.4218750000,170111.0625000000,159984.1562500000,129483.4140625000,66625.0312500000,115379.1562500000,147758.2968750000,,,
2.0959999966,16,160394.1875000000,145904.5156250000,170410.2031250000,160277.4375000000,129792.8125000000,66966.6171875000,115683.3671875000,147796.3906250000,,,
2.0999999966,16,159590.6250000000,146005.1562500000,169599.2031250000,159528.6718750000,129087.1484375000,66275.2500000000,114948.4687500000,148668.5625000000,,,
2.1039999966,16,158777.7031250000,145938.3906250000,168796.6093750000,158766.2500000000,128342.6484375000,65510.2031250000,114202.7109375000,149169.2500000000,,,
2.1079999965,16,159077.5781250000,145798.2031250000,169111.2031250000,159048.2031250000,128590.6406250000,65735.9609375000,114493.7812500000,148618.9218750000,,,
2.1119999965,16,160086.1406250000,145779.8281250000,170118.0781250000,159994.0781250000,129500.1796875000,66647.9375000000,115441.4062500000,147776.0781250000,,,
2.1159999967,16,160387.1406250000,145890.5156250000,170404.1406250000,160277.5156250000,129796.3515625000,66972.8125000000,115722.0703125000,147792.4531250000,,,
2.1199999966,16,159585.1562500000,145991.5625000000,169596.1875000000,159526.7031250000,129091.2500000000,66281.8203125000,114976.2343750000,148652.9062500000,,,
2.1239999966,16,158769.7656250000,145928.5312500000,168791.5781250000,158762.0312500000,128343.6640625000,65507.0351562500,114218.6953125000,149158.5468750000,,,
2.1279999965,16,159056.4062500000,145784.2031250000,169094.0937500000,159033.6406250000,128579.1640625000,65710.5390625000,114490.8828125000,148605.1875000000,,,
2.1319999965,16,160075.4062500000,145773.5000000000,170111.9218750000,159994.8437500000,129498.5156250000,66627.6406250000,115444.4375000000,147758.9687500000,,,
2.1359999967,16,160384.6406250000,145886.9843750000,170405.5156250000,160288.2500000000,129800.2109375000,66963.5000000000,115727.7578125000,147770.0000000000,,,
2.1399999966,16,159581.9687500000,145988.0468750000,169593.1562500000,159536.8281250000,129089.9375000000,66265.3515625000,114971.8046875000,148636.7187500000,,,
2.1439999966,16,158757.7812500000,145917.1562500000,168779.5312500000,158763.3593750000,128331.7578125000,65477.1015625000,114201.5312500000,149143.7187500000,,,
2.1479999966,16,159053.8437500000,145780.8750000000,169091.6250000000,159040.7812500000,128575.3281250000,65692.8593750000,114483.9921875000,148600.6562500000,,,
2.1519999965,16,160067.2031250000,145763.7500000000,170102.9531250000,159994.5625000000,129487.4375000000,66607.3359375000,115428.5859375000,147748.1875000000,,,
2.1559999965,16,160378.0937500000,145872.1718750000,170395.2343750000,160287.4062500000,129784.1171875000,66933.8359375000,115701.6328125000,147750.4687500000,,,
2.1599999967,16,159575.5468750000,145970.0000000000,169583.4687500000,159529.7968750000,129073.6562500000,66238.8750000000,114941.6015625000,148610.2500000000,,,
2.1639999966,16,158760.0000000000,145915.2968750000,168778.9062500000,158763.0781250000,128324.7812500000,65469.3515625000,114178.3828125000,149135.0312500000,,,
2.1679999966,16,159047.2343750000,145779.1875000000,169080.5000000000,159028.2812500000,128559.5312500000,65678.1640625000,114449.5000000000,148600.7812500000,,,
2.1719999965,16,160063.5312500000,145762.9531250000,170093.8906250000,159980.3593750000,129471.6406250000,66596.2578125000,115388.4062500000,147748.8593750000,,,
2.1759999965,17,160398.0312500000,145883.3281250000,170410.8750000000,160293.2656250000,129793.4296875000,66941.3750000000,115684.1718750000,147752.2187500000,,,
2.1799999964,17,159606.9062500000,145988.1250000000,169612.0781250000,159552.4375000000,129097.0703125000,66251.6484375000,114940.0234375000,148618.4531250000,,,
2.1839999964,17,158777.2812500000,145926.7031250000,168795.0312500000,158773.9218750000,128337.8437500000,65470.0234375000,114170.2812500000,149145.2500000000,,,
2.1879999964,17,159060.5156250000,145793.9375000000,169093.8750000000,159032.5937500000,128570.9531250000,65679.6093750000,114443.0312500000,148618.8906250000,,,
2.1919999963,17,160067.2500000000,145770.9218750000,170097.4843750000,159975.7656250000,129474.8906250000,66590.0859375000,115376.2031250000,147760.2031250000,,,
2.1959999963,17,160402.7187500000,145884.7187500000,170415.0312500000,160292.2343750000,129796.2187500000,66941.8046875000,115677.3359375000,147754.0312500000,,,
2.1999999965,17,159608.7031250000,145984.0468750000,169612.0312500000,159550.2031250000,129096.0546875000,66254.2734375000,114931.8125000000,148610.6250000000,,,
2.2039999964,17,158770.4843750000,145919.8593750000,168786.0937500000,158763.8437500000,128329.8828125000,65462.5664062500,114158.3437500000,149137.7031250000,,,
2.2079999964,17,159041.3906250000,145783.7968750000,169071.2656250000,159017.4062500000,128549.6093750000,65646.6718750000,114418.5703125000,148613.9062500000,,,
2.2119999963,17,160058.4843750000,145769.4687500000,170087.2187500000,159968.5781250000,129467.1875000000,66566.3750000000,115371.0000000000,147760.8750000000,,,
2.2159999963,17,160406.6093750000,145887.2500000000,170421.7343750000,160298.5156250000,129807.2656250000,66936.3359375000,115691.7343750000,147752.0468750000,,,
2.2199999965,17,159611.0937500000,145978.7656250000,169617.3750000000,159557.0781250000,129105.3593750000,66251.6171875000,114938.7890625000,148602.9531250000,,,
2.2239999964,17,158769.0468750000,145909.8593750000,168786.6875000000,158769.1718750000,128333.5000000000,65455.6718750000,114156.5781250000,149130.0156250000,,,
2.2279999964,17,159024.5156250000,145763.4843750000,169057.5156250000,159010.0312500000,128540.2187500000,65634.6015625000,114402.8046875000,148601.1250000000,,,
2.2319999964,17,160026.5625000000,145736.1562500000,170058.9375000000,159954.9218750000,129442.4296875000,66545.1875000000,115339.1328125000,147733.8125000000,,,
2.2359999963,17,160379.4062500000,145854.2031250000,170395.2031250000,160287.8750000000,129781.7343750000,66919.2187500000,115658.4531250000,147713.9062500000,,,
2.2399999963,17,159603.2031250000,145959.9531250000,169609.7187500000,159556.5937500000,129097.0468750000,66249.2812500000,114926.3437500000,148573.9062500000,,,
2.2439999965,17,158764.1093750000,145904.6562500000,168780.7343750000,158769.1718750000,128327.8671875000,65455.6445312500,114147.5390625000,149121.7812500000,,,
2.2479999964,17,159017.0937500000,145768.6093750000,169046.1875000000,159003.4843750000,128529.4062500000,65626.6875000000,114387.4609375000,148609.0156250000,,,
2.2519999964,17,160019.4375000000,145743.3750000000,170044.0625000000,159945.0781250000,129428.1640625000,66526.1406250000,115320.0937500000,147744.5937500000,,,
2.2559999963,17,160387.3437500000,145867.4218750000,170395.0781250000,160291.3593750000,129782.5078125000,66907.0156250000,115652.2578125000,147725.2812500000,,,
2.2599999963,17,159620.7500000000,145977.4687500000,169621.6093750000,159567.6875000000,129111.7421875000,66245.9843750000,114936.1562500000,148587.7187500000,,,
2.2639999965,17,158769.1718750000,145914.8750000000,168781.8906250000,158765.0937500000,128333.5000000000,65446.1523437500,114146.0625000000,149135.6406250000,,,
2.2679999964,17,159015.8593750000,145775.3906250000,169043.4843750000,158995.6875000000,128530.0781250000,65619.4765625000,114373.3750000000,148621.1406250000,,,
2.2719999964,17,160026.8906250000,145749.6562500000,170053.9843750000,159945.8906250000,129437.7890625000,66534.6953125000,115311.4531250000,147752.2187500000,,,
2.2759999963,17,160390.4687500000,145862.7812500000,170404.6718750000,160290.3125000000,129789.2656250000,66913.9921875000,115651.3203125000,147719.0937500000,,,
2.2799999963,17,159617.4687500000,145966.0468750000,169624.5625000000,159562.7343750000,129110.4531250000,66247.8906250000,114931.9765625000,148572.9687500000,,,
2.2839999963,17,158764.8750000000,145904.3281250000,168782.6093750000,158759.7343750000,128328.9140625000,65444.3281250000,114142.3046875000,149122.2812500000,,,
2.2879999964,17,158990.3437500000,145754.6875000000,169021.9687500000,158979.4375000000,128504.3281250000,65593.1328125000,114355.6250000000,148608.3750000000,,,
2.2919999964,17,159998.4843750000,145729.0000000000,170027.1093750000,159931.3281250000,129407.8593750000,66506.0546875000,115300.0312500000,147738.3125000000,,,
2.2959999964,17,160376.0781250000,145847.8906250000,170389.1718750000,160293.1718750000,129772.8515625000,66902.4296875000,115651.6640625000,147700.7187500000,,,
2.2999999963,17,159598.6718750000,145945.8281250000,169602.8593750000,159572.8437500000,129089.5859375000,66232.3593750000,114920.6328125000,148545.8750000000,,,
2.3039999963,18,158736.1875000000,145880.9375000000,168751.5000000000,158770.4062500000,128299.6250000000,65416.1093750000,114116.5312500000,149097.8281250000,,,
2.3079999962,18,158960.4375000000,145734.5781250000,168990.7812500000,158980.9375000000,128474.2656250000,65565.2109375000,114323.9218750000,148589.4375000000,,,
2.3119999962,18,159976.6718750000,145715.1562500000,170005.9218750000,159927.1093750000,129387.7187500000,66488.2968750000,115276.4218750000,147724.0781250000,,,
2.3159999961,18,160367.2343750000,145836.3125000000,170382.3906250000,160291.8906250000,129764.7812500000,66894.6484375000,115640.8593750000,147684.6718750000,,,
2.3199999961,18,159604.6250000000,145933.9218750000,169612.3750000000,159580.6718750000,129096.8593750000,66235.1250000000,114925.3750000000,148529.2187500000,,,
2.3239999961,18,158732.3125000000,145862.4687500000,168750.5312500000,158763.4062500000,128299.0078125000,65408.5976562500,114112.8828125000,149083.7968750000,,,
2.3279999963,18,158953.5000000000,145722.4218750000,168985.5156250000,158970.6875000000,128473.0312500000,65553.6562500000,114328.7421875000,148589.3281250000,,,
2.3319999962,18,159973.1562500000,145706.8125000000,170002.2656250000,159926.0937500000,129387.7421875000,66471.8281250000,115283.3203125000,147719.4843750000,,,
2.3359999962,18,160361.3125000000,145822.4375000000,170373.3750000000,160287.4375000000,129757.5625000000,66872.8437500000,115635.2265625000,147666.4062500000,,,
2.3399999961,18,159614.2812500000,145935.1562500000,169615.4843750000,159579.8125000000,129101.0937500000,66234.3750000000,114928.3515625000,148518.3906250000,,,
2.3439999961,18,158761.2812500000,145889.4218750000,168771.7031250000,158773.7656250000,128321.2187500000,65433.8671875000,114133.9921875000,149099.8125000000,,,
2.3479999963,18,158978.5156250000,145753.0625000000,169004.5156250000,158970.4218750000,128493.9218750000,65576.4765625000,114344.8359375000,148615.0312500000,,,
2.3519999962,18,159995.2187500000,145732.6406250000,170019.9218750000,159923.5937500000,129406.5156250000,66490.6015625000,115293.3750000000,147745.0000000000,,,
2.3559999962,18,160397.2968750000,145853.9375000000,170405.5937500000,160299.8281250000,129792.4062500000,66904.3359375000,115660.8671875000,147694.9531250000,,,
2.3599999961,18,159648.6718750000,145962.1562500000,169649.7187500000,159596.2343750000,129138.0000000000,66262.9921875000,114960.3281250000,148545.3906250000,,,
2.3639999961,18,158777.6562500000,145903.5000000000,168790.1718750000,158779.8437500000,128341.2500000000,65445.2109375000,114157.7812500000,149125.7500000000,,,
2.3679999961,18,158975.6250000000,145751.8750000000,169004.2968750000,158969.1875000000,128493.2812500000,65568.9921875000,114348.2968750000,148633.7812500000,,,
2.3719999962,18,159984.0468750000,145723.6562500000,170012.5937500000,159916.0937500000,129400.0234375000,66475.9296875000,115290.8046875000,147753.0156250000,,,
2.3759999962,18,160388.0468750000,145841.6250000000,170401.8125000000,160296.1250000000,129788.1953125000,66893.3359375000,115666.6875000000,147689.7656250000,,,
2.3799999962,18,159632.0468750000,145943.0937500000,169636.6875000000,159592.4218750000,129123.0625000000,66244.5078125000,114952.4921875000,148525.2187500000,,,
2.3839999961,18,158763.1406250000,145888.5312500000,168777.7812500000,158778.4531250000,128329.6875000000,65430.2968750000,114145.8750000000,149105.9218750000,,,
2.3879999961,18,158978.6875000000,145758.9218750000,169007.8906250000,158978.3593750000,128502.0000000000,65574.9531250000,114356.9062500000,148634.7343750000,,,
2.3919999963,18,159982.5312500000,145729.4843750000,170011.5156250000,159925.3906250000,129403.7812500000,66483.3046875000,115296.2734375000,147754.5937500000,,,
2.3959999962,18,160375.6250000000,145832.3437500000,170388.5781250000,160300.9062500000,129777.3359375000,66888.2109375000,115654.8046875000,147675.2343750000,,,
2.3999999962,18,159628.7968750000,145935.8750000000,169630.9218750000,159599.3750000000,129119.7109375000,66250.5156250000,114947.2656250000,148513.0781250000,,,
2.4039999961,18,158751.6562500000,145879.5000000000,168762.0937500000,158770.8906250000,128314.9687500000,65430.8085937500,114127.4218750000,149096.9375000000,,,
2.4079999961,18,158948.0000000000,145739.8593750000,168973.2343750000,158954.9218750000,128465.7031250000,65552.2578125000,114315.8750000000,148624.5000000000,,,
2.4119999961,18,159962.7500000000,145717.4687500000,169987.2656250000,159906.0781250000,129377.5000000000,66472.3359375000,115269.2343750000,147750.3906250000,,,
2.4159999962,18,160382.3593750000,145827.0312500000,170393.2031250000,160299.9375000000,129781.3593750000,66901.4921875000,115663.9218750000,147669.2812500000,,,
2.4199999962,18,159645.7656250000,145930.1875000000,169648.7031250000,159609.2343750000,129138.3515625000,66268.0625000000,114976.5000000000,148504.2031250000,,,
2.4239999962,18,158763.4062500000,145877.1562500000,168777.6250000000,158783.3281250000,128333.2890625000,65442.8242187500,114157.2734375000,149095.7812500000,,,
2.4279999961,18,158950.5937500000,145740.5312500000,168980.8281250000,158958.9375000000,128477.6406250000,65555.4531250000,114339.9609375000,148623.7656250000,,,
2.4319999961,19,159961.1718750000,145715.3906250000,169990.0156250000,159906.4375000000,129383.5546875000,66461.7968750000,115281.0937500000,147736.6562500000,,,
2.4359999960,19,160389.2500000000,145833.8437500000,170400.5468750000,160306.1562500000,129790.0468750000,66905.4062500000,115667.5703125000,147657.6875000000,,,
2.4399999960,19,159654.7031250000,145940.1093750000,169654.9531250000,159619.1718750000,129143.3125000000,66280.7968750000,114968.3203125000,148494.0781250000,,,
2.4439999959,19,158762.1250000000,145882.6875000000,168772.7343750000,158785.1562500000,128327.5156250000,65440.5195312500,114132.8125000000,149089.1093750000,,,
2.4479999959,19,158938.9531250000,145739.8906250000,168964.8750000000,158952.1875000000,128462.8593750000,65543.3828125000,114313.6484375000,148624.8437500000,,,
2.4519999959,19,159943.1718750000,145707.9062500000,169968.2812500000,159899.2656250000,129364.1406250000,66448.6796875000,115265.6718750000,147735.1875000000,,,
2.4559999960,19,160366.5625000000,145813.1562500000,170375.2500000000,160303.1093750000,129765.4531250000,66879.4140625000,115650.4609375000,147636.6562500000,,,
2.4599999960,19,159639.9843750000,145922.4375000000,169639.6562500000,159625.6250000000,129127.8125000000,66258.7812500000,114965.1562500000,148474.9687500000,,,
2.4639999960,19,158754.9843750000,145874.3906250000,168763.4687500000,158797.3125000000,128318.3984375000,65431.5859375000,114141.3906250000,149082.5312500000,,,
2.4679999959,19,158939.2187500000,145748.8125000000,168962.5312500000,158968.4062500000,128460.9609375000,65550.2968750000,114323.8125000000,148636.7500000000,,,
2.4719999959,19,159941.7500000000,145717.9375000000,169964.2031250000,159907.2656250000,129359.3671875000,66455.7109375000,115264.6796875000,147749.3750000000,,,
2.4759999961,19,160380.5312500000,145830.3281250000,170387.9687500000,160315.3906250000,129777.3593750000,66905.3281250000,115668.8046875000,147653.8906250000,,,
2.4799999960,19,159654.0312500000,145936.9218750000,169652.1250000000,159634.4531250000,129141.0859375000,66284.8515625000,114982.9062500000,148488.8281250000,,,
2.4839999960,19,158758.9843750000,145881.8593750000,168767.5312500000,158794.2500000000,128322.3437500000,65440.0351562500,114145.8203125000,149097.0000000000,,,
2.4879999959,19,158925.9531250000,145740.3906250000,168950.1718750000,158947.0000000000,128449.3437500000,65533.4570312500,114309.3515625000,148646.7343750000,,,
2.4919999959,19,159946.4687500000,145718.4531250000,169971.1875000000,159894.5781250000,129368.8046875000,66453.2656250000,115272.7265625000,147762.8593750000,,,
2.4959999959,19,160402.5625000000,145839.1875000000,170412.7500000000,160317.5000000000,129804.6953125000,66918.8203125000,115693.1562500000,147664.4843750000,,,
2.4999999960,19,159683.2968750000,145948.6406250000,169683.8281250000,159644.4375000000,129176.2500000000,66308.8281250000,115014.7734375000,148498.5937500000,,,
2.5039999960,19,158774.7031250000,145885.0468750000,168784.2187500000,158796.5625000000,128344.2578125000,65458.2460937500,114168.1328125000,149102.1718750000,,,
2.5079999960,19,158932.5937500000,145740.8750000000,168956.2031250000,158946.2500000000,128459.7500000000,65541.4218750000,114318.2578125000,148649.0937500000,,,
2.5119999959,19,159932.9062500000,145701.4218750000,169953.2031250000,159883.5000000000,129352.3125000000,66434.9453125000,115245.2812500000,147748.5312500000,,,
2.5159999959,19,160393.5468750000,145817.1875000000,170397.7031250000,160312.2500000000,129789.6484375000,66898.9687500000,115669.6875000000,147638.2968750000,,,
2.5199999961,19,159692.1562500000,145936.4687500000,169685.3125000000,159647.7343750000,129177.1875000000,66302.5781250000,115012.5781250000,148473.3281250000,,,
2.5239999960,19,158789.9531250000,145887.6562500000,168793.5781250000,158800.1250000000,128355.8437500000,65462.4570312500,114177.3046875000,149095.2187500000,,,
2.5279999960,19,158940.4062500000,145750.4218750000,168961.8593750000,158943.1406250000,128468.2578125000,65547.4609375000,114327.9140625000,148654.4218750000,,,
2.5319999959,19,159940.3906250000,145717.7031250000,169961.5312500000,159884.1093750000,129363.8437500000,66449.8906250000,115265.8281250000,147759.1562500000,,,
2.5359999959,19,160399.1562500000,145830.9687500000,170404.5468750000,160320.7031250000,129799.0078125000,66919.2734375000,115689.3515625000,147642.2187500000,,,
2.5399999958,19,159679.1875000000,145932.8437500000,169674.0468750000,159648.3437500000,129168.3671875000,66305.5312500000,115009.0078125000,148464.0781250000,,,
2.5439999960,19,158768.9062500000,145880.6250000000,168771.7031250000,158793.2031250000,128337.3125000000,65455.6445312500,114163.1718750000,149088.1406250000,,,
2.5479999960,19,158912.4375000000,145743.9687500000,168930.4218750000,158929.3281250000,128442.5859375000,65533.8593750000,114307.3984375000,148656.2812500000,,,
2.5519999960,19,159919.1250000000,145713.8750000000,169936.3593750000,159875.8750000000,129343.5156250000,66440.3125000000,115242.8984375000,147763.9062500000,,,
2.5559999959,19,160388.4218750000,145826.9218750000,170391.3281250000,160317.8750000000,129787.5234375000,66914.5781250000,115669.9296875000,147636.9843750000,,,
2.5599999959,20,159685.0937500000,145936.8906250000,169679.7031250000,159659.7187500000,129174.3437500000,66319.6640625000,115011.5859375000,148458.8750000000,,,
2.5639999958,20,158775.1250000000,145888.8281250000,168781.8593750000,158807.9531250000,128348.6015625000,65471.4687500000,114175.7812500000,149091.7812500000,,,
2.5679999958,20,158915.3281250000,145752.6562500000,168938.4687500000,158937.8281250000,128451.6796875000,65542.1718750000,114319.3281250000,148666.4375000000,,,
2.5719999957,20,159918.7656250000,145718.1875000000,169943.0625000000,159880.2500000000,129349.7109375000,66441.5468750000,115256.5781250000,147767.5625000000,,,
2.5759999957,20,160386.8906250000,145822.6875000000,170396.0156250000,160317.9687500000,129791.2265625000,66916.2968750000,115679.4765625000,147630.5156250000,,,
2.5799999957,20,159688.7187500000,145932.0312500000,169687.9375000000,159657.6250000000,129179.8750000000,66325.7578125000,115019.6015625000,148450.4531250000,,,
2.5839999958,20,158768.2031250000,145878.3125000000,168774.9218750000,158789.7187500000,128339.2656250000,65464.1210937500,114165.5078125000,149085.5937500000,,,
2.5879999958,20,158906.1875000000,145743.1562500000,168927.2656250000,158917.2031250000,128438.9140625000,65529.2460937500,114300.5312500000,148665.1562500000,,,
2.5919999958,20,159913.5312500000,145712.0937500000,169934.2187500000,159861.6875000000,129342.2500000000,66430.9765625000,115241.0156250000,147766.9062500000,,,
2.5959999957,20,160399.0468750000,145821.4843750000,170405.7031250000,160314.9062500000,129803.9140625000,66918.9218750000,115689.2968750000,147629.1875000000,,,
2.5999999957,20,159708.7812500000,145929.1718750000,169705.0468750000,159666.4531250000,129202.6953125000,66330.1562500000,115038.2734375000,148446.0781250000,,,
2.6039999959,20,158793.6093750000,145881.7812500000,168799.5937500000,158809.5156250000,128370.3515625000,65483.8906250000,114190.3437500000,149089.0781250000,,,
2.6079999958,20,158909.4062500000,145734.8750000000,168931.5312500000,158917.2031250000,128451.6250000000,65539.8125000000,114314.0468750000,148666.3593750000,,,
2.6119999958,20,159909.8125000000,145697.7500000000,169930.8593750000,159854.2031250000,129346.4062500000,66437.0390625000,115251.0781250000,147764.2500000000,,,
2.6159999957,20,160393.3281250000,145809.1406250000,170397.2968750000,160309.8593750000,129801.3671875000,66924.0234375000,115691.3359375000,147619.9531250000,,,
2.6199999957,20,159700.4843750000,145919.0625000000,169694.2187500000,159661.6562500000,129196.3906250000,66333.9609375000,115042.1875000000,148431.4843750000,,,
2.6239999956,20,158788.3750000000,145878.2812500000,168789.8281250000,158802.2500000000,128364.0781250000,65481.9296875000,114196.8359375000,149080.1406250000,,,
2.6279999958,20,158898.4531250000,145739.3437500000,168914.3593750000,158907.1718750000,128434.9687500000,65523.5859375000,114305.4609375000,148668.9375000000,,,
2.6319999958,20,159899.8906250000,145709.6250000000,169916.2812500000,159850.1562500000,129329.7265625000,66418.4218750000,115241.3984375000,147770.7187500000,,,
2.6359999957,20,160388.0000000000,145817.2656250000,170389.3437500000,160310.1875000000,129791.0156250000,66916.9375000000,115687.4453125000,147616.5468750000,,,
2.6399999957,20,159701.2656250000,145924.5000000000,169692.7656250000,159663.6875000000,129193.2578125000,66342.1406250000,115039.2343750000,148426.4062500000,,,
2.6439999957,20,158787.0625000000,145884.8593750000,168791.5468750000,158809.1718750000,128365.4218750000,65491.3984375000,114192.7812500000,149085.0781250000,,,
2.6479999959,20,158901.8125000000,145751.6562500000,168924.1562500000,158918.8906250000,128446.6093750000,65544.9609375000,114310.4296875000,148689.5937500000,,,
2.6519999958,20,159896.1562500000,145712.2031250000,169919.5468750000,159851.8437500000,129336.5156250000,66434.4375000000,115239.5937500000,147784.2968750000,,,
2.6559999958,20,160380.7812500000,145809.2187500000,170390.3281250000,160301.2812500000,129795.8906250000,66923.0546875000,115690.3671875000,147614.4218750000,,,
2.6599999957,20,159711.3750000000,145928.2343750000,169713.0781250000,159668.9531250000,129215.5468750000,66355.4218750000,115066.4062500000,148425.4218750000,,,
2.6639999957,20,158801.2500000000,145897.1093750000,168815.1406250000,158812.2187500000,128389.8281250000,65504.4882812500,114225.7187500000,149091.4375000000,,,
2.6679999956,20,158903.6875000000,145761.0468750000,168931.6875000000,158906.0937500000,128455.1406250000,65541.7734375000,114325.6093750000,148697.9843750000,,,
2.6719999958,20,159895.7812500000,145719.8281250000,169922.5781250000,159839.9843750000,129340.7265625000,66428.7265625000,115252.3125000000,147793.3906250000,,,
2.6759999958,20,160399.3593750000,145820.7031250000,170410.6562500000,160315.5000000000,129814.6718750000,66927.6718750000,115709.6796875000,147620.8437500000,,,
2.6799999957,20,159722.3437500000,145924.6875000000,169723.8593750000,159679.2500000000,129223.8593750000,66353.8125000000,115062.3046875000,148419.0625000000,,,
2.6839999957,20,158787.5781250000,145879.6250000000,168798.0312500000,158796.2656250000,128374.5390625000,65498.9882812500,114198.6328125000,149087.2031250000,,,
2.6879999957,21,158883.7343750000,145741.5000000000,168909.7031250000,158882.8125000000,128437.8359375000,65535.7343750000,114303.9921875000,148698.5781250000,,,
2.6919999956,21,159881.6250000000,145700.0312500000,169906.1875000000,159820.9687500000,129328.7343750000,66423.6015625000,115235.8437500000,147787.7187500000,,,
2.6959999956,21,160402.6718750000,145811.4531250000,170410.5312500000,160318.2343750000,129815.4765625000,66933.9218750000,115710.7578125000,147611.8281250000,,,
2.6999999955,21,159739.3593750000,145928.0156250000,169735.5468750000,159693.6562500000,129236.1718750000,66374.7343750000,115083.2500000000,148414.9062500000,,,
2.7039999955,21,158811.6875000000,145889.1562500000,168817.1875000000,158815.8437500000,128394.1171875000,65516.4492187500,114226.7421875000,149087.4218750000,,,
2.7079999954,21,158901.7031250000,145753.5312500000,168921.7656250000,158899.9062500000,128448.5390625000,65539.8671875000,114317.0000000000,148704.4843750000,,,
2.7119999956,21,159897.3593750000,145715.4531250000,169916.7812500000,159836.0781250000,129337.0234375000,66429.4218750000,115245.0937500000,147795.5312500000,,,
2.7159999956,21,160416.2343750000,145823.4843750000,170422.9375000000,160326.8906250000,129827.7578125000,66952.5312500000,115724.3515625000,147614.4843750000,,,
2.7199999955,21,159745.8125000000,145932.1718750000,169745.2500000000,159704.7343750000,129245.6640625000,66390.7968750000,115095.1093750000,148412.0625000000,,,
2.7239999955,21,158801.4375000000,145887.0781250000,168810.0312500000,158819.4062500000,128386.9296875000,65511.5976562500,114216.6328125000,149083.7187500000,,,
2.7279999955,21,158887.1406250000,145756.0312500000,168910.9531250000,158893.8437500000,128440.1718750000,65530.4804687500,114303.6171875000,148711.7812500000,,,
2.7319999957,21,159884.0312500000,145719.8281250000,169908.7343750000,159825.5156250000,129330.6093750000,66416.3046875000,115233.6406250000,147806.0468750000,,,
2.7359999956,21,160412.1562500000,145829.1718750000,170423.6093750000,160319.4375000000,129829.0703125000,66947.2187500000,115724.1640625000,147621.9375000000,,,
2.7399999956,21,159752.5312500000,145938.9531250000,169754.8125000000,159702.5781250000,129255.9687500000,66394.7656250000,115105.2968750000,148412.3125000000,,,
2.7439999955,21,158813.8125000000,145897.6250000000,168825.7968750000,158823.1093750000,128402.1875000000,65521.4921875000,114230.6328125000,149086.1093750000,,,
2.7479999955,21,158884.0000000000,145760.8281250000,168911.4062500000,158887.7343750000,128440.7890625000,65535.3867187500,114307.6640625000,148718.1562500000,,,
2.7519999954,21,159880.9218750000,145724.1875000000,169907.1875000000,159824.4843750000,129330.5312500000,66429.4453125000,115245.9843750000,147816.1250000000,,,
2.7559999956,21,160414.4375000000,145830.4843750000,170424.3437500000,160325.8281250000,129830.2500000000,66961.1718750000,115738.6796875000,147619.3906250000,,,
2.7599999956,21,159753.0156250000,145937.9687500000,169751.8593750000,159706.0937500000,129254.5468750000,66405.8437500000,115111.4921875000,148406.6250000000,,,
2.7639999955,21,158798.4062500000,145890.8125000000,168806.5625000000,158811.7343750000,128388.6171875000,65520.4726562500,114221.9687500000,149081.9687500000,,,
2.7679999955,21,158868.7343750000,145756.5156250000,168895.4531250000,158871.3437500000,128431.6718750000,65531.0976562500,114303.7500000000,148717.7500000000,,,
2.7719999955,21,159872.3593750000,145723.6562500000,169899.4375000000,159812.4531250000,129328.9765625000,66422.8750000000,115242.4921875000,147819.5625000000,,,
2.7759999956,21,160410.8125000000,145823.7031250000,170421.1250000000,160321.0468750000,129833.5000000000,66951.7265625000,115733.3359375000,147617.7812500000,,,
2.7799999956,21,159767.4375000000,145934.0312500000,169768.5156250000,159716.5000000000,129275.6796875000,66415.0703125000,115130.9921875000,148402.8593750000,,,
2.7839999956,21,158812.5468750000,145887.5156250000,168823.4375000000,158820.5156250000,128407.1796875000,65534.7187500000,114244.4453125000,149085.1875000000,,,
2.7879999955,21,158861.7031250000,145745.0625000000,168887.4843750000,158867.3906250000,128425.5781250000,65523.2656250000,114297.4687500000,148724.5156250000,,,
2.7919999955,21,159860.9062500000,145707.2968750000,169888.2968750000,159809.2031250000,129317.5781250000,66413.1953125000,115233.2968750000,147814.9531250000,,,
2.7959999954,21,160407.7343750000,145806.3750000000,170418.0312500000,160326.1406250000,129825.8515625000,66949.5000000000,115727.3828125000,147598.8437500000,,,
2.7999999956,21,159775.2187500000,145923.6093750000,169774.4062500000,159725.5156250000,129277.9296875000,66421.1875000000,115128.4218750000,148385.3437500000,,,
2.8039999956,21,158819.3281250000,145882.6093750000,168830.0937500000,158823.7812500000,128414.4765625000,65541.5546875000,114250.1875000000,149079.0000000000,,,
2.8079999955,21,158864.1718750000,145742.4843750000,168890.7343750000,158869.9218750000,128429.4453125000,65526.4843750000,114302.3281250000,148725.7968750000,,,
2.8119999955,21,159857.1875000000,145706.2968750000,169882.9062500000,159803.9375000000,129314.3046875000,66407.5312500000,115226.2656250000,147821.5468750000,,,
2.8159999955,22,160418.3593750000,145817.6718750000,170429.0937500000,160326.7343750000,129840.7109375000,66965.1406250000,115744.6875000000,147614.4062500000,,,
2.8199999954,22,159782.6718750000,145929.5937500000,169783.4218750000,159730.0781250000,129288.3359375000,66433.8203125000,115145.8828125000,148392.0000000000,,,
2.8239999954,22,158829.0625000000,145889.6406250000,168840.5000000000,158839.0937500000,128422.7656250000,65548.8515625000,114259.4375000000,149080.8437500000,,,
2.8279999953,22,158866.2968750000,145753.2500000000,168893.6562500000,158876.1875000000,128431.1093750000,65530.5585937500,114303.1562500000,148734.9531250000,,,
2.8319999953,22,159857.3437500000,145718.4843750000,169885.2343750000,159804.6875000000,129315.1875000000,66416.7109375000,115231.7656250000,147833.6406250000,,,
2.8359999952,22,160418.0312500000,145825.2656250000,170429.8906250000,160330.1718750000,129838.5390625000,66969.1875000000,115748.2265625000,147615.1562500000,,,
2.8399999954,22,159790.4843750000,145939.4375000000,169789.7031250000,159740.0000000000,129293.7031250000,66441.0859375000,115156.2890625000,148390.5468750000,,,
2.8439999954,22,158837.3750000000,145902.9062500000,168843.2031250000,158845.7187500000,128429.8437500000,65560.8671875000,114274.4296875000,149089.0312500000,,,
2.8479999953,22,158859.8281250000,145757.3750000000,168879.3125000000,158866.8906250000,128424.8046875000,65527.3125000000,114304.2578125000,148741.9531250000,,,
2.8519999953,22,159841.0625000000,145711.6093750000,169858.6562500000,159787.3906250000,129298.3203125000,66399.3828125000,115218.4062500000,147832.3281250000,,,
2.8559999953,22,160423.5625000000,145823.9531250000,170425.6562500000,160332.8750000000,129842.2421875000,66970.9062500000,115749.6718750000,147609.2500000000,,,
2.8599999954,22,159807.7812500000,145944.3437500000,169799.7812500000,159751.5000000000,129309.9062500000,66456.8593750000,115172.9687500000,148384.3593750000,,,
2.8639999954,22,158841.9375000000,145902.8281250000,168847.3281250000,158847.6875000000,128437.4921875000,65566.9843750000,114284.8125000000,149085.8125000000,,,
2.8679999954,22,158861.6250000000,145759.5156250000,168883.1875000000,158866.8281250000,128430.5937500000,65530.8007812500,114309.7031250000,148750.1250000000,,,
2.8719999953,22,159838.5937500000,145709.7968750000,169859.3125000000,159786.0781250000,129298.5312500000,66402.4140625000,115218.8359375000,147838.1562500000,,,
2.8759999953,22,160415.0625000000,145814.0000000000,170419.9687500000,160330.8125000000,129835.0546875000,66972.7031250000,115749.7500000000,147604.2656250000,,,
2.8799999952,22,159803.5156250000,145928.3437500000,169797.1875000000,159757.2968750000,129304.0546875000,66462.8125000000,115173.2421875000,148368.2343750000,,,
2.8839999954,22,158833.3593750000,145885.6093750000,168835.4218750000,158848.1875000000,128422.4453125000,65569.4531250000,114269.7890625000,149074.4062500000,,,
2.8879999954,22,158857.6875000000,145752.3593750000,168876.3750000000,158869.6250000000,128420.2656250000,65533.1601562500,114297.8984375000,148752.8125000000,,,
2.8919999953,22,159837.4375000000,145709.9062500000,169859.2812500000,159786.9687500000,129298.0234375000,66402.0937500000,115216.8515625000,147850.1093750000,,,
2.8959999953,22,160429.3281250000,145827.0312500000,170438.6562500000,160338.8906250000,129855.6015625000,66990.5703125000,115772.0390625000,147621.5312500000,,,
2.8999999953,22,159814.5625000000,145941.6875000000,169811.3125000000,159762.3750000000,129319.3984375000,66479.2031250000,115184.9062500000,148382.2031250000,,,
2.9039999954,22,158839.1562500000,145895.7812500000,168842.2656250000,158846.3750000000,128430.0078125000,65573.0703125000,114267.7265625000,149083.8750000000,,,
2.9079999954,22,158848.7812500000,145759.9687500000,168867.0156250000,158851.3906250000,128414.4765625000,65527.9296875000,114282.5312500000,148765.3437500000,,,
2.9119999954,22,159836.5781250000,145727.1250000000,169855.8750000000,159774.6250000000,129297.7578125000,66411.1328125000,115216.7187500000,147868.8125000000,,,
2.9159999953,22,160431.4687500000,145834.4531250000,170435.6562500000,160334.3281250000,129854.2343750000,66992.1484375000,115770.4062500000,147623.4062500000,,,
2.9199999953,22,159827.7031250000,145948.0781250000,169820.9218750000,159768.5937500000,129333.5312500000,66486.4453125000,115201.5937500000,148380.6875000000,,,
2.9239999952,22,158855.7343750000,145907.7343750000,168857.3593750000,158852.8281250000,128452.5078125000,65582.9453125000,114297.1484375000,149094.5781250000,,,
2.9279999954,22,158858.9687500000,145771.3437500000,168876.1718750000,158851.7656250000,128431.4296875000,65526.8867187500,114307.8750000000,148783.1718750000,,,
2.9319999954,22,159834.0156250000,145724.4062500000,169850.7812500000,159762.6875000000,129298.3437500000,66399.0078125000,115218.3515625000,147874.6093750000,,,
2.9359999953,22,160427.3125000000,145828.4062500000,170427.1562500000,160319.2031250000,129850.1250000000,66985.4687500000,115763.2421875000,147624.2187500000,,,
2.9399999953,22,159831.4375000000,145945.0468750000,169820.0156250000,159760.6718750000,129333.9375000000,66490.7890625000,115204.4062500000,148379.6562500000,,,
2.9439999952,23,158852.7031250000,145904.7812500000,168850.5312500000,158845.8281250000,128445.7734375000,65585.4921875000,114294.7343750000,149094.0625000000,,,
2.9479999952,23,158842.3437500000,145762.0937500000,168857.3125000000,158838.1875000000,128412.1406250000,65519.2148437500,114293.8750000000,148781.0312500000,,,
2.9519999952,23,159814.6406250000,145711.5312500000,169832.7968750000,159750.3593750000,129281.1796875000,66380.3671875000,115207.8437500000,147867.1406250000,,,
2.9559999951,23,160414.3125000000,145809.7031250000,170416.7500000000,160316.0312500000,129838.3828125000,66966.1015625000,115754.9843750000,147601.3593750000,,,
2.9599999951,23,159825.2343750000,145924.2812500000,169817.8125000000,159764.4062500000,129329.5390625000,66477.1640625000,115199.1250000000,148348.0937500000,,,
