Time:250Hz,Epoch,Channel 1,Channel 2,Channel 3,Channel 4,Channel 5,Channel 6,Channel 7,Channel 8,Event Id,Event Date,Event Duration
0,0,158465.3125,159436.1563,183259.8125,179953.2656,166996.2813,166656.1094,38717.85156,173500.9375,123,123,0
0.004,0,158468.5781,159440.4219,183263.8594,179954.625,166999.7969,166656.8281,38735.50391,173502.4688,,,
0.008,0,158471.5781,159447.3906,183262.4688,179959.0625,166997.0938,166661.25,38733.86719,173502.0938,,,
0.012,0,158469.5781,159447.3906,183261.5313,179965.6563,166994.4063,166662.6406,38723.94141,173496.7031,,,
0.016,0,158464.5781,159448.0938,183259.2813,179957.9063,166992.0469,166664.6094,38714.09766,173500.4375,,,
0.02,0,158461.1563,159442,183259.375,179950.1563,166993.3906,166654.2031,38714.15234,173503.0313,,,
0.024,0,158452.6406,159425.4375,183251.7031,179949.1875,166983.0625,166641,38714.92969,173490.5313,,,
0.028,0,158456.375,159432.8906,183252.75,179950.7969,166982.6094,166647.0938,38720.75,173491.3125,,,
0.032,0,158463.2969,159442.8594,183254.6094,179951.8125,166986.6563,166658.8594,38722.94922,173496.7344,,,
0.036,0,158455.9688,159436.0781,183244.8906,179953.4844,166977.6719,166654.875,38703.71875,173493.0781,,,
0.04,0,158460.6094,159442.1406,183248.0313,179965.3281,166981.7969,166659.1406,38702.78125,173503.0625,,,
0.044,0,158476.4688,159462.5313,183265.9219,179975.1563,167001.0938,166677.2656,38723.88672,173522.5781,,,
0.048,0,158478.9063,159460.1875,183271.1094,179979.125,167006.375,166674.6563,38729.03906,173519.5625,,,
0.052,0,158460.8594,159434.2813,183256.375,179969.5781,166991.4531,166654.1406,38719.22266,173493.5625,,,
0.056,0,158455.375,159432.1563,183252.5156,179944.0625,166985.6406,166652.3281,38724.02344,173491.5313,,,
0.06,0,158452.375,159434.5469,183248.1719,179941.4063,166981.7031,166658.0313,38722.89453,173498.4688,,,
0.064,0,158454.4688,159437.1719,183246.5,179944.4375,166982.0156,166661.6563,38722.73438,173504.0469,,,
0.068,0,158462.1875,159438.7656,183253.6406,179957.4219,166986.625,166658.7031,38721.79688,173501.6094,,,
0.072,0,158466.9688,159442.5469,183255.7031,179963.9688,166987.0313,166662.1094,38721.39453,173498.0781,,,
0.076,0,158468.6094,159448.9844,183260.6094,179955.5156,166992.9375,166668.7656,38719.51563,173505.2656,,,
0.08,0,158477.375,159466.8906,183268.7969,179947.5156,167000.9531,166678.7344,38727.75,173522.7813,,,
0.084,0,158464.375,159444.0781,183256.4375,179955.5469,166988.0313,166664.4219,38731.80078,173511.2969,,,
0.088,0,158446.7188,159420.5469,183237.5,179951.625,166971.9375,166649.4219,38717.82813,173489,,,
0.092,0,158455.8438,159432.2969,183249.7031,179955.6563,166981.9688,166656.0469,38724.31641,173493.0625,,,
0.096,0,158467.2656,159442.7031,183263.2656,179962.4063,166994.5781,166664.2344,38735.71875,173504.125,,,
0.1,0,158465.1406,159436.8906,183262.7813,179959.9688,166995.1563,166660.4531,38727.53516,173506.8438,,,
0.104,0,158470.4531,159445.0625,183269.3594,179965.3125,167002.4844,166668.0156,38726.11328,173513.5781,,,
0.108,0,158466.375,159443.2656,183264.1875,179954.8438,166998.75,166668.9844,38722.73438,173509.3281,,,
0.112,0,158467.8281,159446.7188,183262.25,179954.7656,166995.375,166671.4375,38729.17188,173505.2344,,,
0.116,0,158469.3281,159448.6563,183261.7188,179946.1563,166994.4844,166668.9844,38740.11719,173509.625,,,
0.12,0,158469.8125,159448.7188,183267.1406,179933.7656,166998.8906,166669.3281,38745.07813,173515.4844,,,
0.124,0,158462.7656,159451.2031,183254.1719,179937.6563,166989.0469,166677.9375,38733.67969,173518.8594,,,
0.128,1,158446.6406,159431.0313,183237.9844,179943.5313,166973.5625,166667.2344,38721.47266,173500.25,,,
0.132,1,158449.75,159427.875,183245.8438,179953.5313,166980.375,166667.7656,38723.03125,173493.4063,,,
0.136,1,158461.9219,159439.4844,183262.0313,179947.6563,166997.125,166678.6563,38740.89453,173505.5,,,
0.14,1,158458.0625,159433.4531,183261.6563,179943.6406,166998.0313,166676.0781,38747.00781,173507.9375,,,
0.144,1,158448.2813,159425.8594,183247.5781,179941.3594,166987.7813,166671.0469,38729.89844,173502.9063,,,
0.148,1,158452.4063,159430.5,183249.5313,179942.125,166990.5,166674.7969,38731.88281,173500.5938,,,
0.152,1,158455.4063,159437.5781,183248.9688,179940.8906,166988.375,166673.1563,38733.46484,173500.5938,,,
0.156,1,158466.375,159450.4531,183259.5625,179949.9063,166998.3594,166681.8281,38749.12891,173512.0938,,,
0.16,1,158467.75,159447.0469,183264.7969,179963.4531,167003.6563,166682.1719,38761.92188,173515.5,,,
0.164,1,158459.5469,159433.8594,183256.1563,179950.125,166993.5313,166669.4844,38745.96484,173507.25,,,
0.168,1,158444.8438,159419.8281,183241.0625,179921.1563,166979.3125,166658.8906,38727.72266,173489.5156,,,
0.172,1,158440.9531,159417.5469,183240.7969,179928.7188,166977.6406,166657.3125,38726.03516,173482.4844,,,
0.176,1,158440.7031,159419.1875,183239.8281,179936.9219,166977.2188,166653.75,38725.36328,173483.2344,,,
0.18,1,158442.5313,159420.8125,183243.8281,179939.875,166982.4688,166658.2188,38718.28125,173487.9531,,,
0.184,1,158450.8281,159427.9219,183251.8438,179949.4531,166990.3906,166666,38723.00391,173496.7344,,,
0.188,1,158454.125,159432.7031,183251.7969,179950.125,166988.4219,166658.8906,38738.53516,173497.9063,,,
0.192,1,158455.75,159431.5781,183256.25,179944.1719,166990.6875,166661.0313,38752.39844,173494.0469,,,
0.196,1,158455.1406,159429.375,183254.2031,179949.1875,166989.8438,166673.5313,38752.53516,173496.4375,,,
0.2,1,158439.0156,159415.75,183234.1719,179953.7188,166973.4063,166667.875,38736.35938,173492.2031,,,
0.204,1,158433.5,159410.2813,183234.0625,179949.5156,166971.9375,166661.625,38732.60547,173489.2188,,,
0.208,1,158447.9844,159424.3906,183250.9844,179958.125,166986.3906,166672.3594,38745.07813,173496.6563,,,
0.212,1,158454.5781,159435.7813,183255.9531,179936.8438,166990.3906,166685.2031,38745.23828,173500.0625,,,
0.216,1,158449.7969,159428.7031,183254.4219,179931.5625,166988.5625,166683.9375,38746.5,173497.2344,,,
0.22,1,158435.4219,159406.2813,183240.9219,179938.5156,166978.6875,166667.3438,38744.19141,173482.2969,,,
0.224,1,158436.875,159410.2969,183241.9219,179932.6875,166980.1094,166664.5781,38746.63281,173486,,,
0.228,1,158439.6719,159419.8281,183239.8594,179931.625,166978.1094,166670.9063,38737.21875,173490.7188,,,
0.232,1,158431.75,159407.8906,183231.9375,179936.9844,166968.9063,166660.9844,38735.04688,173477.7969,,,
0.236,1,158429.6875,159407.2188,183229.2813,179938,166966.8438,166662.7813,38731.64063,173478.3906,,,
0.24,1,158429.6094,159408.1563,183231.625,179932.4531,166970.9063,166667.1875,38726.91797,173483.5,,,
0.244,1,158437.5938,159418.9063,183238.9688,179935.0313,166979.1406,166674.6094,38732.82031,173494.6875,,,
0.248,1,158433.1719,159413.2031,183234.8906,179932.7969,166973.8594,166667.3906,38733.03516,173485.4063,,,
0.252,1,158451.2188,159431.7656,183262.1719,179929.0625,166997.6563,166681.4844,38765.94531,173493.2188,,,
0.256,2,158437.5469,159421.9219,183244.4688,179918.5313,166983.9219,166679.2969,38753.74219,173486,,,
0.26,2,158424.5313,159407.8125,183230.9219,179923.2813,166973.3281,166667.9531,38734.42969,173478.6719,,,
0.264,2,158421.6094,159404.4531,183227.2813,179926.2813,166969.7656,166663.875,38735.50391,173476.9375,,,
0.268,2,158430.8594,159408.75,183240.7969,179932.6875,166979.8438,166670.9688,38753.66016,173479.6406,,,
0.271999999,2,158425.6094,159401.9844,183233.4688,179926.9531,166973.0625,166668.625,38748.85938,173469.4531,,,
0.275999999,2,158416.375,159392.6563,183220.9531,179916.4688,166961.9531,166662.25,38733.30469,173464.1094,,,
0.28,2,158421.9688,159400.8594,183229.3438,179915.9844,166970.25,166671.7656,38736.94922,173477.4688,,,
0.284,2,158435.9688,159416.1563,183245.2656,179925.125,166982.5,166677.5625,38739.36328,173491.9063,,,
0.288,2,158435.5938,159414.8125,183235.4531,179942.5625,166976.0313,166676.8125,38739.875,173491.5,,,
0.291999999,2,158430.8594,159404.9688,183232.8281,179929.7188,166974.0469,166671.3594,38745.66797,173481.3125,,,
0.295999999,2,158424.7813,159399.3906,183227,179919.0938,166969.7031,166667.0938,38738.55859,173478.3906,,,
0.3,2,158422.8438,159399.2188,183226.7344,179931.0781,166970.2188,166670.9063,38748.13672,173482.9688,,,
0.304,2,158422.4219,159401.2344,183227.9219,179927.2656,166970.625,166673.3438,38753.09766,173484.6094,,,
0.308,2,158431.9688,159412.3438,183237.7969,179928.2344,166979.9531,166684.5313,38758.30078,173490.3438,,,
0.312,2,158432.375,159412.125,183238.4531,179930.2031,166982.5313,166684.9688,38759.85547,173485.8438,,,
0.315999999,2,158434.1094,159411.7031,183241.4063,179931.8906,166984.7344,166682.0938,38762.43359,173486.0781,,,
0.319999999,2,158434.5625,159412.8438,183238.9219,179936.3906,166983.1719,166686.5156,38752.5625,173493.5313,,,
0.324,2,158425.2031,159407.375,183225.0156,179905.9219,166971.5313,166687.9688,38750.01172,173493.1875,,,
0.328,2,158419.875,159398.0469,183222.9063,179897.2344,166966.7031,166679.4844,38750.03906,173481.9219,,,
0.332,2,158425.3906,159405.5469,183229.4531,179912.3906,166971.8281,166684.5938,38748.48438,173479.9063,,,
0.335999999,2,158420.4375,159398.5781,183226.7656,179926.7031,166968.5,166675.6875,38736.33203,173473.75,,,
0.339999999,2,158415.0469,159392.6875,183220.2188,179924.4844,166963.8125,166666.6406,38726.8125,173473.0469,,,
0.344,2,158409.1406,159389.1875,183213.2188,179904.2344,166958.0469,166665.8125,38734.48438,173472.4531,,,
0.348,2,158410.4063,159389.2813,183215.5781,179902.9688,166959.1094,166663.5625,38744.59375,173467.625,,,
0.352,2,158410.1094,159390.1875,183216.0156,179905.6563,166958.1406,166668.3906,38746.28516,173461.2656,,,
0.355999999,2,158408.4219,159391.3438,183215.7188,179903.5938,166957.375,166672.7344,38739.25781,173463.6875,,,
0.359999999,2,158417.4219,159400.0781,183226.5781,179908.125,166969.0156,166683.0313,38750.03906,173479.9375,,,
0.363999999,2,158411.6563,159396.625,183217.4844,179904.9063,166960.6719,166678.5469,38747.65234,173481.2188,,,
0.368,2,158402.5938,159387.0938,183207.9375,179902.625,166949.9375,166672.0625,38741.26953,173466.4219,,,
0.372,2,158407.9063,159390.9063,183213.7031,179903.7031,166954.2344,166672.4844,38741.91406,173464.4844,,,
0.376,2,158415.4688,159396.25,183225,179906.2188,166966.1875,166673.1875,38751.21875,173471.25,,,
0.379999999,2,158418.6406,159400.3438,183231.5625,179914.6406,166973.5156,166677.2656,38759.21484,173480.75,,,
0.383999999,3,158399.75,159384.7344,183204.5313,179909.0625,166950.8438,166663.4531,38738.55859,173470.3906,,,
0.387999999,3,158395.8906,159381.0469,183198.125,179903.9063,166943.7188,166655.0625,38726.11328,173460.1719,,,
0.391999999,3,158405.5781,159389.1719,183207.5,179907.3438,166951.4375,166664.875,38736.60156,173463.4688,,,
0.395999999,3,158406.625,159387.8594,183206.0938,179910.3438,166952.25,166662,38742.47656,173464.5469,,,
0.399999999,3,158411.0156,159391.0469,183211.9063,179919.0938,166957.5625,166660.125,38743.60156,173471.5469,,,
0.403999999,3,158412.2031,159388.9531,183214.9844,179921.0156,166960.125,166660.4531,38734.96484,173473.1719,,,
0.407999999,3,158419.1406,159400.8125,183218.5313,179928.2188,166963.1406,166667.5625,38741.32422,173478.2969,,,
0.411999999,3,158424.1563,159404.3438,183225.5,179935.4844,166967.8281,166666.4844,38753.74219,173476.1563,,,
0.415999999,3,158421.2969,159400.2188,183228,179921.6406,166969.9688,166663,38758.91797,173476.1563,,,
0.419999999,3,158408.9531,159391.3438,183213.7813,179906.6406,166959,166654.8906,38745.75,173476.1094,,,
0.423999999,3,158413.0625,159392.4688,183215.2656,179928.3438,166961.3125,166657.4375,38743.44141,173477.7344,,,
0.427999999,3,158422.7188,159402.9063,183225.9688,179900.9844,166970.9688,166666.75,38744.05859,173478.3594,,,
0.431999999,3,158417.75,159398.9844,183219.7969,179886.6406,166964.4531,166658.0313,38736.65625,173469.875,,,
0.435999999,3,158405.0313,159381.5,183204.2031,179899.0781,166949.8125,166643.0469,38736.87109,173458.6406,,,
0.439999999,3,158405.0938,159380.6094,183203.0625,179906.5625,166949.4844,166641.1875,38736.35938,173460.7656,,,
0.443999999,3,158409.0938,159384.4219,183210.0313,179907.3125,166954.3438,166638.7188,38738.96094,173465.2344,,,
0.447999999,3,158414.5781,159389.6719,183217.25,179902.0625,166960.875,166642.9531,38740.54688,173466.5469,,,
0.451999999,3,158426.8906,159403.375,183235.8906,179900.9844,166977.2969,166658.6719,38739.5,173472.7188,,,
0.455999999,3,158428.7188,159414.9688,183227.0625,179906.9688,166973.1094,166669.5156,38737.80859,173484.4688,,,
0.459999999,3,158417.2656,159396.4688,183213.1719,179913.0625,166960.2969,166655.8594,38747.57422,173476.125,,,
0.463999999,3,158413.8594,159382.5625,183218.5781,179914.0156,166961.8438,166649.8594,38758.94531,173466.9063,,,
0.467999999,3,158419.2188,159388.8906,183221.6406,179912.5938,166964.75,166655.3281,38761.81641,173467.4063,,,
0.471999999,3,158416.4844,159388.3125,183215.4531,179916.4063,166959.1875,166653.8281,38750.78906,173463.2813,,,
0.475999999,3,158417.1563,159390.1875,183214.8594,179918.1563,166957.7969,166655.2656,38744.00391,173465.75,,,
0.479999999,3,158424.9063,159402.5313,183222.3438,179920.75,166965.4375,166662.5469,38748.40234,173480.2031,,,
0.483999999,3,158424.8594,159396.0313,183230.25,179922.2813,166973.5156,166666.2656,38761.51953,173483.3438,,,
0.487999999,3,158424.8281,159397.7031,183226.4219,179911.3125,166970.1875,166667.2813,38763.37109,173483.2188,,,
0.491999999,3,158425.7188,159397.7969,183225.2344,179913.5625,166967.2188,166665.0156,38758.62109,173478.625,,,
0.495999999,3,158429.7969,159404.75,183224.7813,179924.3281,166966.3594,166667.75,38756.55859,173482.5469,,,
0.499999999,3,158416,159391.2813,183213.5625,179892.1406,166956.1563,166655.4063,38747.22266,173479.1094,,,
0.503999999,3,158406.8906,159387.7656,183204,179891.4688,166949.5156,166651.0313,38738.29297,173479.1563,,,
0.507999999,3,158409.4375,159389.1094,183208.7969,179908.2031,166953.3438,166658.1719,38739.57813,173476.3125,,,
0.511999999,4,158414.9688,159397.7031,183215.0469,179903.6406,166957.2344,166668.0156,38747.86719,173475.4844,,,
0.515999999,4,158418.9531,159402.5313,183223.8906,179902.4375,166964.5781,166675.9531,38758.89063,173479.0469,,,
0.519999999,4,158404.7656,159387.2344,183206.8594,179902.9688,166949.2188,166668.5,38738.07813,173473.0781,,,
0.523999999,4,158388.5938,159368.3281,183191.2813,179894.4688,166934.2813,166651.8594,38723.80859,173458.4531,,,
0.527999999,4,158399.7813,159379.3281,183201.6563,179899.1563,166945.5625,166657.1719,38742.53125,173461.8125,,,
0.531999999,4,158409,159392.6875,183205.4688,179905.4688,166950.2031,166665.4063,38745.88281,173469.3125,,,
0.535999999,4,158424.6406,159412.6563,183219.0938,179914.75,166964.5313,166675.7344,38748.69922,173487.875,,,
0.539999999,4,158413.6719,159392.875,183214.5313,179911.375,166960.2344,166659.6719,38745.13281,173480.1875,,,
0.543999999,4,158408.7656,159386.1094,183211.3438,179909.3281,166956.5156,166662.25,38742.87891,173475.6719,,,
0.547999999,4,158423.8594,159397.9688,183230.1406,179903.1094,166972.5469,166667.7656,38759.16016,173480.4531,,,
0.551999999,4,158428.5625,159401.1563,183231.3281,179906.8906,166974.5313,166668.0938,38758.75781,173480.0938,,,
0.555999999,4,158426.1406,159402.3438,183221.7031,179904.3594,166970.2969,166668.8438,38748.24219,173484.25,,,
0.559999999,4,158432.2344,159405.0781,183228.5156,179904.1719,166976.5938,166667.2031,38747.41016,173491.9063,,,
0.563999999,4,158429.4375,159403.1094,183223.8906,179904.0938,166971.75,166663.2969,38754.11719,173492.1094,,,
0.567999999,4,158436.6563,159408.1875,183231.0313,179924.0469,166977,166669.9688,38768.0625,173491.5469,,,
0.571999999,4,158429.8281,159397.0313,183226.9063,179924.0469,166971.7969,166664.4375,38763.85156,173480.0156,,,
0.575999999,4,158421.9844,159391.0781,183220.6563,179898.9531,166965.6094,166660.0469,38750.52344,173474.9219,,,
0.579999999,4,158428.4219,159400.7813,183230.2031,179897.3906,166975.8281,166667.2344,38763.98828,173487.6563,,,
0.583999999,4,158427.375,159402.875,183229.3125,179902.8906,166974.1875,166667.7969,38764.73828,173492.8438,,,
0.587999999,4,158428.0156,159405.4531,183224.7031,179904.0156,166970.8594,166671.4375,38761.11719,173490.4844,,,
0.591999999,4,158435.7188,159409.1563,183235.0469,179908.1563,166979.0156,166676.2188,38768.03906,173487.5781,,,
0.595999999,4,158428.2188,159398.7656,183228.5938,179911.5781,166972.5,166668.9844,38756.12891,173478.7031,,,
0.599999999,4,158427.8906,159398.6094,183230.5,179900.75,166975.875,166673.1094,38753.74219,173484.1719,,,
0.603999999,4,158428.5938,159399.4375,183229.9844,179898.9219,166976.6875,166675.2813,38751.78516,173488.0156,,,
0.607999999,4,158426.2813,159400.0625,183225.4531,179895.0938,166972.3906,166674.6563,38752.29297,173486.3281,,,
0.611999999,4,158427.0781,159397.4219,183226.3438,179903.0469,166973.2969,166673.6406,38761.51953,173480.3438,,,
0.615999999,4,158415.4688,159379.1563,183214.4531,179904.2813,166963.4375,166660.8281,38761.25,173466.0469,,,
0.619999999,4,158410.6406,159376.6875,183210.8125,179888.9219,166960.4219,166657.4219,38757.52344,173465.4063,,,
0.623999999,4,158427.0313,159398.3438,183223.875,179895.5469,166974.6406,166679.5781,38772.08594,173484.125,,,
0.627999999,4,158432.6406,159402.9219,183232.5313,179900.0156,166982.75,166688.5313,38768.30469,173490.7813,,,
0.631999999,4,158423.9688,159387.8281,183228.9844,179890.4531,166977.9688,166672.6563,38759.64063,173474.5781,,,
0.635999999,4,158422.9219,159391.2656,183219.6875,179902.4844,166970.8281,166670.1875,38761.65234,173476.6719,,,
0.639999999,5,158414.9375,159380.9844,183207.5313,179904.4219,166960.75,166672.1094,38762.43359,173476.5313,,,
0.643999999,5,158412.4688,159376.7188,183206.7813,179904.3438,166958.5469,166673.5156,38765.625,173476.0156,,,
0.647999999,5,158420.375,159381.875,183216.2031,179924.5938,166964.2344,166675.0156,38765.00781,173477.5469,,,
0.651999999,5,158422.3125,159388.1719,183218.3906,179907.6094,166963.8125,166670.4219,38768.84375,173476.0469,,,
0.655999999,5,158407.375,159377.5781,183202.4375,179879.8438,166948.9688,166660.4219,38761.30469,173467.625,,,
0.659999999,5,158403.6719,159370.125,183200.75,179889.5938,166947.5781,166654.5938,38757.95313,173466.1563,,,
0.663999999,5,158406.1406,159370.1563,183206.3281,179894.6875,166952.4844,166653.5313,38757.36328,173465.7031,,,
0.667999999,5,158413.7344,159378.9531,183217.1094,179901.2031,166961.125,166661.0313,38771.47266,173465.4531,,,
0.671999999,5,158415.3125,159381.0625,183223.3594,179893.2031,166965.3281,166661.6875,38782.81641,173460.5469,,,
0.675999999,5,158410.2969,159374.8125,183215.0469,179890.7188,166957.9063,166655.1406,38773.5625,173454.4063,,,
0.679999999,5,158408.7656,159371.7656,183207.5625,179898.7813,166953,166651.9531,38765.25,173457.2969,,,
0.683999999,5,158415.9219,159381.1406,183215.3906,179896.0469,166961.9844,166663.5313,38771.68359,173468.6719,,,
0.687999999,5,158424.7813,159385.7813,183227.2188,179893.125,166971.8281,166671.0938,38781.98438,173474.3281,,,
0.691999999,5,158419.125,159383.4219,183216.9219,179892.8594,166961.5781,166666,38766.32031,173465.6719,,,
0.695999999,5,158417.5156,159381.9531,183213.75,179910.1406,166959.2188,166659.7031,38758.62109,173463.7969,,,
0.699999999,5,158419.9844,159383.6094,183216.9219,179906.1406,166967.375,166660,38769.03125,173469.5313,,,
0.703999999,5,158410.5625,159377.125,183205.6875,179898.8438,166959.5625,166657.4375,38765.75781,173467.5,,,
0.707999999,5,158391.4688,159356.0469,183184.9844,179876.1719,166936.7188,166639.1563,38760.01953,173443.5469,,,
0.711999999,5,158401.4688,159372.8906,183193.2344,179876.25,166940.3438,166647.3125,38767.47266,173446.7813,,,
0.715999999,5,158421.6875,159389.2969,183218.4531,179898.7813,166962.3906,166668.1406,38793.4375,173464.8438,,,
0.719999999,5,158405.7031,159368.0625,183204.4844,179901.7969,166950.375,166655.2188,38779.70703,173455.6094,,,
0.723999999,5,158394.4688,159357.25,183192.8594,179894.4688,166938.625,166642.2031,38766.1875,173451.5938,,,
0.727999999,5,158402.25,159365.7031,183200.0313,179896.5625,166943.5,166644.9688,38769.96875,173457.8438,,,
0.731999999,5,158410.2656,159376.1094,183207.1094,179887.1406,166950.3438,166658.9688,38777.29297,173463.0938,,,
0.735999999,5,158416.6563,159383.2656,183214.3281,179883.7188,166958.4375,166670.1094,38785.76563,173470.1563,,,
0.739999999,5,158413.5469,159377.3125,183215.0938,179879.4219,166962.4375,166664.9531,38787.53906,173472.0469,,,
0.743999999,5,158414.6094,159376.9844,183215.6563,179890.6406,166965.875,166662.5156,38786.83984,173473.6094,,,
0.747999999,5,158416.1875,159376.1563,183212.0156,179903.7813,166964.7656,166660.375,38785.25781,173471.3281,,,
0.751999999,5,158419.7656,159384.1563,183210.8906,179895.4688,166962.6563,166659.2969,38782.89844,173472.2344,,,
0.755999999,5,158417.5313,159380.5781,183208.5781,179897.3594,166958.3906,166658.6563,38777.90625,173469.7656,,,
0.759999999,5,158412.1406,159372.0469,183206.8438,179891.4844,166955.8125,166654.2813,38778.41797,173466.4688,,,
0.763999999,5,158411.3594,159374.1719,183208.2344,179881,166957.3125,166654.2188,38779.41016,173468.8281,,,
0.767999999,6,158417.8594,159379.7188,183210.8125,179892.0625,166960.7813,166659.5938,38774.44922,173472.0469,,,
0.771999999,6,158418.0781,159385.1406,183203.8906,179892.4375,166953.875,166664.3594,38768.38672,173471.5938,,,
0.775999999,6,158412.1406,159377.0625,183198.3281,179883.1563,166950.4531,166666.1406,38772.0625,173468.3281,,,
0.779999999,6,158416.8906,159377.2031,183204.4531,179891.4375,166957.2031,166670.0313,38788.47656,173475.1719,,,
0.783999999,6,158417.0313,159377.9063,183204.5781,179891.4375,166959.5625,166668.625,38789.06641,173475.4844,,,
0.787999999,6,158411.2031,159373.6094,183201.125,179888.1406,166956.1875,166663.4219,38771.875,173466.75,,,
0.791999999,6,158413.1875,159375.2969,183205.0156,179883.5,166957.2813,166663.7188,38764.20313,173462.7188,,,
0.795999999,6,158412.9219,159375.5469,183206.1875,179880.8438,166956.4375,166664.0625,38783.72656,173463.1719,,,
0.799999999,6,158411.1719,159375.8906,183205.0625,179887.0938,166955.3594,166667.2813,38793.03516,173469.5,,,
0.803999999,6,158397.6406,159364.5156,183188.0313,179886.3906,166939.375,166650.625,38776.05859,173462.3906,,,
0.807999999,6,158406.3438,159374.3281,183197.1563,179887.6875,166946.7188,166655.4063,38773.58984,173464.9375,,,
0.811999999,6,158430.4063,159396.1719,183232.1094,179906.5938,166976.2031,166673.8594,38794.40234,173480.8281,,,
0.815999999,6,158412.875,159383.5313,183207.7813,179889.9844,166955.8594,166662.6719,38779.38281,173471.7344,,,
0.819999999,6,158395.8906,159365.75,183186.9688,179885,166941,166658.4375,38780.08203,173462.1563,,,
0.823999999,6,158388.9688,159359.0781,183178.9688,179869.9219,166935.5625,166652.5938,38774.63672,173457.5625,,,
0.827999999,6,158391.5938,159360.1406,183183.1875,179868.0469,166939.0469,166649.8594,38770.61328,173455.4219,,,
0.831999999,6,158403.0781,159365.4531,183193.5625,179884.7656,166946.7813,166652.9844,38777.66797,173453.5469,,,
0.835999999,6,158404.1563,159369.4844,183189.9688,179890.3594,166940.0625,166654.3906,38775.25391,173455.7969,,,
0.839999999,6,158395.8125,159363.0156,183179.2344,179880.0625,166929.2813,166651.5938,38766.21484,173456.4219,,,
0.843999999,6,158391.8125,159359.2344,183173.0156,179871.4063,166922.9844,166650.6563,38754.94922,173456.9063,,,
0.847999999,6,158393.7188,159361.7031,183176.9531,179866.4688,166925.5313,166655.9375,38755.88672,173457.1875,,,
0.851999999,6,158401.0156,159369.6406,183187.8438,179866.8125,166935.7813,166661.4375,38765.8125,173458.4531,,,
0.855999999,6,158391.1719,159356.4375,183181.7344,179869.4375,166929.8281,166646.3594,38756.87891,173446.5469,,,
0.859999999,6,158383.7188,159352.2656,183173.5313,179866.3125,166923.6563,166637.7813,38747.49219,173447.8281,,,
0.863999999,6,158382.4063,159352.5,183168.375,179874.75,166922.5313,166639.2344,38742.26172,173450.7031,,,
0.867999999,6,158390.5781,159360.1406,183178.7031,179887.1719,166933.3594,166649.875,38746.3125,173452.6875,,,
0.871999999,6,158399.5938,159365.7969,183190.3125,179887.8438,166944.0938,166655.25,38759.40234,173452.1719,,,
0.875999999,6,158395.8438,159360.2031,183188.7656,179876.2813,166942.9375,166654.3281,38776.03125,173448.6406,,,
0.879999999,6,158387.875,159357.2969,183181.7813,179865.9531,166938.7344,166653.3906,38781.10156,173451.2969,,,
0.883999999,6,158392,159367.4375,183183.7188,179873.9531,166942.2188,166661.5,38784.21094,173463.2031,,,
0.887999999,6,158404.0938,159380.75,183196.5156,179870.0625,166952.5938,166668.8438,38792.20313,173470.25,,,
0.891999999,6,158403.6406,159377.0469,183200.5625,179877.8906,166954.5781,166663.1563,38796.09375,173463.5313,,,
0.895999999,7,158398.1719,159370.6875,183188.8125,179882.9688,166943.5625,166656.4844,38783.78125,173456.3906,,,
0.899999999,7,158390.7969,159357.9688,183179.1875,179887.25,166933.5469,166645.8281,38768.73438,173451,,,
0.903999999,7,158386.6875,159351.9375,183173.3438,179874.2656,166928.1563,166638.0469,38759.99219,173446.5938,,,
0.907999998,7,158391.2031,159357.25,183176.6875,179871.7813,166929.7344,166636.9219,38762.85938,173445.2344,,,
0.911999998,7,158398.25,159364.2969,183183.7188,179878,166932.4219,166641.7188,38761.92188,173447.5938,,,
0.915999998,7,158402.8906,159371.2031,183189.2969,179885.0313,166936.3906,166643.3281,38761.92188,173454.1406,,,
0.919999999,7,158403.8594,159373.6094,183194.875,179868.7969,166942.0781,166641.9375,38765.30078,173463.3281,,,
0.923999999,7,158393.7969,159362.4219,183186.4219,179871.6719,166936.125,166637.8594,38758.30078,173458.0313,,,
0.927999998,7,158385.2188,159354.2188,183175.3281,179869.8438,166924.8594,166637.7813,38752.61328,173445.8438,,,
0.931999998,7,158396.6406,159364.375,183190.0938,179871.4531,166935.4844,166644.8906,38774.07422,173447.5156,,,
0.935999998,7,158400.3438,159361.625,183205.4688,179865.5,166947.8438,166636.3125,38776.13672,173448.0781,,,
0.939999999,7,158376.0938,159343.5469,183176.4219,179858.75,166923.8438,166623.6406,38745.66797,173436.2188,,,
0.943999999,7,158385.3281,159357.5938,183182.5156,179870.0938,166930.5156,166640.2813,38765.27344,173449.8906,,,
0.947999999,7,158390.6875,159362.2344,183186.3125,179871.4844,166932.0781,166643.9531,38775.87109,173452.7344,,,
0.951999998,7,158389.0469,159359.6094,183181.8438,179873.7656,166926.8125,166637.375,38769.67188,173444.7813,,,
0.955999998,7,158383.3594,159357.7031,183176.6406,179866.7656,166922.9844,166636.7969,38767.23438,173443.25,,,
0.959999998,7,158381.5469,159357.5156,183177.3125,179859.125,166925.0469,166631.8594,38760.71484,173447.8125,,,
0.963999999,7,158384.1406,159358.5313,183176.7656,179860.2969,166927.8594,166624.0469,38759.23828,173453.0938,,,
0.967999999,7,158383.7969,159362.5,183172.2344,179858.5781,166925.5781,166629.5156,38758.43359,173454.1563,,,
0.971999998,7,158388.5938,159373.5313,183173.9063,179863.6719,166924.2969,166644.9375,38758.27344,173456.6094,,,
0.975999998,7,158397.2344,159380.4531,183183.2344,179864.1563,166933.9844,166651.375,38762.91406,173462.9063,,,
0.979999998,7,158393.7656,159376.5,183179.8594,179861.2969,166932.5625,166648.6406,38761.19922,173467.4063,,,
0.983999999,7,158384.9688,159369.6406,183171.9375,179856.5625,166926.0469,166645.2344,38756.69141,173463.2031,,,
0.987999999,7,158392.1875,159378.0313,183182.8281,179853.2188,166933.7969,166649.9063,38761.76172,173465.9844,,,
0.991999999,7,158394.2344,159372.5625,183188.2969,179861.875,166937.4688,166644.9688,38765.91797,173457.1719,,,
0.995999998,7,158395.375,159372.4531,183187.7344,179889.4219,166936.5781,166639.2031,38762.75391,173453.25,,,
0.999999998,7,158409.5625,159381.2344,183206.1094,179918.6094,166951.9531,166638.1875,38775.46875,173466.2813,,,
1.003999998,7,158399.1563,159376.375,183191.5156,179900.4531,166941,166636.7031,38766.26563,173465.9063,,,
1.007999999,7,158381.8906,159362.1563,183176.3438,179859.5,166925.5781,166631.4219,38754.17188,173449.0938,,,
1.011999999,7,158382.7969,159362.9063,183178.9219,179847.6406,166924.625,166631,38758.00781,173442.0625,,,
1.015999998,7,158389.7813,159372.7188,183186.7188,179855.25,166930.3906,166640.625,38762.83594,173449.0156,,,
1.019999998,7,158392.5938,159374.8438,183194.4219,179850.2969,166937.0313,166642.8594,38766.61719,173459.5313,,,
1.023999998,8,158389.6406,159372.6094,183191.4688,179848.1406,166934.1719,166636.7969,38759.16016,173462.75,,,
1.027999998,8,158387.0938,159367.5938,183189.9688,179846.8906,166931.3438,166631.9375,38750.76563,173456.2344,,,
1.031999998,8,158383.6875,159364.7813,183186.1563,179856.7031,166928.2344,166628.3438,38738.45313,173447.0625,,,
1.035999998,8,158390.4688,159369.1875,183194.8438,179850.2656,166939.0469,166639.6094,38755.26953,173451.9844,,,
1.039999998,8,158397.125,159377.0938,183202.4844,179862.0156,166949.5156,166645.7813,38761.38672,173463.3281,,,
1.043999998,8,158402.375,159379.9063,183206.6719,179859.5156,166953.3438,166635.5625,38747.49219,173465.7031,,,
1.047999998,8,158406.0781,159384.6406,183207.125,179852.5781,166952.625,166639.5781,38745.69531,173465.3438,,,
1.051999998,8,158413.6719,159398.2813,183210.75,179857.0781,166958.0469,166657.9844,38770.26563,173474.2031,,,
1.055999998,8,158417.1875,159403.1719,183214.3438,179877.625,166963.625,166657.4219,38772.70313,173480.9063,,,
1.059999998,8,158418.4531,159406.7344,183221.9375,179866.3594,166969.5156,166657.4375,38777.90625,173489.1406,,,
1.063999998,8,158405.3594,159384.7656,183213.625,179855.625,166960,166639.1563,38772.27734,173475.9688,,,
1.067999998,8,158401.0938,159379.2656,183207.8594,179854.4844,166954.4375,166634.4844,38764.98047,173467.1406,,,
1.071999998,8,158405.0625,159383.2656,183206.2188,179857.75,166954.0156,166641.9375,38763.58594,173463.6563,,,
1.075999998,8,158412.5156,159388.7344,183213.2813,179861.9688,166960.4531,166643.0938,38764.30859,173465.4219,,,
1.079999998,8,158428.0156,159407.625,183230.5469,179868.3125,166976.8125,166663.875,38775.57422,173484.7188,,,
1.083999998,8,158434.7344,159417.7656,183237.7344,179877.5781,166982.5,166673.5313,38788.01953,173494.6094,,,
1.087999998,8,158424.375,159402.2344,183227.4375,179879.75,166971.9844,166664.5469,38783.43359,173482.7344,,,
1.091999998,8,158408.6094,159386.2969,183207.5625,179864.1563,166953.8281,166650.7344,38763.61328,173466.1563,,,
1.095999998,8,158412.4688,159393.4375,183210.2656,179872.5625,166957.1563,166653.0156,38764.25391,173472.8281,,,
1.099999998,8,158416.6563,159398.0156,183216.5781,179869.9844,166963.5313,166659.7813,38757.20313,173483.6719,,,
1.103999998,8,158418.8438,159396.9375,183223.2188,179865.125,166968.6406,166663.7188,38759.48047,173486.4844,,,
1.107999998,8,158417.9844,159395.2031,183221.7188,179881.4531,166966,166658.5469,38770.47656,173481.3906,,,
1.111999998,8,158416.5781,159394.4219,183218.7188,179890.8438,166962.8125,166649.125,38770.18359,173474.7031,,,
1.115999998,8,158399.4063,159379,183201.3594,179847.3906,166948.4688,166635.2969,38756.28906,173462.9375,,,
1.119999998,8,158399.2656,159381.125,183203.75,179843.9844,166953.8281,166641.5625,38756.74609,173469.2344,,,
1.123999998,8,158408.8438,159388.8125,183212.7656,179862.7656,166963.8281,166651.0625,38761.46484,173477.9844,,,
1.127999998,8,158408.625,159386.1875,183209.3594,179868.7969,166960.6094,166648.9688,38756.80078,173474.9219,,,
1.131999998,8,158418.4531,159399.7656,183217.25,179867.3281,166967.6875,166657.5781,38762.99609,173478.5156,,,
1.135999998,8,158418.5313,159400.1094,183216.5938,179866.2031,166966.9375,166655.8125,38763.64063,173478.625,,,
1.139999998,8,158415.7344,159392.7656,183213.5625,179870.5938,166964.4219,166648.2969,38758.32813,173476.875,,,
1.143999998,8,158417.375,159394.3438,183216.2031,179877.4375,166967.2969,166651.7031,38759.91016,173481.0938,,,
1.147999998,8,158419.9844,159397.125,183219.0156,179877.1406,166967.8594,166651,38761.4375,173479.2344,,,
1.151999998,9,158427.625,159404.2656,183228.4219,179880.0156,166975.8438,166653.5625,38769.94141,173481.0313,,,
1.155999998,9,158416.4844,159395.3594,183215.9844,179876.5313,166965.7031,166646.7188,38759.61719,173473.9844,,,
1.159999998,9,158411.7656,159383.6094,183214.1094,179883.6563,166965.2031,166638.6094,38754.19922,173469.9688,,,
1.163999998,9,158412.5156,159384.1563,183215.4531,179883.8281,166965.8906,166643.5313,38749.12891,173471.4063,,,
1.167999998,9,158420.4531,159399.0156,183217.8594,179898.5,166968.0156,166657.0469,38744.30078,173481.2031,,,
1.171999998,9,158425.1563,159402.0625,183225.375,179895.4063,166973.1406,166659.375,38758.16797,173480.5781,,,
1.175999998,9,158413.3594,159390.6719,183215.8281,179867.0625,166963.4063,166647.5156,38752.85547,173468.8281,,,
1.179999998,9,158426.3281,159410.8125,183228.6719,179875.3438,166978.125,166662.2969,38762.32422,173489.75,,,
1.183999998,9,158424.9375,159413.2188,183227.3281,179876.5781,166975.5313,166670.0781,38754.19922,173495.8438,,,
1.187999998,9,158424.3281,159411.0781,183227.6563,179879.5313,166975.2031,166666.5938,38753.63281,173491.5781,,,
1.191999998,9,158422.4688,159411.7031,183224.0781,179873.875,166971.375,166663.75,38747.30469,173485.5781,,,
1.195999998,9,158428.2188,159415.3438,183231.9688,179883.7344,166975.6563,166659.6406,38742.31641,173484.7188,,,
1.199999998,9,158434.75,159414.8125,183241.8125,179896.4063,166985.75,166660.6563,38746.74219,173490.6719,,,
1.203999998,9,158429.9219,159410.1719,183239.4063,179876.7656,166983.5,166664.5,38751.16797,173492.5938,,,
1.207999998,9,158423.4688,159406.4688,183233.3438,179871.1406,166977.2188,166659.1406,38746.28516,173484.0469,,,
1.211999998,9,158438.6719,159420.1719,183249.9688,179884.1719,166991.0313,166665.2813,38757.76563,173490.1563,,,
1.215999998,9,158436.5781,159418.75,183244.9531,179876.0938,166987.1719,166662.8281,38757.44141,173490,,,
1.219999998,9,158434.1406,159420.9219,183239.4844,179886.375,166984.625,166667.875,38754.17188,173498.875,,,
1.223999998,9,158437.0313,159420.3125,183247.0469,179884.3281,166992.6094,166672.7031,38750.38672,173501.6719,,,
1.227999998,9,158442.8906,159423.3906,183255.2188,179887.4688,166999.8281,166676.0625,38755.85938,173500.375,,,
1.231999998,9,158440.7969,159419.0938,183247.7188,179902.75,166993.1563,166676.8125,38755.94141,173494.2344,,,
1.235999998,9,158431.7813,159403.9219,183239.375,179901.5,166984.0625,166669.1094,38751.75781,173483.6094,,,
1.239999998,9,158428.7188,159399.1406,183240.7969,179891.2031,166984.9219,166663.0469,38745.69531,173482.9375,,,
1.243999998,9,158425.4531,159400.25,183236.0156,179887.8125,166981.9844,166659.5313,38732.79297,173485.5938,,,
1.247999998,9,158435.125,159412.9063,183247.1563,179891.0313,166992.0469,166663.7813,38734.16016,173490.2344,,,
1.251999998,9,158442.6406,159421.6406,183256.6406,179900.4531,166999.9688,166672.4063,38742.12891,173493.8281,,,
1.255999998,9,158435.9375,159416.9063,183244.1406,179911.2344,166988.8906,166669.3281,38742.36719,173489.7344,,,
1.259999998,9,158436.4688,159419.5625,183246.75,179886.8281,166990.9844,166675.8125,38745.29297,173496.75,,,
1.263999998,9,158427.75,159410.8438,183237.25,179883.6563,166983.0938,166675.2813,38734.51172,173492.25,,,
1.267999998,9,158421.7188,159401.6719,183228.5625,179886.7188,166973.6719,166665.8125,38724.07422,173480.9375,,,
1.271999998,9,158424.8906,159402.8125,183235.1875,179886.1563,166975.2656,166657.5313,38719.78516,173476.0781,,,
1.275999998,9,158436.3125,159412.375,183241.7656,179895.6719,166982.3594,166665.4063,38720.16016,173483.5938,,,
1.279999998,10,158442.5313,159419.5,183247.0938,179895.4844,166989.7656,166672.3906,38726.83984,173495.9219,,,
1.283999998,10,158440.1406,159414.8594,183251.7344,179886.8594,166994.25,166671.25,38723.62109,173498.125,,,
1.287999998,10,158441.9375,159412.3125,183256.5625,179896.2969,166998.6719,166666.75,38727.29297,173495.25,,,
1.291999998,10,158437.7031,159410.25,183250.0781,179893.4844,166992.6406,166662.2656,38733.54297,173489.2969,,,
1.295999998,10,158435.5938,159413.3906,183244.5,179888.4063,166989.5313,166668.3594,38725.33594,173491.6406,,,
1.299999998,10,158428.9844,159403.0938,183241.0313,179880.7969,166987.3281,166664.3438,38714.20703,173490.2188,,,
1.303999998,10,158421.9375,159393.75,183232.5938,179879.5313,166980.2188,166656.75,38710.42188,173485.3594,,,
1.307999998,10,158426.6094,159403.4844,183234.5938,179881.4063,166980.9219,166662.1406,38715.54688,173488.4219,,,
1.311999998,10,158438.7188,159411.6406,183250.5781,179892.6406,166993.6875,166665.9531,38727.24219,173489.4531,,,
1.315999998,10,158438.2656,159411.8906,183247.7656,179886.2813,166991.8906,166663.6875,38720.29297,173489.9688,,,
1.319999998,10,158442.5625,159421.8906,183248.0938,179896.9375,166993.3594,166668.8438,38714.875,173502.7031,,,
1.323999998,10,158445.7188,159418.9688,183253.2188,179906.2188,166997.2813,166666.6406,38716.03125,173502.2344,,,
1.327999998,10,158440.3281,159407,183249.5156,179911.4219,166992.2969,166655.0313,38710.15625,173487.6563,,,
1.331999998,10,158447.4688,159415.8281,183253.9063,179917.8281,166996.7188,166662.7344,38714.42188,173489.375,,,
1.335999998,10,158455.25,159425.0313,183260.6719,179919.3594,167002.8281,166672.0313,38716.72656,173496.9688,,,
1.339999998,10,158457.5313,159430.5313,183265.8438,179919.0625,167007.6406,166677.2344,38717.10156,173509.125,,,
1.343999998,10,158453.0156,159422.1563,183268.125,179912.4375,167008.3906,166665.4844,38713.26563,173504.4844,,,
1.347999998,10,158457.8438,159427.9844,183271.3438,179912.7031,167011.7656,166672.0625,38716.45703,173503.625,,,
1.351999998,10,158453.5625,159427.6094,183262.25,179925.8438,167003.2031,166666.9688,38707.33984,173498.6406,,,
1.355999998,10,158459.1563,159428.4844,183269.9688,179924.4219,167009.9375,166666.9063,38710.39844,173501.3438,,,
1.359999998,10,158455.4844,159425.9063,183264.2969,179898.5,167006.4844,166665.0625,38694.30469,173503.0938,,,
1.363999998,10,158457.3594,159427.5156,183264.2344,179906.4375,167007.7969,166664.25,38691.43359,173505.3906,,,
1.367999998,10,158453.6875,159425.3281,183259.375,179924.3438,167002.5938,166660.0469,38693.92969,173500.9688,,,
1.371999998,10,158458.3906,159430.875,183263.8906,179926.8125,167004.8906,166657.0469,38700.84766,173499.5938,,,
1.375999998,10,158464.2813,159436.4063,183270.25,179911.6406,167010.7656,166660.9844,38710.31641,173504.6719,,,
1.379999998,10,158450.8438,159422.3125,183254.2656,179908.6563,166996.0469,166656.0781,38689.69141,173500.1875,,,
1.383999998,10,158449.5938,159419.9375,183253,179905.6875,166995.5156,166660.1875,38684.75391,173501.9531,,,
1.387999998,10,158455.6563,159426.7656,183260.7188,179908.0625,167001.1406,166660.2344,38698.91797,173505.2813,,,
1.391999998,10,158464.6563,159436.5625,183267.9844,179922.9063,167006.8594,166664.125,38708.94922,173507.9688,,,
1.395999998,10,158463.4844,159434.125,183268.125,179920.6406,167006.7969,166665.625,38702.78125,173508.3438,,,
1.399999998,10,158458.1719,159427.0625,183263.5156,179917.0469,167003.7656,166662.3594,38687.57031,173507.7031,,,
1.403999998,10,158452.8125,159419.6875,183258.9219,179921.2188,166999.5938,166655.625,38676.51953,173504.9844,,,
1.407999998,11,158458.9219,159423.5781,183267.5313,179929.875,167007.5313,166659.8906,38681.24219,173504.6719,,,
1.411999998,11,158468.7344,159434.7031,183276.6875,179926.125,167017.0469,166673.1406,38683.78906,173510.5469,,,
1.415999998,11,158468.8438,159433.5,183275.6563,179934.6563,167015.5,166672.3594,38680.8125,173511.5313,,,
1.419999998,11,158474.6875,159440.7656,183282.7188,179932.0781,167022.3125,166674.4219,38691.08594,173523.3594,,,
1.423999998,11,158473.8594,159440.2656,183278,179932.875,167019.0938,166675.875,38690.46875,173528.1875,,,
1.427999998,11,158469.1094,159433.9844,183270.6406,179938.0781,167010.375,166671.5,38675.07031,173520.25,,,
1.431999998,11,158475.4219,159440.75,183276.4375,179932.7656,167014.8281,166676.8594,38675.47266,173519.0469,,,
1.435999998,11,158487.3594,159449.625,183291.8906,179936.5313,167029.4688,166680.4844,38686.17578,173526.0469,,,
1.439999998,11,158482.6094,159444.1719,183283.125,179933.3594,167024.875,166675.7031,38677.21875,173529.0469,,,
1.443999998,11,158477.1563,159442.2969,183278,179927.4375,167020.1563,166667.9844,38666.19531,173532.1094,,,
1.447999998,11,158499.3906,159463.9219,183306.1563,179935.1563,167045,166680.4844,38680.00781,173548.8906,,,
1.451999998,11,158492.2344,159449.4688,183295.375,179934.4375,167035.7969,166675.6563,38669.97656,173534.4375,,,
1.455999998,11,158501.1406,159458.6406,183301.5469,179943.1563,167044.5938,166683.8594,38678.74609,173541.4375,,,
1.459999998,11,158495.75,159455.7969,183299.9844,179956.1563,167045.75,166683.8594,38676.33203,173548.1719,,,
1.463999998,11,158487.9688,159450.6719,183293.3438,179944.9688,167039.625,166675.2031,38662.08984,173548.1719,,,
1.467999998,11,158489.5781,159447.125,183294.3594,179951.0938,167039.625,166670.4219,38655.30469,173541.875,,,
1.471999998,11,158486.4219,159442.9375,183291.6563,179944.3906,167034.7188,166670.3125,38660.40234,173529.2188,,,
1.475999998,11,158492.7656,159451.3906,183298.2813,179941.2188,167040.4688,166678.7188,38669.81641,173535.4375,,,
1.479999998,11,158498.3438,159457.9063,183305.1094,179950.3906,167047.8438,166687.375,38674.83203,173549.1719,,,
1.483999998,11,158488,159449.7344,183294.3594,179941.4844,167038.9063,166682.6563,38662.54688,173547.2344,,,
1.487999998,11,158487.0313,159450.9375,183293.8438,179944.8438,167038.2656,166681.2344,38654.41797,173544.5,,,
1.491999998,11,158494.5469,159454.1094,183304.625,179947.9844,167045.2969,166678.7188,38650.47656,173541.9531,,,
1.495999998,11,158494.2813,159454.9063,183303.1563,179948,167044,166677.75,38638.46094,173541.8125,,,
1.499999998,11,158495.4219,159455.3594,183306.5625,179946.875,167048.75,166682.8906,38658.73828,173548.1719,,,
1.503999998,11,158486.4375,159447.3906,183295.4375,179941.4688,167038.9688,166677.875,38647.63281,173543.5625,,,
1.507999998,11,158496.4219,159458.3906,183307.125,179942.2969,167048.3438,166682.125,38648.65234,173549.0313,,,
1.511999998,11,158502.0313,159461.75,183312.375,179948.7031,167052.2344,166680.7031,38657.04688,173549.5625,,,
1.515999998,11,158500.2031,159467.0625,183300.2656,179955.4063,167042.3438,166677.0313,38646.53516,173551.3438,,,
1.519999998,11,158506.1875,159469.5469,183309.5156,179954.9531,167051.0313,166678.2813,38640.55078,173559.0313,,,
1.523999998,11,158500.6563,159459.1406,183306.6719,179952.8594,167048.375,166676.9219,38625.39844,173553.6406,,,
1.527999998,11,158502.6094,159464.7031,183306.5156,179951.4688,167047.2813,166685.5,38623.86719,173556,,,
1.531999998,11,158508.5469,159473.125,183309.5625,179952.7344,167049.6406,166689.3125,38630.35938,173559.5938,,,
1.535999998,12,158503.2344,159463.2969,183302.1563,179962.625,167043.9844,166680.7188,38618.93359,173552.3906,,,
1.539999998,12,158497.9219,159457.6719,183299.0469,179966.2188,167041.2188,166674.5313,38609.03516,173551.9219,,,
1.543999997,12,158496.8281,159458.5625,183301.2031,179962.8906,167042.2813,166674.4688,38606.08594,173556.375,,,
1.547999997,12,158509.4531,159472.125,183313.9375,179974.5313,167053.875,166686.3906,38615.71484,173566.0313,,,
1.551999997,12,158514.3125,159479.5,183316.5156,179973.375,167056.875,166690.8438,38606.89063,173568.8281,,,
1.555999997,12,158502.4219,159465.6094,183307.0469,179963.8906,167047.9688,166671.9063,38590.98438,173558.4688,,,
1.559999998,12,158494.9375,159454.5625,183303.7969,179956,167045.5625,166663.5625,38585.03125,173555.4219,,,
1.563999998,12,158498.8906,159458.6094,183305.2813,179952.4844,167048.2969,166670.2188,38586.21094,173560.6406,,,
1.567999997,12,158514.2031,159476.1563,183321.8438,179952.375,167062.4375,166680.5938,38609.76172,173571.1094,,,
1.571999997,12,158516.4063,159476.6406,183323.8125,179967.4531,167063.3438,166676.5938,38602.97266,173569.5781,,,
1.575999997,12,158522.8906,159484.5156,183331.9375,179969.0938,167071.4375,166688.5313,38594.14844,173575.7813,,,
1.579999998,12,158513.7188,159478.7031,183320.2969,179969.8125,167060.8438,166687.1875,38580.46875,173575.9844,,,
1.583999998,12,158514.9844,159477.6563,183323.4063,179982.0156,167063.5,166687.7031,38580.46875,173577.6563,,,
1.587999997,12,158521.3438,159482.2656,183329.625,179991.8281,167068.5156,166691.2656,38589.53516,173580.0313,,,
1.591999997,12,158520.0156,159487.7656,183320.5156,179981.3438,167062.375,166695.9844,38580.73828,173576.3906,,,
1.595999997,12,158527.2344,159496.2344,183327.6094,179990.7344,167068.9531,166702.875,38585.80859,173581.3281,,,
1.599999997,12,158521.125,159486.6719,183323.6719,179971.2344,167066,166695.2656,38578.67188,173578.4063,,,
1.603999998,12,158515.625,159478.4531,183319.8438,179963.4531,167062.25,166686.4375,38564.48438,173573.5781,,,
1.607999997,12,158510.6563,159472.6406,183315.5781,179961.125,167056.2344,166678.6094,38558.98438,173565.6406,,,
1.611999997,12,158514.9531,159478.7813,183319.9688,179962.3906,167058.1406,166679.7344,38559.65625,173563.8594,,,
1.615999997,12,158524.1563,159486.2031,183332.3438,179966.8281,167068.875,166689.2344,38570.86719,173567.1094,,,
1.619999997,12,158518.0625,159477.1094,183330.8125,179975.4688,167068.4375,166680.75,38568,173564.1563,,,
1.623999998,12,158509.6406,159471.2656,183320.2188,179984.1406,167059.375,166673.1875,38554.18359,173561.375,,,
1.627999998,12,158515.4688,159476.5313,183325.3594,179987.1875,167064.6563,166679.4688,38558.87891,173565.3125,,,
1.631999997,12,158521.9844,159483.2656,183330.9688,179986.0156,167069.8906,166676.1094,38558.28906,173565.9844,,,
1.635999997,12,158534.6875,159494.6875,183344.8594,179985.5313,167081.375,166679.5781,38564.48438,173574.8125,,,
1.639999997,12,158535.875,159492.2969,183346.9844,179993.7656,167084.7188,166676.7344,38564.16406,173580.6094,,,
1.643999997,12,158528.2813,159491.8906,183334.5625,179990.8125,167075.125,166677.2656,38548.82031,173584.9219,,,
1.647999998,12,158521.0156,159478.0625,183327.1563,179990.4375,167068.625,166664.3438,38540.29297,173572.2344,,,
1.651999997,12,158528.3438,159487.1719,183332.7344,179997.8125,167072.9219,166664.4688,38546.94141,173573.7031,,,
1.655999997,12,158528.9531,159483.9219,183335.75,180000.8125,167076,166664.6094,38540.61328,173570.1406,,,
1.659999997,12,158527.125,159484.5781,183335.2813,179997.8906,167076.4844,166666.0313,38522.9375,173577.0313,,,
1.663999997,13,158531.0781,159489.3438,183336.6875,180021.3438,167077.5781,166663.0156,38532.78125,173584.2188,,,
1.667999997,13,158548.5313,159509.1875,183353.0156,180020.875,167095.9844,166679.4063,38560.94531,173599.8281,,,
1.671999997,13,158546.1406,159506.5156,183351.0313,179990.6875,167093.25,166671.1563,38561.69531,173594.8906,,,
1.675999997,13,158551.0313,159510.1875,183356.3125,180006.5313,167097.9219,166675.1406,38562.23047,173596.1094,,,
1.679999997,13,158543.0625,159503.1406,183349.9531,179997.7813,167094.6719,166672.8438,38550.1875,173597.3594,,,
1.683999997,13,158550.0938,159513.5156,183356.4844,179997.1719,167101.8125,166679.1406,38557.61719,173610.6719,,,
1.687999997,13,158555.7031,159516.4844,183363.125,179986.6563,167107.4844,166676.25,38557.77734,173612.4375,,,
1.691999997,13,158552.7188,159515.9844,183357.875,179998.1875,167102.6875,166673.25,38540.82813,173607.9844,,,
1.695999997,13,158548.0469,159509.8125,183354.8906,179997.5156,167100.1094,166669.1406,38541.17578,173600.6094,,,
1.699999997,13,158546.0938,159505.8125,183350.1719,179996.5781,167096.4219,166669.2188,38547.66797,173600.5,,,
1.703999997,13,158550.0938,159505.9219,183354.5781,180000.2813,167098.5313,166666.9688,38552.97656,173602.5938,,,
1.707999997,13,158553.625,159509.4375,183361.2188,179999.5313,167104.0313,166663.9688,38551.47656,173602.0938,,,
1.711999997,13,158564.0156,159521.6094,183375.9531,180000.0156,167118.4375,166674.3125,38560.21875,173607.4219,,,
1.715999997,13,158567.4688,159523.9219,183380.8594,180003.3438,167122.0625,166678.2031,38568.34766,173609.7344,,,
1.719999997,13,158566,159522.6875,183376.375,180002.9375,167117.3125,166672.0938,38559.84375,173615.3438,,,
1.723999997,13,158569.75,159527.4375,183376.0313,180019.6719,167119.6094,166667.9531,38559.19922,173621.2656,,,
1.727999997,13,158572.5156,159525.9375,183379.4688,180030.2656,167122.8594,166667.3906,38561.66797,173619.1406,,,
1.731999997,13,158562.7188,159521.2188,183367.3125,180018.6563,167112.125,166658.2188,38551.58203,173609.7344,,,
1.735999997,13,158562.1094,159527.3281,183366.0469,180013.6406,167111.8594,166658.1094,38542.91797,173614,,,
1.739999997,13,158561.9688,159528.7969,183366.1406,180018.2031,167111.7813,166658.625,38553.19141,173621.6406,,,
1.743999997,13,158561.7344,159522.5781,183369.7813,180022.625,167115.0625,166656.875,38564.24219,173618.8438,,,
1.747999997,13,158561.9531,159520.625,183372.1406,180018.0938,167115.9219,166652.2344,38555.98047,173613.375,,,
1.751999997,13,158567.5313,159525.7188,183379.9688,180015.6563,167123.6875,166648.1094,38556.57031,173611.7188,,,
1.755999997,13,158568.8125,159533.4688,183377.5313,180013.4844,167124.6094,166648.5938,38558.20703,173620.4375,,,
1.759999997,13,158561.6563,159530.4688,183365.1875,180013.4844,167115.4844,166648.2969,38554.72266,173625.2656,,,
1.763999997,13,158558.8281,159528,183363.8281,180013.75,167113.0781,166646.2344,38561.5625,173625.6094,,,
1.767999997,13,158563.4531,159532.8281,183368.0625,180018.6094,167117.1406,166649.3125,38563.03516,173626.7656,,,
1.771999997,13,158562.2969,159532.1563,183362.9688,180020.9844,167111.4844,166649.7188,38554.48047,173621.0469,,,
1.775999997,13,158562.5625,159535.0313,183364.0625,180020.125,167111.375,166653.4688,38558.31641,173621.7188,,,
1.779999997,13,158564.7656,159537.7656,183367.2656,180021.9219,167116.125,166651.6563,38559.46875,173628.2656,,,
1.783999997,13,158569.0781,159533.875,183375.1719,180019.2656,167123.9375,166645.75,38560.16797,173628.3438,,,
1.787999997,13,158576.1406,159539.3125,183385.9844,180015.7656,167130.9063,166647.1719,38566.39063,173633.4375,,,
1.791999997,14,158580,159545.5625,183391.4063,180018.3906,167133.9375,166647.5,38567.8125,173634.6563,,,
1.795999997,14,158573.1094,159534.7031,183385.1563,180020.7813,167130.125,166636.8125,38570.17188,173624.3438,,,
1.799999997,14,158574.0625,159535.5,183385.0156,180020.9844,167133.0469,166640.875,38573.57813,173630.3906,,,
1.803999997,14,158571.7656,159538.7031,183380.1875,180023,167129.7344,166642,38564.37891,173637.0156,,,
1.807999997,14,158575.9531,159545.9375,183383.8125,180026.5156,167132.7813,166639.6406,38555.17578,173640.8438,,,
1.811999997,14,158584.9844,159555.8906,183395.75,180036.4063,167141.4688,166634.9688,38564.61719,173642.5938,,,
1.815999997,14,158575.8594,159545.9375,183383.9688,180031.3125,167129.5625,166624.5,38547.12891,173634.3594,,,
1.819999997,14,158567.125,159542.3281,183371.2344,180022.3906,167119.1094,166618.7344,38537.15234,173632.0469,,,
1.823999997,14,158556.0781,159531.3281,183363.0469,180019.6406,167109.9844,166606.0469,38533.93359,173623.9531,,,
1.827999997,14,158553.8125,159527.8906,183365.4375,180022.2031,167109.3906,166602.7031,38540.48047,173618.0781,,,
1.831999997,14,158554.7344,159527.9219,183364.25,180026.1094,167106.1719,166600.2813,38535.59766,173610.5156,,,
1.835999997,14,158569.1406,159545,183373.1875,180036.5469,167115.8281,166606.9688,38540.66797,173621.9844,,,
1.839999997,14,158574.0938,159551.5,183379.8906,180036.9688,167123.3125,166603.4844,38546.89063,173633.6094,,,
1.843999997,14,158566.6719,159541.25,183373.7031,180033.8906,167117.2344,166582.6719,38537.42188,173629.8281,,,
1.847999997,14,158569.6406,159541.7813,183375.2813,180043.3281,167118.1094,166571.8594,38538.33203,173628.3125,,,
1.851999997,14,158578.3281,159549.7188,183377.5,180053.9219,167121.1406,166587.0156,38540.29297,173628.5625,,,
1.855999997,14,158573.9063,159544.0156,183373.8281,180037.9375,167119.0313,166588.5156,38535.94531,173624.2969,,,
1.859999997,14,158567.5,159539.5313,183370.7969,180019.6719,167117.7969,166582.125,38524.19922,173625.6563,,,
1.863999997,14,158570.375,159542.8906,183373.6094,180030.9063,167119.9688,166582.125,38527.33594,173630.1094,,,
1.867999997,14,158568.4375,159536.875,183372.1719,180015.8438,167118.0625,166576.3125,38528.59766,173623.1094,,,
1.871999997,14,158576.625,159544.0625,183384.8594,180021.0156,167127.7656,166578.6406,38529.69531,173622.2031,,,
1.875999997,14,158583.8281,159549.75,183399.5781,180018.7969,167140.375,166581.5156,38535.51563,173626.3906,,,
1.879999997,14,158570.5313,159538.0625,183375.0625,180025.125,167121.4688,166568.7188,38524.73438,173622.1719,,,
1.883999997,14,158569.2969,159535.1094,183371.8125,180036.0938,167118.2969,166561.5,38525.96875,173624.2969,,,
1.887999997,14,158573.9688,159540.7188,183379.8594,180029.7656,167124.3906,166565.5469,38529.34766,173626.5,,,
1.891999997,14,158580.7813,159546.375,183385.0156,180037.8281,167130,166570.6406,38526.21094,173623.9531,,,
1.895999997,14,158588.7969,159557.0781,183393.3594,180047.3594,167137.4844,166579.1563,38529.21484,173633.0625,,,
1.899999997,14,158587.5625,159557.5313,183394.4844,180038.75,167138.7656,166579.0156,38524.01172,173640.5,,,
1.903999997,14,158587.3438,159556.0781,183394.4063,180041.6406,167139.3906,166574.7188,38521.05859,173641.7813,,,
1.907999997,14,158592.3594,159565.3594,183399.1719,180054.5156,167143.5625,166577.4063,38537.98438,173645.0625,,,
1.911999997,14,158602.0469,159575.4219,183411.1719,180075.0156,167153.0313,166578.4219,38553.40625,173650.2656,,,
1.915999997,14,158603.2813,159571.9844,183413.0938,180073.6875,167153.7813,166572.6563,38546.16406,173648.5938,,,
1.919999997,15,158589.8438,159561.4375,183393.2188,180039.0469,167140.3438,166563.1406,38528.35547,173644.5781,,,
1.923999997,15,158590.1406,159560.875,183392.8281,180035.6406,167142.875,166557.9063,38535.00781,173649.6406,,,
1.927999997,15,158596.8906,159562.3906,183401.7813,180045.3906,167150.4375,166557.3125,38535.48828,173649.4844,,,
1.931999997,15,158602.5,159566.5938,183411.7344,180036.25,167155.4844,166563.6406,38536.61719,173646.1563,,,
1.935999997,15,158598.5313,159564.7969,183404.25,180025.5156,167148.6875,166568.8281,38532.19141,173642,,,
1.939999997,15,158597.625,159568.5,183404.9375,180025.9531,167151.2188,166575.4688,38535.54297,173649.2969,,,
1.943999997,15,158591.4844,159563.1406,183397.2969,180024.4219,167145.3438,166568.125,38537.92969,173648.2188,,,
1.947999997,15,158585.1719,159558.3125,183387.7188,180024.5,167135.3906,166555.625,38525.72656,173641.25,,,
1.951999997,15,158592.0156,159564.4688,183395.2031,180027.6406,167140.7813,166559.4063,38526.87891,173641.2813,,,
1.955999997,15,158604.375,159578.4219,183412.9688,180034.8281,167157.4063,166567.6406,38534.07031,173652.75,,,
1.959999997,15,158593.3594,159564.5781,183405.4844,180036.0156,167152.7656,166556.2656,38527.14844,173647.9531,,,
1.963999997,15,158588.2813,159559.7031,183398.8281,180041.1875,167146.9219,166551.0938,38523.47266,173647.0938,,,
1.967999997,15,158594.5938,159568.6406,183407.8125,180041.1875,167153.2031,166556.3281,38530.6875,173650.6094,,,
1.971999997,15,158593.0313,159571.0156,183408.8281,180038.2344,167153.1406,166554.3438,38531.03906,173647.6875,,,
1.975999997,15,158588.3438,159565.9844,183403.9531,180044.75,167146.8594,166537.875,38520.95313,173640.625,,,
1.979999997,15,158586,159564.875,183402.75,180056.9531,167145.2813,166537.1719,38517.625,173639.3438,,,
1.983999997,15,158581.5,159565.7031,183397.3281,180050.1719,167141.75,166548.4063,38507.91797,173641.1094,,,
1.987999997,15,158574.7188,159557.9844,183390.2656,180031.9063,167133.5938,166540.6094,38507.43359,173633.6094,,,
1.991999997,15,158581.8438,159562.6563,183397.1719,180047.2969,167138.7656,166538.5938,38517.57422,173631.4531,,,
1.995999997,15,158588.3125,159569.4688,183402.2656,180053.8438,167144.5,166543.9375,38520.57813,173635.2969,,,
1.999999997,15,158586.0938,159568.3906,183399.5781,180043.875,167141.5,166547.1719,38502.95313,173638.8125,,,
2.003999997,15,158589.5781,159569.2813,183401.6406,180050.8125,167143.0781,166545.0313,38490.83203,173643.2656,,,
2.007999997,15,158592.5,159570.3438,183406.2031,180042.5313,167146.7813,166543.8281,38496.8125,173641.0313,,,
2.011999997,15,158597.5156,159579.5469,183410.7344,180039.1719,167150.6563,166553.1875,38517.70703,173642.9688,,,
2.015999997,15,158597.7813,159579.9844,183414.6875,180040.1406,167155.2344,166558.5781,38526.61328,173643.7969,,,
2.019999997,15,158595.1719,159571.2344,183416.1094,180041.5625,167156.5781,166548.3281,38516.76953,173643.6875,,,
2.023999997,15,158587.8906,159563.75,183406.4219,180032.7656,167149.4688,166540.9063,38503.22266,173641.3594,,,
2.027999997,15,158589.5,159567.2188,183403.7969,180041.8906,167147.4375,166543.125,38495.47266,173640.7031,,,
2.031999997,15,158588.1563,159566.6719,183403.1406,180046.4219,167146.3594,166536.8594,38503.54297,173634.5938,,,
2.035999997,15,158601,159584.5313,183419.8906,180052.2656,167160.4063,166547.875,38533.58594,173648.1094,,,
2.039999997,15,158596.5469,159581.375,183414.6563,180048.6719,167154.7188,166555.5156,38530.23438,173649.9844,,,
2.043999997,15,158583.1094,159575.2656,183396.1719,180047.9219,167139.5781,166554.8281,38503.75781,173647.0625,,,
2.047999997,16,158582.2813,159576.5469,183395.2031,180047.4375,167138.4375,166552.8906,38482.57031,173645.5156,,,
2.051999997,16,158582.9219,159571.8594,183392.3594,180048.9063,167134.6094,166546,38475.59766,173635.7188,,,
2.055999997,16,158580.125,159566.1875,183389.9531,180048.5156,167131.4375,166535.6719,38479.59375,173626.6875,,,
2.059999997,16,158592.7188,159581.125,183405.6094,180062.8281,167145.2813,166540.125,38495.01563,173643.7969,,,
2.063999997,16,158601.3281,159591.4531,183417.9219,180072.4844,167156.9844,166540.6875,38502.20313,173657.5313,,,
2.067999997,16,158588.9531,159579.6094,183402.9531,180071.3594,167143.6406,166533.5313,38487.90625,173643.7969,,,
2.071999997,16,158589.625,159581.6094,183402,180063.6094,167143.7344,166543.0156,38480.93359,173637.9531,,,
2.075999997,16,158591.9844,159585.4531,183402.5313,180055.9844,167145.9219,166548.5938,38477.33984,173642.125,,,
2.079999997,16,158600.0938,159593.125,183411.6563,180053.5313,167155.2344,166545.5625,38488.95313,173652.8125,,,
2.083999997,16,158597.3281,159582.9063,183408.1406,180050.4688,167152.9531,166534.1719,38473.44922,173646.8594,,,
2.087999997,16,158589.3281,159578.6094,183392.9531,180043.7813,167138.0625,166531.2969,38464.73438,173638.4375,,,
2.091999997,16,158590.8906,159584.3281,183391.4219,180043.8125,167133.5625,166532.7813,38471.92188,173635.2656,,,
2.095999997,16,158591.4219,159582.5469,183396.7969,180053.25,167135.3906,166523.9219,38462.37109,173633.3125,,,
2.099999997,16,158599.5313,159591.4844,183407.0156,180062.4219,167146.9688,166532.4063,38473.42188,173647.125,,,
2.103999997,16,158607.3281,159598.6719,183418.1719,180068.5469,167158.1563,166538.8906,38485.60156,173656.5625,,,
2.107999997,16,158615.3281,159605.6406,183430.8594,180063.875,167165.7813,166536.75,38486.91406,173659.8125,,,
2.111999997,16,158613.8438,159601.6563,183427.5781,180074.3438,167160.8906,166522.6875,38474.44141,173648.4688,,,
2.115999997,16,158614.3281,159603.2344,183422.4063,180089.3906,167157.4688,166520.9688,38473.26172,173645.625,,,
2.119999997,16,158607.2969,159594.0938,183418.6719,180078.3125,167154.9688,166515.0781,38480.21094,173644.5156,,,
2.123999997,16,158605.8281,159591.4844,183421.9844,180084,167157.2188,166511.9688,38483.83203,173644.8438,,,
2.127999997,16,158606.5313,159593.6094,183424.625,180088.5469,167158.8281,166517.1094,38482.89063,173646.75,,,
2.131999997,16,158606.2344,159595.75,183423.1094,180078.875,167157.8594,166520.0313,38483.13281,173643.5,,,
2.135999997,16,158615.5313,159609.75,183428.8906,180075.4063,167163.3125,166522.7188,38485.17188,173651.3906,,,
2.139999997,16,158624.6563,159618.4219,183439.9531,180074.2344,167174.2031,166528.5625,38488.41797,173665.5156,,,
2.143999997,16,158619.4219,159606.5625,183437.7969,180086.1094,167173.5,166526.7656,38476.32031,173660.8281,,,
2.147999997,16,158606.3125,159597.125,183418.25,180072.5938,167159.3906,166515.6563,38456.04297,173651.4375,,,
2.151999997,16,158616.1875,159607.625,183429.5469,180084.9531,167168.8125,166514.0469,38473.01953,173651.625,,,
2.155999997,16,158614.6563,159607.4375,183428.9531,180071.8906,167166.3594,166505.7656,38479.80859,173648.4688,,,
2.159999997,16,158609.4688,159601.8125,183423.4063,180068.8906,167159.2031,166504.3906,38478.14453,173645.1094,,,
2.163999997,16,158605.6406,159599.8281,183413.9375,180076.4063,167152.8438,166509.0313,38477.3125,173644.1406,,,
2.167999997,16,158604.75,159599.4844,183412.6406,180070.375,167152.1719,166508.0156,38477.42188,173640.2813,,,
2.171999997,16,158613.6875,159606.4219,183421.8438,180075.2031,167159.4688,166506.5156,38479.35156,173638.1406,,,
2.175999997,17,158625.4375,159618.6094,183435.7969,180077.0781,167171.0625,166510.625,38490.80469,173647.5469,,,
2.179999996,17,158618.25,159609.1094,183433.5938,180070.7656,167166.5781,166500.6406,38484.58203,173645.25,,,
2.183999996,17,158611.625,159603.6875,183426.3438,180068.2031,167160.0938,166491.25,38471.35938,173643.3594,,,
2.187999996,17,158616.4531,159607.8438,183431.2813,180074.9844,167165.1094,166482,38470.01563,173644.4063,,,
2.191999996,17,158620.9844,159609.4063,183436.8594,180075.8438,167168.5938,166474.4375,38475.00781,173638.7031,,,
2.195999996,17,158624.4688,159614.7656,183440.7031,180076.75,167169.75,166479.0781,38480.02344,173640.0938,,,
2.199999997,17,158622.4844,159615.2188,183436.3281,180082.6563,167166.6406,166481.5469,38469.96484,173646.6406,,,
2.203999996,17,158630.4531,159624.6094,183448.1563,180078.9844,167180.4531,166484.9531,38456.76563,173661.3906,,,
2.207999996,17,158635.0156,159632.4375,183454.625,180075.7031,167187.2031,166480.6406,38469.75,173670.3281,,,
2.211999996,17,158626.5625,159619.375,183443.7344,180086.375,167175.8125,166472,38479.48438,173655.8438,,,
2.215999996,17,158629.1875,159623,183442.3594,180100.1406,167176.2969,166480.5313,38487.61328,173656.5938,,,
2.219999997,17,158626.3125,159624.1875,183437.875,180093.5938,167174.3594,166478.9375,38478.76172,173663.2344,,,
2.223999996,17,158627.6875,159624.9844,183442.5,180091.4219,167178.1094,166470.9531,38472.45703,173667,,,
2.227999996,17,158630.1563,159629.8906,183439.0938,180100.3594,167175.7813,166473.3594,38479.05469,173666.2656,,,
2.231999996,17,158643.5156,159647.7656,183451.5313,180090.4531,167186.9063,166486.6719,38492.73438,173673.1406,,,
2.235999996,17,158637.9063,159638.3125,183448.1563,180090.2188,167183.6719,166471.2188,38486.46094,173665.7813,,,
2.239999996,17,158631.0469,159624,183444.7031,180088.2813,167180.2031,166456.25,38475.57031,173656.5938,,,
2.243999997,17,158635.3906,159627.5625,183447.3281,180104.0781,167184.7344,166460.5469,38478.73438,173661.0938,,,
2.247999996,17,158644.0781,159637.2969,183454.6406,180109.7188,167192.9219,166472.1563,38488.875,173667.7969,,,
2.251999996,17,158642.5781,159632.7344,183456.0156,180089.4375,167194.6094,166462.6563,38487.37109,173659.6719,,,
2.255999996,17,158647.7188,159640.7813,183459.4688,180095.5,167198.6406,166459.5781,38484.79688,173663.0469,,,
2.259999996,17,158650.9219,159646.4219,183463.7344,180094.2344,167202.6094,166456.1719,38476.10547,173670.1406,,,
2.263999997,17,158647,159639.7656,183461.75,180093.1406,167200.7031,166449.3281,38494.05078,173669.5781,,,
2.267999996,17,158646.3594,159639.6875,183456.5,180107.5938,167195.3594,166454.5938,38494.88281,173665.2188,,,
2.271999996,17,158657.1875,159655.4219,183468.1875,180106.6094,167204.0781,166467.3281,38496.86719,173672.2813,,,
2.275999996,17,158655.0781,159651.4531,183471.5938,180097.0625,167204.9063,166458.0156,38492.41406,173668.4688,,,
2.279999996,17,158663.1719,159659.375,183484.5313,180093.4688,167216.5469,166458.3438,38489.75781,173681.1563,,,
2.283999996,17,158656.3594,159655.375,183468.8281,180111.8125,167206.0313,166452.1406,38479.67188,173683.2813,,,
2.287999996,17,158653.5938,159652.7188,183461.75,180116.7188,167201.0156,166445.3594,38476.40234,173680.9219,,,
2.291999996,17,158659.5313,159652.7188,183471.4063,180120.8438,167209.3594,166444.3906,38481.23047,173679.5781,,,
2.295999996,17,158656.4688,159647.9531,183468.9219,180107.1094,167206.625,166437.0156,38477.39453,173673.1094,,,
2.299999996,17,158658.7969,159650.5781,183469.5,180096.5938,167209.625,166440.6875,38483.9375,173678.2656,,,
2.303999996,18,158664.0781,159657.6094,183476.0313,180096.0938,167214.6406,166445.9844,38487.23828,173689.0938,,,
2.307999996,18,158659.9531,159648.1875,183475.0313,180091.875,167211.0313,166431.3594,38479.88672,173678.875,,,
2.311999996,18,158664.625,159659.2969,183474.7656,180106.2813,167209.2344,166430.6875,38495.41797,173677.8281,,,
2.315999996,18,158676.7656,159670.5313,183486.6719,180134.5469,167219.1563,166434.8438,38502.6875,173685.0781,,,
2.319999996,18,158680.0156,159673.0313,183489.625,180145.3125,167222.875,166437.4688,38498.71875,173690.9219,,,
2.323999996,18,158672.375,159669.0781,183483.0469,180112.1094,167217.7344,166434.7969,38488.79297,173689.875,,,
2.327999996,18,158665.4063,159665.7813,183474.0625,180093.9688,167209.0625,166426.1563,38469.9375,173684.2969,,,
2.331999996,18,158664.1875,159663.2813,183473.7969,180086.9688,167208.6094,166422.4844,38462.64063,173674.5,,,
2.335999996,18,158669.0156,159663.4688,183481.4375,180100.375,167213.7813,166418.4375,38468.19531,173669.7344,,,
2.339999996,18,158671.7344,159668.6719,183485.8438,180101.9375,167217.25,166416.1719,38476.10547,173676.7813,,,
2.343999996,18,158669.9531,159665.9375,183482.8125,180115.9375,167216.3906,166409.4531,38475.94531,173679.875,,,
2.347999996,18,158666.25,159664.25,183479.375,180121.5938,167214.3281,166407.5156,38473.74609,173675.9219,,,
2.351999996,18,158671.8125,159673.0781,183488.8438,180124.9219,167222.2969,166415.3281,38483.5625,173678.2344,,,
2.355999996,18,158676.7969,159682.5,183500.4063,180109.3906,167231,166421.9688,38490.99219,173684.1406,,,
2.359999996,18,158668.2344,159672.5625,183488.3594,180126.4531,167222.6406,166409.1719,38474.73828,173684.9688,,,
2.363999996,18,158660.5938,159662.1094,183476.4844,180171.5469,167209.3125,166394.2344,38452.85156,173678.0781,,,
2.367999996,18,158683.375,159688.2656,183497.0313,180200,167226.125,166412.5,38475.30078,173697.0156,,,
2.371999996,18,158684.4688,159690.8281,183494.5625,180153.0938,167224.7031,166408.6406,38475.73047,173698.5625,,,
2.375999996,18,158676.3906,159682.6563,183480.6406,180136.5938,167212.9063,166395.0938,38457.86719,173691.1406,,,
2.379999996,18,158665.9688,159670.1875,183475.5938,180104.0313,167209.9219,166393.9219,38446.38672,173688.3125,,,
2.383999996,18,158669.2031,159673.8594,183480.9063,180119.9844,167216.3125,166398.4219,38449.73828,173695.9375,,,
2.387999996,18,158700.6406,159700.5938,183509.9063,180244.6094,167240.5625,166408.4063,38471.65234,173713.5313,,,
2.391999996,18,158721.6719,159716.9531,183532.7188,180256.9375,167261.6406,166422.5938,38492.01172,173725.3125,,,
2.395999996,18,158682.8125,159679.2813,183497.1563,180084.1875,167234.5781,166401.6406,38476.61719,173699.1875,,,
2.399999996,18,158665.5313,159660.6875,183480.75,180041.2344,167221.375,166386.6719,38465.24219,173685.4688,,,
2.403999996,18,158684.3906,159682.2188,183499.9688,180075.6719,167238.7344,166399.5469,38478.03516,173705.7813,,,
2.407999996,18,158691.9063,159694.1406,183504.375,180094.5938,167244.5469,166413.2344,38484.44922,173718.625,,,
2.411999996,18,158686.9688,159688.4531,183497.1094,180105.75,167236.9375,166407.5625,38477.63672,173708.2969,,,
2.415999996,18,158694.1563,159698.5,183504.375,180123.0938,167242.2656,166413.625,38484.17969,173713.1094,,,
2.419999996,18,158717.1875,159725.5938,183528.2188,180191.5781,167263.8125,166433.7969,38500.27344,173735.6406,,,
2.423999996,18,158743.2031,159760.3906,183545.5469,180301.6563,167277.5781,166448.6406,38498.44922,173763.7969,,,
2.427999996,18,158751.5,159758.9844,183558.7656,180312.7031,167285.8594,166440.5938,38500.13672,173764.5156,,,
2.431999996,19,158756.25,159755.3438,183574.1406,180330.8594,167297.6563,166438.3594,38523.92969,173759.6719,,,
2.435999996,19,158771.9688,159777.5469,183580.6094,180383.4844,167308.0156,166451.6406,38539.83594,173773.3438,,,
2.439999996,19,158734.25,159747.8281,183543.75,180159.125,167283.25,166431.3125,38518.96875,173761.6719,,,
2.443999996,19,158693.0313,159701.6094,183511.9375,180049.0938,167257.7813,166412.5625,38502.82031,173731.6094,,,
2.447999996,19,158701.7188,159716.7969,183515.1875,180097.1094,167258.2344,166422.5313,38497.1875,173733.8438,,,
2.451999996,19,158713.9688,159723.0156,183530.9063,180148.3906,167268.5,166424.625,38506.81641,173731.6875,,,
2.455999996,19,158757.5938,159755.9375,183574.8594,180344.4375,167305.0938,166439.8438,38531.57422,173750.7656,,,
2.459999996,19,158862.1875,159847.4688,183678,180654.875,167392.5,166494.3438,38593.50781,173825.7344,,,
2.463999996,19,158779.4688,159789.1094,183589.2188,180205.9531,167325.9531,166474.3906,38556.16797,173793.7344,,,
2.467999996,19,158704.6875,159715.1563,183519.8438,180002.4219,167262.6563,166424.0313,38512.79688,173723.1094,,,
2.471999996,19,158731.1094,159735.8906,183542.4688,180119.6406,167277.8438,166423.3438,38524.08984,173722.0156,,,
2.475999996,19,158754.3125,159753.4063,183565.0938,180148.9531,167297.9531,166435.0938,38540.96094,173730.4844,,,
2.479999996,19,158746.8281,159742.9688,183554.5313,180128.6875,167287.3281,166421.1406,38531.57422,173721.3438,,,
2.483999996,19,158771.4531,159770.7344,183572.9375,180165.7813,167303.1875,166434.3438,38533.74609,173740.75,,,
2.487999996,19,158806.4531,159806.4063,183604.0156,180201.5,167331.1406,166463.1719,38557.69922,173765.75,,,
2.491999996,19,158812.9219,159807.6719,183610.9375,180216.3281,167335.2344,166467.3594,38563.0625,173761.2813,,,
2.495999996,19,158809.8906,159801.375,183606,180225.9844,167330.2813,166455.9844,38555.60547,173750.0156,,,
2.499999996,19,158815.6875,159806.7031,183611.9063,180237.6094,167334.5625,166450.4375,38555.71484,173755.2969,,,
2.503999996,19,158823.0313,159816.6094,183624.0469,180240.7656,167346.1563,166459.7969,38568.85547,173767.7188,,,
2.507999996,19,158824.2344,159822.1563,183629.9063,180246.5156,167349.9844,166463.9688,38569.92969,173772.7344,,,
2.511999996,19,158819.4063,159816.5469,183622.9531,180262.3906,167342.0469,166457.4375,38553.21875,173763.6875,,,
2.515999996,19,158823.75,159821.4375,183628.5938,180268.3125,167345.7188,166459.2344,38553.83594,173768.5156,,,
2.519999996,19,158817.7813,159816.875,183624.8906,180269.7344,167341.8594,166454.5625,38552.44141,173774.6875,,,
2.523999996,19,158823.7344,159825.2969,183632.5625,180273.5156,167348.5625,166459.7656,38559.65625,173790.2656,,,
2.527999996,19,158843.3438,159843.5313,183655.1875,180294.0625,167366.8125,166470.2188,38588.38281,173812.5625,,,
2.531999996,19,158833.7656,159837.6563,183633.6875,180327.0625,167347.4375,166461.5625,38568.07813,173811.5625,,,
2.535999996,19,158819.0938,159823.0469,183624.3281,180288.1563,167340.7656,166457.5156,38562.09766,173806.1563,,,
2.539999996,19,158797.6563,159801.5313,183610.0781,180238,167331.0781,166442.0156,38555.57813,173798.1563,,,
2.543999996,19,158802.4844,159805.8281,183616.6563,180255.1719,167337.4063,166435.8125,38552.95313,173809.375,,,
2.547999996,19,158806.6719,159809.5,183625.3438,180269.4375,167343.3906,166439.75,38551.28906,173814.3906,,,
2.551999996,19,158809.5469,159813.0625,183626.8125,180314.3906,167344.4688,166439.8125,38551.10156,173815.5625,,,
2.555999996,19,158816.9219,159818.6719,183630.7031,180365.8438,167346.4219,166429.2188,38549.0625,173816.9375,,,
2.559999996,20,158807.0781,159808.7969,183620.7031,180298.6719,167339.1563,166420.5313,38539.13672,173811.0625,,,
2.563999996,20,158795,159799.2813,183610.6406,180240.4531,167332.1563,166417.3906,38528.78516,173802.4531,,,
2.567999996,20,158807.9375,159813.2969,183625,180250.9375,167342.5938,166425.0313,38544.92969,173805.3438,,,
2.571999996,20,158804.4375,159810.9219,183615.4219,180268.6875,167331.8594,166416.3906,38544.90625,173794.2656,,,
2.575999996,20,158797.2344,159798.6563,183607.6406,180278.4219,167324.7969,166399.0156,38535.67969,173779.6719,,,
2.579999996,20,158799.2188,159801.7188,183611,180282.3125,167327.7813,166402.0469,38529.77734,173781.4531,,,
2.583999996,20,158804.625,159811.5,183615.625,180279.7344,167333.0625,166414.625,38530.85156,173789.7344,,,
2.587999996,20,158804.0938,159809.7344,183613.9219,180286.875,167332.6563,166415.6094,38529.99219,173787.6094,,,
2.591999996,20,158801.7031,159804.0469,183613.1094,180290.4219,167330.7813,166403.3594,38521.78516,173773.9844,,,
2.595999996,20,158801.5,159806.0313,183611.2031,180296.875,167327.6406,166395.3125,38511.91406,173770.4531,,,
2.599999996,20,158805.1719,159807.4063,183616.7813,180300.4219,167333.3281,166394.0313,38524.46484,173774.2344,,,
2.603999996,20,158800.6563,159801.7656,183609.8906,180302.9375,167329.9844,166386.6719,38523.17969,173772.8906,,,
2.607999996,20,158801.1406,159801.6875,183607.0469,180307.4688,167328.5938,166383.5156,38525.91406,173771.2813,,,
2.611999996,20,158796.5313,159797.1875,183601.9063,180302.9219,167320.8594,166378.2188,38524.27734,173765.0781,,,
2.615999996,20,158803.0469,159803.75,183610.4844,180301.8125,167326.5156,166377.4219,38524.60156,173771.4688,,,
2.619999996,20,158816.5156,159817.7813,183621.3125,180309.1094,167338.5313,166387.75,38535.51563,173790.7188,,,
2.623999996,20,158814.875,159815.8594,183622.7969,180307.0156,167342.1875,166390.1094,38538.33203,173800.4063,,,
2.627999996,20,158806.4063,159806.25,183613.8906,180309.0625,167335.1875,166380.1875,38530.09766,173795.9844,,,
2.631999996,20,158817.5,159819.0781,183622.4219,180309.2656,167343.6094,166385.2031,38535.11328,173803.5,,,
2.635999996,20,158813.1875,159807.6719,183624.2188,180304.9219,167342.9688,166374.0938,38529.21484,173795.875,,,
2.639999996,20,158811.4375,159805.5781,183626.2344,180308.0156,167347.5156,166379.1406,38539.43359,173799.4688,,,
2.643999996,20,158802.1719,159801.7969,183616.2813,180305.9688,167339.2813,166381.0469,38534.63281,173800.6719,,,
2.647999996,20,158808.2031,159814.25,183621.7813,180301.7031,167341.9219,166386.25,38534.89844,173806.8438,,,
2.651999996,20,158816.0313,159820.3281,183632.4219,180308.625,167350.9219,166383.9063,38543.51172,173809.0781,,,
2.655999996,20,158811.7188,159813.625,183630.1406,180309.0313,167347.25,166371.8125,38541.41797,173800.9688,,,
2.659999996,20,158803.5313,159808.9531,183614.6094,180312.0313,167335.1563,166367.9844,38530.01953,173796.2031,,,
2.663999996,20,158800.8438,159810.625,183610.2344,180300.0156,167333.1406,166370.3438,38526.71875,173798.125,,,
2.667999996,20,158798.9688,159808.125,183611.9531,180302.0781,167335.7188,166364.1406,38532.40625,173797.4531,,,
2.671999996,20,158808.9219,159815.875,183626.125,180322.9063,167346.7969,166375.9531,38538.73438,173800.7344,,,
2.675999996,20,158816.6719,159824.4844,183632.0469,180334.7031,167350.7656,166383.1094,38549.86719,173806.25,,,
2.679999996,20,158825.7344,159831.7344,183641.3281,180341.4063,167361.3438,166388.1719,38568.10547,173815.5625,,,
2.683999996,20,158828.3438,159830.6094,183646.2344,180327.2969,167366.3281,166383.9375,38563.78906,173818.1094,,,
2.687999996,21,158824.7813,159829.5781,183640.6563,180319.25,167361.4375,166383.5938,38549.54297,173817.1406,,,
2.691999996,21,158829.9219,159837.5313,183641.6563,180306.8594,167361.2813,166384.125,38544.71875,173819.125,,,
2.695999996,21,158841.1406,159843.8594,183657.8438,180308.5469,167374.4531,166379.625,38557,173822.625,,,
2.699999996,21,158846.1563,159844.875,183663.5938,180316.4688,167381.7813,166381.9844,38561.96484,173831.125,,,
2.703999996,21,158836.3438,159839.7031,183645.7344,180327.2656,167369.4063,166381.5469,38549.4375,173833.9688,,,
2.707999995,21,158830.7344,159836.5781,183641.1406,180331.3281,167365.9844,166379.8125,38545.38672,173831.6094,,,
2.711999996,21,158827.2969,159831.6719,183642.1094,180327.5313,167363.9375,166368.1719,38535.46484,173822.8281,,,
2.715999996,21,158828.0469,159838.1719,183640.7188,180330.75,167364.75,166366.6094,38539.72656,173825.1094,,,
2.719999996,21,158830.3281,159840.5625,183646.6406,180328.2031,167370.7813,166366.9844,38542.83984,173831.875,,,
2.723999996,21,158818.4219,159824.4375,183637.0938,180310.9688,167360.9531,166350.7031,38527.71094,173822.9375,,,
2.727999996,21,158809.8281,159810.8125,183631.7813,180308.7656,167354.5469,166332.4688,38523.95703,173812.2969,,,
2.731999996,21,158817.5625,159818.5,183641.9219,180312.3906,167360.6406,166336.2188,38534.66016,173815.2969,,,
2.735999996,21,158813.0469,159817.7813,183627.625,180317.6094,167350.7969,166342.25,38528.75781,173820.0469,,,
2.739999996,21,158802.5625,159806.7656,183617.9063,180315.2813,167345.1563,166331.875,38527.46875,173819.9844,,,
2.743999996,21,158798.0938,159802.8906,183616.0938,180309.7813,167348.0313,166319.8125,38529.42969,173828.5781,,,
2.747999996,21,158794.3281,159801.1563,183610.6094,180308.1406,167346.0469,166305.7813,38517.30469,173836.7813,,,
2.751999995,21,158776.625,159784.875,183593.6719,180300.4219,167329.4688,166284.1094,38496.625,173834.7344,,,
2.755999996,21,158760.8906,159771.8438,183576.8281,180308.0156,167314.7188,166274.0156,38482.94531,173834.5469,,,
2.759999996,21,158765.1563,159779.7188,183580.4375,180318.2656,167316.0625,166276,38476.375,173837.375,,,
2.763999996,21,158774.9375,159781.25,183594.3594,180300.4219,167324.8281,166262,38484.28516,173823.4219,,,
2.767999996,21,158785.7031,159787.3125,183613.3594,180285.6719,167339.3125,166260.4531,38513.49609,173810.8906,,,
2.771999996,21,158788.5156,159796.3281,183614.7813,180283.125,167338,166267.7188,38517.89453,173799.875,,,
2.775999996,21,158791.5156,159803.6406,183611.9375,180285.6094,167331.375,166266.9375,38510.8125,173790.375,,,
2.779999996,21,158812.4844,159826.6563,183629.6875,180298.1719,167347.7031,166283.6563,38533.26563,173807.2188,,,
2.783999996,21,158813.25,159828,183629.125,180311.2813,167348.4688,166280.8281,38536.85938,173811.4375,,,
2.787999996,21,158819.5781,159835.3594,183634.4063,180314.125,167352.5313,166281.6406,38542.4375,173815.1406,,,
2.791999996,21,158827.8906,159835.8281,183648.8438,180321.0469,167362.0625,166282.4688,38558.74609,173814.0938,,,
2.795999995,21,158832.2031,159834.1719,183655.0625,180328.6406,167365.4375,166279.4375,38563.30469,173812.0469,,,
2.799999996,21,158844.8906,159846.9688,183668.2031,180339.875,167375.7188,166276.7656,38566.44141,173823.9063,,,
2.803999996,21,158840.7031,159847.6406,183659.2188,180337.7813,167369.2969,166277.1563,38552.03906,173829.4844,,,
2.807999996,21,158848.1875,159857.4219,183662.2188,180350.3906,167372.9844,166281.3906,38554.9375,173840.5156,,,
2.811999996,21,158855.1719,159861.875,183667.3438,180370.7969,167377.7031,166281.1094,38565.44922,173847.4063,,,
2.815999996,22,158862.9688,159862.7031,183678.7188,180375.7344,167385.4219,166275.4219,38572.69141,173853.6563,,,
2.819999995,22,158877.5938,159875.1563,183698.5469,180406.0156,167404.2813,166281.5,38584.89453,173874.4063,,,
2.823999995,22,158853.4219,159855.2344,183670.9375,180360.5781,167383.6719,166274.6094,38554.26563,173868.8594,,,
2.827999995,22,158845.1563,159852.5156,183662.0313,180330.9375,167380.2969,166278.4688,38550.02734,173867.8594,,,
2.831999995,22,158857.6875,159869.4688,183673.9688,180347.3281,167390.4688,166293.3281,38572.21094,173876.3438,,,
2.835999995,22,158860.6094,159871.2344,183680.8125,180353.6094,167393.5156,166292.4531,38587.63281,173874.0625,,,
2.839999995,22,158857.2813,159861.9531,183682.5,180349.8594,167392.4531,166272.1406,38592.19141,173862.7188,,,
2.843999995,22,158859.7188,159867,183683.5156,180353.5,167392.4844,166272.3594,38584.06641,173861.6719,,,
2.847999995,22,158878.9063,159893.375,183701.2969,180351.6563,167408.7344,166297.7031,38595.33203,173878.3281,,,
2.851999995,22,158892.0156,159904.3594,183714.9063,180361.5781,167421.6875,166301.5625,38605.65625,173882.0781,,,
2.855999995,22,158875.0156,159885.2969,183692.125,180352.2188,167401.7344,166273.25,38586.10156,173858.7813,,,
2.859999995,22,158873,159881.7344,183689.5,180351.625,167397.3125,166268.25,38585.16406,173852.7969,,,
2.863999995,22,158883.5625,159888.4844,183701.7344,180361.5781,167408.1406,166274.6719,38598.22656,173855.9531,,,
2.867999995,22,158893.2188,159896.3125,183712.9219,180364.6406,167418.9531,166280.9375,38612.79297,173855.7188,,,
2.871999995,22,158900.4219,159901.625,183721.6563,180352.6406,167425.0156,166278.4531,38609.57422,173847.3281,,,
2.875999995,22,158903.9063,159910,183721.4219,180349.2969,167425.2344,166285.4688,38598.87109,173844.9531,,,
2.879999995,22,158914.3906,159924.4063,183732.3281,180353.3438,167437.3438,166299.5781,38627.86719,173855.3906,,,
2.883999995,22,158915.9375,159914.875,183737.7031,180361.5781,167442.4531,166285.0938,38634.70313,173848.875,,,
2.887999995,22,158926.0625,159924.9375,183745.125,180377.5156,167448.375,166291.1563,38636.63672,173855.1563,,,
2.891999995,22,158927.6406,159924.4844,183747.7344,180378.1563,167449.7188,166291.3281,38649.05469,173849.2188,,,
2.895999995,22,158928.9219,159927.8594,183745.8594,180380.1406,167447.4063,166292.5781,38651.28125,173849.1719,,,
2.899999995,22,158925.5469,159926.4688,183739.7344,180375.8125,167441.7188,166299.0781,38639.58594,173851.0469,,,
2.903999995,22,158929.9375,159933.4063,183744.0625,180379.5938,167445.4219,166303.2813,38643.15234,173859.2813,,,
2.907999995,22,158948.3438,159952.1094,183767.7188,180383.2188,167465.5469,166315.375,38659.67578,173877.1406,,,
2.911999995,22,158946.8125,159949.0469,183766.6875,180397.7813,167467.5469,166318.0625,38641.625,173875.1094,,,
2.915999995,22,158943.5469,159951.0313,183754.5938,180405.1406,167456.2031,166321.5781,38645.16406,173876.2031,,,
2.919999995,22,158931.9531,159933.2813,183745.2031,180417.0938,167446.9844,166309.8594,38657.71875,173869.1875,,,
2.923999995,22,158941.75,159943.4375,183756.2656,180451.9063,167457.7031,166319.8594,38670.32422,173881.7656,,,
2.927999995,22,158958.375,159959.8906,183772.625,180489.3281,167471.875,166335.9063,38679.17578,173896.1875,,,
2.931999995,22,158961.8438,159963.1563,183778.3594,180449.875,167476.3281,166331.1875,38674.96484,173894.0156,,,
2.935999995,22,158939.8438,159939.4531,183759,180377.3438,167459.2969,166314.0625,38657.10156,173874.2969,,,
2.939999995,22,158934.8594,159936.875,183748.2188,180388.2031,167451.9688,166312.3281,38644.44141,173876.1875,,,
2.943999995,23,158936.8438,159938.8906,183750.2188,180393.0313,167453.9219,166316.0469,38638.72656,173883.6875,,,
2.947999995,23,158939.8906,159941.7344,183755.4844,180399.125,167458.75,166320.2656,38651.22656,173886.2344,,,
2.951999995,23,158940.9219,159944.6563,183758.0313,180392.2813,167461.7031,166315.5156,38658.68359,173883.6875,,,
2.955999995,23,158944.8594,159950.3594,183764.3906,180379.8438,167467.5781,166325.5781,38660.58984,173885.9219,,,
2.959999995,23,158933.3594,159935.9688,183755.7813,180381.3906,167458.8594,166319,38650.96094,173877.3281,,,
2.963999995,23,158943.0938,159943.875,183766.3125,180388.5938,167471.5,166321.6094,38664.15625,173886.4531,,,
2.967999995,23,158933.7344,159932.75,183758.2188,180385.3438,167464.7031,166308.8438,38653.21094,173878.4063,,,
2.971999995,23,158930,159930.4375,183752.6406,180385.6406,167458.8906,166307.5156,38644.62891,173872.7188,,,
2.975999995,23,158941.5313,159942.5,183763.0938,180393.8125,167469.2656,166318.8906,38656.69922,173882.0313,,,
2.979999995,23,158931.3125,159930.6563,183751.8594,180386.25,167458.0313,166307.8125,38643.82422,173878.7813,,,
2.983999995,23,158925.8438,159921.7656,183747.5156,180383.9688,167455.7188,166305.0625,38649,173874.6719,,,
2.987999995,23,158937.9063,159941.2969,183755.5938,180391.8281,167463.875,166320.5625,38652.00391,173888.2031,,,
2.991999995,23,158932.125,159934.5156,183752.7813,180388.5,167457.875,166306.5781,38641.0625,173880.1719,,,
2.995999995,23,158918.7344,159918.7969,183736.7813,180404.2969,167442.8438,166291.5625,38627.91797,173865.7188,,,
2.999999995,23,158909.5938,159914.4844,183727.6875,180394.1094,167434.9375,166292.1875,38612.52344,173865.75,,,
3.003999995,23,158917.4219,159919.5781,183741.1563,180392.4219,167446.9219,166290.5781,38628.80469,173875.3281,,,
3.007999995,23,158919.7813,159918.0469,183737.3438,180413.0781,167445.5781,166288.0781,38628.29297,173879.4531,,,
3.011999995,23,158910.4219,159915.8438,183722.2031,180415.7344,167431.6406,166294.9375,38617.40625,173876.8594,,,
3.015999995,23,158936.7344,159941.7344,183759.4063,180409.6719,167467.625,166315.375,38666.78516,173897.6406,,,
3.019999995,23,158938.7656,159942.5625,183761.5156,180405.7031,167473.6094,166318.3906,38675.26172,173906.3594,,,
3.023999995,23,158924.5,159933.0625,183741.8906,180404.9219,167457.4063,166316.1406,38650.34375,173905.6094,,,
3.027999995,23,158922.4844,159927.9688,183739.2031,180404.7031,167452.6875,166310.8438,38637.06641,173903.7344,,,
3.031999995,23,158939.5469,159940.6875,183762.5625,180408.25,167472.6406,166327.125,38660.21094,173913.8594,,,
3.035999995,23,158941.6719,159946.6875,183762.4844,180407.25,167469,166328.1563,38653.29297,173916.7031,,,
3.039999995,23,158931.4219,159940.0313,183747.1094,180410.4219,167456.1719,166318.125,38639.71875,173912.4219,,,
3.043999995,23,158943.7344,159953.1563,183762.2188,180413.3906,167472.8281,166325.3125,38660.10547,173926.9063,,,
3.047999995,23,158961,159975.2813,183778.25,180412.6719,167486.5156,166342.875,38665.30859,173944.2344,,,
3.051999995,23,158951.1875,159957.4688,183769.1406,180415.9219,167477.125,166332.875,38659.51563,173928.8281,,,
3.055999995,23,158937.7813,159940.625,183752.9063,180413.75,167464.5781,166315.4844,38648.78516,173909.875,,,
3.059999995,23,158954.8125,159964.4688,183768.5938,180432.6563,167479.7344,166337.8594,38654.23047,173934.2813,,,
3.063999995,23,158961.5938,159970.375,183779.6563,180438.4688,167488.5781,166335.4688,38651.81641,173946.6719,,,
3.067999995,23,158954.1094,159960.375,183771.2031,180435.5313,167485.0469,166328.5313,38648.11719,173943.3438,,,
3.071999995,24,158935.9531,159936.2031,183750.7344,180421.875,167468.7344,166309.7188,38633.63281,173923.3281,,,
3.075999995,24,158938.0156,159937.4844,183755.1094,180409.3125,167474.3438,166308.8594,38647.47266,173925.4844,,,
3.079999995,24,158938.1719,159941.75,183753.6875,180412.3438,167474.0938,166323.6094,38644.25391,173935.5938,,,
3.083999995,24,158937.4531,159937.5156,183751.5625,180445.75,167470.6563,166310.4688,38634.51563,173941.7344,,,
3.087999995,24,158947.4063,159944.25,183768.1406,180450.6719,167485.7031,166313.9531,38655.76172,173955.4688,,,
3.091999995,24,158934.2344,159940.3281,183752.4219,180400.7969,167473.9375,166323.2969,38648.19531,173963.7813,,,
3.095999995,24,158906.7188,159921.3125,183718.7344,180366.3281,167443.7344,166302.9063,38606.86328,173958.7188,,,
3.099999995,24,158900.0938,159909.9688,183716.4375,180374.6406,167444.3281,166290.5469,38606.03125,173968.5781,,,
3.103999995,24,158896.0938,159902.4375,183720.5625,180381.5,167453.3438,166285.0156,38606.54297,173986.9844,,,
3.107999995,24,158887.8281,159894.5156,183715.8594,180366.5938,167447.75,166276.375,38605.25391,173996.4844,,,
3.111999995,24,158883.0313,159896.4531,183702.4531,180368.1406,167430.3438,166265.0313,38593.12891,173987.3594,,,
3.115999995,24,158906.7188,159922.6094,183727.2344,180365.6563,167447.4063,166285.6875,38622.47266,173985.2188,,,
3.119999995,24,158904.4375,159917.7813,183724.125,180375.0469,167442.4531,166287.9688,38625.18359,173960.4063,,,
3.123999995,24,158915.5938,159924.6719,183736.7344,180385.9375,167450.8906,166295.875,38638.43359,173949.8281,,,
3.127999995,24,158910.5469,159921.2969,183725.9219,180391.5156,167437.75,166293.0625,38619.28125,173934.0156,,,
3.131999995,24,158931.2031,159945.6719,183746.4375,180397.8594,167456.6094,166306.5625,38636.90625,173940.1563,,,
3.135999995,24,158955,159968.7344,183774.6094,180409.875,167483.8125,166325.2813,38667.1875,173956.3281,,,
3.139999995,24,158950.4375,159962.9219,183773.3438,180407.2813,167484.0156,166325.2031,38670.43359,173956.8125,,,
3.143999995,24,158950.0313,159960.2031,183772.0625,180414.8906,167481.3438,166325.8906,38663.05469,173956.9375,,,
3.147999995,24,158949.4375,159960.0938,183764.625,180423.0781,167474.9063,166327.9688,38659.30078,173951.3438,,,
3.151999995,24,158962.5625,159971.3594,183779.5938,180422,167488.0469,166332.125,38681.32031,173948.8438,,,
3.155999995,24,158975.25,159979.7344,183795.3906,180425.2188,167502.1563,166331.7969,38688.80469,173947.9063,,,
3.159999995,24,158986.9219,159989.3906,183802.7969,180456.125,167508.5156,166338.0938,38685.15625,173956.5156,,,
3.163999995,24,158990.2188,160000.2031,183801.6406,180467.125,167508.4844,166343.6719,38684.40625,173973.1719,,,
3.167999995,24,158982.4063,159994.8906,183792.4375,180426.2656,167503.1406,166339.4688,38692.82813,173972.9844,,,
3.171999995,24,158988.3594,160005.3438,183799.8125,180411.6875,167507.7031,166360.5469,38703.31641,173975.7188,,,
3.175999995,24,159001.6406,160013.0156,183819.6719,180405.1094,167525.2656,166383.0469,38722.62891,173980.2031,,,
3.179999995,24,158973.9844,159977.2188,183789.7813,180422.5156,167502.5781,166353.8125,38699.21094,173957.4844,,,
3.183999995,24,158961.0781,159960.4219,183775.0625,180432.4063,167491.7656,166342.5781,38686.875,173942.3281,,,
3.187999995,24,158963.9531,159962.8125,183781.125,180426.375,167496.3281,166346.5781,38692.13281,173936.6875,,,
3.191999995,24,158971.2813,159971.2344,183795.0156,180413.1563,167506.9531,166350.1719,38677.69922,173934.5469,,,
3.195999995,24,158971.7656,159978.6094,183791.0469,180411.6875,167504.8125,166355.0469,38667.34766,173933.4688,,,
3.199999995,25,158975.5625,159990.25,183788.7188,180421.9063,167504.25,166358.8906,38700.60547,173942.5625,,,
3.203999995,25,158977.5469,159989.25,183790.7344,180442.8438,167507,166358.9688,38709.40625,173944.25,,,
3.207999995,25,158983.6094,159993.7656,183799.0625,180451.9688,167515.4531,166362.4063,38713,173946,,,
3.211999995,25,158983.8281,159995.9688,183800.5938,180439.8125,167515.375,166360.9844,38708.00781,173940.1563,,,
3.215999995,25,158990.5313,160004.8125,183806.25,180425.0313,167518.9688,166368.5625,38708.92188,173942.9688,,,
3.219999995,25,158987.1094,159999,183803.5781,180413.5,167517.8125,166363.5313,38709.21484,173942.2969,,,
3.223999995,25,158981.125,159991.1094,183804.8281,180403.7344,167519.4844,166350.5938,38712.8125,173941.5781,,,
3.227999995,25,158988.5781,159992.875,183816.9844,180406.9844,167532.0313,166345.0469,38725.36328,173944.0625,,,
3.231999995,25,158992.6875,159995.2344,183817.4688,180410.3438,167531.0469,166336.1406,38713.5625,173943.8594,,,
3.235999995,25,159000.7813,160008.375,183818.3594,180422.2813,167531.1406,166330.4531,38715.35938,173952.5781,,,
3.239999995,25,158999.2344,160004.8438,183819.8594,180438.5,167532.7813,166317.4531,38723.29688,173954.7188,,,
3.243999995,25,159008.6406,160012.9688,183833.1406,180448.4219,167545.1406,166318.0156,38740.27734,173966.7813,,,
3.247999995,25,159005.6406,160007.8125,183826.9375,180449.5781,167540,166317.0938,38732.98047,173965.7656,,,
3.251999995,25,159000.7813,160005.9375,183818.4688,180443.6563,167529.7031,166308.625,38721.07031,173960.2344,,,
3.255999995,25,159000.25,160004.9531,183819.8281,180436.7656,167529.8125,166291.8281,38726.86719,173957.9063,,,
3.259999995,25,159006.9531,160007.8438,183835.3125,180443.2813,167543.4531,166289.6875,38738.96094,173961.1875,,,
3.263999995,25,159002.5313,160001.1875,183831.0938,180429.8438,167541.4219,166299.4219,38736.25391,173964.1563,,,
3.267999995,25,159006.8906,160007.5469,183835.5156,180430.4063,167543.3438,166311.4375,38734.02734,173971.5938,,,
3.271999995,25,159009.9531,160011.625,183839.6563,180436.25,167541.875,166315.5625,38726.51563,173972.2031,,,
3.275999995,25,159014.625,160017.6094,183845.5,180442.7969,167547.5313,166317.3125,38728.3125,173974.1094,,,
3.279999995,25,159011.1875,160017.0156,183841.125,180448.0781,167543.6406,166315.1094,38728.92969,173975.5625,,,
3.283999995,25,159019.1875,160025.0313,183844.5625,180460.125,167546.4375,166320.1563,38733.54297,173982,,,
3.287999995,25,159030.875,160030.2188,183859.5781,180470.2344,167558.5313,166317.875,38751.30078,173983.0625,,,
3.291999995,25,159040.3438,160043.1719,183870.3906,180467.0625,167566.7656,166325.5469,38743.22656,173986.9531,,,
3.295999995,25,159041.5,160055.2969,183858.3438,180463.4219,167557.4531,166331.2813,38735.07422,173990.6094,,,
3.299999995,25,159036.6719,160042.0469,183855.6094,180470.5781,167554.0313,166326.0781,38761.46484,173981.75,,,
3.303999995,25,159039.0625,160036.4063,183863.8125,180470.9063,167559.7969,166322.5469,38773.45703,173973.4375,,,
3.307999995,25,159043.7031,160038.4688,183870.5,180471.3281,167564.4375,166328.9219,38778.98047,173969.4219,,,
3.311999995,25,159051.6563,160051.2656,183873.875,180488.5313,167565.75,166339.5,38780.40234,173966.9219,,,
3.315999995,25,159059.3281,160059.0781,183876.2969,180491.9844,167567.7031,166341,38780,173962.9531,,,
3.319999995,25,159072.9531,160076.5156,183887.4219,180490.1406,167579.2344,166362.5938,38786.57031,173976.3906,,,
3.323999995,25,159079.375,160084.3438,183895.3906,180496.5938,167586.8906,166372.7344,38782.30859,173984.8438,,,
3.327999995,26,159082.3438,160081.7656,183905.9844,180508.2188,167595.875,166374.3438,38785.92969,173983.625,,,
3.331999995,26,159088.5156,160089.8906,183907.6719,180512.125,167597.1875,166384.7969,38785.44531,173986.2344,,,
3.335999995,26,159078.9219,160081.9844,183894.1875,180495.3438,167585.7344,166382.4063,38798.1875,173977.5156,,,
3.339999995,26,159084.5938,160089.7344,183902.9219,180492.9219,167593.6094,166385.7969,38810.87109,173987.4063,,,
3.343999995,26,159089.6406,160097,183907.4531,180491.3125,167599.5156,166394.75,38810.92578,173999.1094,,,
3.347999994,26,159091.4375,160100.3281,183907.6406,180497.5156,167601.2344,166403.5156,38799.52734,174004.3594,,,
3.351999995,26,159091.7031,160102.5781,183904.2344,180498.8281,167597.0469,166399.5469,38793.89453,174002.2969,,,
3.355999995,26,159086.4063,160091.7188,183903.1094,180505.3438,167594.5781,166392.5781,38799.60547,173995.2188,,,
3.359999995,26,159090,160093.5938,183909.2813,180501.2188,167600.2344,166402.5469,38803.17578,174004.5313,,,
3.363999995,26,159089.7031,160092.25,183911.75,180504.8594,167602.0313,166401.2656,38794.69922,174012.3281,,,
3.367999994,26,159098.7031,160105.4531,183922.6406,180501.5313,167609.4063,166411.8281,38798.88281,174024.8594,,,
3.371999995,26,159108.4219,160120.7656,183928.4063,180514.8594,167615.7969,166420.25,38812.07813,174038.2969,,,
3.375999995,26,159091.875,160094.75,183911.3438,180519.0781,167601.6406,166396.1094,38802.69141,174021.875,,,
3.379999995,26,159078.8594,160084.3906,183899.2813,180511.8906,167590.5313,166397.5625,38785.84766,174018.7969,,,
3.383999995,26,159079.0781,160084.8281,183902.6875,180508.375,167593.9375,166404.1563,38792.82031,174024.9063,,,
3.387999994,26,159080.7656,160090.5938,183899.7031,180511.2656,167594.0781,166405.4219,38793.59766,174029.25,,,
3.391999994,26,159075.0469,160081.7188,183892.5469,180510.5781,167586.7969,166399.7656,38776.91406,174017.7969,,,
3.395999995,26,159074.8125,160078.125,183893.4844,180508.7813,167588.3594,166396.4375,38782.57422,174011.8281,,,
3.399999995,26,159076.0469,160079.5938,183896.9219,180507.4063,167592.5625,166392.2344,38793.25,174014.0781,,,
3.403999995,26,159070.5469,160076.0313,183889.7344,180509.6875,167587.5469,166389.4688,38786.33203,174013.3281,,,
3.407999995,26,159060.9219,160065.4531,183877.0625,180500.5625,167578.4844,166386.6719,38774.52734,174005.5469,,,
3.411999994,26,159069.4688,160069.8594,183890.1094,180492.5156,167589.75,166384.6563,38780.16016,173999.7188,,,
3.415999995,26,159071.9375,160074.2344,183892.625,180491.1563,167591.3594,166386.1406,38777.85547,173998.0313,,,
3.419999995,26,159054.6094,160070.1719,183863.6563,180483.7031,167566.3594,166390.2188,38752.91016,173994.5469,,,
3.423999995,26,159061.125,160072.5938,183876.2344,180499.1719,167576.2656,166395.9219,38766.58984,173999.9375,,,
3.427999995,26,159066.3125,160072.0625,183885.1406,180512.5781,167583.75,166395.6406,38769.78125,174000.375,,,
3.431999994,26,159060.5938,160071.2813,183877.1406,180493.2188,167578,166395.0469,38769.40625,173994.8906,,,
3.435999994,26,159065.8281,160078.8125,183884.5313,180494.5313,167585.1094,166405.7188,38783.96875,174000.0938,,,
3.439999995,26,159058.2031,160072.8125,183878.7344,180499.6563,167580.0938,166401.4844,38777.80078,173998.9688,,,
3.443999995,26,159046.8125,160059.4844,183863.7344,180501.375,167568.8125,166393.7813,38762.91406,173993.125,,,
3.447999995,26,159059.7344,160071.875,183875.625,180501.6406,167583.2031,166404.7813,38780.24219,174005.3906,,,
3.451999995,26,159074.3594,160085.3281,183892.5469,180514.5469,167599.0313,166417.5781,38800.33203,174017.4531,,,
3.455999994,27,159066.5781,160080.4531,183882.0781,180509.5781,167588.4375,166411.8125,38785.60547,174012.8594,,,
3.459999994,27,159048.125,160064.4063,183864.4375,180462.6094,167572.9844,166405.4219,38763.02344,174005.0938,,,
3.463999994,27,159050.75,160065.75,183867.7344,180476.4844,167579.5625,166409.0938,38755.08203,174015.0625,,,
3.467999994,27,159053.0313,160067.7969,183870.0625,180481.9531,167582.7031,166419.3125,38765.625,174021.6406,,,
3.471999994,27,159054.4219,160067.3594,183873.3438,180487.6406,167583.75,166419.9375,38787.08203,174019.0313,,,
3.475999994,27,159054.8281,160063.5,183878.2813,180492.7344,167586.7969,166416.4219,38800.92188,174017.6094,,,
3.479999994,27,159047.4844,160056.4531,183870.3125,180481.6875,167579.2969,166416.9063,38787.08203,174019.5938,,,
3.483999994,27,159052.125,160062.4844,183872.375,180491.6875,167581.3906,166420.25,38779.46484,174031.1875,,,
3.487999994,27,159061.375,160068.9531,183886.3438,180494.5625,167594.3906,166420.2031,38787.34766,174041.8281,,,
3.491999994,27,159056.4844,160066.0781,183876.9531,180499.5156,167588.8125,166423.5313,38783.62109,174042.8594,,,
3.495999994,27,159042.4375,160051.9688,183862.6094,180492.3906,167575.2188,166412.2969,38769.05859,174033.3906,,,
3.499999994,27,159040.75,160057.4375,183857.4063,180491.6094,167569.2656,166410.7813,38758.8125,174042.1094,,,
3.503999994,27,159033.2031,160044.7031,183850.2969,180502.6563,167562.7969,166404.2969,38744.94531,174038.1875,,,
3.507999994,27,159037.3125,160044.5938,183859.125,180504.4063,167571.625,166404.625,38761.35938,174043.9531,,,
3.511999994,27,159034.5469,160042.875,183856.9531,180487.75,167570.0938,166399.9531,38767.6875,174047.3594,,,
3.515999994,27,159020.7188,160030.5625,183841.6875,180483.75,167556.8906,166386.8906,38753.33984,174045.7969,,,
3.519999994,27,159008.3125,160017.2344,183829.5313,180474.5469,167548.5469,166383.0469,38734.96484,174051.9531,,,
3.523999994,27,158989.8125,159998.3281,183811.7813,180458.7031,167534.5313,166377.2813,38709.10938,174055.7031,,,
3.527999994,27,158981.2031,159997.9688,183797.1406,180457.1406,167522.8906,166369.2344,38692.96094,174066.4063,,,
3.531999994,27,158979.7813,159992.8438,183800.2188,180471.6875,167523.7656,166362.6406,38704.71094,174061.4688,,,
3.535999994,27,158976.2656,159987.3281,183797.2188,180456.4531,167515.6719,166357.3594,38707.41797,174034.9688,,,
3.539999994,27,158987.2656,160005.8125,183804.6719,180444.3438,167518.2969,166374.0625,38716.62109,174026.3281,,,
3.543999994,27,158991.3438,159998.0469,183810.3281,180459.0938,167518.375,166361.7031,38719.48828,174005.0156,,,
3.547999994,27,159007.1406,160010.2813,183826.4063,180462.0469,167531.5,166366.75,38739.63281,173997.25,,,
3.551999994,27,159018.2969,160026.0625,183836.0313,180466.3906,167539.4844,166384.5625,38745.88281,173998.1875,,,
3.555999994,27,159033.6719,160045.6875,183850.8594,180479.1875,167551.0156,166393.625,38756.53125,174008.6875,,,
3.559999994,27,159046.5469,160055.7813,183867.9531,180486.1094,167567.25,166399.9844,38777.10156,174024.6406,,,
3.563999994,27,159047.2344,160056.125,183872.5313,180484.7969,167572.8594,166408.5156,38779.32813,174030.8594,,,
3.567999994,27,159043.9688,160047.6563,183867.4063,180489.7344,167569.4219,166399.9531,38777.26563,174022.7031,,,
3.571999994,27,159041.2813,160041.1875,183859.5469,180497.1094,167559.9844,166389.7656,38774.44922,174007.2344,,,
3.575999994,27,159057.1875,160056.1719,183873.6563,180501.3125,167572.0313,166402.4688,38782.35938,174011.3438,,,
3.579999994,27,159080.0469,160077.6406,183895.6563,180513.3125,167594.8281,166420.5313,38802.47656,174032.0156,,,
3.583999994,28,159082.3281,160075.8438,183897.0156,180522.1094,167597.0156,166420.3438,38803.62891,174037.8125,,,
3.587999994,28,159084.5781,160077.9844,183897.9688,180531.4375,167599.2188,166428.5156,38813.125,174043.0469,,,
3.591999994,28,159095.625,160085.2813,183909.9844,180536.5938,167608.75,166436.4375,38820.90234,174048.5156,,,
3.595999994,28,159091.8125,160078.3906,183906.25,180537.4531,167604.6875,166429,38815.21875,174039.6406,,,
3.599999994,28,159086.2344,160080.2656,183898.0469,180520.2813,167598.7656,166425.6406,38798.72266,174043.4688,,,
3.603999994,28,159084.7969,160082.0625,183896.5938,180513.9219,167597.75,166422.8594,38797.38281,174046.7969,,,
3.607999994,28,159096.7188,160094.7813,183911.2344,180525.4531,167610.8125,166431.4219,38820.74219,174055.2969,,,
3.611999994,28,159098.0469,160094.8594,183911.875,180529.0781,167610.75,166424.1406,38823.31641,174047.0156,,,
3.615999994,28,159099.2188,160101.9688,183913.0156,180528.8125,167610.9219,166425.8125,38822.05859,174045.2969,,,
3.619999994,28,159097.9531,160106.4219,183907.5938,180535.8906,167607.9688,166433.7813,38817.25781,174048.375,,,
3.623999994,28,159081.5156,160080.2656,183896,180534.0469,167596.2188,166418.6406,38805.9375,174030.3281,,,
3.627999994,28,159070.0938,160068.1875,183887.3438,180513.5156,167589.0781,166414.8438,38806.58203,174015.8125,,,
3.631999994,28,159070.2031,160073.7188,183885.9219,180515.8594,167586.8281,166421.1875,38807.38672,174010.5313,,,
3.635999994,28,159066.5156,160069.4219,183882.8594,180514.6719,167582.7813,166416.1563,38800.94922,174000.8281,,,
3.639999994,28,159065.6406,160065.75,183883.2344,180503.8438,167583.5781,166414.4063,38790.40625,173997.2813,,,
3.643999994,28,159062.4688,160064.2188,183878.4844,180502.4219,167580.0469,166415.2969,38792.74219,173995.625,,,
3.647999994,28,159064.8906,160071.7031,183878.375,180501.2344,167581.0938,166427.6563,38802.93359,173999.8281,,,
3.651999994,28,159069.5313,160075.1406,183879.3438,180507.4844,167581.9531,166427.6875,38800.25,173997.6875,,,
3.655999994,28,159065.75,160071.1719,183871.5938,180508.1875,167574.1094,166424.125,38791.02344,173990.4375,,,
3.659999994,28,159062.6406,160066.1094,183868.7813,180512.1094,167570.3594,166425.3594,38796.36328,173989.7656,,,
3.663999994,28,159063.3906,160066.5313,183871.7031,180515.6094,167574.1406,166425.4063,38797.21875,173994.3281,,,
3.667999994,28,159065.9531,160066.4531,183874.0625,180513.2813,167575.25,166426.6094,38788.71875,173994.125,,,
3.671999994,28,159076.1563,160071.4063,183886.4063,180531.3594,167583.4219,166431.3281,38801.13672,173993.2813,,,
3.675999994,28,159100.4063,160102.7344,183907.7813,180541.6875,167603.4844,166455.0781,38827.10156,174017.9688,,,
3.679999994,28,159094.9844,160094.125,183904.7188,180539.6719,167600.375,166448.7344,38821.73438,174021.6719,,,
3.683999994,28,159079.4531,160068.8438,183893.7813,180537.2031,167590.3906,166430,38811.59766,174009.2969,,,
3.687999994,28,159073.5469,160069.7188,183884.8125,180512.9844,167583.8281,166432.25,38805.58984,174011.6563,,,
3.691999994,28,159072.875,160068.7344,183883,180515.7031,167581.0313,166433.375,38807.27734,174006.5625,,,
3.695999994,28,159073.9844,160071.0313,183884.4375,180515.8594,167581.5156,166438.8125,38815.03125,174005.9688,,,
3.699999994,28,159080.7344,160079.5156,183892.7344,180519.875,167589.4844,166453.9688,38821.65625,174017.8281,,,
3.703999994,28,159085.4531,160083.4531,183898.5313,180523.5625,167596.1875,166455.9844,38824.73828,174028.0156,,,
3.707999994,28,159099.2969,160100.8438,183913.4375,180520.8125,167608.3906,166467.7344,38837.13281,174038.9844,,,
3.711999994,29,159103.7813,160108.125,183917.5156,180523.6406,167610.1719,166472.6406,38845.84766,174037.5938,,,
3.715999994,29,159092.8125,160091.2813,183906.4375,180532.5469,167601.7188,166464.2188,38847.88672,174019.2813,,,
3.719999994,29,159088.0938,160082.2813,183900.2344,180536.4063,167598.3906,166463.0156,38844.9375,174008.8125,,,
3.723999994,29,159101.7344,160098.2656,183914.9375,180530.0938,167612.4219,166478.4531,38858.99219,174021.1875,,,
3.727999994,29,159109.0156,160105.9375,183924.3594,180536.0469,167618.375,166479.5313,38867.38672,174024.4219,,,
3.731999994,29,159100.9844,160099.4219,183909.0156,180545.0938,167603.8594,166471.4375,38852.15234,174008.6875,,,
3.735999994,29,159100.3125,160098.8594,183907.9688,180550.25,167601.7188,166464.8906,38845.36719,173997.4375,,,
3.739999994,29,159111.5781,160112.125,183924.625,180550.1875,167617.1406,166486.375,38866.6875,174007.5,,,
3.743999994,29,159144.6094,160154.2969,183958.3594,180564.2656,167649.1719,166521.3281,38897.91016,174041.4375,,,
3.747999994,29,159134.0938,160131.2031,183951.6875,180568.2344,167642.1875,166504.7969,38888.73828,174025.5469,,,
3.751999994,29,159118.0469,160108.2656,183936.0781,180536.3281,167628.5938,166484.875,38879.77734,174000.125,,,
3.755999994,29,159137.0313,160127.6094,183956.625,180536.2344,167644.4219,166495.5,38895.46875,174010.9063,,,
3.759999994,29,159150.4688,160141.5313,183969.5,180544.8281,167655.2188,166507.2969,38901.69141,174027.75,,,
3.763999994,29,159141.8906,160131.0625,183959.4844,180549.6563,167646.7969,166503.7813,38896.46094,174027.3438,,,
3.767999994,29,159141.6719,160139.1875,183952.4844,180554.5625,167642.8125,166516.2188,38895.28125,174032.2656,,,
3.771999994,29,159143.75,160141.7344,183954.3906,180558.6875,167644.2344,166516.875,38893.59375,174031.3281,,,
3.775999994,29,159146.5625,160142.9531,183957.0781,180560.4375,167646.4531,166518.0469,38893.13672,174029.3281,,,
3.779999994,29,159151.0625,160144.5781,183965.1719,180566.9531,167652.4375,166517.5156,38899.19922,174034.8281,,,
3.783999994,29,159149.9063,160140.5313,183964.2188,180575.0313,167651.7344,166520.9531,38901.55859,174038.7813,,,
3.787999994,29,159155.8438,160143.4375,183971.2344,180577.8125,167657.2344,166524.5469,38912.55469,174042.0781,,,
3.791999994,29,159147.8438,160135.8906,183959.5156,180578.0781,167646.4063,166514.9375,38907.35156,174032.2813,,,
3.795999994,29,159148.4688,160133.0313,183960.1094,180582.3438,167645.1406,166512.0625,38904.61719,174026.2813,,,
3.799999994,29,159153.6875,160140.5625,183969.7656,180578.8594,167650.9063,166520.7031,38899.78906,174036.0156,,,
3.803999994,29,159137.9844,160131.625,183942.2969,180587.6563,167631.4688,166519.8438,38883.69531,174034.9375,,,
3.807999994,29,159151.125,160147.0469,183953.0781,180586.9063,167642.1406,166528.75,38897.29297,174047.5938,,,
3.811999994,29,159159.3594,160149.5156,183966.3281,180591.5469,167651.8438,166527.5781,38910.03516,174048.7813,,,
3.815999994,29,159160.1563,160148.2813,183971.7188,180594.8281,167655.4375,166524.8281,38912.92969,174045.7813,,,
3.819999994,29,159147.9844,160139.0625,183958.7344,180594.6406,167644.3438,166509.3125,38896.59766,174039.5313,,,
3.823999994,29,159148.3906,160142.7031,183960.3438,180592.4375,167647.3906,166511.9844,38899.625,174047.8438,,,
3.827999994,29,159138.5625,160127.25,183952.4063,180588.0938,167643,166513.6719,38899.78906,174039.1719,,,
3.831999994,29,159145.6719,160135.7344,183961.5781,180586.2969,167651.4219,166523.9844,38900.62109,174040.4063,,,
3.835999994,29,159147.2344,160140.6719,183960.0781,180585.0625,167651.7344,166528.0781,38892.0625,174041.2969,,,
3.839999994,30,159144.0938,160131.6094,183958.4531,180590.8438,167648.9688,166517.5469,38895.73828,174035.0156,,,
3.843999994,30,159141.0625,160130.5313,183954.0781,180581.0625,167644.6563,166520.0625,38894.10156,174037.1094,,,
3.847999994,30,159140.3906,160133.4063,183954.3125,180559.4688,167647.1563,166529.9844,38898.74219,174039.2813,,,
3.851999994,30,159130.1406,160119.125,183940.3125,180557.1406,167634.7031,166523.6875,38885.97266,174022.7656,,,
3.855999994,30,159133.5469,160119.875,183943.7969,180556.8906,167634.0156,166517.1719,38880.66406,174014,,,
3.859999994,30,159141.4844,160126.1875,183953.5625,180562.7188,167644.7656,166526.9531,38893.83203,174021.2344,,,
3.863999994,30,159146.4531,160137.2344,183955.7344,180558.9375,167650.3906,166539.125,38896.57031,174034.8594,,,
3.867999994,30,159145.375,160142.0625,183950.375,180557.5938,167649.5156,166542.625,38896.30078,174037.9531,,,
3.871999994,30,159136.9063,160123.9531,183945.0313,180568.5625,167642.6719,166526.8281,38894.55859,174019.2188,,,
3.875999994,30,159140.9063,160130.3438,183947.6875,180570.5938,167643.8281,166529.5781,38894.42188,174018.8281,,,
3.879999994,30,159144.9531,160140.3438,183949.5156,180570.1406,167644.2344,166532.7813,38889.30078,174031.8281,,,
3.883999994,30,159143.3125,160135.2031,183949,180597.6719,167644.3438,166531.1875,38896.75781,174036.2344,,,
3.887999994,30,159150.6719,160142.8125,183953.2188,180615.7969,167651.5469,166543.2656,38908.90625,174047.3906,,,
3.891999994,30,159148.8125,160147.0313,183952.9219,180580.9531,167650.9375,166553.3438,38907.32422,174054.3594,,,
3.895999994,30,159137.5781,160140.3438,183945.7656,180555.7656,167642.4063,166552.2813,38899.01172,174050.3906,,,
3.899999994,30,159132.7813,160138.3906,183940.3125,180561.7969,167638.2813,166538.2188,38892.14453,174054.625,,,
3.903999994,30,159115.2656,160117.3906,183922.5625,180565.9375,167624.6563,166522.875,38879.16016,174045.5156,,,
3.907999994,30,159117.3438,160118.1875,183929.6719,180560.5938,167630.4219,166534.8906,38887.63672,174049.4063,,,
3.911999994,30,159123.0313,160119.75,183941.7344,180556.7656,167638.7344,166540.9063,38899.78906,174052.1875,,,
3.915999994,30,159108.6406,160102.9219,183919.7344,180551,167618.1875,166524.3594,38881.54688,174039.0938,,,
3.919999994,30,159118.1563,160117.7344,183926.0938,180546.8906,167622.75,166530.6875,38877.60547,174053.875,,,
3.923999994,30,159123.1719,160122.8594,183932.6094,180551.2344,167628.2656,166532.2188,38877.5,174065.625,,,
3.927999994,30,159123.7813,160119.3906,183933.2344,180550.5938,167628.9688,166527.8906,38871.89453,174066.75,,,
3.931999994,30,159102.5469,160094.4063,183910.7344,180562.2031,167610.6719,166513.8125,38856.36328,174046.9844,,,
3.935999994,30,159108.9531,160104.4063,183917.9219,180557.7031,167618.9844,166521.2188,38865.83203,174053.0156,,,
3.939999994,30,159102.6563,160096.6719,183913.0313,180560.75,167616.5156,166515.0156,38872.88672,174053.5,,,
3.943999994,30,159102.9688,160096.5156,183915.0469,180559.4219,167620.6719,166528.8281,38882.08594,174060.125,,,
3.947999994,30,159094.2813,160086.1875,183905.7656,180556.5,167611.5,166520.5156,38869.98828,174053.2031,,,
3.951999994,30,159093.6719,160085.7969,183906.7344,180552.0625,167610.4063,166514.2656,38870.60547,174050.7969,,,
3.955999994,30,159107.2344,160105.4219,183924.7813,180538.7344,167626.7656,166527.8594,38883.77344,174069.4688,,,
3.959999994,30,159102.9219,160103.8438,183917.8594,180548.125,167622.6094,166524.75,38862.23828,174081.7188,,,
3.963999994,30,159068.8906,160061.4844,183883.5313,180541.875,167593.5156,166504.2656,38840.99219,174063.75,,,
3.967999994,31,159061.2344,160056.7656,183874.8125,180543.7813,167584.875,166499.0938,38837.02344,174066.7031,,,
3.971999994,31,159050.9688,160049.7344,183859.0938,180538.6563,167572.0781,166487.9844,38817.49609,174067.9531,,,
3.975999994,31,159043.5938,160045.4688,183852.875,180539.4063,167568.3438,166486.2656,38811.27344,174078.1563,,,
3.979999994,31,159039.7813,160042.3594,183854,180547.3438,167570.0938,166483.9375,38807.78906,174092.6406,,,
3.983999993,31,159035.8125,160035.6563,183852.7969,180525.4844,167570.2031,166477.1719,38802.04688,174094.4375,,,
3.987999993,31,159025.9219,160028.8125,183840.75,180496.8906,167557.7031,166474.8906,38800.92188,174079.4375,,,
3.991999994,31,159034.1719,160038.0156,183843.8906,180514.5938,167555.7188,166474.1094,38810.71094,174057.5,,,
3.995999994,31,159052.125,160054.3281,183857.9219,180515.3438,167563.25,166488.4688,38812.45313,174044.6719,,,
3.999999994,31,159068.0469,160071.0625,183873.4531,180510.8125,167576.3906,166508.6875,38831.07031,174046.4219,,,
4.003999993,31,159075.6406,160073.0781,183883.6406,180524.7813,167586.75,166511.1875,38860.17188,174040.8125,,,
4.007999993,31,159075.5156,160074.5469,183884.3438,180517.7344,167585.0313,166514.8906,38857.05859,174036.8125,,,
4.011999994,31,159073.2813,160069.9375,183883.0469,180519.6094,167579.875,166507.9063,38847.67188,174027.0781,,,
4.015999994,31,159084.8906,160085.5469,183892.5781,180535.1719,167589.7813,166520.625,38860.81641,174034.375,,,
4.019999994,31,159086.6719,160093.4375,183893,180538.25,167593.5156,166536.6406,38868.64844,174043.5469,,,
4.023999994,31,159079.9844,160082.25,183889.75,180537.1875,167588.7656,166527.0625,38866.44922,174035.125,,,
4.027999993,31,159080.3906,160085.9531,183889.8906,180535.2031,167586.4219,166524.9688,38861.16406,174032.2031,,,
4.031999993,31,159095.6719,160098.2031,183908.3906,180546.375,167602.3125,166532.8594,38870.39063,174035.9531,,,
4.035999994,31,159103.1406,160098.2031,183923.7656,180552.875,167617.7813,166542.8281,38891.71484,174035.1875,,,
4.039999994,31,159106.0625,160110.2031,183926.4219,180542.1406,167620.7656,166550.9844,38898.79688,174046.4219,,,
4.043999994,31,159100.7188,160102.6563,183918.9063,180553.7344,167613.8125,166545.1094,38895.09375,174048.1719,,,
4.047999993,31,159091.1406,160086,183907.1406,180563.5781,167603.5156,166522.6563,38885.08984,174038.4063,,,
4.051999993,31,159103.6406,160101.2344,183917.1875,180566.9063,167611.0156,166532.5,38887.53125,174045.2344,,,
4.055999994,31,159116.125,160115.9844,183929.9375,180570.5938,167622.75,166557.0469,38898.09766,174054.1406,,,
4.059999994,31,159122.0156,160126.0156,183933.0156,180574.8594,167627.6563,166562.3281,38895.73828,174064.8281,,,
4.063999994,31,159120.75,160120.875,183933.3906,180576.2031,167628.9375,166551.1406,38884.33984,174064.1563,,,
4.067999994,31,159124.8906,160124.3125,183939.4531,180557.5625,167632.4844,166559.8125,38896.75781,174064.3438,,,
4.071999993,31,159133.0625,160128.6563,183947.75,180556.2813,167636.75,166565.3438,38909.23047,174060.8594,,,
4.075999993,31,159119.0625,160114.8594,183923.4219,180570.5938,167617.25,166554.0938,38890.72266,174042.2031,,,
4.079999994,31,159112.7344,160109.7969,183915.5,180567.9688,167611.375,166550.125,38883.80078,174036.9063,,,
4.083999994,31,159113.375,160107.2188,183916.3125,180564.2188,167612.0469,166544.9219,38884.90234,174036.9063,,,
4.087999994,31,159116.3125,160107.375,183921.1563,180565.5625,167616.5781,166544.3594,38890.23828,174038.1406,,,
4.091999993,31,159117.0625,160110.7656,183921.0625,180562.0938,167615.125,166547.7969,38889.03125,174038.4063,,,
4.095999993,32,159118.5313,160110.0938,183926.3594,180557.9375,167618.7969,166546.375,38892.92188,174036.7188,,,
4.099999993,32,159125.3125,160113.9844,183937.5,180559.125,167628.7031,166555.8438,38902.17578,174046.4219,,,
4.103999993,32,159135.2656,160120.3594,183957.0313,180558.6719,167646.4063,166568.7656,38918.42969,174061.9219,,,
4.107999993,32,159110.2188,160095.0938,183927.3125,180551.9844,167622.9844,166546.0781,38891.95703,174044.1719,,,
4.111999993,32,159118.3906,160105.3125,183932.0313,180556.7656,167626.7969,166554.5,38897.10547,174045.8281,,,
4.115999993,32,159127.1406,160115.5938,183940.2656,180562.1719,167633.2031,166564.375,38911.83203,174051.3281,,,
4.119999993,32,159123.9219,160110.8125,183938.375,180565.375,167629.8594,166558.4375,38906.97656,174049.5938,,,
4.123999993,32,159127.6563,160117.25,183942.9219,180569.0469,167634.0938,166565.9063,38908.15625,174059.2656,,,
4.127999993,32,159135.3281,160122.7813,183950.8594,180575.7188,167641.875,166572.9219,38916.12109,174066.0625,,,
4.131999993,32,159147.3594,160139.2656,183963.0625,180571,167654.0781,166583.4219,38930.60547,174076.0938,,,
4.135999993,32,159138.1406,160127.5313,183955.7344,180556.3281,167647.8438,166571.2969,38925.42969,174069.25,,,
4.139999993,32,159125.9844,160115.8281,183938.7813,180556.7656,167633.5,166564.1563,38902.52344,174064.5469,,,
4.143999993,32,159125.9844,160118.1094,183936.7813,180565.2031,167632.9844,166568.375,38908.87891,174071.125,,,
4.147999993,32,159122.8281,160115,183932.3438,180561.5313,167629.125,166570.8594,38917.25,174069.7344,,,
4.151999993,32,159126.7656,160117.2813,183938.6563,180560.7344,167631.4844,166570.2656,38918.77734,174066.7813,,,
4.155999993,32,159140.7969,160131.0313,183953.8281,180565.875,167645.375,166580.7813,38929.10547,174075.9219,,,
4.159999993,32,159151.4688,160141.1563,183967.2188,180568.2656,167656.6719,166588.4375,38933.50391,174089.8438,,,
4.163999993,32,159152.3594,160144.4688,183969.5781,180564.6719,167659.7656,166591.8906,38932.64453,174098.0781,,,
4.167999993,32,159129.875,160123.3125,183944.2813,180563.25,167639.1563,166580.8594,38921.10938,174082.5,,,
4.171999993,32,159136.5625,160131.2813,183953.0781,180564.4531,167644.625,166584.7344,38927.49609,174079.625,,,
4.175999993,32,159142.8281,160140.4063,183956.7344,180574.4688,167647.3438,166595.3438,38928.80859,174082.4688,,,
4.179999993,32,159148.7813,160149.1094,183956.8594,180585.7344,167650.7188,166611.8438,38928.53906,174090.3594,,,
4.183999993,32,159149.5938,160141.1563,183961.3906,180575.9688,167655.2188,166598.9375,38929.64063,174087.5469,,,
4.187999993,32,159146.0313,160132.5469,183960.0781,180576.9531,167652.1875,166584.0781,38928.21875,174074.3438,,,
4.191999993,32,159152.625,160141.0625,183967.0313,180586.2656,167657.125,166595.3438,38931.75781,174071.9219,,,
4.195999993,32,159153.75,160145.625,183966.2813,180562.7969,167656.2969,166603.5781,38937.5,174069.1406,,,
4.199999993,32,159155.8125,160152.1406,183966.5156,180559.125,167656.375,166608.5938,38942.80859,174071.3125,,,
4.203999993,32,159165.9531,160167.625,183977.9219,180563.5469,167666.0938,166625.2344,38950.53516,174082.4375,,,
4.207999993,32,159173.2969,160168.2344,183993.0938,180561.125,167678.5313,166629.4375,38966.25391,174080.8125,,,
4.211999993,32,159166.0313,160158.8594,183984.7344,180574.1719,167668.2344,166616.8125,38957.88281,174061.625,,,
4.215999993,32,159173.375,160167.9688,183990.6094,180588.5781,167672.3594,166619.2969,38965.79688,174061.0625,,,
4.219999993,32,159174.4219,160172.375,183991.8906,180579.375,167672.5313,166627.8125,38962.95313,174064.3594,,,
4.223999993,33,159191.375,160195.9688,184007.0938,180583.0156,167685.6406,166650.5781,38969.5,174085.0156,,,
4.227999993,33,159194.4063,160189.6719,184014.75,180599.5469,167691.5156,166647.0938,38974.80859,174083.3281,,,
4.231999993,33,159183.4375,160179.0156,184000.7969,180593.0313,167680.4688,166638.4844,38964.61719,174069.0938,,,
4.235999993,33,159188.1406,160185.5156,184003.8594,180587.5469,167682.6875,166648.4375,38962.52344,174069.7344,,,
4.239999993,33,159190.3594,160188.5156,184005.4844,180599.8594,167685.75,166650.2344,38984.27734,174076.8438,,,
4.243999993,33,159189.1563,160191.125,184000.0781,180604.6875,167682.2969,166652.0469,38987.06641,174084.1875,,,
4.247999993,33,159192.375,160196.25,184002.8594,180603.9688,167684.1875,166659.3438,38978.13672,174090.4844,,,
4.251999993,33,159199.6875,160199.2188,184013.25,180601.4688,167691.8906,166657.1719,38987.81641,174092.9063,,,
4.255999993,33,159204.4375,160203.8125,184017.0781,180603.5156,167694.1406,166662.375,38988.86328,174096.0938,,,
4.259999993,33,159185.125,160180.8281,183997.5,180605.9844,167674.375,166646.8281,38968.15625,174078.5469,,,
4.263999993,33,159188.7813,160181.6563,184000.125,180606.625,167679.2031,166646.1563,38972.15234,174081.1875,,,
4.267999993,33,159194.3281,160186.875,184005.7031,180597.9375,167685.4063,166646.4219,38975.55859,174086.8125,,,
4.271999993,33,159187.3281,160190.7656,183992,180591.8906,167673.25,166660.2344,38964.34766,174086.1406,,,
4.275999993,33,159181.5938,160188.1719,183982.3125,180593.5938,167662.0313,166660.1875,38952.33203,174080.0313,,,
4.279999993,33,159169.2031,160165.9063,183977.375,180594.1563,167657.1563,166640.1719,38950.02734,174064.0938,,,
4.283999993,33,159166.1406,160162.2656,183973.8125,180595.5156,167655.4688,166633.3594,38941.95313,174064.3438,,,
4.287999993,33,159166.4375,160163.4063,183970.7344,180596.1875,167652,166627.9375,38927.62891,174064.5469,,,
4.291999993,33,159184.1406,160182.4844,183990.8125,180608.9531,167671.4219,166641.5156,38956.22266,174074.4844,,,
4.295999993,33,159183.9531,160184.7031,183996.6406,180606.1094,167677.6719,166650.875,38975.74609,174074.5625,,,
4.299999993,33,159162.3594,160156.3281,183972.6406,180604.2031,167656.3594,166630.1094,38952.27734,174053.0156,,,
