Time:250Hz,Epoch,Channel 1,Channel 2,Channel 3,Channel 4,Channel 5,Channel 6,Channel 7,Channel 8,Event Id,Event Date,Event Duration
0.0000000000,0,158711.7187500000,144082.2187500000,169150.5625000000,161244.4843750000,127407.3828125000,19754.2851562500,98566.3125000000,150228.0781250000,,,
0.0040000000,0,159432.6250000000,144226.5312500000,169883.0468750000,161888.2031250000,128098.1328125000,20314.1679687500,99246.0390625000,148916.2187500000,,,
0.0079999999,0,160126.8750000000,144444.4531250000,170571.1406250000,162519.3593750000,128772.7109375000,20937.1660156250,99889.9531250000,147949.6250000000,,,
0.0119999999,0,159846.9687500000,144441.1875000000,170275.5000000000,162272.8125000000,128509.7187500000,20771.6738281250,99620.4218750000,148659.5468750000,,,
0.0159999998,0,158977.7968750000,144223.9531250000,169401.8750000000,161490.1406250000,127669.4375000000,20044.9550781250,98805.2421875000,150077.8750000000,,,
0.0199999998,0,158717.8593750000,144089.0468750000,169154.5468750000,161247.9062500000,127409.0468750000,19755.6523437500,98570.0937500000,150240.2812500000,,,
0.0240000000,0,159429.7968750000,144229.7968750000,169878.7500000000,161888.0000000000,128090.7578125000,20307.3027343750,99242.9296875000,148934.4843750000,,,
0.0279999999,0,160115.4843750000,144437.9375000000,170558.8281250000,162513.9687500000,128757.1562500000,20926.2226562500,99880.6250000000,147948.9062500000,,,
0.0319999999,0,159842.4843750000,144435.6406250000,170268.8750000000,162275.8906250000,128500.0390625000,20769.5273437500,99618.3828125000,148647.6718750000,,,
0.0359999998,0,158991.6875000000,144229.7500000000,169411.5312500000,161504.5156250000,127675.9062500000,20058.9296875000,98818.8984375000,150076.6718750000,,,
0.0399999998,0,158739.7968750000,144102.2656250000,169173.0156250000,161266.4687500000,127424.5781250000,19778.9062500000,98589.4375000000,150253.9687500000,,,
0.0440000000,0,159442.0000000000,144237.8281250000,169888.4843750000,161894.7500000000,128099.5078125000,20324.4140625000,99253.6015625000,148952.6406250000,,,
0.0480000000,0,160132.3750000000,144449.6562500000,170575.5312500000,162524.4218750000,128773.6484375000,20946.8222656250,99898.7812500000,147958.8750000000,,,
0.0519999999,0,159866.0937500000,144451.2656250000,170293.6406250000,162292.6875000000,128525.8984375000,20795.3574218750,99643.9687500000,148643.7812500000,,,
0.0559999999,0,158995.0468750000,144231.6718750000,169416.4687500000,161509.6406250000,127683.4921875000,20066.2519531250,98825.6328125000,150065.8906250000,,,
0.0599999998,0,158711.2343750000,144084.5000000000,169145.5156250000,161248.6562500000,127400.8671875000,19759.5410156250,98567.5703125000,150244.7343750000,,,
0.0639999998,0,159413.2812500000,144220.5468750000,169862.8125000000,161877.7187500000,128076.1953125000,20303.9218750000,99233.1093750000,148944.9062500000,,,
0.0680000000,0,160114.6250000000,144435.4687500000,170560.2968750000,162514.8281250000,128760.2109375000,20931.5332031250,99887.1406250000,147946.5468750000,,,
0.0719999999,0,159860.6718750000,144440.7500000000,170290.9531250000,162291.5625000000,128522.1640625000,20787.3105468750,99642.6562500000,148626.3750000000,,,
0.0759999999,0,158995.9062500000,144226.3750000000,169421.4375000000,161511.5468750000,127684.6718750000,20061.1015625000,98829.8671875000,150053.1250000000,,,
0.0799999998,0,158723.8437500000,144091.1875000000,169161.7968750000,161258.8593750000,127411.7343750000,19760.4531250000,98580.3437500000,150252.9218750000,,,
0.0839999998,0,159421.5937500000,144229.5312500000,169870.9531250000,161887.0000000000,128079.8671875000,20301.4550781250,99241.8281250000,148963.9843750000,,,
0.0880000000,0,160117.6875000000,144440.0312500000,170559.7031250000,162520.9375000000,128756.1328125000,20927.6445312500,99887.5703125000,147953.7500000000,,,
0.0919999999,0,159858.0156250000,144437.5312500000,170282.9375000000,162294.5156250000,128512.4843750000,20785.6484375000,99634.1562500000,148612.6718750000,,,
0.0959999999,0,158998.9375000000,144227.5156250000,169416.8750000000,161518.5781250000,127680.8359375000,20070.3828125000,98826.8593750000,150044.0312500000,,,
0.0999999999,0,158716.8437500000,144089.2500000000,169147.8281250000,161258.3906250000,127398.8046875000,19765.5761718750,98569.6093750000,150255.2500000000,,,
0.1039999998,0,159405.3593750000,144218.7187500000,169851.5312500000,161876.4375000000,128059.7265625000,20298.4511718750,99221.5468750000,148966.7968750000,,,
0.1079999998,0,160105.7500000000,144427.4218750000,170549.0312500000,162508.1718750000,128745.0078125000,20928.1796875000,99878.3125000000,147945.8125000000,,,
0.1120000000,0,159856.8906250000,144431.1250000000,170284.4062500000,162296.9531250000,128514.2578125000,20789.2421875000,99638.2890625000,148598.2656250000,,,
0.1159999999,0,158992.3281250000,144217.8125000000,169414.5468750000,161517.6406250000,127677.8359375000,20067.9687500000,98826.2968750000,150028.7343750000,,,
0.1199999999,0,158706.6250000000,144080.1562500000,169142.3437500000,161250.8906250000,127394.9921875000,19757.6914062500,98569.8828125000,150253.3125000000,,,
0.1239999998,0,159388.2500000000,144209.5468750000,169835.2656250000,161862.4375000000,128048.7578125000,20284.9062500000,99217.1250000000,148967.9843750000,,,
0.1279999998,1,160096.1406250000,144423.6250000000,170537.7656250000,162502.3750000000,128736.4453125000,20923.0839843750,99878.3671875000,147942.8437500000,,,
0.1319999998,1,159864.0781250000,144436.3593750000,170290.9843750000,162300.5937500000,128520.6093750000,20802.5722656250,99652.2343750000,148590.9062500000,,,
0.1359999997,1,159007.0312500000,144230.2812500000,169429.9687500000,161529.3593750000,127693.8203125000,20086.6914062500,98846.3125000000,150026.7812500000,,,
0.1399999997,1,158709.5781250000,144090.2968750000,169145.7812500000,161250.7812500000,127398.9609375000,19770.5390625000,98572.8046875000,150263.8125000000,,,
0.1439999996,1,159386.5625000000,144215.9843750000,169836.6718750000,161854.5937500000,128047.3593750000,20293.2734375000,99212.4062500000,148987.1250000000,,,
0.1479999996,1,160102.9218750000,144432.2343750000,170550.7500000000,162504.8281250000,128744.7109375000,20932.6054687500,99879.8984375000,147955.4218750000,,,
0.1519999998,1,159865.4687500000,144436.2812500000,170297.3906250000,162297.3750000000,128521.4453125000,20799.5683593750,99646.7890625000,148585.5000000000,,,
0.1559999997,1,159009.5000000000,144228.0781250000,169434.7187500000,161524.3593750000,127691.8593750000,20083.2304687500,98841.5859375000,150020.0781250000,,,
0.1599999997,1,158714.5937500000,144091.6718750000,169152.1406250000,161252.7187500000,127398.1328125000,19765.7910156250,98573.3125000000,150268.3125000000,,,
0.1639999996,1,159391.1562500000,144218.9375000000,169842.3593750000,161859.9687500000,128047.0390625000,20285.4687500000,99214.6328125000,149000.5156250000,,,
0.1679999996,1,160112.1875000000,144434.4062500000,170558.9531250000,162512.6250000000,128749.1093750000,20927.5625000000,99885.3671875000,147961.2343750000,,,
0.1719999998,1,159877.0625000000,144435.3906250000,170306.1406250000,162303.2031250000,128530.1562500000,20804.5312500000,99656.7656250000,148577.7968750000,,,
0.1759999997,1,159024.9218750000,144234.2812500000,169445.6250000000,161532.6562500000,127705.0859375000,20099.2968750000,98853.4453125000,150019.9062500000,,,
0.1799999997,1,158715.5625000000,144093.2968750000,169146.7187500000,161244.8281250000,127397.2734375000,19769.7597656250,98566.7187500000,150281.0312500000,,,
0.1839999997,1,159391.9843750000,144223.8750000000,169836.1875000000,161849.9062500000,128046.2109375000,20289.0625000000,99207.1718750000,149020.6250000000,,,
0.1879999996,1,160114.9687500000,144444.2500000000,170556.8906250000,162504.8437500000,128753.1328125000,20935.0742187500,99883.2500000000,147974.5937500000,,,
0.1919999996,1,159892.4218750000,144453.9843750000,170320.9062500000,162312.7187500000,128548.8046875000,20820.8105468750,99669.1015625000,148582.6250000000,,,
0.1959999998,1,159034.3437500000,144246.8125000000,169458.5781250000,161540.7031250000,127721.1484375000,20108.2832031250,98869.9375000000,150020.4531250000,,,
0.1999999997,1,158712.3437500000,144097.7031250000,169151.7343750000,161248.5468750000,127403.8203125000,19772.2558593750,98581.2031250000,150286.6250000000,,,
0.2039999997,1,159373.8750000000,144216.7968750000,169828.4843750000,161845.4062500000,128038.5078125000,20280.5878906250,99211.1718750000,149023.1718750000,,,
0.2079999996,1,160094.8750000000,144428.6093750000,170544.5625000000,162499.3437500000,128737.3046875000,20922.3066406250,99881.2968750000,147962.8437500000,,,
0.2119999996,1,159894.0625000000,144447.6718750000,170325.3906250000,162321.9531250000,128548.1875000000,20822.9843750000,99680.1562500000,148564.2812500000,,,
0.2159999998,1,159036.1875000000,144240.5625000000,169460.7343750000,161543.6250000000,127718.8203125000,20111.1523437500,98872.8359375000,150006.5781250000,,,
0.2199999997,1,158719.2343750000,144096.7343750000,169156.0312500000,161252.2343750000,127405.9687500000,19777.4316406250,98582.3515625000,150288.8593750000,,,
0.2239999997,1,159383.8281250000,144221.6406250000,169834.7031250000,161851.8437500000,128044.6015625000,20284.9863281250,99211.0859375000,149037.5625000000,,,
0.2279999997,1,160097.1562500000,144430.6406250000,170543.3437500000,162499.8281250000,128739.6406250000,20920.9375000000,99874.8828125000,147966.5156250000,,,
0.2319999996,1,159879.2812500000,144439.1250000000,170309.0781250000,162313.2031250000,128537.4843750000,20813.4082031250,99663.4687500000,148549.3125000000,,,
0.2359999996,1,159022.1562500000,144234.7031250000,169446.0000000000,161541.7812500000,127708.0078125000,20104.1777343750,98861.7578125000,149989.4218750000,,,
0.2399999998,1,158700.0000000000,144093.6718750000,169136.2343750000,161244.9375000000,127388.2109375000,19767.5878906250,98571.4062500000,150288.5625000000,,,
0.2439999997,1,159363.8125000000,144218.9375000000,169815.1562500000,161839.2500000000,128025.5312500000,20274.9824218750,99200.3046875000,149045.8437500000,,,
0.2479999997,1,160089.5156250000,144429.2031250000,170535.7656250000,162496.7500000000,128731.7812500000,20919.3828125000,99874.2421875000,147966.0156250000,,,
0.2519999996,1,159888.8593750000,144441.4531250000,170316.4375000000,162318.5937500000,128543.3593750000,20823.4394531250,99674.8671875000,148540.9218750000,,,
0.2559999996,2,159042.0156250000,144243.5000000000,169460.8125000000,161553.7968750000,127721.5000000000,20124.4824218750,98879.8671875000,149988.2343750000,,,
0.2599999995,2,158710.4531250000,144095.5312500000,169139.4218750000,161246.0937500000,127390.5703125000,19777.8066406250,98574.7109375000,150289.6406250000,,,
0.2639999995,2,159367.7343750000,144216.6093750000,169808.6875000000,161831.5312500000,128019.1718750000,20276.3496093750,99194.3828125000,149056.7656250000,,,
0.2679999995,2,160098.3437500000,144433.7031250000,170535.9218750000,162491.5781250000,128731.8046875000,20924.8535156250,99874.3203125000,147987.9843750000,,,
0.2719999994,2,159906.1562500000,144455.5156250000,170329.2500000000,162324.8125000000,128557.6015625000,20836.3671875000,99686.8906250000,148554.7343750000,,,
0.2759999994,2,159052.3593750000,144252.2812500000,169470.9531250000,161553.3593750000,127735.4218750000,20131.3222656250,98889.3281250000,149983.9687500000,,,
0.2799999996,2,158715.1562500000,144102.6093750000,169147.4218750000,161245.5000000000,127401.7812500000,19783.3867187500,98583.9062500000,150294.0312500000,,,
0.2839999995,2,159361.1562500000,144220.0156250000,169807.9375000000,161828.9375000000,128018.9609375000,20277.9316406250,99197.1171875000,149070.7343750000,,,
0.2879999995,2,160088.5000000000,144432.6250000000,170532.9687500000,162489.6093750000,128725.9843750000,20926.5976562500,99876.6015625000,147991.1406250000,,,
0.2919999994,2,159901.7343750000,144449.5000000000,170332.1250000000,162333.0781250000,128556.0156250000,20844.1738281250,99696.8125000000,148539.0468750000,,,
0.2959999994,2,159056.7031250000,144249.4687500000,169481.7031250000,161573.1875000000,127741.5937500000,20147.2812500000,98904.0859375000,149964.3437500000,,,
0.2999999996,2,158711.5312500000,144098.4062500000,169147.5312500000,161254.7187500000,127397.9453125000,19790.1718750000,98583.9062500000,150282.9531250000,,,
0.3039999995,2,159345.1250000000,144208.1875000000,169791.1718750000,161817.8750000000,128001.0937500000,20267.8203125000,99180.5625000000,149067.7812500000,,,
0.3079999995,2,160091.6562500000,144432.0468750000,170530.3437500000,162491.0000000000,128722.1250000000,20926.6250000000,99870.7500000000,147994.7187500000,,,
0.3119999995,2,159922.7343750000,144458.4062500000,170342.6718750000,162345.6250000000,128564.3046875000,20854.0175781250,99698.3359375000,148539.1718750000,,,
0.3159999994,2,159083.7187500000,144260.0781250000,169496.6718750000,161585.1718750000,127755.4843750000,20158.3867187500,98911.2968750000,149966.1093750000,,,
0.3199999994,2,158729.5312500000,144105.4062500000,169156.5625000000,161250.4375000000,127411.1406250000,19797.0117187500,98590.6953125000,150298.3281250000,,,
0.3239999996,2,159358.2343750000,144219.8281250000,169799.7031250000,161814.0468750000,128017.0546875000,20277.4492187500,99189.5000000000,149098.2812500000,,,
0.3279999995,2,160091.1250000000,144436.3125000000,170529.9843750000,162482.1093750000,128730.7890625000,20926.8125000000,99873.8125000000,148014.4218750000,,,
0.3319999995,2,159917.3125000000,144457.0625000000,170343.0625000000,162335.0312500000,128572.2187500000,20854.2578125000,99705.3906250000,148539.5781250000,,,
0.3359999994,2,159071.3281250000,144253.6718750000,169491.9531250000,161574.7656250000,127756.4765625000,20157.9023437500,98913.5234375000,149956.8593750000,,,
0.3399999994,2,158721.9375000000,144104.6718750000,169155.2500000000,161251.9843750000,127411.8671875000,19801.2500000000,98594.7734375000,150299.1875000000,,,
0.3439999996,2,159351.5625000000,144219.4687500000,169798.4531250000,161818.4687500000,128014.6093750000,20276.4296875000,99191.0781250000,149103.0781250000,,,
0.3479999995,2,160095.5312500000,144438.8750000000,170540.3906250000,162493.6406250000,128738.6718750000,20932.3906250000,99883.9218750000,148015.8750000000,,,
0.3519999995,2,159937.2500000000,144464.5156250000,170366.1093750000,162356.5781250000,128592.1484375000,20869.1718750000,99724.8906250000,148534.9687500000,,,
0.3559999994,2,159100.9062500000,144266.6250000000,169520.1718750000,161599.8125000000,127780.0546875000,20174.6933593750,98936.0859375000,149957.3906250000,,,
0.3599999994,2,158734.9218750000,144109.5000000000,169162.8906250000,161257.6718750000,127414.6562500000,19802.8046875000,98599.8671875000,150308.9531250000,,,
0.3639999994,2,159344.0000000000,144214.6406250000,169783.1093750000,161802.2500000000,127995.3281250000,20269.9921875000,99177.2656250000,149118.6718750000,,,
0.3679999996,2,160095.1562500000,144441.1093750000,170530.9375000000,162487.8125000000,128724.9687500000,20936.9511718750,99878.4531250000,148026.4687500000,,,
0.3719999995,2,159939.7187500000,144470.6406250000,170360.7500000000,162354.4218750000,128586.1406250000,20878.9609375000,99727.0625000000,148532.5781250000,,,
0.3759999995,2,159093.8281250000,144268.0781250000,169509.2500000000,161590.0468750000,127772.3828125000,20184.6171875000,98936.1875000000,149948.8125000000,,,
0.3799999994,2,158716.8906250000,144105.0000000000,169146.7968750000,161244.2656250000,127404.9218750000,19805.0312500000,98594.9296875000,150306.7500000000,,,
0.3839999994,3,159324.4218750000,144206.3906250000,169770.2031250000,161788.2968750000,127988.3515625000,20261.7050781250,99171.8515625000,149121.0781250000,,,
0.3879999993,3,160078.0625000000,144429.1718750000,170521.5468750000,162472.2656250000,128719.3906250000,20924.2363281250,99873.8125000000,148020.5156250000,,,
0.3919999993,3,159938.2187500000,144463.7500000000,170366.0000000000,162351.0468750000,128591.7734375000,20873.8378906250,99733.2109375000,148517.1562500000,,,
0.3959999993,3,159102.4687500000,144265.6562500000,169522.7187500000,161596.1093750000,127785.5781250000,20183.9199218750,98950.4609375000,149932.3593750000,,,
0.3999999992,3,158722.7656250000,144103.1718750000,169151.3593750000,161247.5312500000,127408.1093750000,19801.8945312500,98601.8515625000,150297.2812500000,,,
0.4039999992,3,159343.7812500000,144217.7812500000,169783.3750000000,161803.6406250000,127999.3203125000,20271.7089843750,99190.4062500000,149124.8906250000,,,
0.4079999994,3,160091.2031250000,144439.6250000000,170526.3750000000,162486.2656250000,128723.4140625000,20934.4824218750,99887.6484375000,148020.6562500000,,,
0.4119999993,3,159934.6250000000,144461.7812500000,170353.3125000000,162353.7343750000,128578.6015625000,20877.4863281250,99731.6250000000,148498.3437500000,,,
0.4159999993,3,159090.5781250000,144260.1718750000,169502.2968750000,161592.3281250000,127765.1406250000,20182.6875000000,98939.6796875000,149914.3750000000,,,
0.4199999992,3,158707.8906250000,144099.7187500000,169131.8437500000,161239.7812500000,127389.5468750000,19798.4863281250,98586.2187500000,150299.7968750000,,,
0.4239999992,3,159317.3593750000,144210.1875000000,169756.9218750000,161786.3593750000,127975.6406250000,20256.6894531250,99164.1796875000,149138.4062500000,,,
0.4279999994,3,160071.1718750000,144432.8437500000,170510.7656250000,162466.1406250000,128710.5078125000,20923.3261718750,99870.2187500000,148026.9531250000,,,
0.4319999993,3,159933.4062500000,144462.9687500000,170360.6093750000,162348.4218750000,128587.4218750000,20879.6054687500,99732.7500000000,148497.1406250000,,,
0.4359999993,3,159088.0937500000,144257.8906250000,169508.1250000000,161590.7968750000,127772.8671875000,20184.1093750000,98939.6796875000,149909.1875000000,,,
0.4399999992,3,158703.3593750000,144094.3437500000,169134.5781250000,161239.2812500000,127394.9921875000,19797.1464843750,98588.8437500000,150299.9843750000,,,
0.4439999992,3,159305.4843750000,144197.2343750000,169752.4687500000,161780.1093750000,127973.7656250000,20246.6835937500,99162.1406250000,149136.7187500000,,,
0.4479999992,3,160061.5937500000,144417.9531250000,170509.2031250000,162469.2343750000,128711.6953125000,20913.0527343750,99874.9609375000,148012.5156250000,,,
0.4519999993,3,159934.8125000000,144453.0937500000,170367.0781250000,162363.2031250000,128595.5546875000,20876.0644531250,99747.5078125000,148471.3906250000,,,
0.4559999993,3,159100.1093750000,144255.5468750000,169523.3281250000,161608.5312500000,127785.6562500000,20186.3886718750,98958.2890625000,149889.1093750000,,,
0.4599999993,3,158709.2500000000,144093.5468750000,169140.4531250000,161245.2500000000,127395.2656250000,19793.6601562500,98596.9140625000,150296.8281250000,,,
0.4639999992,3,159305.4843750000,144197.7968750000,169747.0000000000,161773.4687500000,127960.0312500000,20241.6679687500,99160.3125000000,149146.3750000000,,,
0.4679999992,3,160067.3906250000,144423.4843750000,170505.7187500000,162463.2500000000,128695.7890625000,20915.9765625000,99868.4453125000,148024.3750000000,,,
0.4719999994,3,159941.2968750000,144457.1250000000,170363.8593750000,162360.9218750000,128580.9843750000,20889.6367187500,99741.8984375000,148473.7343750000,,,
0.4759999993,3,159103.6718750000,144260.4531250000,169519.7656250000,161611.1875000000,127775.2500000000,20207.1210937500,98956.3046875000,149889.2656250000,,,
0.4799999993,3,158699.1093750000,144094.8125000000,169128.3750000000,161243.0625000000,127381.5546875000,19808.0097656250,98585.7578125000,150303.8750000000,,,
0.4839999992,3,159290.5468750000,144196.6718750000,169736.6250000000,161772.6093750000,127952.9218750000,20251.1093750000,99150.0937500000,149160.2187500000,,,
0.4879999992,3,160050.4062500000,144414.3437500000,170499.3593750000,162457.8281250000,128699.2421875000,20914.8769531250,99864.1015625000,148022.6093750000,,,
0.4919999992,3,159937.0000000000,144446.7968750000,170374.4531250000,162360.9218750000,128602.6562500000,20889.7968750000,99752.3828125000,148452.7187500000,,,
0.4959999993,3,159109.3906250000,144254.7968750000,169538.2968750000,161618.8281250000,127804.3828125000,20209.1074218750,98975.9687500000,149869.3593750000,,,
0.4999999993,3,158704.6875000000,144092.3437500000,169142.6250000000,161249.2500000000,127403.5546875000,19803.2617187500,98603.5703125000,150293.7187500000,,,
0.5039999993,3,159285.9843750000,144190.0312500000,169736.7031250000,161767.7031250000,127956.9140625000,20236.8144531250,99155.6718750000,149155.5937500000,,,
0.5079999992,3,160045.2343750000,144408.8437500000,170492.5156250000,162456.1718750000,128691.5781250000,20901.7343750000,99861.9531250000,148020.0312500000,,,
0.5119999992,4,159934.2187500000,144445.8593750000,170363.5312500000,162364.1406250000,128589.1718750000,20880.0878906250,99743.8046875000,148444.4375000000,,,
0.5159999991,4,159107.8593750000,144253.8593750000,169527.6250000000,161622.7187500000,127789.7109375000,20202.6953125000,98963.5234375000,149858.5000000000,,,
0.5199999991,4,158687.5781250000,144080.7500000000,169115.6562500000,161236.0781250000,127373.9921875000,19787.6503906250,98571.7812500000,150289.8281250000,,,
0.5239999990,4,159268.3125000000,144177.0468750000,169710.6875000000,161755.0156250000,127930.3125000000,20222.5976562500,99123.1640625000,149158.4375000000,,,
0.5279999990,4,160042.0468750000,144402.7187500000,170483.8593750000,162460.5312500000,128683.9609375000,20899.0507812500,99847.8984375000,148016.3281250000,,,
0.5319999990,4,159941.7812500000,144442.5468750000,170370.8750000000,162380.0156250000,128597.1640625000,20883.5214843750,99748.2031250000,148429.9218750000,,,
0.5359999991,4,159118.7968750000,144255.0468750000,169542.3437500000,161640.6875000000,127805.2656250000,20211.3593750000,98978.8359375000,149850.5625000000,,,
0.5399999991,4,158697.6406250000,144088.5312500000,169131.7031250000,161253.5625000000,127391.6953125000,19798.3808593750,98591.0468750000,150301.1093750000,,,
0.5439999991,4,159253.6093750000,144174.8437500000,169699.9531250000,161749.9062500000,127920.4921875000,20208.6503906250,99115.4687500000,149174.9843750000,,,
0.5479999990,4,160024.8437500000,144396.7187500000,170469.7500000000,162447.7656250000,128668.6406250000,20879.0156250000,99836.2890625000,148023.3281250000,,,
0.5519999990,4,159946.4687500000,144447.2812500000,170376.4687500000,162381.9218750000,128601.0468750000,20879.3378906250,99754.2656250000,148430.4062500000,,,
0.5559999992,4,159126.5781250000,144261.4843750000,169547.8125000000,161642.2500000000,127808.8593750000,20202.9101562500,98980.8515625000,149847.6093750000,,,
0.5599999991,4,158712.1562500000,144098.7187500000,169144.2031250000,161257.0781250000,127402.2109375000,19794.8671875000,98602.9218750000,150311.6562500000,,,
0.5639999991,4,159281.5781250000,144192.9218750000,169728.0312500000,161764.7500000000,127947.0234375000,20223.0273437500,99146.9609375000,149198.3750000000,,,
0.5679999990,4,160047.5156250000,144411.4062500000,170492.7031250000,162456.9375000000,128691.5468750000,20896.9062500000,99864.2343750000,148039.9375000000,,,
0.5719999990,4,159954.0937500000,144449.8281250000,170382.2500000000,162372.8593750000,128608.0781250000,20889.6640625000,99767.4296875000,148426.2187500000,,,
0.5759999990,4,159142.1562500000,144271.1875000000,169560.7187500000,161642.9531250000,127824.5468750000,20228.3105468750,99003.9140625000,149843.6875000000,,,
0.5799999991,4,158712.3593750000,144104.1875000000,169140.9531250000,161251.9375000000,127400.5468750000,19811.1210937500,98607.7812500000,150314.8750000000,,,
0.5839999991,4,159271.2500000000,144192.1406250000,169714.5781250000,161754.8437500000,127933.1015625000,20227.7753906250,99138.8593750000,149203.4218750000,,,
0.5879999991,4,160044.7812500000,144414.4687500000,170485.8125000000,162454.8281250000,128683.0156250000,20905.5683593750,99860.1328125000,148037.3906250000,,,
0.5919999990,4,159951.9218750000,144452.0468750000,170378.1562500000,162383.6093750000,128600.2187500000,20898.3808593750,99763.2734375000,148410.5937500000,,,
0.5959999990,4,159125.5312500000,144262.7343750000,169544.5156250000,161642.4687500000,127803.8671875000,20224.0742187500,98987.1015625000,149823.3593750000,,,
0.5999999992,4,158698.4375000000,144098.1875000000,169129.3437500000,161250.2187500000,127385.7968750000,19804.9511718750,98597.7187500000,150308.7812500000,,,
0.6039999991,4,159256.3437500000,144186.0312500000,169702.0781250000,161747.2500000000,127920.4140625000,20217.3417968750,99129.6562500000,149208.5468750000,,,
0.6079999991,4,160030.1093750000,144405.0625000000,170474.4375000000,162448.6250000000,128671.3515625000,20889.4492187500,99848.4375000000,148035.5312500000,,,
0.6119999990,4,159955.1718750000,144451.2968750000,170384.7031250000,162386.1875000000,128607.1406250000,20895.5644531250,99766.6562500000,148403.1250000000,,,
0.6159999990,4,159148.1093750000,144274.4531250000,169568.9218750000,161659.7343750000,127830.8281250000,20239.2285156250,99009.3046875000,149821.7812500000,,,
0.6199999989,4,158710.9375000000,144107.8437500000,169140.4687500000,161258.9843750000,127401.1406250000,19815.3320312500,98608.3984375000,150321.3125000000,,,
0.6239999991,4,159254.0156250000,144192.4687500000,169697.0625000000,161743.5000000000,127917.3046875000,20217.4218750000,99123.1953125000,149228.9375000000,,,
0.6279999991,4,160019.6250000000,144403.6406250000,170463.0937500000,162436.9531250000,128659.4453125000,20887.4902343750,99837.8984375000,148040.4687500000,,,
0.6319999991,4,159959.5312500000,144453.0937500000,170391.1406250000,162390.5781250000,128609.9296875000,20908.7343750000,99776.1796875000,148395.7343750000,,,
0.6359999990,4,159156.7031250000,144278.1562500000,169582.0468750000,161667.8906250000,127837.7734375000,20257.1445312500,99024.2500000000,149814.7500000000,,,
0.6399999990,5,158708.1562500000,144103.0156250000,169143.2343750000,161253.0625000000,127398.0546875000,19817.5839843750,98609.3906250000,150319.4843750000,,,
0.6439999989,5,159242.1875000000,144180.1875000000,169690.4375000000,161729.1718750000,127907.8046875000,20203.4472656250,99113.4062500000,149232.1250000000,,,
0.6479999989,5,160017.0156250000,144397.1718750000,170463.8281250000,162434.2500000000,128661.7734375000,20878.7207031250,99839.3203125000,148042.8906250000,,,
0.6519999988,5,159963.7968750000,144451.1406250000,170394.8125000000,162389.1093750000,128620.2812500000,20908.5996093750,99783.8515625000,148385.1562500000,,,
0.6559999988,5,159159.2812500000,144279.0468750000,169580.7031250000,161665.1562500000,127844.1562500000,20259.2109375000,99028.0000000000,149804.8750000000,,,
0.6599999988,5,158709.2187500000,144112.3750000000,169140.0156250000,161253.9218750000,127403.3125000000,19827.4277343750,98616.7421875000,150329.2031250000,,,
0.6639999989,5,159238.9687500000,144190.8281250000,169682.9687500000,161725.1562500000,127909.6562500000,20217.3671875000,99121.2656250000,149249.6406250000,,,
0.6679999989,5,160000.8437500000,144395.7500000000,170441.4843750000,162412.8281250000,128647.8515625000,20879.4980468750,99828.3437500000,148048.4062500000,,,
0.6719999989,5,159948.3593750000,144445.3437500000,170373.5156250000,162370.0937500000,128604.4296875000,20905.5957031250,99770.3828125000,148374.6718750000,,,
0.6759999988,5,159156.1406250000,144277.0156250000,169571.9062500000,161657.9375000000,127838.8984375000,20262.6972656250,99025.7734375000,149791.9531250000,,,
0.6799999988,5,158713.7812500000,144116.2031250000,169139.0000000000,161256.8437500000,127402.5625000000,19836.8964843750,98620.5468750000,150329.5156250000,,,
0.6839999990,5,159240.0312500000,144193.8125000000,169679.4062500000,161726.2343750000,127903.6484375000,20223.2949218750,99120.2734375000,149262.3437500000,,,
0.6879999989,5,160000.9218750000,144395.4218750000,170441.1562500000,162414.9375000000,128641.7656250000,20884.7812500000,99827.6484375000,148054.1562500000,,,
0.6919999989,5,159953.0937500000,144444.9218750000,170381.2031250000,162378.7812500000,128605.4765625000,20914.0449218750,99775.2890625000,148368.6093750000,,,
0.6959999988,5,159161.9843750000,144277.6250000000,169583.2187500000,161666.5156250000,127846.3828125000,20270.0742187500,99032.0000000000,149784.9843750000,,,
0.6999999988,5,158706.9531250000,144108.6718750000,169139.1562500000,161251.5312500000,127402.9375000000,19829.1718750000,98614.9453125000,150331.5625000000,,,
0.7039999987,5,159223.1406250000,144176.5625000000,169669.8281250000,161709.4375000000,127894.4765625000,20202.1875000000,99106.6406250000,149267.4531250000,,,
0.7079999989,5,160005.7187500000,144388.9062500000,170451.2968750000,162415.9062500000,128653.0078125000,20877.7285156250,99836.0703125000,148054.7968750000,,,
0.7119999989,5,159962.6562500000,144438.4843750000,170394.4843750000,162385.0312500000,128619.4765625000,20911.9804687500,99787.3359375000,148353.5156250000,,,
0.7159999989,5,159162.3593750000,144266.6093750000,169588.1093750000,161673.8750000000,127849.5468750000,20267.6855468750,99037.7421875000,149768.5312500000,,,
0.7199999988,5,158693.3437500000,144094.8281250000,169131.3750000000,161248.9062500000,127392.0468750000,19818.7656250000,98607.9687500000,150326.7656250000,,,
0.7239999988,5,159199.0000000000,144161.4843750000,169652.0000000000,161697.3437500000,127873.8515625000,20185.8789062500,99089.5625000000,149267.0468750000,,,
0.7279999990,5,159977.0000000000,144371.1875000000,170428.8125000000,162401.4687500000,128626.9609375000,20861.5800781250,99814.2656250000,148046.3125000000,,,
0.7319999989,5,159938.3281250000,144422.1093750000,170375.3125000000,162370.6562500000,128599.8437500000,20902.0820312500,99769.2343750000,148336.6718750000,,,
0.7359999989,5,159151.2500000000,144258.4687500000,169580.3593750000,161658.6093750000,127844.8046875000,20267.1230468750,99030.4687500000,149751.2968750000,,,
0.7399999988,5,158696.3281250000,144099.9218750000,169135.5156250000,161241.6093750000,127400.2265625000,19831.1289062500,98612.4765625000,150328.8750000000,,,
0.7439999988,5,159206.3125000000,144171.7812500000,169659.1250000000,161699.3750000000,127884.3125000000,20197.2773437500,99095.0546875000,149284.2343750000,,,
0.7479999987,5,159986.4687500000,144381.2343750000,170437.7500000000,162403.4531250000,128639.7031250000,20869.6269531250,99821.2656250000,148056.3750000000,,,
0.7519999989,5,159962.3750000000,144441.1093750000,170396.1718750000,162382.9218750000,128623.0468750000,20920.4550781250,99787.0703125000,148337.8125000000,,,
0.7559999989,5,159172.6875000000,144278.7031250000,169595.3750000000,161670.8437500000,127861.0859375000,20284.6367187500,99043.4765625000,149754.9375000000,,,
0.7599999988,5,158698.5781250000,144112.9843750000,169130.3593750000,161238.5000000000,127398.0781250000,19832.3359375000,98609.4687500000,150342.0937500000,,,
0.7639999988,5,159207.1718750000,144185.2500000000,169651.2187500000,161692.3281250000,127879.9921875000,20200.9531250000,99093.6875000000,149305.0312500000,,,
0.7679999988,6,159992.9531250000,144394.1093750000,170434.6875000000,162402.7968750000,128637.4765625000,20880.3554687500,99822.4687500000,148071.1250000000,,,
0.7719999987,6,159985.8750000000,144458.8125000000,170412.6406250000,162402.7031250000,128637.4453125000,20944.9433593750,99806.1953125000,148342.6406250000,,,
0.7759999987,6,159205.2187500000,144301.3593750000,169620.3750000000,161701.5000000000,127884.8984375000,20318.5136718750,99072.5781250000,149762.0937500000,,,
0.7799999986,6,158719.5468750000,144129.2187500000,169141.3593750000,161254.4218750000,127407.8671875000,19853.8203125000,98621.6718750000,150356.2968750000,,,
0.7839999986,6,159210.5312500000,144189.6718750000,169646.9062500000,161688.6718750000,127874.4921875000,20200.7382812500,99087.0078125000,149320.0468750000,,,
0.7879999985,6,159996.4531250000,144398.0781250000,170434.5781250000,162402.9531250000,128636.3984375000,20876.1992187500,99819.2031250000,148081.3750000000,,,
0.7919999987,6,159985.9531250000,144456.8281250000,170413.6562500000,162402.7968750000,128635.3046875000,20940.4921875000,99800.5859375000,148333.1250000000,,,
0.7959999987,6,159196.5781250000,144291.6875000000,169616.9062500000,161696.8125000000,127874.7109375000,20318.1113281250,99060.2187500000,149742.3906250000,,,
0.7999999986,6,158709.5156250000,144117.2500000000,169139.6718750000,161254.1093750000,127396.2031250000,19856.8261718750,98611.5859375000,150346.3125000000,,,
0.8039999986,6,159200.4531250000,144181.0156250000,169645.1562500000,161694.1250000000,127864.1171875000,20204.7070312500,99080.5703125000,149322.1875000000,,,
0.8079999986,6,159990.4062500000,144393.6875000000,170435.2812500000,162410.8437500000,128632.0312500000,20888.0820312500,99823.9218750000,148079.0468750000,,,
0.8119999988,6,159988.7187500000,144455.5312500000,170420.9531250000,162418.3125000000,128641.6328125000,20962.3789062500,99821.2656250000,148324.5156250000,,,
0.8159999987,6,159202.4843750000,144288.4843750000,169625.8125000000,161710.5156250000,127886.4062500000,20332.9980468750,99085.1328125000,149731.8906250000,,,
0.8199999987,6,158723.4375000000,144124.5781250000,169155.7031250000,161268.0468750000,127418.5156250000,19877.3164062500,98642.0312500000,150355.9687500000,,,
0.8239999986,6,159205.5937500000,144188.6093750000,169652.2343750000,161695.8437500000,127877.7656250000,20222.7851562500,99100.2343750000,149345.7968750000,,,
0.8279999986,6,159989.0468750000,144393.7656250000,170434.3437500000,162402.4687500000,128635.6484375000,20897.3339843750,99832.3984375000,148094.1406250000,,,
0.8319999985,6,159990.5781250000,144456.1875000000,170419.3437500000,162410.0625000000,128643.3515625000,20969.7812500000,99823.0078125000,148324.7343750000,,,
0.8359999987,6,159211.6875000000,144297.1562500000,169630.2656250000,161708.2812500000,127892.7031250000,20345.5234375000,99090.6328125000,149732.1718750000,,,
0.8399999987,6,158721.3750000000,144127.2343750000,169150.0000000000,161258.0000000000,127412.8046875000,19878.2285156250,98638.7031250000,150358.8906250000,,,
0.8439999986,6,159188.0312500000,144180.8437500000,169632.0156250000,161676.5468750000,127856.8203125000,20210.6621093750,99080.8437500000,149347.5156250000,,,
0.8479999986,6,159978.4531250000,144388.7968750000,170423.4062500000,162395.4687500000,128623.1015625000,20893.9824218750,99819.4453125000,148089.8281250000,,,
0.8519999986,6,159996.0937500000,144457.3125000000,170426.2656250000,162420.3281250000,128649.3593750000,20978.2832031250,99828.1562500000,148308.5312500000,,,
0.8559999987,6,159217.4843750000,144295.1093750000,169637.8906250000,161719.2031250000,127901.4218750000,20350.1640625000,99096.3984375000,149712.7968750000,,,
0.8599999987,6,158701.9062500000,144110.7968750000,169131.4843750000,161247.9375000000,127397.6484375000,19860.7949218750,98619.9843750000,150346.7656250000,,,
0.8639999987,6,159162.9218750000,144160.6562500000,169607.9531250000,161658.6093750000,127836.0000000000,20186.5488281250,99059.0859375000,149347.0625000000,,,
0.8679999986,6,159957.8281250000,144365.5468750000,170403.6875000000,162378.4062500000,128605.2109375000,20872.5781250000,99800.0234375000,148083.4062500000,,,
0.8719999986,6,159975.6875000000,144430.6406250000,170405.6718750000,162403.3750000000,128629.3203125000,20959.5351562500,99806.8359375000,148291.7343750000,,,
0.8759999985,6,159211.7968750000,144280.7031250000,169631.8750000000,161713.2500000000,127893.3203125000,20346.6777343750,99089.3984375000,149703.2031250000,,,
0.8799999987,6,158709.7656250000,144110.3125000000,169138.5468750000,161254.2343750000,127401.6718750000,19870.5312500000,98625.8593750000,150356.5625000000,,,
0.8839999987,6,159170.3750000000,144164.6718750000,169614.4218750000,161665.6406250000,127839.8359375000,20193.5234375000,99065.0468750000,149365.0312500000,,,
0.8879999986,6,159969.8906250000,144378.5625000000,170415.5468750000,162390.8593750000,128614.8359375000,20884.0039062500,99812.2812500000,148099.1562500000,,,
0.8919999986,6,159995.9062500000,144449.2031250000,170430.4062500000,162424.4375000000,128649.5156250000,20979.5449218750,99830.7343750000,148293.3281250000,,,
0.8959999986,7,159220.2656250000,144287.7343750000,169649.0781250000,161730.9531250000,127906.3828125000,20356.8691406250,99105.5703125000,149690.3281250000,,,
0.8999999985,7,158710.7343750000,144112.9843750000,169150.1562500000,161265.7187500000,127411.3046875000,19877.0761718750,98635.7031250000,150349.9062500000,,,
0.9039999985,7,159165.2500000000,144166.0468750000,169618.5156250000,161666.5781250000,127845.5781250000,20198.6191406250,99070.6484375000,149372.7187500000,,,
0.9079999984,7,159968.9218750000,144379.4218750000,170423.4062500000,162390.2968750000,128626.4531250000,20888.4843750000,99827.7578125000,148104.3125000000,,,
0.9119999984,7,159999.4687500000,144451.0312500000,170439.8906250000,162424.0937500000,128664.9375000000,20985.3652343750,99850.1015625000,148290.0781250000,,,
0.9159999983,7,159222.3906250000,144292.8281250000,169652.7812500000,161724.7343750000,127916.6562500000,20362.2343750000,99119.4921875000,149689.6875000000,,,
0.9199999985,7,158708.0156250000,144118.0000000000,169146.2343750000,161255.1250000000,127413.2109375000,19874.3125000000,98642.0859375000,150359.1093750000,,,
0.9239999985,7,159155.2968750000,144164.7031250000,169605.8437500000,161652.7343750000,127835.5234375000,20183.0898437500,99064.8281250000,149384.6250000000,,,
0.9279999984,7,159951.0312500000,144368.4218750000,170399.8281250000,162369.6406250000,128603.8437500000,20864.0488281250,99807.6640625000,148102.4843750000,,,
0.9319999984,7,159996.7656250000,144444.1406250000,170429.4062500000,162414.8593750000,128654.3437500000,20971.8730468750,99839.8515625000,148275.9687500000,,,
0.9359999984,7,159229.3906250000,144290.0937500000,169651.5468750000,161722.9843750000,127915.4531250000,20362.1269531250,99115.8984375000,149677.0468750000,,,
0.9399999985,7,158710.6406250000,144114.2031250000,169144.0625000000,161250.4843750000,127411.0078125000,19876.8886718750,98640.7734375000,150360.1562500000,,,
0.9439999985,7,159159.0937500000,144162.0781250000,169609.2656250000,161649.8125000000,127839.8125000000,20194.1933593750,99072.5781250000,149392.1718750000,33029,0.9470004684,0.0000000000
0.9479999985,7,159955.7500000000,144364.2656250000,170404.8593750000,162367.4687500000,128609.6875000000,20877.6738281250,99813.3828125000,148101.7031250000,,,
0.9519999984,7,160002.3125000000,144437.2187500000,170434.1562500000,162412.6562500000,128658.8750000000,20984.1035156250,99839.9062500000,148262.6406250000,,,
0.9559999984,7,159244.2500000000,144290.3593750000,169664.7656250000,161729.2812500000,127928.0000000000,20378.3808593750,99123.0312500000,149664.3593750000,,,
0.9599999983,7,158722.0000000000,144119.3750000000,169153.0781250000,161249.7343750000,127420.4453125000,19887.6445312500,98643.4296875000,150365.4843750000,,,
0.9639999985,7,159170.8593750000,144174.5000000000,169619.3750000000,161650.9062500000,127849.0390625000,20200.0410156250,99074.2187500000,149417.2812500000,,,
0.9679999985,7,159978.6093750000,144387.8437500000,170429.0937500000,162380.8437500000,128631.4687500000,20891.0859375000,99829.3906250000,148130.7812500000,,,
0.9719999984,7,160036.3906250000,144468.0625000000,170473.0781250000,162440.7968750000,128694.4453125000,21009.9062500000,99876.7890625000,148279.7500000000,,,
0.9759999984,7,159266.9375000000,144314.8281250000,169694.1562500000,161752.8593750000,127953.1875000000,20398.0683593750,99156.0781250000,149673.2968750000,,,
0.9799999984,7,158736.6093750000,144140.0312500000,169172.9843750000,161271.5625000000,127436.0078125000,19906.0429687500,98668.3437500000,150378.1718750000,,,
0.9839999985,7,159170.7031250000,144187.0937500000,169622.0156250000,161663.1718750000,127849.8203125000,20212.2187500000,99083.5468750000,149432.2656250000,,,
0.9879999985,7,159959.5156250000,144384.7812500000,170411.3593750000,162378.8593750000,128612.4531250000,20889.3691406250,99818.6875000000,148127.9062500000,,,
0.9919999985,7,160011.8906250000,144456.5312500000,170448.8750000000,162434.5937500000,128670.0390625000,21002.3164062500,99857.9609375000,148257.1718750000,,,
0.9959999984,7,159263.2968750000,144314.1093750000,169689.4687500000,161760.1562500000,127949.6796875000,20405.4980468750,99155.3515625000,149650.2187500000,,,
0.9999999984,7,158726.5781250000,144138.9531250000,169160.9843750000,161268.8593750000,127426.1875000000,19902.7714843750,98659.8671875000,150369.4531250000,,,
1.0039999983,7,159144.8906250000,144179.5312500000,169595.1875000000,161642.3593750000,127826.0000000000,20192.5566406250,99061.5859375000,149433.6406250000,,,
1.0079999985,7,159941.0625000000,144378.7500000000,170394.0312500000,162362.5000000000,128598.5859375000,20873.4628906250,99808.3125000000,148128.3906250000,,,
1.0119999985,7,160016.4843750000,144462.0312500000,170456.4687500000,162434.5937500000,128680.8203125000,21007.1718750000,99870.4843750000,148253.0625000000,,,
1.0159999984,7,159266.6093750000,144316.8593750000,169695.0156250000,161761.1250000000,127959.3281250000,20413.0351562500,99160.1562500000,149645.6093750000,,,
1.0199999984,7,158726.9843750000,144139.0312500000,169161.2812500000,161266.2031250000,127430.1328125000,19911.3281250000,98660.3750000000,150376.5625000000,,,
1.0239999983,8,159152.8125000000,144182.9687500000,169598.8906250000,161638.0312500000,127831.0390625000,20201.8906250000,99063.4062500000,149451.5312500000,,,
1.0279999983,8,159940.1406250000,144374.0781250000,170383.7812500000,162345.6562500000,128589.4609375000,20869.6015625000,99793.7734375000,148137.0781250000,,,
1.0319999983,8,160013.6093750000,144448.3437500000,170442.4218750000,162415.9062500000,128667.1640625000,20997.3535156250,99853.9375000000,148241.5000000000,,,
1.0359999982,8,159275.2500000000,144308.9218750000,169696.1406250000,161760.5937500000,127958.2343750000,20411.4257812500,99161.2031250000,149631.8281250000,,,
1.0399999982,8,158729.2343750000,144130.0312500000,169158.9843750000,161259.3593750000,127423.7500000000,19900.4375000000,98656.7031250000,150370.7968750000,,,
1.0439999981,8,159140.1250000000,144166.5781250000,169587.5937500000,161620.1718750000,127816.7734375000,20180.1386718750,99052.5468750000,149450.6406250000,,,
1.0479999983,8,159951.2968750000,144370.4843750000,170402.5000000000,162356.2187500000,128603.9218750000,20871.0488281250,99812.5234375000,148137.4531250000,,,
1.0519999983,8,160043.2187500000,144457.0312500000,170481.3906250000,162448.1250000000,128701.5781250000,21018.4628906250,99891.1406250000,148237.7500000000,,,
1.0559999982,8,159304.7343750000,144318.0468750000,169732.7343750000,161783.9843750000,127991.4375000000,20430.3359375000,99196.7968750000,149626.5468750000,,,
1.0599999982,8,158756.9218750000,144143.2968750000,169192.2343750000,161280.9218750000,127455.5625000000,19920.0175781250,98687.2265625000,150382.1718750000,,,
1.0639999982,8,159153.4062500000,144177.4218750000,169604.4687500000,161635.5468750000,127833.3203125000,20192.6386718750,99067.6953125000,149471.1093750000,,,
1.0679999983,8,159949.2968750000,144374.8281250000,170402.1562500000,162357.1718750000,128605.1796875000,20874.5898437500,99813.2734375000,148143.9531250000,,,
1.0719999983,8,160043.8437500000,144461.9531250000,170483.0781250000,162451.0156250000,128705.2265625000,21025.4101562500,99895.6406250000,148229.4375000000,,,
1.0759999983,8,159308.3281250000,144328.4843750000,169737.5937500000,161793.2812500000,128000.5859375000,20446.2675781250,99205.7500000000,149618.8125000000,,,
1.0799999982,8,158743.7500000000,144147.3281250000,169180.5781250000,161276.5000000000,127449.9765625000,19923.8007812500,98684.0625000000,150381.1875000000,,,
1.0839999982,8,159137.6093750000,144179.2343750000,169587.6718750000,161624.2500000000,127821.9765625000,20189.2324218750,99061.5546875000,149479.2812500000,,,
1.0879999981,8,159940.8750000000,144381.5312500000,170390.0625000000,162352.4687500000,128598.4765625000,20876.3593750000,99811.1250000000,148158.0312500000,,,
1.0919999983,8,160032.7656250000,144465.8906250000,170466.9531250000,162443.0000000000,128694.7109375000,21025.2753906250,99887.5390625000,148229.3281250000,,,
1.0959999983,8,159298.1562500000,144328.9062500000,169721.2031250000,161785.2031250000,127987.5781250000,20442.7539062500,99194.4062500000,149611.3906250000,,,
1.0999999982,8,158743.6406250000,144153.0312500000,169173.7031250000,161279.5625000000,127445.2890625000,19929.5937500000,98679.1015625000,150390.0000000000,,,
1.1039999982,8,159134.0937500000,144183.5937500000,169578.5312500000,161620.9218750000,127814.9218750000,20195.5605468750,99049.8359375000,149499.6250000000,,,
1.1079999981,8,159936.6562500000,144380.4687500000,170383.9687500000,162343.4375000000,128591.3437500000,20876.2265625000,99799.9921875000,148167.0781250000,,,
1.1119999983,8,160040.6250000000,144467.6093750000,170475.4062500000,162443.6093750000,128701.6875000000,21032.3847656250,99890.4140625000,148226.3437500000,,,
1.1159999983,8,159312.7968750000,144334.5625000000,169736.4531250000,161788.5625000000,128002.8359375000,20458.4980468750,99207.0390625000,149607.5781250000,,,
1.1199999982,8,158750.9375000000,144157.9687500000,169181.8593750000,161276.9062500000,127455.4218750000,19940.8320312500,98689.4765625000,150394.1093750000,,,
1.1239999982,8,159130.6250000000,144183.2343750000,169577.7031250000,161617.2500000000,127816.3437500000,20197.2519531250,99055.8984375000,149510.7187500000,,,
1.1279999982,8,159930.5937500000,144373.8906250000,170380.2500000000,162342.8437500000,128590.3515625000,20876.8164062500,99805.6562500000,148170.9843750000,,,
1.1319999981,8,160048.8750000000,144460.9531250000,170483.0468750000,162454.6406250000,128709.3593750000,21043.7832031250,99906.1562500000,148215.0000000000,,,
1.1359999983,8,159319.3437500000,144321.4218750000,169743.4375000000,161796.8750000000,128006.0312500000,20465.9277343750,99218.4921875000,149588.9375000000,,,
1.1399999983,8,158748.4062500000,144139.4375000000,169181.7031250000,161275.6406250000,127449.7656250000,19937.8808593750,98691.1171875000,150382.7343750000,,,
1.1439999982,8,159126.7343750000,144166.3125000000,169575.9062500000,161611.6406250000,127809.2656250000,20188.7753906250,99054.2890625000,149507.3125000000,,,
1.1479999982,8,159924.4218750000,144359.2968750000,170375.7968750000,162330.6093750000,128581.6562500000,20866.9453125000,99798.1718750000,148162.5312500000,,,
1.1519999981,9,160039.5156250000,144449.1562500000,170477.7187500000,162443.5625000000,128703.3750000000,21035.6562500000,99897.9218750000,148197.6718750000,,,
1.1559999981,9,159306.3125000000,144318.6406250000,169732.6718750000,161787.0937500000,127999.1640625000,20457.3710937500,99208.9687500000,149590.4843750000,,,
1.1599999981,9,158721.6406250000,144141.0000000000,169151.4687500000,161256.3125000000,127425.0078125000,19919.2675781250,98665.6093750000,150419.2968750000,,,
1.1639999980,9,159093.3125000000,144162.8750000000,169536.5781250000,161586.5156250000,127773.2968750000,20165.0117187500,99017.1406250000,149536.2031250000,,,
1.1679999980,9,159914.6093750000,144357.0156250000,170362.8906250000,162328.5937500000,128568.0312500000,20861.1777343750,99785.0312500000,148147.4843750000,,,
1.1719999979,9,160052.9375000000,144454.7656250000,170489.2968750000,162461.4531250000,128712.4453125000,21047.5917968750,99906.6406250000,148163.3437500000,,,
1.1759999981,9,159316.8281250000,144326.0156250000,169742.7031250000,161802.3437500000,128008.1484375000,20469.3339843750,99215.4921875000,149572.6875000000,,,
1.1799999981,9,158725.0781250000,144146.7812500000,169157.3125000000,161262.1562500000,127432.9218750000,19924.0410156250,98669.2031250000,150421.4687500000,,,
1.1839999980,9,159102.2812500000,144176.9687500000,169548.3593750000,161594.0781250000,127789.2031250000,20173.0039062500,99031.7578125000,149554.4687500000,,,
1.1879999980,9,159933.4687500000,144379.6093750000,170381.5312500000,162345.0156250000,128593.4296875000,20872.7656250000,99810.5390625000,148168.9531250000,,,
1.1919999979,9,160076.8906250000,144477.7656250000,170511.9062500000,162477.7031250000,128740.3671875000,21055.9882812500,99937.0859375000,148175.3281250000,,,
1.1959999981,9,159336.0781250000,144344.7656250000,169758.0312500000,161815.1406250000,128026.5234375000,20475.8789062500,99238.5312500000,149575.6093750000,,,
1.1999999981,9,158712.5468750000,144147.4843750000,169140.7656250000,161255.3437500000,127417.0156250000,19919.0253906250,98661.5312500000,150423.8593750000,,,
1.2039999980,9,159061.6718750000,144155.9531250000,169504.5312500000,161565.4843750000,127743.3906250000,20146.6640625000,98994.1562500000,149550.8437500000,,,
1.2079999980,9,159904.2343750000,144361.0156250000,170350.1250000000,162324.0937500000,128556.0937500000,20851.8984375000,99779.5312500000,148155.2968750000,,,
1.2119999980,9,160056.9843750000,144462.1875000000,170489.4062500000,162466.5468750000,128712.2031250000,21047.9414062500,99913.1328125000,148149.3437500000,,,
1.2159999979,9,159329.6250000000,144333.3906250000,169753.2500000000,161811.5781250000,128016.9218750000,20474.9394531250,99230.1093750000,149552.2500000000,,,
1.2199999981,9,158726.9218750000,144148.4531250000,169160.0000000000,161261.7031250000,127430.7734375000,19919.4003906250,98673.0937500000,150422.5625000000,,,
1.2239999981,9,159090.3906250000,144169.5625000000,169539.7500000000,161578.7812500000,127774.9843750000,20154.0683593750,99022.2343750000,149573.2500000000,,,
1.2279999980,9,159920.7500000000,144367.2343750000,170373.9687500000,162327.5468750000,128578.8984375000,20856.4843750000,99797.5312500000,148176.4843750000,,,
1.2319999980,9,160077.8281250000,144467.1718750000,170519.6093750000,162479.6406250000,128740.2265625000,21060.5195312500,99940.8125000000,148154.1093750000,,,
1.2359999979,9,159343.8437500000,144330.8906250000,169774.6875000000,161825.0156250000,128036.0937500000,20487.8691406250,99252.3125000000,149541.9375000000,,,
1.2399999981,9,158725.0312500000,144139.0156250000,169162.4375000000,161267.2500000000,127434.1562500000,19927.0449218750,98680.4687500000,150413.2812500000,,,
1.2439999981,9,159071.7500000000,144153.9531250000,169524.9687500000,161579.5937500000,127763.4765625000,20149.5078125000,99012.2812500000,149571.0156250000,,,
1.2479999980,9,159897.1250000000,144348.8906250000,170352.6093750000,162320.5468750000,128562.6406250000,20846.4531250000,99782.6171875000,148168.7031250000,,,
1.2519999980,9,160057.1093750000,144450.2812500000,170498.5000000000,162469.4687500000,128725.5859375000,21048.2089843750,99924.7187500000,148136.5000000000,,,
1.2559999980,9,159347.1406250000,144335.9375000000,169775.0000000000,161828.0937500000,128044.2734375000,20492.2402343750,99258.2734375000,149533.0625000000,,,
1.2599999979,9,158733.2343750000,144154.8593750000,169164.0781250000,161269.6406250000,127443.6796875000,19935.2792968750,98687.7343750000,150424.6093750000,,,
1.2639999981,9,159069.9843750000,144168.0312500000,169515.4218750000,161567.2031250000,127758.5703125000,20152.6191406250,99009.2265625000,149594.3281250000,,,
1.2679999981,9,159902.2656250000,144365.4375000000,170351.2187500000,162320.6875000000,128562.2109375000,20853.2128906250,99787.4453125000,148188.4218750000,,,
1.2719999980,9,160069.3437500000,144469.2500000000,170505.1875000000,162476.2031250000,128731.8593750000,21064.6777343750,99935.4765625000,148144.0312500000,,,
1.2759999980,9,159337.7968750000,144338.9062500000,169761.6406250000,161820.3281250000,128029.5546875000,20494.3867187500,99246.3046875000,149528.3125000000,,,
1.2799999979,10,158713.5156250000,144150.9218750000,169143.5625000000,161253.2500000000,127421.4687500000,19931.0156250000,98670.6796875000,150421.7343750000,,,
1.2839999979,10,159055.5000000000,144168.7812500000,169500.9062500000,161553.3906250000,127744.0546875000,20152.8867187500,98999.8906250000,149603.7656250000,,,
1.2879999978,10,159897.3437500000,144370.2656250000,170345.8593750000,162310.6562500000,128559.0468750000,20861.5000000000,99788.2500000000,148199.1250000000,,,
1.2919999978,10,160076.6718750000,144474.0156250000,170512.2812500000,162479.3906250000,128742.0234375000,21078.4648437500,99949.3437500000,148142.2656250000,,,
1.2959999978,10,159354.7343750000,144344.1406250000,169779.5156250000,161833.1406250000,128050.3906250000,20513.0820312500,99271.1953125000,149520.7500000000,,,
1.2999999977,10,158728.5312500000,144155.4218750000,169163.0781250000,161265.0468750000,127442.6328125000,19943.7832031250,98692.9375000000,150425.1718750000,,,
1.3039999979,10,159064.6406250000,144168.7031250000,169516.9531250000,161560.8125000000,127759.5625000000,20156.9375000000,99013.7890625000,149613.7187500000,,,
1.3079999979,10,159897.8750000000,144364.3906250000,170354.1718750000,162311.5156250000,128564.0625000000,20857.2890625000,99791.9765625000,148200.3593750000,,,
1.3119999978,10,160068.4375000000,144460.0625000000,170510.1718750000,162470.8906250000,128733.8750000000,21065.4824218750,99939.6015625000,148122.8906250000,,,
1.3159999978,10,159362.7968750000,144341.0312500000,169793.4843750000,161840.2968750000,128056.4531250000,20514.3691406250,99274.0937500000,149499.7812500000,,,
1.3199999977,10,158740.6093750000,144157.2187500000,169179.4687500000,161275.4531250000,127451.6406250000,19949.5488281250,98698.3593750000,150419.1093750000,,,
1.3239999979,10,159066.7187500000,144166.3906250000,169522.0156250000,161561.7500000000,127758.7578125000,20154.3359375000,99009.8984375000,149621.7968750000,,,
1.3279999979,10,159902.5937500000,144361.4375000000,170360.6875000000,162315.5625000000,128566.4531250000,20857.9863281250,99791.0937500000,148207.2500000000,,,
1.3319999978,10,160086.2656250000,144463.2343750000,170527.8437500000,162488.0781250000,128751.0390625000,21082.6484375000,99951.7031250000,148122.5781250000,,,
1.3359999978,10,159374.0937500000,144339.4531250000,169801.1250000000,161848.7500000000,128066.8906250000,20528.2636718750,99278.8437500000,149493.4531250000,,,
1.3399999978,10,158742.8906250000,144154.8906250000,169174.7187500000,161273.7187500000,127451.1640625000,19957.4609375000,98693.9296875000,150422.0781250000,,,
1.3439999977,10,159055.6875000000,144164.8906250000,169501.6562500000,161553.1250000000,127744.7265625000,20153.2089843750,98996.1640625000,149634.9062500000,,,
1.3479999979,10,159890.2812500000,144362.6250000000,170337.0312500000,162301.4843750000,128548.8828125000,20852.8632812500,99775.1875000000,148218.1875000000,,,
1.3519999979,10,160090.9062500000,144475.3593750000,170525.1406250000,162486.5312500000,128751.9765625000,21091.3925781250,99958.6718750000,148125.1250000000,,,
1.3559999978,10,159391.4531250000,144360.0156250000,169813.4687500000,161860.4531250000,128083.4375000000,20549.6132812500,99302.5781250000,149495.2968750000,,,
1.3599999978,10,158746.7812500000,144168.8593750000,169174.1875000000,161277.2343750000,127456.5546875000,19966.4746093750,98704.1796875000,150427.9062500000,,,
1.3639999977,10,159050.3437500000,144170.4218750000,169495.1406250000,161545.5000000000,127744.1953125000,20153.6914062500,99000.5390625000,149647.0000000000,,,
1.3679999979,10,159884.5468750000,144361.5000000000,170334.4843750000,162299.8125000000,128551.6718750000,20857.6113281250,99782.8281250000,148222.9218750000,,,
1.3719999979,10,160078.9843750000,144464.0312500000,170516.3125000000,162485.2656250000,128747.7109375000,21086.7246093750,99953.8984375000,148111.8906250000,,,
1.3759999978,10,159374.5781250000,144342.8906250000,169799.3281250000,161858.3281250000,128068.5546875000,20534.6992187500,99285.6796875000,149470.4687500000,,,
1.3799999978,10,158733.2343750000,144157.3281250000,169162.9531250000,161273.9531250000,127440.6484375000,19953.1699218750,98688.6484375000,150419.2656250000,,,
1.3839999977,10,159046.4531250000,144171.2031250000,169491.2812500000,161548.8750000000,127733.7343750000,20147.2812500000,98990.2343750000,149662.2187500000,,,
1.3879999977,10,159894.9218750000,144373.7812500000,170341.9375000000,162313.0625000000,128553.2812500000,20857.3437500000,99782.8828125000,148245.7343750000,,,
1.3919999979,10,160103.7343750000,144481.7968750000,170537.2812500000,162499.1093750000,128764.1562500000,21099.5996093750,99969.3750000000,148124.7187500000,,,
1.3959999979,10,159412.7500000000,144366.0000000000,169834.8750000000,161878.7656250000,128101.1953125000,20563.2382812500,99316.8203125000,149481.6406250000,,,
1.3999999978,10,158766.5156250000,144176.6093750000,169194.5781250000,161292.5468750000,127470.3671875000,19979.8046875000,98714.5859375000,150434.6875000000,,,
1.4039999978,10,159053.9687500000,144172.5937500000,169497.0781250000,161549.2343750000,127738.4531250000,20151.5468750000,98988.3359375000,149675.9218750000,,,
1.4079999977,11,159886.4531250000,144360.2031250000,170333.4687500000,162298.3437500000,128541.9375000000,20846.7753906250,99767.8125000000,148243.6250000000,,,
1.4119999977,11,160103.0937500000,144470.6093750000,170537.3750000000,162496.0468750000,128759.3515625000,21095.6835937500,99966.2421875000,148105.2656250000,,,
1.4159999976,11,159406.1406250000,144350.9062500000,169826.7968750000,161870.0000000000,128090.3281250000,20557.7675781250,99311.3515625000,149451.6093750000,,,
1.4199999976,11,158757.0781250000,144164.7656250000,169183.5000000000,161282.7500000000,127459.2343750000,19973.5546875000,98711.1015625000,150419.7187500000,,,
1.4239999976,11,159050.2187500000,144171.9218750000,169492.5156250000,161535.7343750000,127736.8671875000,20150.2851562500,98993.9921875000,149683.4843750000,,,
1.4279999975,11,159878.0000000000,144362.4687500000,170325.1562500000,162278.2031250000,128539.0625000000,20848.8945312500,99769.0156250000,148257.8906250000,,,
1.4319999977,11,160100.0000000000,144478.2500000000,170535.1093750000,162483.3125000000,128765.2812500000,21107.2714843750,99972.3515625000,148112.2656250000,,,
1.4359999977,11,159412.6562500000,144366.2500000000,169836.0000000000,161871.6250000000,128108.4062500000,20576.5156250000,99325.4609375000,149454.5312500000,,,
1.4399999976,11,158751.9062500000,144172.1875000000,169182.7500000000,161277.9843750000,127465.9375000000,19979.3222656250,98712.1953125000,150423.6875000000,,,
1.4439999976,11,159031.5000000000,144168.2656250000,169481.1406250000,161522.0937500000,127730.9453125000,20148.3007812500,98985.7031250000,149689.6875000000,,,
1.4479999975,11,159863.0000000000,144357.8437500000,170318.7656250000,162270.8750000000,128534.9062500000,20846.4531250000,99765.9296875000,148259.5781250000,,,
1.4519999977,11,160091.6406250000,144471.7968750000,170533.2968750000,162485.8281250000,128762.0937500000,21106.2792968750,99970.6640625000,148103.4687500000,,,
1.4559999977,11,159405.0156250000,144357.7187500000,169831.8125000000,161875.5000000000,128101.2734375000,20576.7304687500,99323.5546875000,149440.7500000000,,,
1.4599999976,11,158743.4843750000,144164.4062500000,169173.5937500000,161278.6562500000,127456.9296875000,19983.4785156250,98713.5390625000,150419.4843750000,,,
1.4639999976,11,159025.4062500000,144166.3125000000,169469.3906250000,161526.6718750000,127720.7734375000,20148.9707031250,98987.6328125000,149702.2343750000,,,
1.4679999975,11,159862.3125000000,144358.1406250000,170310.6875000000,162281.2031250000,128530.5078125000,20848.0898437500,99771.1875000000,148268.0000000000,,,
1.4719999975,11,160101.6093750000,144474.8750000000,170538.1406250000,162503.6875000000,128770.0000000000,21117.8125000000,99987.4531250000,148096.6093750000,,,
1.4759999977,11,159424.8125000000,144365.9843750000,169849.7812500000,161899.5781250000,128121.2031250000,20598.7246093750,99348.4218750000,149432.6718750000,,,
1.4799999977,11,158750.8593750000,144166.2812500000,169181.3750000000,161286.6718750000,127465.0546875000,19994.5292968750,98721.9609375000,150419.4062500000,,,
1.4839999976,11,159010.1093750000,144152.6875000000,169458.0781250000,161510.0937500000,127708.4609375000,20141.7304687500,98973.3125000000,149704.2656250000,,,
1.4879999976,11,159840.9843750000,144336.0781250000,170296.1875000000,162260.9062500000,128511.2500000000,20837.1191406250,99752.8671875000,148263.8906250000,,,
1.4919999975,11,160088.4687500000,144450.5781250000,170531.8906250000,162489.6093750000,128757.3437500000,21109.8730468750,99975.4375000000,148077.2187500000,,,
1.4959999977,11,159426.2031250000,144346.2968750000,169856.1406250000,161896.8437500000,128120.3984375000,20597.3300781250,99348.8750000000,149407.0781250000,,,
1.4999999977,11,158759.4062500000,144156.2343750000,169193.1562500000,161293.6406250000,127470.2578125000,19997.6953125000,98729.7968750000,150405.3281250000,,,
1.5039999976,11,159016.0781250000,144147.8593750000,169464.1562500000,161517.1718750000,127710.9843750000,20144.2773437500,98979.6406250000,149705.6718750000,,,
1.5079999976,11,159838.7031250000,144334.0625000000,170289.0000000000,162253.6562500000,128504.9218750000,20834.3300781250,99747.8281250000,148269.6875000000,,,
1.5119999975,11,160086.8125000000,144452.3437500000,170524.3593750000,162482.2031250000,128754.0703125000,21113.4394531250,99975.1406250000,148074.0781250000,,,
1.5159999975,11,159428.4843750000,144351.8125000000,169853.3281250000,161895.4531250000,128125.2500000000,20608.3261718750,99356.4921875000,149401.7500000000,,,
1.5199999977,11,158759.8906250000,144165.5312500000,169190.6875000000,161288.9687500000,127477.8515625000,20011.2402343750,98736.6093750000,150415.3750000000,,,
1.5239999976,11,159015.5000000000,144162.1875000000,169463.6718750000,161512.2656250000,127718.4453125000,20155.6503906250,98984.7343750000,149733.1093750000,,,
1.5279999976,11,159847.1562500000,144349.0312500000,170300.6562500000,162262.7812500000,128520.3125000000,20845.4882812500,99761.4218750000,148293.6406250000,,,
1.5319999976,11,160109.7187500000,144469.1875000000,170549.3906250000,162505.7656250000,128779.0156250000,21129.2109375000,99997.2734375000,148084.6406250000,,,
1.5359999975,12,159454.2343750000,144369.7656250000,169877.4687500000,161915.2968750000,128147.5937500000,20625.8945312500,99378.1093750000,149401.2343750000,,,
1.5399999975,12,158779.7343750000,144183.3437500000,169204.4687500000,161298.9218750000,127488.5234375000,20025.1347656250,98749.2109375000,150421.2187500000,,,
1.5439999974,12,159017.6875000000,144170.1250000000,169456.6718750000,161506.9375000000,127708.6562500000,20155.6230468750,98977.3046875000,149745.0625000000,,,
1.5479999974,12,159842.7500000000,144352.0312500000,170286.3906250000,162251.4843750000,128503.7968750000,20839.5859375000,99748.2265625000,148304.4062500000,,,
1.5519999973,12,160105.3125000000,144468.1093750000,170537.8281250000,162494.8125000000,128766.3828125000,21124.8925781250,99989.4921875000,148083.7812500000,,,
1.5559999973,12,159439.0625000000,144356.6406250000,169859.3906250000,161900.9218750000,128131.9609375000,20614.0664062500,99365.8281250000,149387.1562500000,,,
1.5599999975,12,158763.1718750000,144164.7343750000,169190.3593750000,161287.0468750000,127478.8125000000,20009.1210937500,98739.5312500000,150410.5468750000,,,
1.5639999975,12,159002.2500000000,144153.1406250000,169446.5937500000,161491.9843750000,127703.5312500000,20139.8789062500,98971.2187500000,149746.0312500000,,,
1.5679999974,12,159833.1562500000,144339.7656250000,170283.6250000000,162240.8906250000,128504.7578125000,20828.6425781250,99748.0156250000,148303.5468750000,,,
1.5719999974,12,160101.5000000000,144454.0312500000,170542.2812500000,162492.0312500000,128771.3671875000,21118.3222656250,99990.5156250000,148066.5625000000,,,
1.5759999973,12,159445.3906250000,144343.8437500000,169875.4843750000,161908.5937500000,128142.9296875000,20615.9707031250,99372.7187500000,149359.8750000000,,,
1.5799999975,12,158759.7343750000,144145.2343750000,169195.6250000000,161288.1406250000,127477.0156250000,20005.5000000000,98736.9843750000,150383.2656250000,,,
1.5839999975,12,158993.4062500000,144131.2343750000,169445.2031250000,161490.9687500000,127694.1953125000,20129.9277343750,98963.8671875000,149730.3906250000,,,
1.5879999974,12,159815.8750000000,144314.7812500000,170272.6875000000,162232.7968750000,128487.0859375000,20814.7753906250,99734.2812500000,148288.9218750000,,,
1.5919999974,12,160087.9687500000,144440.1718750000,170530.7968750000,162484.0000000000,128757.3125000000,21108.3710937500,99980.0000000000,148045.7812500000,,,
1.5959999973,12,159431.2187500000,144340.7343750000,169859.4062500000,161894.7031250000,128126.8906250000,20608.3535156250,99357.7500000000,149342.3593750000,,,
1.5999999973,12,158739.1406250000,144146.7343750000,169170.3593750000,161269.5312500000,127454.8593750000,19994.5039062500,98717.0781250000,150380.6406250000,,,
1.6039999975,12,158967.4218750000,144132.2031250000,169414.0781250000,161471.0781250000,127667.6718750000,20117.6699218750,98941.9843750000,149736.1093750000,,,
1.6079999974,12,159796.9687500000,144319.2500000000,170249.1562500000,162218.1250000000,128467.4765625000,20807.9375000000,99717.7890625000,148292.3281250000,,,
1.6119999974,12,160079.2187500000,144444.9687500000,170518.7187500000,162478.0781250000,128747.5546875000,21113.9765625000,99975.4375000000,148036.1718750000,,,
1.6159999974,12,159430.2031250000,144345.3750000000,169855.7656250000,161897.7812500000,128125.8203125000,20622.1660156250,99364.5156250000,149326.7187500000,,,
1.6199999973,12,158742.2500000000,144156.4375000000,169171.2343750000,161274.7812500000,127455.7734375000,20011.9375000000,98726.2031250000,150376.8593750000,,,
1.6239999975,12,158959.8281250000,144141.7500000000,169402.9843750000,161465.1406250000,127657.4453125000,20125.0468750000,98937.0234375000,149751.7656250000,,,
1.6279999975,12,159783.5000000000,144323.5468750000,170231.3750000000,162208.7812500000,128452.2421875000,20806.0332031250,99706.5234375000,148313.0156250000,,,
1.6319999974,12,160077.6093750000,144451.7500000000,170514.0625000000,162481.7500000000,128743.5312500000,21116.3632812500,99972.0625000000,148049.4843750000,,,
1.6359999974,12,159444.2343750000,144357.5625000000,169868.2968750000,161913.3593750000,128138.9843750000,20635.2832031250,99375.1640625000,149334.1875000000,,,
1.6399999973,12,158751.2031250000,144163.2812500000,169180.2968750000,161283.0937500000,127466.9843750000,20016.7382812500,98732.0468750000,150392.3906250000,,,
1.6439999973,12,158958.5937500000,144139.5468750000,169402.7656250000,161459.9375000000,127659.6718750000,20119.7089843750,98933.5078125000,149772.7968750000,,,
1.6479999975,12,159785.3593750000,144321.8750000000,170234.8906250000,162200.8750000000,128456.2656250000,20806.3535156250,99707.9453125000,148329.8750000000,,,
1.6519999974,12,160081.2031250000,144447.9531250000,170520.0937500000,162472.0468750000,128749.0546875000,21117.3828125000,99978.0703125000,148049.2968750000,,,
1.6559999974,12,159451.6875000000,144354.6250000000,169880.5000000000,161908.4843750000,128147.8671875000,20637.2675781250,99385.5390625000,149324.4218750000,,,
1.6599999974,12,158748.5156250000,144152.4687500000,169182.4531250000,161274.1093750000,127464.7343750000,20016.2285156250,98734.7031250000,150381.0468750000,,,
1.6639999973,13,158952.1875000000,144126.2187500000,169402.6562500000,161450.6562500000,127653.3437500000,20116.9199218750,98936.0546875000,149770.2500000000,,,
1.6679999973,13,159792.8437500000,144317.8593750000,170249.3281250000,162207.2500000000,128463.9609375000,20811.6386718750,99720.3359375000,148333.3437500000,,,
1.6719999972,13,160097.4375000000,144448.5625000000,170540.8750000000,162485.5156250000,128765.7109375000,21131.5996093750,99996.3046875000,148046.7656250000,,,
1.6759999972,13,159472.4531250000,144356.9375000000,169901.4687500000,161924.6562500000,128167.8750000000,20658.0820312500,99407.1875000000,149315.8906250000,,,
1.6799999971,13,158779.8437500000,144169.1562500000,169210.9687500000,161295.7343750000,127494.1328125000,20045.3847656250,98763.0000000000,150391.2187500000,,,
1.6839999971,13,158974.3593750000,144147.7187500000,169418.2968750000,161462.4062500000,127671.9296875000,20135.5878906250,98950.7265625000,149797.5000000000,,,
1.6879999973,13,159805.0468750000,144332.8593750000,170253.0468750000,162209.1406250000,128472.3046875000,20819.2832031250,99726.2578125000,148352.7656250000,,,
1.6919999972,13,160109.9218750000,144460.3437500000,170547.2187500000,162491.3593750000,128775.4453125000,21140.6914062500,100005.5078125000,148043.6562500000,,,
1.6959999972,13,159482.7812500000,144365.3125000000,169908.6093750000,161936.8125000000,128176.6953125000,20664.3847656250,99416.7890625000,149302.2812500000,,,
1.6999999972,13,158777.7500000000,144170.5468750000,169208.4687500000,161302.7343750000,127491.5546875000,20040.3144531250,98763.2109375000,150382.4687500000,,,
1.7039999971,13,158969.4218750000,144149.8125000000,169415.0468750000,161471.9062500000,127667.6171875000,20132.6093750000,98953.1718750000,149801.0937500000,,,
1.7079999973,13,159797.2031250000,144336.5781250000,170247.5312500000,162214.7187500000,128465.1953125000,20820.5156250000,99731.1953125000,148358.9843750000,,,
1.7119999973,13,160108.1093750000,144465.3750000000,170545.0312500000,162497.2812500000,128772.8203125000,21146.2167968750,100014.3593750000,148043.8281250000,,,
1.7159999972,13,159487.3906250000,144374.0312500000,169908.6250000000,161941.5312500000,128177.5312500000,20679.7539062500,99427.0625000000,149301.2968750000,,,
1.7199999972,13,158786.6406250000,144183.6093750000,169210.5781250000,161305.3437500000,127496.3046875000,20062.7109375000,98773.1406250000,150392.4218750000,,,
1.7239999971,13,158970.5781250000,144159.2812500000,169411.2187500000,161464.5312500000,127668.2031250000,20146.9863281250,98949.8671875000,149824.4687500000,,,
1.7279999971,13,159790.5781250000,144338.3750000000,170239.0468750000,162203.2343750000,128462.6250000000,20821.9101562500,99720.4921875000,148377.4375000000,,,
1.7319999973,13,160115.0468750000,144472.2500000000,170553.6250000000,162502.7031250000,128783.5781250000,21155.0957031250,100017.9765625000,148051.1250000000,,,
1.7359999972,13,159487.2343750000,144369.9687500000,169912.4687500000,161941.4218750000,128180.2656250000,20678.5996093750,99422.7734375000,149289.1718750000,,,
1.7399999972,13,158779.7656250000,144174.1406250000,169210.9062500000,161302.1250000000,127493.2734375000,20049.9433593750,98766.2421875000,150381.1562500000,,,
1.7439999972,13,158962.0000000000,144148.0781250000,169411.5156250000,161460.0156250000,127662.5468750000,20132.8242187500,98948.5312500000,149819.5000000000,,,
1.7479999971,13,159786.9687500000,144327.0000000000,170243.2031250000,162203.9531250000,128457.4453125000,20814.5351562500,99721.0312500000,148370.7343750000,,,
1.7519999973,13,160112.7187500000,144457.8125000000,170558.0781250000,162502.9375000000,128779.3125000000,21150.1601562500,100015.0000000000,148029.2343750000,,,
1.7559999973,13,159496.5156250000,144361.3125000000,169927.5937500000,161949.5000000000,128190.7500000000,20684.6347656250,99433.7421875000,149267.9531250000,,,
1.7599999972,13,158792.0000000000,144169.3125000000,169226.2031250000,161308.2031250000,127508.3984375000,20063.4355468750,98781.4296875000,150375.5781250000,,,
1.7639999972,13,158961.6250000000,144142.4375000000,169410.5156250000,161453.2812500000,127666.0859375000,20136.9277343750,98948.5000000000,149827.8437500000,,,
1.7679999971,13,159777.3125000000,144318.9062500000,170231.0000000000,162192.2343750000,128453.2578125000,20810.6992187500,99712.4218750000,148379.8281250000,,,
1.7719999971,13,160114.6562500000,144458.6250000000,170555.8281250000,162507.0468750000,128785.1015625000,21155.9531250000,100017.6562500000,148034.4062500000,,,
1.7759999973,13,159511.0000000000,144374.3125000000,169938.0312500000,161965.8593750000,128205.7968750000,20699.1992187500,99445.6718750000,149272.1718750000,,,
1.7799999972,13,158788.3437500000,144176.5312500000,169219.7031250000,161308.5625000000,127503.7578125000,20064.3750000000,98776.7343750000,150380.4843750000,,,
1.7839999972,13,158943.4687500000,144139.8906250000,169389.4062500000,161441.2656250000,127644.4687500000,20122.6328125000,98930.5000000000,149837.1718750000,,,
1.7879999971,13,159769.2656250000,144324.7031250000,170220.5937500000,162186.7968750000,128440.4921875000,20803.0273437500,99704.6406250000,148393.2812500000,,,
1.7919999971,14,160107.6250000000,144460.2500000000,170545.3125000000,162501.5468750000,128772.8984375000,21153.4042968750,100014.7031250000,148029.0937500000,,,
1.7959999971,14,159507.4843750000,144374.4843750000,169930.3281250000,161967.9687500000,128197.6718750000,20703.1699218750,99448.7578125000,149256.8593750000,,,
1.7999999970,14,158787.7656250000,144178.0312500000,169213.9375000000,161317.9687500000,127498.9609375000,20065.4472656250,98779.0390625000,150373.7187500000,,,
1.8039999970,14,158946.0937500000,144146.5937500000,169389.3750000000,161451.3281250000,127646.1875000000,20127.3261718750,98936.6171875000,149848.3125000000,,,
1.8079999969,14,159761.8125000000,144323.2968750000,170211.4843750000,162182.8437500000,128433.4687500000,20798.8710937500,99699.5703125000,148400.0156250000,,,
1.8119999969,14,160103.7031250000,144459.3125000000,170543.5937500000,162497.4375000000,128772.1484375000,21145.5468750000,100010.3593750000,148026.0468750000,,,
1.8159999971,14,159504.8437500000,144370.7031250000,169933.0937500000,161963.7187500000,128199.7890625000,20693.7812500000,99443.4531250000,149245.9687500000,,,
1.8199999970,14,158792.4062500000,144182.0000000000,169223.5468750000,161318.2343750000,127507.3281250000,20061.2636718750,98777.6953125000,150379.0312500000,,,
1.8239999970,14,158938.2343750000,144144.2656250000,169384.9218750000,161439.9375000000,127639.4531250000,20108.0410156250,98920.0156250000,149860.8593750000,,,
1.8279999970,14,159764.9687500000,144322.2812500000,170219.6875000000,162182.5781250000,128438.4843750000,20788.2753906250,99697.8828125000,148409.0312500000,,,
1.8319999969,14,160118.3281250000,144459.1250000000,170563.5468750000,162508.0625000000,128790.4375000000,21154.4238281250,100026.3984375000,148021.2343750000,,,
1.8359999971,14,159523.8437500000,144371.0781250000,169953.8750000000,161980.3437500000,128221.4375000000,20709.0175781250,99464.9843750000,149230.8125000000,,,
1.8399999971,14,158794.5937500000,144172.1875000000,169226.7812500000,161320.6718750000,127512.6093750000,20067.9687500000,98785.6093750000,150364.8437500000,,,
1.8439999970,14,158937.2656250000,144136.2500000000,169384.9843750000,161441.3281250000,127643.6875000000,20120.3789062500,98929.1640625000,149864.0468750000,,,
1.8479999970,14,159753.8906250000,144310.8593750000,170206.8593750000,162174.9687500000,128431.9921875000,20790.9589843750,99696.1406250000,148412.1406250000,,,
1.8519999969,14,160111.8906250000,144450.8125000000,170553.0781250000,162504.3125000000,128784.5937500000,21150.2675781250,100020.7968750000,148013.3750000000,,,
1.8559999969,14,159533.9843750000,144374.4531250000,169961.3593750000,161986.1562500000,128231.2265625000,20715.5878906250,99472.5000000000,149223.6406250000,,,
1.8599999971,14,158806.9375000000,144180.1250000000,169236.2812500000,161328.4843750000,127523.6875000000,20077.0351562500,98795.6953125000,150365.8906250000,,,
1.8639999970,14,158933.1562500000,144137.8281250000,169377.9218750000,161435.0781250000,127637.1171875000,20116.1152343750,98922.0546875000,149871.2656250000,,,
1.8679999970,14,159745.1250000000,144310.6406250000,170196.4375000000,162162.6250000000,128419.9453125000,20781.6777343750,99682.2500000000,148421.1250000000,,,
1.8719999969,14,160113.6562500000,144454.8125000000,170552.8906250000,162494.5000000000,128783.0625000000,21147.5839843750,100017.6875000000,148014.8750000000,,,
1.8759999969,14,159540.6875000000,144383.6875000000,169967.4218750000,161984.8281250000,128237.1796875000,20723.9570312500,99479.8750000000,149220.1093750000,,,
1.8799999971,14,158805.9531250000,144187.6718750000,169236.2031250000,161324.0000000000,127525.6171875000,20081.8085937500,98802.4843750000,150370.2968750000,,,
1.8839999971,14,158927.0468750000,144147.7812500000,169370.7656250000,161426.9531250000,127633.1718750000,20115.1484375000,98927.8203125000,149890.7656250000,,,
1.8879999970,14,159745.7187500000,144324.8125000000,170193.7812500000,162162.8593750000,128420.0781250000,20785.2988281250,99693.9375000000,148437.6562500000,,,
1.8919999970,14,160118.0781250000,144464.5156250000,170553.6718750000,162502.8593750000,128784.7812500000,21158.4472656250,100030.5546875000,148011.7187500000,,,
1.8959999969,14,159540.6875000000,144385.9531250000,169961.3437500000,161986.5937500000,128232.1093750000,20730.3945312500,99481.9140625000,149205.6250000000,,,
1.8999999969,14,158800.3750000000,144188.7343750000,169224.9843750000,161319.8281250000,127513.3906250000,20085.9394531250,98794.7812500000,150362.6250000000,,,
1.9039999971,14,158914.6875000000,144140.8906250000,169355.6718750000,161420.0781250000,127616.3828125000,20113.3789062500,98911.4062500000,149889.9375000000,,,
1.9079999970,14,159739.2812500000,144317.0468750000,170189.5312500000,162165.4062500000,128413.6718750000,20789.5644531250,99687.5000000000,148435.1093750000,,,
1.9119999970,14,160120.4218750000,144459.1250000000,170561.9843750000,162515.7656250000,128792.2109375000,21166.0917968750,100038.6562500000,147999.2656250000,,,
1.9159999969,14,159542.2968750000,144376.2031250000,169969.8125000000,162001.6406250000,128239.5156250000,20735.8925781250,99490.8984375000,149185.7500000000,,,
1.9199999969,15,158793.7656250000,144173.0937500000,169224.2343750000,161327.7812500000,127512.7968750000,20082.0781250000,98794.4921875000,150351.0312500000,,,
1.9239999969,15,158900.4218750000,144122.3593750000,169346.5937500000,161418.2031250000,127607.3203125000,20098.0898437500,98901.8593750000,149887.9687500000,,,
1.9279999968,15,159717.1718750000,144292.7500000000,170171.0625000000,162154.0625000000,128393.7421875000,20762.7949218750,99667.7343750000,148425.7187500000,,,
1.9319999968,15,160102.5000000000,144433.8125000000,170545.0937500000,162503.5000000000,128771.8281250000,21142.0585937500,100018.8906250000,147973.1406250000,,,
1.9359999967,15,159542.5312500000,144363.2343750000,169972.2812500000,162003.6250000000,128238.8437500000,20729.0800781250,99488.8593750000,149160.2187500000,,,
1.9399999967,15,158806.2187500000,144172.6093750000,169239.0156250000,161334.9687500000,127527.0937500000,20083.4726562500,98803.7187500000,150344.1406250000,,,
1.9439999969,15,158912.6406250000,144124.8125000000,169359.5000000000,161417.6718750000,127623.4375000000,20099.6992187500,98910.2265625000,149898.0000000000,,,
1.9479999968,15,159731.7656250000,144301.7656250000,170186.0000000000,162148.7500000000,128416.0859375000,20769.7148437500,99680.1015625000,148445.2968750000,,,
1.9519999968,15,160119.2968750000,144449.8750000000,170562.7343750000,162500.1250000000,128799.1015625000,21157.2949218750,100035.1718750000,147988.9375000000,,,
1.9559999967,15,159551.4375000000,144376.2500000000,169979.2500000000,161993.2656250000,128255.1796875000,20740.1582031250,99497.4687500000,149167.0781250000,,,
1.9599999967,15,158820.5625000000,144192.2187500000,169249.0000000000,161330.7031250000,127544.4765625000,20102.6503906250,98820.3203125000,150360.6093750000,,,
1.9639999969,15,158921.6093750000,144148.4843750000,169363.2500000000,161417.7187500000,127633.2031250000,20118.9042968750,98923.7734375000,149928.8281250000,,,
1.9679999969,15,159727.6562500000,144316.3281250000,170175.8281250000,162142.3125000000,128409.5937500000,20780.1230468750,99681.9218750000,148470.9687500000,,,
1.9719999968,15,160122.0000000000,144462.4843750000,170559.1406250000,162504.5000000000,128797.2265625000,21174.9160156250,100049.3046875000,147999.8281250000,,,
1.9759999968,15,159565.2812500000,144392.9062500000,169985.7187500000,162012.7968750000,128263.0937500000,20765.5839843750,99520.8828125000,149169.0312500000,,,
1.9799999967,15,158811.3906250000,144195.6562500000,169230.8437500000,161333.0937500000,127528.3828125000,20103.7753906250,98813.9609375000,150359.2187500000,,,
1.9839999967,15,158898.8593750000,144141.0156250000,169334.2656250000,161397.6562500000,127602.8359375000,20101.5761718750,98901.4296875000,149931.3437500000,,,
1.9879999969,15,159714.5156250000,144307.5625000000,170161.0781250000,162128.5625000000,128389.2890625000,20766.1484375000,99668.7031250000,148468.0625000000,,,
1.9919999968,15,160111.5156250000,144446.3437500000,170551.6093750000,162495.8125000000,128781.9687500000,21158.6894531250,100032.3515625000,147979.5312500000,,,
1.9959999968,15,159557.3437500000,144371.6875000000,169986.0937500000,162004.6718750000,128255.2031250000,20750.2695312500,99509.3750000000,149140.3906250000,,,
1.9999999967,15,158808.5000000000,144175.5625000000,169239.7187500000,161328.1562500000,127528.9453125000,20097.9550781250,98812.8359375000,150341.8281250000,,,
2.0039999967,15,158895.2656250000,144127.4218750000,169343.2812500000,161403.3906250000,127605.2812500000,20100.1562500000,98901.7265625000,149931.7187500000,,,
2.0079999969,15,159709.3125000000,144299.5156250000,170166.0625000000,162135.8281250000,128391.9687500000,20764.0820312500,99665.5625000000,148476.2812500000,,,
2.0119999968,15,160109.2343750000,144439.7343750000,170554.5937500000,162500.3437500000,128786.2265625000,21159.5742187500,100030.3984375000,147978.1093750000,,,
2.0159999968,15,159558.3281250000,144364.2656250000,169988.2968750000,162008.8281250000,128260.2500000000,20753.8359375000,99508.6796875000,149126.0156250000,,,
2.0199999968,15,158808.8906250000,144169.2031250000,169240.5468750000,161327.5468750000,127534.1250000000,20102.3554687500,98815.2187500000,150330.5625000000,,,
2.0239999967,15,158890.5156250000,144119.7500000000,169336.0312500000,161394.9218750000,127603.4062500000,20097.6875000000,98899.5781250000,149932.2812500000,,,
2.0279999967,15,159706.3593750000,144293.9843750000,170158.8593750000,162129.6093750000,128387.4921875000,20756.2500000000,99662.8828125000,148476.2968750000,,,
2.0319999969,15,160126.4531250000,144449.6406250000,170568.4843750000,162509.8593750000,128801.1718750000,21169.0703125000,100049.6796875000,147973.0937500000,,,
2.0359999968,15,159574.0781250000,144376.5937500000,170002.6093750000,162017.0312500000,128274.5468750000,20767.6503906250,99529.7656250000,149112.9531250000,,,
2.0399999968,15,158811.0468750000,144179.8593750000,169240.6875000000,161331.0781250000,127533.7187500000,20106.7539062500,98820.8515625000,150326.7656250000,,,
2.0439999967,15,158879.4062500000,144126.1406250000,169323.7500000000,161387.9687500000,127591.1718750000,20093.9062500000,98894.5859375000,149941.4843750000,,,
2.0479999967,16,159691.3125000000,144295.9218750000,170142.6875000000,162116.2968750000,128373.4140625000,20755.9550781250,99655.2890625000,148487.4062500000,,,
2.0519999966,16,160116.1562500000,144447.5937500000,170556.4375000000,162501.7656250000,128790.9218750000,21170.1425781250,100044.3750000000,147967.4531250000,,,
2.0559999966,16,159573.9687500000,144377.1562500000,169999.0000000000,162019.2031250000,128274.8906250000,20776.1523437500,99531.6406250000,149103.6406250000,,,
2.0599999966,16,158808.3281250000,144177.9843750000,169233.9687500000,161328.0312500000,127534.9218750000,20111.0175781250,98820.6171875000,150326.7812500000,,,
2.0639999965,16,158866.0312500000,144120.3750000000,169302.6718750000,161371.2187500000,127579.9062500000,20084.2226562500,98878.8437500000,149953.6406250000,,,
2.0679999965,16,159680.3125000000,144291.9218750000,170124.6875000000,162100.6718750000,128361.1015625000,20745.2265625000,99640.3750000000,148496.6093750000,,,
2.0719999967,16,160118.4843750000,144450.6875000000,170553.8906250000,162504.1562500000,128790.4375000000,21170.4648437500,100041.6093750000,147968.4531250000,,,
2.0759999966,16,159585.0468750000,144383.3593750000,170007.9843750000,162034.1250000000,128280.4765625000,20781.8378906250,99537.0859375000,149094.8125000000,,,
2.0799999966,16,158810.2187500000,144175.4375000000,169235.9531250000,161334.5156250000,127528.0859375000,20107.4238281250,98812.7031250000,150316.4531250000,,,
2.0839999965,16,158863.1875000000,144113.0781250000,169304.4375000000,161375.1562500000,127569.5234375000,20079.5820312500,98871.1171875000,149949.1250000000,,,
2.0879999965,16,159681.4218750000,144286.9375000000,170132.4843750000,162112.8437500000,128357.8515625000,20749.0078125000,99642.7343750000,148495.9687500000,,,
2.0919999967,16,160125.8593750000,144447.3750000000,170569.2812500000,162523.2812500000,128796.2578125000,21184.5195312500,100054.0312500000,147957.1875000000,,,
2.0959999966,16,159590.5937500000,144375.2812500000,170018.2187500000,162043.8906250000,128289.3515625000,20795.3847656250,99547.4921875000,149077.1718750000,,,
2.0999999966,16,158820.9687500000,144174.4062500000,169251.0625000000,161346.8281250000,127546.3750000000,20128.6679687500,98831.3125000000,150314.7500000000,,,
2.1039999966,16,158865.1406250000,144112.7812500000,169312.1562500000,161380.7812500000,127583.2890625000,20095.5957031250,98882.2812500000,149964.8437500000,,,
2.1079999965,16,159672.7031250000,144278.8906250000,170130.6875000000,162107.8281250000,128362.0937500000,20750.4843750000,99643.1406250000,148505.6406250000,,,
2.1119999965,16,160115.1093750000,144431.1562500000,170564.4062500000,162511.1718750000,128795.2187500000,21174.0039062500,100050.3281250000,147942.3593750000,,,
2.1159999967,16,159589.0156250000,144361.2031250000,170022.0625000000,162042.7500000000,128290.3671875000,20783.7441406250,99551.7578125000,149050.7187500000,,,
2.1199999966,16,158816.5625000000,144161.5468750000,169247.3593750000,161345.8906250000,127539.5625000000,20111.1796875000,98832.0390625000,150295.6406250000,,,
2.1239999966,16,158857.7656250000,144104.0312500000,169296.9843750000,161372.7343750000,127569.2031250000,20073.6816406250,98874.1796875000,149958.9687500000,,,
2.1279999965,16,159666.6875000000,144276.3593750000,170111.5468750000,162098.3906250000,128347.1796875000,20731.2519531250,99632.6562500000,148506.0000000000,,,
2.1319999965,16,160119.7968750000,144437.7031250000,170554.5625000000,162509.4687500000,128792.8828125000,21172.1269531250,100051.3750000000,147940.9843750000,,,
2.1359999967,16,159590.2031250000,144372.4687500000,170009.5312500000,162039.5312500000,128289.7812500000,20792.0312500000,99549.8515625000,149051.9843750000,,,
2.1399999966,16,158809.0312500000,144174.0625000000,169230.6250000000,161332.1093750000,127534.0703125000,20118.5019531250,98823.3515625000,150311.5781250000,,,
2.1439999966,16,158840.9218750000,144114.2031250000,169276.6718750000,161352.6718750000,127556.3828125000,20074.9433593750,98863.2890625000,149989.8437500000,,,
2.1479999966,16,159651.9687500000,144283.5781250000,170096.7656250000,162082.6718750000,128336.7421875000,20730.8496093750,99626.5937500000,148533.3281250000,,,
2.1519999965,16,160121.0937500000,144450.1718750000,170556.4375000000,162511.8281250000,128797.1718750000,21184.8671875000,100059.0156250000,147959.0937500000,,,
2.1559999965,16,159606.6875000000,144388.5625000000,170027.3437500000,162050.7812500000,128306.6796875000,20810.6718750000,99567.8750000000,149059.2031250000,,,
2.1599999967,16,158823.8593750000,144184.0468750000,169244.6718750000,161339.4218750000,127545.7109375000,20129.8203125000,98834.3437500000,150317.0156250000,,,
2.1639999966,16,158842.0000000000,144114.5937500000,169277.8750000000,161348.7031250000,127553.7578125000,20073.0917968750,98856.5859375000,149997.8437500000,,,
2.1679999966,16,159653.6562500000,144286.3750000000,170100.1875000000,162080.9218750000,128335.5078125000,20730.0449218750,99617.4140625000,148544.5625000000,,,
2.1719999965,16,160121.2968750000,144446.7187500000,170561.7812500000,162511.0625000000,128794.5468750000,21175.6679687500,100045.4140625000,147950.7500000000,,,
2.1759999965,17,159611.0312500000,144382.3593750000,170038.2031250000,162059.0156250000,128308.6875000000,20808.5000000000,99561.8437500000,149037.3437500000,,,
2.1799999964,17,158825.6562500000,144180.1562500000,169255.2968750000,161355.7968750000,127549.1406250000,20132.2617187500,98832.2812500000,150303.3125000000,,,
2.1839999964,17,158851.5156250000,144118.1406250000,169298.0000000000,161375.9843750000,127568.2656250000,20083.3105468750,98868.3593750000,150004.1093750000,,,
2.1879999964,17,159657.4218750000,144282.1093750000,170114.1875000000,162099.2968750000,128345.5468750000,20730.9570312500,99626.7265625000,148552.4531250000,,,
2.1919999963,17,160131.6250000000,144443.9687500000,170580.3437500000,162531.7812500000,128811.5781250000,21185.7792968750,100063.0156250000,147952.8437500000,,,
2.1959999963,17,159616.5156250000,144377.5312500000,170051.4062500000,162074.3750000000,128321.5390625000,20815.5800781250,99574.2578125000,149032.8906250000,,,
2.1999999965,17,158825.8750000000,144171.4062500000,169261.5781250000,161360.4531250000,127555.9531250000,20134.2187500000,98838.2343750000,150304.8750000000,,,
2.2039999964,17,158847.7656250000,144108.4531250000,169297.9218750000,161371.7812500000,127567.8125000000,20080.6289062500,98866.3203125000,150017.1562500000,,,
2.2079999964,17,159652.2656250000,144275.6093750000,170109.5625000000,162092.5625000000,128341.6562500000,20729.3203125000,99620.2109375000,148563.0937500000,,,
2.2119999963,17,160135.9218750000,144442.3593750000,170582.2187500000,162533.9531250000,128815.3359375000,21191.1699218750,100066.2031250000,147948.7656250000,,,
2.2159999963,17,159632.5156250000,144383.1406250000,170062.5156250000,162082.0468750000,128335.8359375000,20826.6308593750,99587.7500000000,149019.2343750000,,,
2.2199999965,17,158837.1093750000,144181.9843750000,169267.3437500000,161355.4062500000,127565.1015625000,20140.3339843750,98847.4921875000,150298.9218750000,,,
2.2239999964,17,158846.5781250000,144119.8906250000,169291.2343750000,161353.6093750000,127565.2890625000,20079.8242187500,98865.5156250000,150028.1250000000,,,
2.2279999964,17,159660.0156250000,144296.7187500000,170111.6250000000,162081.9687500000,128345.7343750000,20736.1074218750,99625.6796875000,148584.0937500000,,,
2.2319999964,17,160137.3750000000,144460.7187500000,170576.8281250000,162518.7968750000,128811.0703125000,21193.3164062500,100060.7031250000,147959.4375000000,,,
2.2359999963,17,159642.2812500000,144404.9843750000,170065.8125000000,162074.8906250000,128337.4140625000,20842.7519531250,99589.0390625000,149026.1250000000,,,
2.2399999963,17,158845.8906250000,144200.9375000000,169270.0468750000,161355.6250000000,127565.3437500000,20158.1718750000,98846.7421875000,150311.4375000000,,,
2.2439999965,17,158847.3125000000,144131.6093750000,169287.3437500000,161348.1250000000,127559.9218750000,20090.5527343750,98859.0234375000,150048.5625000000,,,
2.2479999964,17,159645.8750000000,144295.9218750000,170094.7968750000,162065.0937500000,128328.2968750000,20736.0000000000,99610.5000000000,148601.8906250000,,,
2.2519999964,17,160135.5468750000,144461.5156250000,170577.5000000000,162510.5937500000,128810.6093750000,21200.3984375000,100066.4765625000,147966.2500000000,,,
2.2559999963,17,159649.5625000000,144408.7343750000,170078.2500000000,162081.4531250000,128351.5546875000,20856.1093750000,99608.4296875000,149023.7187500000,,,
2.2599999963,17,158857.3593750000,144207.8281250000,169286.6875000000,161367.9687500000,127583.6875000000,20171.2070312500,98870.0234375000,150311.9843750000,,,
2.2639999965,17,158847.4375000000,144133.4531250000,169292.5468750000,161351.1718750000,127565.8750000000,20088.7031250000,98869.2187500000,150055.0781250000,,,
2.2679999964,17,159645.6093750000,144295.6562500000,170100.5468750000,162065.5000000000,128335.3203125000,20731.3593750000,99620.7734375000,148608.0468750000,,,
2.2719999964,17,160139.4375000000,144456.0937500000,170584.6562500000,162520.2656250000,128818.2812500000,21200.6933593750,100076.9062500000,147957.0000000000,,,
2.2759999963,17,159656.8750000000,144399.5781250000,170086.7031250000,162093.2343750000,128359.6484375000,20861.2324218750,99616.6093750000,149002.5781250000,,,
2.2799999963,17,158852.6718750000,144192.4375000000,169283.7812500000,161366.4843750000,127582.3750000000,20172.8437500000,98866.2890625000,150299.3750000000,,,
2.2839999963,17,158825.0937500000,144108.1562500000,169273.2187500000,161334.1406250000,127547.8828125000,20076.3105468750,98848.2109375000,150054.2968750000,,,
2.2879999964,17,159629.3906250000,144271.7187500000,170087.2343750000,162055.0468750000,128321.8046875000,20721.4355468750,99604.1953125000,148609.9843750000,,,
2.2919999964,17,160128.6718750000,144438.7968750000,170576.4218750000,162510.2656250000,128810.3437500000,21194.5234375000,100063.2812500000,147949.8906250000,,,
2.2959999964,17,159654.6562500000,144390.0625000000,170086.6250000000,162087.4687500000,128357.5078125000,20857.2363281250,99609.9843750000,148986.0781250000,,,
2.2999999963,17,158855.4843750000,144188.9218750000,169287.5312500000,161368.0468750000,127582.5859375000,20170.7246093750,98865.9687500000,150287.4843750000,,,
2.3039999963,18,158828.5625000000,144112.1875000000,169274.6093750000,161339.4531250000,127547.7500000000,20077.3828125000,98850.6796875000,150057.7812500000,,,
2.3079999962,18,159624.3906250000,144275.9843750000,170077.1875000000,162055.1718750000,128311.5625000000,20713.4160156250,99596.5000000000,148615.4531250000,,,
2.3119999962,18,160131.2500000000,144447.3281250000,170572.7968750000,162516.1093750000,128806.5859375000,21193.4511718750,100062.4765625000,147947.1250000000,,,
2.3159999961,18,159663.2343750000,144400.9531250000,170087.1875000000,162100.9531250000,128360.0546875000,20862.9765625000,99619.4062500000,148978.6562500000,,,
2.3199999961,18,158868.2812500000,144206.5156250000,169287.7187500000,161375.5000000000,127587.2031250000,20180.1113281250,98876.9140625000,150294.9531250000,,,
2.3239999961,18,158833.2812500000,144126.7031250000,169264.3906250000,161331.3593750000,127543.1562500000,20076.5527343750,98846.8984375000,150077.9062500000,,,
2.3279999963,18,159620.6718750000,144284.0312500000,170064.9218750000,162040.0000000000,128303.9140625000,20706.7636718750,99589.4453125000,148637.0000000000,,,
2.3319999962,18,160143.2968750000,144461.8593750000,170583.6875000000,162519.4687500000,128820.8046875000,21202.7304687500,100076.0234375000,147960.4375000000,,,
2.3359999962,18,159677.7187500000,144416.1093750000,170104.7500000000,162108.9062500000,128380.2812500000,20878.3183593750,99633.3515625000,148982.5468750000,,,
2.3399999961,18,158874.8593750000,144216.9843750000,169300.6562500000,161383.7656250000,127600.0468750000,20192.3691406250,98881.0156250000,150298.0781250000,,,
2.3439999961,18,158830.1406250000,144132.5156250000,169269.7812500000,161334.5937500000,127546.4609375000,20081.0839843750,98844.5390625000,150089.8437500000,,,
2.3479999963,18,159622.2031250000,144293.7187500000,170072.3281250000,162047.0468750000,128311.0781250000,20716.0175781250,99591.0781250000,148657.5156250000,,,
2.3519999962,18,160134.9531250000,144458.9687500000,170577.7343750000,162516.2968750000,128815.0937500000,21200.4785156250,100064.7578125000,147965.5000000000,,,
2.3559999962,18,159676.3750000000,144407.8437500000,170104.4843750000,162109.0937500000,128379.6640625000,20876.8417968750,99626.4062500000,148966.7656250000,,,
2.3599999961,18,158884.1093750000,144211.2968750000,169311.1093750000,161391.8437500000,127612.0390625000,20196.2597656250,98884.5546875000,150283.6093750000,,,
2.3639999961,18,158831.2968750000,144124.5312500000,169276.1875000000,161334.3593750000,127554.1562500000,20078.4023437500,98844.9921875000,150089.1718750000,,,
2.3679999961,18,159612.6406250000,144280.1250000000,170070.1562500000,162033.5312500000,128306.4921875000,20703.8125000000,99582.4453125000,148657.2968750000,,,
2.3719999962,18,160128.1093750000,144446.4687500000,170576.9531250000,162503.9062500000,128809.7500000000,21190.7148437500,100057.2187500000,147953.3750000000,,,
2.3759999962,18,159677.8750000000,144399.8593750000,170109.7968750000,162106.9218750000,128380.6796875000,20877.0566406250,99627.3984375000,148948.3906250000,,,
2.3799999962,18,158884.7500000000,144203.6250000000,169313.6093750000,161392.7500000000,127609.0859375000,20197.1972656250,98885.3593750000,150271.6875000000,,,
2.3839999961,18,158832.5312500000,144120.2343750000,169272.6562500000,161334.6250000000,127546.2734375000,20082.0781250000,98842.9062500000,150089.7656250000,,,
2.3879999961,18,159601.1875000000,144266.2812500000,170048.6406250000,162023.2500000000,128283.8515625000,20698.0195312500,99566.1640625000,148651.9843750000,,,
2.3919999963,18,160118.5937500000,144429.7656250000,170556.2187500000,162497.5312500000,128790.2812500000,21182.5878906250,100046.6796875000,147934.4218750000,,,
2.3959999962,18,159665.6562500000,144384.2187500000,170088.4531250000,162095.8593750000,128359.6484375000,20865.1757812500,99613.8203125000,148919.7500000000,,,
2.3999999962,18,158866.8281250000,144191.0937500000,169289.5468750000,161371.9687500000,127586.5546875000,20180.0859375000,98868.7578125000,150245.1406250000,,,
2.4039999961,18,158817.9843750000,144116.8593750000,169256.7187500000,161320.3906250000,127533.9843750000,20067.9687500000,98834.0546875000,150084.8437500000,,,
2.4079999961,18,159598.5156250000,144276.5312500000,170046.9843750000,162020.6562500000,128285.4609375000,20688.1757812500,99566.7812500000,148668.6718750000,,,
2.4119999961,18,160137.4687500000,144452.4531250000,170578.2187500000,162506.0468750000,128811.7109375000,21189.8574218750,100061.5625000000,147951.5000000000,,,
2.4159999962,18,159683.0781250000,144400.7968750000,170107.3593750000,162098.8750000000,128378.3203125000,20874.3222656250,99627.3984375000,148922.8593750000,,,
2.4199999962,18,158871.5000000000,144198.5312500000,169295.2343750000,161369.9218750000,127590.7421875000,20182.8476562500,98870.9843750000,150249.7812500000,,,
2.4239999962,18,158815.5781250000,144121.5000000000,169254.0625000000,161313.5937500000,127526.5859375000,20067.4589843750,98826.4062500000,150100.1875000000,,,
2.4279999961,18,159588.4062500000,144276.8281250000,170035.3593750000,162010.0625000000,128267.6484375000,20686.8339843750,99550.6328125000,148681.1718750000,,,
2.4319999961,19,160122.6093750000,144450.5156250000,170560.8437500000,162502.7500000000,128790.7109375000,21187.3359375000,100041.8203125000,147951.5781250000,,,
2.4359999960,19,159686.1093750000,144408.4843750000,170109.0156250000,162114.6093750000,128378.6953125000,20888.7519531250,99627.3125000000,148917.5468750000,,,
2.4399999960,19,158875.3906250000,144207.7500000000,169297.5156250000,161379.6093750000,127595.9453125000,20199.4765625000,98875.3046875000,150251.8906250000,,,
2.4439999959,19,158799.9062500000,144115.8125000000,169237.4687500000,161305.7656250000,127515.0000000000,20062.0683593750,98814.5781250000,150106.8750000000,,,
2.4479999959,19,159581.5625000000,144275.0312500000,170032.3125000000,162008.3750000000,128268.9140625000,20685.0371093750,99553.2890625000,148693.0000000000,,,
2.4519999959,19,160124.7031250000,144450.4062500000,170568.2187500000,162501.5000000000,128801.4140625000,21195.0058593750,100055.9843750000,147954.9843750000,,,
2.4559999960,19,159694.2187500000,144405.9687500000,170121.0937500000,162116.4375000000,128391.3515625000,20899.1054687500,99643.9687500000,148912.7031250000,,,
2.4599999960,19,158884.0000000000,144203.4375000000,169309.4843750000,161385.7031250000,127604.4453125000,20207.7109375000,98885.3906250000,150247.4531250000,,,
2.4639999960,19,158802.9687500000,144115.9218750000,169241.8593750000,161311.0468750000,127515.9609375000,20070.7578125000,98814.4453125000,150116.6562500000,,,
2.4679999959,19,159590.5468750000,144278.9062500000,170037.7187500000,162017.7656250000,128270.3359375000,20696.5722656250,99551.7812500000,148706.6718750000,,,
2.4719999959,19,160139.0000000000,144453.5000000000,170577.0625000000,162514.9531250000,128805.5390625000,21205.3320312500,100055.5312500000,147955.4375000000,,,
2.4759999961,19,159717.1406250000,144415.0156250000,170139.8125000000,162140.8437500000,128405.1406250000,20914.9570312500,99655.5312500000,148902.3906250000,,,
2.4799999960,19,158896.0468750000,144210.5468750000,169316.5937500000,161399.4062500000,127609.9765625000,20212.5664062500,98889.3828125000,150241.7031250000,,,
2.4839999960,19,158815.7343750000,144125.2812500000,169249.1875000000,161319.6875000000,127522.9921875000,20071.3222656250,98822.6484375000,150125.8906250000,,,
2.4879999959,19,159599.3906250000,144291.6875000000,170043.0625000000,162024.5781250000,128276.2109375000,20697.4023437500,99564.2578125000,148725.0468750000,,,
2.4919999959,19,160154.3125000000,144472.4687500000,170589.7812500000,162529.5312500000,128818.8437500000,21215.2304687500,100080.5000000000,147968.7500000000,,,
2.4959999959,19,159728.7656250000,144430.6250000000,170148.9843750000,162153.6406250000,128415.6015625000,20923.4589843750,99673.0703125000,148906.1875000000,,,
2.4999999960,19,158916.3125000000,144233.2656250000,169335.0156250000,161417.5000000000,127629.4765625000,20230.5644531250,98914.0312500000,150251.3125000000,,,
2.5039999960,19,158821.5000000000,144142.8906250000,169255.2187500000,161321.6250000000,127530.3359375000,20081.3261718750,98833.1953125000,150142.3593750000,,,
2.5079999960,19,159589.4687500000,144298.6875000000,170035.7343750000,162010.0625000000,128269.4765625000,20696.6250000000,99555.8046875000,148741.4687500000,,,
2.5119999959,19,160138.9218750000,144472.5468750000,170578.4375000000,162510.2968750000,128807.2031250000,21211.0195312500,100062.3125000000,147973.5781250000,,,
2.5159999959,19,159723.6875000000,144430.8593750000,170147.9843750000,162144.7031250000,128413.2187500000,20927.9121093750,99667.3359375000,148897.5625000000,,,
2.5199999961,19,158913.0156250000,144231.3281250000,169336.7031250000,161412.3906250000,127629.2031250000,20238.4238281250,98913.2578125000,150243.9062500000,,,
2.5239999960,19,158817.0781250000,144138.9843750000,169257.5000000000,161321.2500000000,127531.5703125000,20084.5449218750,98834.4843750000,150146.8906250000,,,
2.5279999960,19,159582.0156250000,144292.0312500000,170034.2968750000,162012.6406250000,128270.6796875000,20692.0644531250,99556.0234375000,148750.1875000000,,,
2.5319999959,19,160143.7812500000,144472.2187500000,170587.8750000000,162526.8437500000,128821.0468750000,21213.8359375000,100076.3671875000,147975.3750000000,,,
2.5359999959,19,159731.5000000000,144433.7343750000,170158.6406250000,162160.6406250000,128430.0312500000,20933.4648437500,99682.0078125000,148891.4843750000,,,
2.5399999958,19,158910.8281250000,144227.6875000000,169334.3437500000,161420.7031250000,127632.7187500000,20233.5156250000,98912.0234375000,150233.7968750000,,,
2.5439999960,19,158814.7187500000,144137.0000000000,169250.6875000000,161328.5625000000,127527.8984375000,20082.5859375000,98828.1250000000,150147.7968750000,,,
2.5479999960,19,159567.1875000000,144277.7343750000,170011.5937500000,162004.9375000000,128246.8125000000,20682.3281250000,99532.5781250000,148747.3125000000,,,
2.5519999960,19,160136.4843750000,144456.4531250000,170573.2031250000,162522.9843750000,128799.8281250000,21210.2148437500,100055.9296875000,147961.6406250000,,,
2.5559999959,19,159736.0625000000,144422.7031250000,170158.1250000000,162161.9531250000,128420.1640625000,20940.9199218750,99671.1406250000,148870.4843750000,,,
2.5599999959,20,158914.5468750000,144217.5468750000,169333.4062500000,161419.4062500000,127623.0937500000,20238.7714843750,98899.8750000000,150221.9375000000,,,
2.5639999958,20,158802.2968750000,144121.0312500000,169234.2968750000,161310.7500000000,127505.6328125000,20069.0410156250,98802.5859375000,150147.7812500000,,,
2.5679999958,20,159558.5000000000,144271.7812500000,170000.9062500000,161990.1093750000,128232.3828125000,20665.8066406250,99514.5312500000,148754.4687500000,,,
2.5719999957,20,160139.1718750000,144459.9062500000,170573.6562500000,162518.7187500000,128798.5937500000,21199.5664062500,100051.8046875000,147960.8906250000,,,
2.5759999957,20,159750.8125000000,144432.5000000000,170169.4531250000,162171.7187500000,128430.9687500000,20936.4687500000,99681.1484375000,148861.3906250000,,,
2.5799999957,20,158929.8125000000,144234.4375000000,169346.8125000000,161429.5000000000,127637.5703125000,20237.1621093750,98913.7968750000,150226.5781250000,,,
2.5839999958,20,158816.6250000000,144144.4218750000,169247.1250000000,161317.5468750000,127520.2578125000,20066.5195312500,98814.9531250000,150177.6875000000,,,
2.5879999958,20,159584.1093750000,144301.5468750000,170024.7500000000,162005.5312500000,128256.5703125000,20674.8984375000,99536.0156250000,148789.2031250000,,,
2.5919999958,20,160175.4843750000,144489.4062500000,170608.5781250000,162545.1875000000,128832.7421875000,21221.4804687500,100082.1093750000,147977.2968750000,,,
2.5959999957,20,159782.7343750000,144458.9375000000,170200.2187500000,162198.8125000000,128460.2578125000,20960.6347656250,99704.9375000000,148870.8281250000,,,
2.5999999957,20,158936.2968750000,144247.5000000000,169351.7187500000,161438.2343750000,127641.1406250000,20243.1699218750,98912.5859375000,150241.0937500000,,,
2.6039999959,20,158803.6406250000,144144.5937500000,169236.3906250000,161314.2187500000,127506.9765625000,20060.3242187500,98799.2656250000,150192.7343750000,,,
2.6079999958,20,159561.5781250000,144290.6093750000,170007.5312500000,161998.1718750000,128234.8984375000,20658.0546875000,99512.1953125000,148793.2031250000,,,
2.6119999958,20,160163.5937500000,144482.2031250000,170602.5156250000,162548.2968750000,128821.7187500000,21209.5429687500,100069.3125000000,147968.7968750000,,,
2.6159999957,20,159778.0312500000,144452.0468750000,170200.4218750000,162207.8437500000,128456.7734375000,20955.9414062500,99703.5937500000,148850.1562500000,,,
2.6199999957,20,158933.3593750000,144239.0000000000,169353.3593750000,161448.3281250000,127639.2109375000,20242.7148437500,98916.5000000000,150221.7187500000,,,
2.6239999956,20,158795.2187500000,144132.2500000000,169229.4687500000,161313.0312500000,127496.7031250000,20052.5722656250,98794.4062500000,150184.0625000000,,,
2.6279999958,20,159563.7812500000,144285.4843750000,170009.8593750000,162002.2343750000,128235.7031250000,20657.4375000000,99516.1640625000,148795.2656250000,,,
2.6319999958,20,160159.2500000000,144469.7187500000,170600.8750000000,162547.6875000000,128820.5625000000,21205.4394531250,100068.3203125000,147958.5000000000,,,
2.6359999957,20,159772.1250000000,144434.0312500000,170199.4375000000,162209.2343750000,128455.7812500000,20949.3964843750,99698.3125000000,148826.1718750000,,,
2.6399999957,20,158930.4062500000,144221.5468750000,169353.8437500000,161449.0468750000,127640.3359375000,20233.5410156250,98908.2109375000,150203.2656250000,,,
2.6439999957,20,158785.2187500000,144116.9375000000,169221.6406250000,161306.6250000000,127491.3125000000,20037.3652343750,98780.7031250000,150181.2187500000,,,
2.6479999959,20,159543.1562500000,144268.5625000000,169990.4843750000,161982.4843750000,128218.8906250000,20636.3027343750,99495.2421875000,148796.8750000000,,,
2.6519999958,20,160148.3437500000,144457.0312500000,170587.6093750000,162531.8281250000,128808.3593750000,21190.3125000000,100055.4218750000,147950.0781250000,,,
2.6559999958,20,159780.5781250000,144436.3125000000,170201.7187500000,162205.1406250000,128458.8671875000,20950.6035156250,99700.9140625000,148815.5000000000,,,
2.6599999957,20,158950.7812500000,144239.7031250000,169367.0156250000,161451.4687500000,127655.0078125000,20249.2851562500,98924.4140625000,150209.1718750000,,,
2.6639999957,20,158796.9843750000,144135.5156250000,169226.5937500000,161306.2500000000,127497.8828125000,20049.1933593750,98788.2421875000,150204.0156250000,,,
2.6679999956,20,159548.3750000000,144284.0312500000,169988.7187500000,161980.1875000000,128217.1171875000,20643.5976562500,99492.9609375000,148820.7187500000,,,
2.6719999958,20,160167.4687500000,144482.0312500000,170600.8281250000,162540.8437500000,128820.2968750000,21211.6367187500,100064.0625000000,147968.3437500000,,,
2.6759999958,20,159808.0781250000,144461.4843750000,170226.0937500000,162218.0312500000,128481.4765625000,20976.4335937500,99712.4218750000,148822.7031250000,,,
2.6799999957,20,158965.1875000000,144253.3281250000,169379.7187500000,161454.8906250000,127665.2578125000,20256.8222656250,98917.0937500000,150212.9062500000,,,
2.6839999957,20,158806.0468750000,144148.9062500000,169237.5937500000,161305.5312500000,127506.2812500000,20048.6308593750,98785.6093750000,150221.7812500000,,,
2.6879999957,21,159550.1718750000,144292.7812500000,169996.1718750000,161978.5781250000,128225.2734375000,20633.6464843750,99498.1406250000,148841.7812500000,,,
2.6919999956,21,160171.0625000000,144488.2812500000,170611.4218750000,162544.5468750000,128831.7187500000,21205.7617187500,100073.1796875000,147974.7812500000,,,
2.6959999956,21,159807.2187500000,144462.8906250000,170231.2812500000,162225.3281250000,128487.7500000000,20978.1230468750,99722.6171875000,148814.4218750000,,,
2.6999999955,21,158955.8593750000,144250.1093750000,169376.0468750000,161457.2343750000,127663.7265625000,20263.9570312500,98925.8671875000,150204.8281250000,,,
2.7039999955,21,158782.3125000000,144135.8906250000,169216.0625000000,161295.3281250000,127486.1093750000,20046.5117187500,98771.3437500000,150217.3750000000,,,
2.7079999954,21,159529.2343750000,144280.3281250000,169975.3125000000,161965.7812500000,128203.1484375000,20630.4277343750,99477.6171875000,148838.2968750000,,,
2.7119999956,21,160149.2031250000,144467.5781250000,170590.3750000000,162528.7968750000,128808.6562500000,21194.2558593750,100050.5390625000,147956.5468750000,,,
2.7159999956,21,159797.0000000000,144441.6093750000,170222.6093750000,162219.4531250000,128475.0156250000,20962.0566406250,99708.6093750000,148786.1250000000,,,
2.7199999955,21,158954.6718750000,144234.7031250000,169375.5468750000,161462.4843750000,127659.4375000000,20251.3789062500,98919.2890625000,150183.9531250000,,,
2.7239999955,21,158785.8281250000,144127.9843750000,169220.1093750000,161304.0781250000,127488.0937500000,20041.8437500000,98769.2187500000,150215.6406250000,,,
2.7279999955,21,159525.9375000000,144272.6562500000,169970.9687500000,161970.7968750000,128197.7031250000,20623.0781250000,99464.6953125000,148846.8437500000,,,
2.7319999957,21,160155.8750000000,144468.3593750000,170594.4218750000,162547.1250000000,128811.4453125000,21199.6738281250,100049.3359375000,147961.4218750000,,,
2.7359999956,21,159806.5781250000,144445.6718750000,170228.2656250000,162236.8125000000,128481.7187500000,20976.0039062500,99715.1015625000,148779.7656250000,,,
2.7399999956,21,158957.8906250000,144234.9843750000,169374.7656250000,161467.2656250000,127659.5156250000,20260.6328125000,98922.4062500000,150178.3281250000,,,
2.7439999955,21,158775.2343750000,144121.0625000000,169206.0000000000,161297.0468750000,127475.1640625000,20038.8671875000,98762.7578125000,150216.7812500000,,,
2.7479999955,21,159510.2343750000,144263.4687500000,169952.9375000000,161957.8437500000,128181.2578125000,20615.4335937500,99457.4218750000,148847.9218750000,,,
2.7519999954,21,160149.2031250000,144464.4687500000,170583.7656250000,162535.8593750000,128802.2187500000,21196.7226562500,100046.9453125000,147954.7500000000,,,
2.7559999956,21,159805.8437500000,144447.0000000000,170223.7031250000,162231.6718750000,128477.6171875000,20976.1113281250,99712.9609375000,148771.5937500000,,,
2.7599999956,21,158954.2187500000,144238.2500000000,169369.1093750000,161460.3437500000,127655.0078125000,20258.2988281250,98913.5234375000,150179.3125000000,,,
2.7639999955,21,158771.0781250000,144128.6250000000,169199.4843750000,161282.3750000000,127469.6953125000,20036.4804687500,98751.0390625000,150236.3437500000,,,
2.7679999955,21,159509.1406250000,144274.5156250000,169949.7187500000,161942.2031250000,128178.9218750000,20615.8359375000,99448.7578125000,148873.7187500000,,,
2.7719999955,21,160154.9687500000,144476.5156250000,170590.8750000000,162530.7031250000,128808.7578125000,21199.1914062500,100045.7109375000,147968.7500000000,,,
2.7759999956,21,159826.3593750000,144465.2500000000,170249.1562500000,162240.6562500000,128499.6640625000,20991.9355468750,99728.7265625000,148769.6875000000,,,
2.7799999956,21,158967.6250000000,144251.8750000000,169388.1718750000,161469.3593750000,127669.4687500000,20268.9472656250,98926.2656250000,150177.5468750000,,,
2.7839999956,21,158772.6875000000,144134.9375000000,169207.9375000000,161292.0312500000,127470.8515625000,20033.2617187500,98751.9453125000,150245.3750000000,,,
2.7879999955,21,159511.4687500000,144280.8906250000,169956.7968750000,161955.9062500000,128177.9843750000,20612.0546875000,99448.1171875000,148886.5781250000,,,
2.7919999955,21,160152.9531250000,144475.7812500000,170590.7656250000,162541.1093750000,128803.8281250000,21192.6191406250,100045.9843750000,147967.5156250000,,,
2.7959999954,21,159823.0937500000,144458.1406250000,170244.5000000000,162251.5156250000,128491.8593750000,20984.1035156250,99728.9453125000,148756.8906250000,,,
2.7999999956,21,158972.4062500000,144248.2031250000,169388.5468750000,161483.5156250000,127668.9296875000,20267.6601562500,98932.7031250000,150168.7812500000,,,
2.8039999956,21,158766.2968750000,144123.6875000000,169197.2812500000,161292.5937500000,127463.8437500000,20021.2441406250,98748.7578125000,150242.2968750000,,,
2.8079999955,21,159497.4687500000,144259.3593750000,169941.7500000000,161941.1875000000,128167.2578125000,20588.9882812500,99435.4296875000,148883.3593750000,,,
2.8119999955,21,160157.6250000000,144463.4687500000,170596.8125000000,162533.9531250000,128811.9765625000,21185.3769531250,100048.4453125000,147961.5625000000,,,
2.8159999955,22,159839.6406250000,144452.5937500000,170263.5937500000,162256.5625000000,128513.6640625000,20988.5839843750,99744.4765625000,148741.7343750000,,,
2.8199999954,22,158988.3125000000,144245.8437500000,169409.1250000000,161493.1250000000,127691.1875000000,20276.7519531250,98949.0078125000,150159.6562500000,,,
2.8239999954,22,158765.0625000000,144118.5937500000,169197.8750000000,161289.7187500000,127465.2656250000,20019.5820312500,98747.9531250000,150244.5156250000,,,
2.8279999953,22,159482.5937500000,144252.1406250000,169926.5781250000,161938.5312500000,128150.8125000000,20576.2734375000,99425.4765625000,148887.6718750000,,,
2.8319999953,22,160138.0468750000,144455.0781250000,170575.5156250000,162528.6875000000,128786.3125000000,21172.1269531250,100032.7031250000,147953.4375000000,,,
2.8359999952,22,159829.7500000000,144450.6875000000,170251.2031250000,162254.4687500000,128495.1796875000,20983.2988281250,99736.0546875000,148727.4062500000,,,
2.8399999954,22,158971.7031250000,144240.9062500000,169390.0000000000,161483.5625000000,127667.1562500000,20260.0156250000,98932.4609375000,150145.8125000000,,,
2.8439999954,22,158756.1406250000,144118.8125000000,169189.1562500000,161282.4531250000,127452.9843750000,20008.5585937500,98740.8203125000,150246.3125000000,,,
2.8479999953,22,159486.3750000000,144261.7500000000,169931.5312500000,161934.2812500000,128156.3437500000,20584.1601562500,99431.5937500000,148902.4843750000,,,
2.8519999953,22,160151.2031250000,144469.5156250000,170591.3593750000,162537.6250000000,128805.9453125000,21191.8945312500,100050.5703125000,147965.0937500000,,,
2.8559999953,22,159835.2500000000,144457.4687500000,170259.2812500000,162260.9062500000,128508.2421875000,20998.8554687500,99748.7656250000,148724.5937500000,,,
2.8599999954,22,158972.3750000000,144245.4062500000,169391.3125000000,161482.5000000000,127671.8281250000,20274.3925781250,98940.9375000000,150142.9531250000,,,
2.8639999954,22,158751.0937500000,144123.6718750000,169183.9218750000,161276.7968750000,127448.7500000000,20015.9062500000,98742.0234375000,150256.2656250000,,,
2.8679999954,22,159476.4531250000,144264.1875000000,169920.9687500000,161926.6093750000,128144.3750000000,20580.6738281250,99424.4296875000,148915.2968750000,,,
2.8719999953,22,160139.0000000000,144465.4843750000,170578.0000000000,162530.0937500000,128789.5312500000,21180.3613281250,100037.2343750000,147961.9062500000,,,
2.8759999953,22,159841.8125000000,144460.0625000000,170265.5468750000,162270.8750000000,128509.8828125000,21001.7792968750,99749.6484375000,148711.3125000000,,,
2.8799999952,22,158981.7187500000,144247.1562500000,169401.7500000000,161497.1718750000,127680.3046875000,20285.8984375000,98946.0078125000,150130.5625000000,,,
2.8839999954,22,158749.6250000000,144119.1093750000,169182.8593750000,161279.9687500000,127448.7734375000,20022.1562500000,98733.5468750000,150256.3281250000,,,
2.8879999954,22,159460.3593750000,144248.9843750000,169906.2500000000,161915.8281250000,128130.7812500000,20574.3164062500,99404.3671875000,148918.4062500000,,,
2.8919999953,22,160131.4375000000,144450.5468750000,170573.2031250000,162523.7500000000,128785.6406250000,21178.3496093750,100030.7187500000,147955.6875000000,,,
2.8959999953,22,159853.4062500000,144452.7968750000,170280.6875000000,162278.6875000000,128525.8437500000,21013.1523437500,99764.4062500000,148697.5781250000,,,
2.8999999953,22,158997.8593750000,144243.4843750000,169421.2500000000,161508.1406250000,127698.8906250000,20290.8613281250,98962.5546875000,150123.2031250000,,,
2.9039999954,22,158751.3593750000,144110.0156250000,169187.3906250000,161281.2812500000,127451.3750000000,20013.8144531250,98734.2187500000,150257.2968750000,,,
2.9079999954,22,159459.2500000000,144243.2187500000,169908.0625000000,161914.7656250000,128129.0859375000,20571.7675781250,99399.7578125000,148923.8281250000,,,
2.9119999954,22,160137.8437500000,144451.3593750000,170582.2968750000,162535.6718750000,128789.6640625000,21187.9785156250,100029.6718750000,147952.9687500000,,,
2.9159999953,22,159849.0312500000,144448.2968750000,170275.2656250000,162287.2343750000,128517.3671875000,21015.6738281250,99748.5000000000,148679.2343750000,,,
2.9199999953,22,158984.0781250000,144238.5156250000,169402.3906250000,161509.5312500000,127677.7031250000,20289.6542968750,98933.8281250000,150104.2187500000,,,
2.9239999952,22,158729.7187500000,144105.6718750000,169158.8437500000,161271.5937500000,127422.8125000000,20007.5117187500,98706.3281250000,150251.2812500000,,,
2.9279999954,22,159445.2500000000,144245.6250000000,169886.6562500000,161909.7187500000,128108.9218750000,20565.2773437500,99384.7656250000,148930.1562500000,,,
2.9319999954,22,160130.6093750000,144457.1250000000,170566.6093750000,162532.2812500000,128776.2500000000,21181.7558593750,100020.0156250000,147956.0937500000,,,
2.9359999953,22,159852.8125000000,144459.0156250000,170273.4687500000,162286.5156250000,128517.0937500000,21020.2343750000,99748.0390625000,148676.6406250000,,,
2.9399999953,22,158988.8750000000,144248.0625000000,169405.9531250000,161508.5156250000,127682.7656250000,20297.4042968750,98935.5156250000,150105.1875000000,,,
2.9439999952,23,158721.8125000000,144107.1718750000,169153.4843750000,161263.0312500000,127416.8046875000,20002.9257812500,98692.9375000000,150259.2187500000,,,
2.9479999952,23,159428.3593750000,144240.3437500000,169874.0781250000,161895.5625000000,128092.7187500000,20548.4335937500,99361.0546875000,148938.3437500000,,,
2.9519999952,23,160124.3125000000,144454.5468750000,170566.5000000000,162525.5000000000,128769.8125000000,21168.9628906250,100009.1015625000,147955.6093750000,,,
2.9559999951,23,159852.9531250000,144454.4843750000,170278.4843750000,162287.2187500000,128514.8671875000,21013.8222656250,99748.2578125000,148660.8593750000,,,
2.9599999951,23,158992.5000000000,144245.5781250000,169414.1875000000,161511.0312500000,127683.0625000000,20294.4277343750,98943.1875000000,150091.4218750000,,,
2.9639999950,23,158724.7812500000,144108.0781250000,169159.9218750000,161263.8750000000,127416.6953125000,19998.7675781250,98699.7031250000,150260.9687500000,,,
2.9679999952,23,159426.0937500000,144237.6406250000,169873.4062500000,161890.6562500000,128088.4765625000,20539.5019531250,99360.7578125000,148946.5156250000,,,
2.9719999952,23,160124.6250000000,144448.6093750000,170566.5468750000,162522.8125000000,128768.5312500000,21164.1601562500,100009.6875000000,147954.8593750000,,,
2.9759999951,23,159846.0312500000,144438.0000000000,170272.1562500000,162275.7656250000,128508.2734375000,20999.5800781250,99740.3984375000,148644.3750000000,,,
