Time:250Hz,Epoch,Channel 1,Channel 2,Channel 3,Channel 4,Channel 5,Channel 6,Channel 7,Channel 8,Event Id,Event Date,Event Duration
0.0000000000,0,176143.1250000000,190034.8906250000,166756.5000000000,167181.6562500000,133851.3125000000,120152.0078125000,134780.7343750000,150012.5625000000,,,
0.0040000000,0,175839.9843750000,184885.6562500000,166224.5156250000,166523.6562500000,133174.0625000000,119519.8125000000,134064.9062500000,150874.3593750000,,,
0.0079999999,0,175258.2187500000,203328.8750000000,165385.5468750000,165461.1562500000,132182.5312500000,118564.8125000000,132939.5468750000,154676.9531250000,,,
0.0119999999,0,175222.4843750000,216792.7656250000,165449.5937500000,165541.0781250000,132324.4062500000,118665.9062500000,133048.0000000000,155654.1406250000,,,
0.0159999998,0,175746.5156250000,209949.7031250000,166229.5000000000,166526.5468750000,133253.7187500000,119548.1093750000,134076.7343750000,153092.0937500000,,,
0.0199999998,0,176147.3437500000,190277.1718750000,166759.8750000000,167208.2343750000,133859.7656250000,120142.9453125000,134785.1718750000,150021.5000000000,,,
0.0240000000,0,175861.2343750000,184922.9218750000,166243.4218750000,166543.8593750000,133194.4687500000,119539.0468750000,134084.2656250000,150863.1718750000,,,
0.0279999999,0,175264.9687500000,203246.2343750000,165392.3593750000,165464.2031250000,132187.6250000000,118558.8828125000,132941.5625000000,154658.0468750000,,,
0.0319999999,0,175166.6718750000,216741.7968750000,165393.8593750000,165492.7187500000,132267.2500000000,118595.0390625000,132987.5937500000,155598.6875000000,,,
0.0359999998,0,175711.9687500000,209984.7500000000,166202.3750000000,166487.7968750000,133224.9843750000,119514.4765625000,134057.2812500000,153048.0468750000,,,
0.0399999998,0,176168.6093750000,190342.2187500000,166790.0468750000,167262.9218750000,133888.2968750000,120167.8906250000,134825.2187500000,150006.3750000000,,,
0.0440000000,0,175877.9687500000,184842.0156250000,166266.2187500000,166583.5468750000,133217.8906250000,119557.9531250000,134114.6250000000,150833.1093750000,,,
0.0480000000,0,175235.0156250000,203084.9062500000,165362.5312500000,165433.4687500000,132160.1250000000,118546.5703125000,132921.6875000000,154620.5468750000,,,
0.0519999999,0,175130.9218750000,216671.1562500000,165356.8437500000,165448.3281250000,132231.2812500000,118582.9687500000,132951.4375000000,155583.0000000000,,,
0.0559999999,0,175664.9218750000,209880.3437500000,166157.2343750000,166432.1718750000,133182.2343750000,119464.9609375000,134006.5937500000,152999.5468750000,,,
0.0599999998,0,176136.1093750000,190266.7031250000,166759.7500000000,167190.1250000000,133857.0781250000,120116.5234375000,134798.2968750000,149960.7500000000,,,
0.0639999998,0,175884.5625000000,184730.3281250000,166277.5312500000,166577.9687500000,133229.2812500000,119556.1015625000,134137.0156250000,150814.2968750000,,,
0.0680000000,0,175281.1562500000,202980.9687500000,165414.6093750000,165490.4218750000,132211.4062500000,118562.2109375000,132968.7812500000,154657.5000000000,,,
0.0719999999,0,175211.2187500000,216701.5781250000,165439.0468750000,165524.8593750000,132313.6562500000,118631.4140625000,133028.6250000000,155676.5937500000,,,
0.0759999999,0,175783.9843750000,210090.8437500000,166272.1250000000,166532.4218750000,133292.9062500000,119586.7343750000,134123.2343750000,153155.3906250000,,,
0.0799999998,0,176195.0312500000,190408.5937500000,166815.1250000000,167251.7187500000,133909.5468750000,120184.2500000000,134848.1093750000,150046.4218750000,,,
0.0839999998,0,175889.2343750000,184674.2968750000,166279.5937500000,166624.2968750000,133229.9843750000,119557.1484375000,134129.8906250000,150806.9218750000,,,
0.0880000000,0,175281.4375000000,202893.3437500000,165413.2187500000,165508.0937500000,132208.7500000000,118571.6015625000,132968.0156250000,154637.3437500000,,,
0.0919999999,0,175203.6093750000,216706.5000000000,165432.4843750000,165528.3437500000,132303.0625000000,118632.3203125000,133029.7343750000,155677.3125000000,,,
0.0959999999,0,175723.6406250000,210190.1250000000,166212.0312500000,166483.6093750000,133229.0156250000,119521.2343750000,134071.6562500000,153133.0156250000,,,
0.0999999999,0,176111.4843750000,190444.5312500000,166733.4375000000,167173.0937500000,133826.8750000000,120109.0390625000,134771.3125000000,149992.8750000000,,,
0.1039999998,0,175810.0000000000,184548.7187500000,166206.1406250000,166545.7343750000,133159.8437500000,119476.4687500000,134049.0000000000,150719.0000000000,,,
0.1079999998,0,175223.8281250000,202698.6875000000,165355.5000000000,165453.7031250000,132154.6250000000,118521.0156250000,132900.0937500000,154536.9218750000,,,
0.1120000000,0,175181.1093750000,216580.3125000000,165405.4218750000,165493.2343750000,132279.7031250000,118625.0312500000,132991.6093750000,155625.2968750000,,,
0.1159999999,0,175675.6250000000,210121.0937500000,166160.2968750000,166469.0156250000,133186.3437500000,119469.5234375000,134018.2031250000,153094.2968750000,,,
0.1199999999,0,176098.0937500000,190455.5937500000,166721.3906250000,167183.6093750000,133825.3281250000,120098.5546875000,134779.5468750000,150016.8593750000,,,
0.1239999998,0,175840.3125000000,184500.3593750000,166242.5937500000,166576.2343750000,133203.4843750000,119523.2968750000,134112.7812500000,150765.7500000000,,,
0.1279999998,1,175239.0625000000,202523.3281250000,165377.8750000000,165465.1250000000,132182.8750000000,118504.3281250000,132945.8593750000,154527.2812500000,,,
0.1319999998,1,175148.1718750000,216397.9375000000,165379.7812500000,165476.3906250000,132254.8437500000,118559.2343750000,132976.1406250000,155569.7812500000,,,
0.1359999997,1,175687.1562500000,210098.4843750000,166178.4218750000,166449.5781250000,133193.2343750000,119468.3671875000,134027.5156250000,153122.8750000000,,,
0.1399999997,1,176156.3281250000,190636.8281250000,166781.9531250000,167208.9843750000,133869.2343750000,120148.1250000000,134814.0937500000,150126.7500000000,,,
0.1439999996,1,175872.2343750000,184598.3906250000,166272.8437500000,166593.3437500000,133219.7343750000,119551.8125000000,134121.7031250000,150805.9062500000,,,
0.1479999996,1,175243.4687500000,202385.5937500000,165379.6406250000,165459.2500000000,132175.1718750000,118538.6093750000,132939.1718750000,154490.2187500000,,,
0.1519999998,1,175155.5625000000,216244.9843750000,165379.4843750000,165460.6093750000,132251.4531250000,118583.7187500000,132984.4218750000,155557.3593750000,,,
0.1559999997,1,175683.0468750000,210158.5625000000,166166.6562500000,166438.3593750000,133179.5000000000,119465.0937500000,134027.3437500000,153141.0625000000,,,
0.1599999997,1,176128.1875000000,190878.1093750000,166747.7500000000,167178.5156250000,133833.3125000000,120119.5546875000,134792.1250000000,150127.2343750000,,,
0.1639999996,1,175910.4687500000,184740.1250000000,166317.7500000000,166614.8750000000,133264.2343750000,119598.0000000000,134183.7812500000,150815.1093750000,,,
0.1679999996,1,175315.2656250000,202242.6875000000,165458.3906250000,165524.9062500000,132255.7187500000,118615.1562500000,133026.2656250000,154495.6875000000,,,
0.1719999998,1,175180.1718750000,216026.3281250000,165407.7500000000,165500.8437500000,132280.6718750000,118600.3515625000,133006.8437500000,155552.2656250000,,,
0.1759999997,1,175683.8906250000,210268.2968750000,166159.3593750000,166434.4687500000,133175.1250000000,119471.1328125000,134009.1875000000,153203.2656250000,,,
0.1799999997,1,176120.3906250000,191311.8593750000,166729.5156250000,167151.0781250000,133823.9843750000,120125.1328125000,134777.1250000000,150252.4062500000,,,
0.1839999997,1,175855.1093750000,185120.2500000000,166256.6875000000,166568.7187500000,133216.2968750000,119550.5781250000,134138.2343750000,150869.7500000000,,,
0.1879999996,1,175299.9843750000,202087.9531250000,165455.9687500000,165533.2500000000,132257.1406250000,118602.7109375000,133052.7343750000,154375.9218750000,,,
0.1919999996,1,175248.7187500000,215381.9218750000,165492.4843750000,165564.0468750000,132357.6406250000,118660.7031250000,133114.1875000000,155376.4531250000,,,
0.1959999998,1,175717.7812500000,210059.7968750000,166189.0000000000,166459.8437500000,133198.8593750000,119469.0390625000,134042.6875000000,153239.7500000000,,,
0.1999999997,1,176086.9062500000,191840.1406250000,166689.1250000000,167111.7812500000,133794.5781250000,120060.7343750000,134730.8437500000,150496.6562500000,,,
0.2039999997,1,175856.2656250000,185720.5781250000,166269.1093750000,166544.7968750000,133239.7656250000,119550.8203125000,134153.8125000000,151065.2812500000,,,
0.2079999996,1,175385.6562500000,201950.7343750000,165569.5625000000,165626.0781250000,132364.4531250000,118704.3671875000,133170.6718750000,154316.7656250000,,,
0.2119999996,1,175306.1718750000,214663.4062500000,165564.8750000000,165657.9218750000,132418.0781250000,118730.7890625000,133178.1875000000,155193.5468750000,,,
0.2159999998,1,175710.9687500000,209490.2656250000,166180.6250000000,166454.5312500000,133185.1875000000,119477.4921875000,134027.2656250000,153206.0000000000,,,
0.2199999997,1,176067.0625000000,192013.0468750000,166652.4531250000,167067.5468750000,133752.3906250000,120057.0312500000,134685.2968750000,150661.2031250000,,,
0.2239999997,1,175859.1406250000,185972.8437500000,166260.6093750000,166581.2500000000,133227.8593750000,119568.7890625000,134138.8750000000,151139.7968750000,,,
0.2279999997,1,175405.1718750000,201642.9687500000,165580.6718750000,165682.5468750000,132372.5781250000,118724.3515625000,133178.3750000000,154225.0000000000,,,
0.2319999996,1,175334.2343750000,214299.4843750000,165582.2343750000,165667.1250000000,132432.3437500000,118747.8437500000,133202.2656250000,155158.2812500000,,,
0.2359999996,1,175771.8593750000,209131.4062500000,166242.7812500000,166476.9531250000,133243.7968750000,119528.0468750000,134093.7812500000,153196.5625000000,,,
0.2399999998,1,176151.2656250000,191714.3437500000,166743.8593750000,167142.3593750000,133827.9843750000,120112.3906250000,134784.6718750000,150585.2500000000,,,
0.2439999997,1,175931.0156250000,185339.2968750000,166339.1250000000,166652.6093750000,133293.7968750000,119629.5156250000,134236.9062500000,150961.7656250000,,,
0.2479999997,1,175347.7187500000,200976.7968750000,165519.3593750000,165596.4218750000,132322.5937500000,118669.8750000000,133123.9843750000,154177.9843750000,,,
0.2519999996,1,175185.7500000000,214315.6093750000,165421.9843750000,165499.7812500000,132296.9687500000,118613.2812500000,133032.0000000000,155281.8750000000,,,
0.2559999996,2,175689.2187500000,209422.1093750000,166160.1406250000,166417.2500000000,133168.9531250000,119455.4687500000,134007.9843750000,153216.2812500000,,,
0.2599999995,2,176162.5781250000,191831.3281250000,166758.8125000000,167174.2031250000,133834.0468750000,120130.6328125000,134801.0000000000,150496.5156250000,,,
0.2639999995,2,175910.6406250000,185308.9062500000,166317.1562500000,166648.1875000000,133272.0937500000,119611.2734375000,134210.3281250000,150900.0000000000,,,
0.2679999995,2,175287.9843750000,200968.5937500000,165446.6875000000,165554.2500000000,132260.3593750000,118604.3984375000,133038.4687500000,154183.6875000000,,,
0.2719999994,2,175153.4531250000,214448.1718750000,165386.0781250000,165476.2031250000,132265.5625000000,118562.0468750000,132983.8281250000,155312.8281250000,,,
0.2759999994,2,175667.6250000000,209827.5468750000,166136.2656250000,166391.7656250000,133141.8437500000,119413.0078125000,133967.5937500000,153253.7968750000,,,
0.2799999996,2,176158.5781250000,192249.1250000000,166760.0312500000,167172.2343750000,133829.4531250000,120107.7500000000,134780.5625000000,150492.2968750000,,,
0.2839999995,2,175939.0625000000,185504.4375000000,166345.0781250000,166684.7812500000,133300.1406250000,119628.2578125000,134223.6562500000,150889.2187500000,,,
0.2879999995,2,175322.2343750000,201083.7968750000,165482.6093750000,165569.1093750000,132297.1406250000,118636.2656250000,133065.4218750000,154206.3281250000,,,
0.2919999994,2,175177.7812500000,214660.3593750000,165415.8281250000,165474.2343750000,132294.6875000000,118586.4296875000,133013.7968750000,155370.1406250000,,,
0.2959999994,2,175663.5468750000,210199.5000000000,166134.0625000000,166369.5312500000,133139.5937500000,119407.2109375000,133974.5625000000,153294.0000000000,,,
0.2999999996,2,176151.2656250000,192464.2656250000,166750.3593750000,167156.2343750000,133825.5625000000,120108.6640625000,134787.5937500000,150477.9218750000,,,
0.3039999995,2,175938.0468750000,185479.5000000000,166346.3125000000,166663.9843750000,133306.9843750000,119637.4296875000,134243.7500000000,150856.6093750000,,,
0.3079999995,2,175323.7656250000,201127.1093750000,165483.5468750000,165562.3750000000,132306.4687500000,118648.3671875000,133082.4375000000,154215.6093750000,,,
0.3119999995,2,175164.8437500000,214865.4687500000,165397.0000000000,165473.1875000000,132283.3281250000,118588.6562500000,133002.2812500000,155401.9843750000,,,
0.3159999994,2,175699.4062500000,210412.5937500000,166171.5312500000,166416.6562500000,133175.8281250000,119458.8203125000,134001.5156250000,153361.1718750000,,,
0.3199999994,2,176208.3125000000,192520.3750000000,166811.8281250000,167222.4218750000,133883.3593750000,120192.3203125000,134835.7656250000,150553.2656250000,,,
0.3239999996,2,175951.4375000000,185413.0312500000,166368.2812500000,166687.1406250000,133326.8125000000,119671.6250000000,134260.3437500000,150877.4375000000,,,
0.3279999995,2,175314.7500000000,201202.0000000000,165484.3281250000,165572.8906250000,132304.4531250000,118644.6093750000,133080.0937500000,154224.8125000000,,,
0.3319999995,2,175183.5156250000,215121.4062500000,165418.9843750000,165510.2343750000,132300.2656250000,118600.5156250000,133008.6250000000,155440.9218750000,,,
0.3359999994,2,175708.7812500000,210601.0000000000,166175.1093750000,166449.0937500000,133177.2812500000,119457.6406250000,133994.8593750000,153378.4687500000,,,
0.3399999994,2,176212.6875000000,192483.1562500000,166813.2812500000,167230.4375000000,133883.5312500000,120184.6015625000,134834.5312500000,150528.8593750000,,,
0.3439999996,2,175998.8750000000,185285.7656250000,166412.6875000000,166717.3125000000,133367.3906250000,119696.1953125000,134295.6250000000,150882.8906250000,,,
0.3479999995,2,175386.9375000000,201253.8750000000,165547.2031250000,165615.0625000000,132360.4687500000,118689.5859375000,133123.8437500000,154290.3593750000,,,
0.3519999995,2,175238.6406250000,215338.7187500000,165473.7343750000,165522.7343750000,132346.3750000000,118628.0312500000,133050.0625000000,155513.7187500000,,,
0.3559999994,2,175718.0625000000,210729.6875000000,166184.9687500000,166417.2187500000,133184.1875000000,119457.5859375000,133999.6718750000,153390.4843750000,,,
0.3599999994,2,176193.3906250000,192463.4062500000,166791.3906250000,167177.8750000000,133861.1875000000,120163.5937500000,134803.0468750000,150507.0625000000,,,
0.3639999994,2,175971.1406250000,185187.6250000000,166379.4531250000,166675.1718750000,133335.9531250000,119686.3281250000,134259.2187500000,150862.1562500000,,,
0.3679999996,2,175343.6250000000,201239.8125000000,165504.7187500000,165589.6875000000,132317.4062500000,118658.3671875000,133098.5781250000,154258.4531250000,,,
0.3719999995,2,175225.1250000000,215426.4531250000,165460.4218750000,165556.6406250000,132330.9375000000,118606.8437500000,133053.9687500000,155492.4531250000,,,
0.3759999995,2,175746.8281250000,210832.5468750000,166216.5937500000,166492.6250000000,133209.8906250000,119463.2968750000,134037.5937500000,153397.7343750000,,,
0.3799999994,2,176240.3125000000,192511.6875000000,166849.2812500000,167258.7656250000,133913.9687500000,120189.7734375000,134873.7187500000,150518.9687500000,,,
0.3839999994,3,175997.5625000000,185133.3593750000,166418.3281250000,166734.1562500000,133368.3593750000,119689.1171875000,134303.4843750000,150840.5625000000,,,
0.3879999993,3,175339.7500000000,201164.6093750000,165505.7031250000,165603.7187500000,132311.5625000000,118640.5859375000,133089.4531250000,154225.0000000000,,,
0.3919999993,3,175185.7500000000,215413.3593750000,165418.0000000000,165503.1562500000,132286.3281250000,118581.0390625000,133003.0625000000,155455.7812500000,,,
0.3959999993,3,175702.9843750000,210951.8750000000,166169.5468750000,166408.4531250000,133164.3437500000,119441.8984375000,133993.4218750000,153391.5312500000,,,
0.3999999992,3,176202.7812500000,192603.1875000000,166811.5156250000,167226.7500000000,133880.2500000000,120164.4531250000,134843.8906250000,150510.5781250000,,,
0.4039999992,3,175992.0156250000,185050.0000000000,166413.7187500000,166741.6093750000,133366.2656250000,119694.5859375000,134308.0937500000,150832.7031250000,,,
0.4079999994,3,175360.3281250000,200967.8593750000,165532.9843750000,165601.6406250000,132335.0625000000,118650.7265625000,133123.8750000000,154212.7500000000,,,
0.4119999993,3,175161.6250000000,215225.7187500000,165394.0468750000,165476.4375000000,132260.2343750000,118540.4843750000,132989.5000000000,155409.4062500000,,,
0.4159999993,3,175646.5156250000,210851.8281250000,166114.8281250000,166376.3281250000,133109.5468750000,119381.6796875000,133945.0000000000,153339.5312500000,,,
0.4199999992,3,176166.1406250000,192589.0468750000,166776.6093750000,167218.9687500000,133848.0468750000,120135.5937500000,134809.9687500000,150495.2031250000,,,
0.4239999992,3,176018.5625000000,184993.4843750000,166448.4531250000,166799.3593750000,133410.0156250000,119728.8906250000,134356.3281250000,150846.9218750000,,,
0.4279999994,3,175425.6875000000,200806.9375000000,165598.8281250000,165696.6250000000,132407.0781250000,118738.1406250000,133197.3906250000,154240.5781250000,,,
0.4319999993,3,175297.0312500000,215121.6718750000,165540.3593750000,165592.9218750000,132399.5156250000,118686.5312500000,133126.5312500000,155519.0312500000,,,
0.4359999993,3,175787.5312500000,210852.8750000000,166258.6875000000,166491.3125000000,133249.7812500000,119528.6093750000,134084.5312500000,153497.7812500000,,,
0.4399999992,3,176255.2968750000,192689.6875000000,166867.8593750000,167272.9843750000,133938.2968750000,120222.4453125000,134903.8125000000,150623.8593750000,,,
0.4439999992,3,176042.6562500000,185009.2343750000,166469.0156250000,166785.5156250000,133430.2343750000,119753.4843750000,134380.5468750000,150885.5625000000,,,
0.4479999992,3,175412.6875000000,200643.7656250000,165582.0156250000,165658.1093750000,132388.2968750000,118715.5781250000,133179.8281250000,154205.9531250000,,,
0.4519999993,3,175240.9218750000,214972.5625000000,165477.1718750000,165524.8750000000,132336.4062500000,118614.2187500000,133064.1718750000,155451.0625000000,,,
0.4559999993,3,175726.0937500000,210781.5312500000,166199.1875000000,166406.7968750000,133188.0000000000,119446.2421875000,134030.3750000000,153420.3125000000,,,
0.4599999993,3,176190.4218750000,192666.2656250000,166806.6093750000,167177.6250000000,133875.3750000000,120151.6093750000,134853.2031250000,150540.8750000000,,,
0.4639999992,3,175970.5312500000,184858.2968750000,166403.7031250000,166700.8125000000,133362.3750000000,119687.6640625000,134319.4687500000,150754.1406250000,,,
0.4679999992,3,175347.0468750000,200397.7343750000,165517.8281250000,165621.3593750000,132323.6875000000,118661.7187500000,133127.4687500000,154061.3281250000,,,
0.4719999994,3,175231.0468750000,214785.4062500000,165463.8281250000,165534.8906250000,132325.3593750000,118622.2890625000,133062.7500000000,155393.0156250000,,,
0.4759999993,3,175741.8125000000,210731.1562500000,166210.0468750000,166454.9062500000,133204.2343750000,119479.0468750000,134046.2500000000,153427.7968750000,,,
0.4799999993,3,176235.7500000000,192666.3125000000,166846.1406250000,167258.6406250000,133920.2187500000,120204.6640625000,134890.8593750000,150573.3593750000,,,
0.4839999992,3,176001.9687500000,184763.2968750000,166429.6718750000,166767.2812500000,133393.9375000000,119725.8593750000,134353.3437500000,150770.3125000000,,,
0.4879999992,3,175361.8593750000,200285.5937500000,165531.5625000000,165638.6875000000,132340.2343750000,118679.6640625000,133156.2187500000,154086.4843750000,,,
0.4919999992,3,175207.8437500000,214770.7812500000,165443.1250000000,165515.0937500000,132305.5625000000,118594.2343750000,133055.8750000000,155402.3593750000,,,
0.4959999993,3,175658.0468750000,210784.0312500000,166126.9843750000,166352.3750000000,133123.2031250000,119393.5078125000,133977.2187500000,153389.7343750000,,,
0.4999999993,3,176144.3437500000,192692.3125000000,166757.4062500000,167153.0625000000,133837.1718750000,120121.0312500000,134819.4062500000,150511.7187500000,,,
0.5039999993,3,175997.5156250000,184741.8125000000,166433.7187500000,166742.4375000000,133402.3906250000,119728.7578125000,134363.3750000000,150760.1562500000,,,
0.5079999992,3,175406.2812500000,200338.2656250000,165585.8437500000,165663.3593750000,132395.6562500000,118719.4453125000,133200.8593750000,154130.5625000000,,,
0.5119999992,4,175190.0625000000,214925.2500000000,165430.3593750000,165475.1875000000,132295.3906250000,118571.8671875000,133040.6093750000,155411.7968750000,,,
0.5159999991,4,175647.9218750000,210980.4218750000,166123.3281250000,166313.1093750000,133117.8906250000,119381.2500000000,133965.1406250000,153403.6562500000,,,
0.5199999991,4,176076.9843750000,192826.4687500000,166683.8906250000,167069.4375000000,133766.9062500000,120064.4375000000,134749.3437500000,150463.9218750000,,,
0.5239999990,4,175841.2968750000,184719.3906250000,166274.5625000000,166584.7500000000,133244.4687500000,119582.4453125000,134215.3906250000,150600.3125000000,,,
0.5279999990,4,175266.2968750000,200314.2656250000,165444.1406250000,165505.8906250000,132254.2656250000,118595.9531250000,133068.2968750000,153990.2031250000,,,
0.5319999990,4,175175.3906250000,215066.3593750000,165413.4062500000,165432.3437500000,132277.9531250000,118567.7656250000,133018.7500000000,155422.7187500000,,,
0.5359999991,4,175663.7343750000,211204.4375000000,166133.5312500000,166313.8593750000,133129.4843750000,119381.1953125000,133971.3125000000,153450.8906250000,,,
0.5399999991,4,176158.3125000000,193037.8281250000,166763.3125000000,167113.3593750000,133846.4531250000,120128.2968750000,134820.9843750000,150561.1562500000,,,
0.5439999991,4,175985.4687500000,184899.9218750000,166423.5625000000,166687.9687500000,133393.8906250000,119712.9296875000,134358.1406250000,150766.9375000000,,,
0.5479999990,4,175360.1875000000,200528.5781250000,165541.1562500000,165586.2187500000,132348.5468750000,118672.9843750000,133157.5000000000,154141.1093750000,,,
0.5519999990,4,175227.7187500000,215367.1250000000,165459.7812500000,165474.7031250000,132320.1406250000,118621.7265625000,133057.1093750000,155562.8281250000,,,
0.5559999992,4,175724.9218750000,211518.7968750000,166188.2500000000,166380.2343750000,133184.3906250000,119471.7187500000,134030.9218750000,153622.8437500000,,,
0.5599999991,4,176200.6093750000,193226.7968750000,166805.4218750000,167179.5156250000,133887.3437500000,120191.7578125000,134866.2968750000,150706.5000000000,,,
0.5639999991,4,176026.1875000000,184959.4687500000,166460.5468750000,166747.7500000000,133433.7187500000,119775.6406250000,134404.4375000000,150871.5937500000,,,
0.5679999990,4,175407.7031250000,200631.1875000000,165584.7812500000,165626.2968750000,132396.1562500000,118750.9843750000,133220.8906250000,154209.9531250000,,,
0.5719999990,4,175264.4062500000,215586.3281250000,165499.5000000000,165521.4218750000,132366.8437500000,118667.5390625000,133122.4531250000,155583.7343750000,,,
0.5759999990,4,175731.3125000000,211775.1250000000,166194.6875000000,166391.2812500000,133198.2500000000,119480.8984375000,134059.3437500000,153585.9375000000,,,
0.5799999991,4,176275.3593750000,193415.2968750000,166888.0312500000,167246.7187500000,133977.6718750000,120276.6250000000,134978.5156250000,150706.3437500000,,,
0.5839999991,4,176155.1406250000,185034.5781250000,166594.4062500000,166874.5937500000,133574.0468750000,119914.4453125000,134562.4687500000,150920.0312500000,,,
0.5879999991,4,175563.4843750000,200737.3281250000,165743.5937500000,165777.0156250000,132554.8750000000,118916.5859375000,133394.3125000000,154311.5000000000,,,
0.5919999990,4,175368.8593750000,215741.0468750000,165598.6718750000,165617.0156250000,132465.1718750000,118806.1875000000,133237.0937500000,155659.8281250000,,,
0.5959999990,4,175816.2187500000,211938.0468750000,166275.2500000000,166464.2968750000,133279.8906250000,119580.9687500000,134155.4218750000,153631.0468750000,,,
0.5999999992,4,176302.1093750000,193495.6562500000,166912.3906250000,167264.6718750000,134001.2500000000,120308.1953125000,135013.7812500000,150631.3437500000,,,
0.6039999991,4,176108.4843750000,184993.2187500000,166548.5156250000,166819.0781250000,133529.5781250000,119901.3593750000,134532.6250000000,150755.6406250000,,,
0.6079999991,4,175483.1718750000,200681.2656250000,165660.3281250000,165699.2031250000,132477.3593750000,118852.5078125000,133333.9218750000,154179.3281250000,,,
0.6119999990,4,175294.4062500000,215747.2343750000,165528.1250000000,165545.7968750000,132395.7812500000,118723.9218750000,133184.1718750000,155589.2500000000,,,
0.6159999990,4,175765.0000000000,211938.3437500000,166226.8750000000,166418.2187500000,133233.4375000000,119547.1953125000,134126.8906250000,153601.8437500000,,,
0.6199999989,4,176275.7656250000,193443.2500000000,166885.1562500000,167268.2343750000,133982.4531250000,120310.1796875000,135006.8906250000,150658.4687500000,,,
0.6239999991,4,176102.1718750000,184857.8906250000,166548.9218750000,166860.1875000000,133538.9687500000,119910.4531250000,134558.7187500000,150801.0312500000,,,
0.6279999991,4,175489.3125000000,200552.4687500000,165678.8906250000,165720.8125000000,132501.6562500000,118884.4531250000,133384.0156250000,154215.8750000000,,,
0.6319999991,4,175311.4062500000,215726.4843750000,165553.9531250000,165538.7187500000,132427.4843750000,118774.2968750000,133238.4531250000,155638.9062500000,,,
0.6359999990,4,175803.3437500000,211989.7656250000,166273.5937500000,166423.8437500000,133286.6875000000,119624.2890625000,134194.5312500000,153682.8437500000,,,
0.6399999990,5,176293.6093750000,193499.6562500000,166910.3437500000,167236.1093750000,134013.2656250000,120368.5156250000,135053.2343750000,150727.6718750000,,,
0.6439999989,5,176110.5468750000,184835.8281250000,166557.0000000000,166821.1093750000,133551.8437500000,119927.7812500000,134587.2656250000,150835.2031250000,,,
0.6479999989,5,175472.4375000000,200474.6093750000,165654.7812500000,165683.7187500000,132480.7343750000,118893.3828125000,133378.5000000000,154195.9843750000,,,
0.6519999988,5,175272.9687500000,215690.7812500000,165509.9218750000,165505.5625000000,132387.4375000000,118756.1875000000,133221.1562500000,155591.6406250000,,,
0.6559999988,5,175735.2968750000,211998.0000000000,166207.3125000000,166371.9843750000,133223.3593750000,119558.3281250000,134156.0468750000,153609.8125000000,,,
0.6599999988,5,176224.0312500000,193487.2656250000,166843.7187500000,167182.7343750000,133952.8125000000,120304.2812500000,135012.7968750000,150648.3281250000,,,
0.6639999989,5,176050.8593750000,184696.4218750000,166503.7500000000,166772.3437500000,133502.5468750000,119897.5468750000,134543.6718750000,150745.3906250000,,,
0.6679999989,5,175453.8906250000,200301.1406250000,165642.7968750000,165661.2656250000,132467.0000000000,118878.8437500000,133354.9218750000,154154.0781250000,,,
0.6719999989,5,175277.5000000000,215615.5468750000,165518.1718750000,165534.0312500000,132389.6718750000,118752.6484375000,133221.0468750000,155593.0625000000,,,
0.6759999988,5,175754.1875000000,212042.2812500000,166219.1406250000,166408.6718750000,133231.7812500000,119581.4218750000,134166.2812500000,153651.6562500000,,,
0.6799999988,5,176223.5781250000,193509.9531250000,166845.3281250000,167189.2500000000,133955.4062500000,120307.8984375000,135022.6875000000,150670.7812500000,,,
0.6839999990,5,176046.9218750000,184574.5000000000,166502.2500000000,166781.6250000000,133504.5781250000,119894.5468750000,134555.1875000000,150762.7812500000,,,
0.6879999989,5,175433.0625000000,200129.8281250000,165622.4843750000,165653.3906250000,132446.9375000000,118847.9765625000,133345.9375000000,154170.6562500000,,,
0.6919999989,5,175252.6406250000,215518.2812500000,165492.4843750000,165482.6562500000,132362.3593750000,118717.9687500000,133186.6875000000,155616.4843750000,,,
0.6959999988,5,175736.7968750000,212036.6406250000,166201.9843750000,166364.0312500000,133210.3750000000,119544.3046875000,134129.1718750000,153686.8750000000,,,
0.6999999988,5,176242.7500000000,193535.1406250000,166860.3750000000,167206.0937500000,133960.9687500000,120301.8125000000,135004.6093750000,150739.0937500000,,,
0.7039999987,5,176052.6093750000,184504.1093750000,166502.4687500000,166795.2500000000,133495.9687500000,119874.3203125000,134525.0781250000,150783.5312500000,,,
0.7079999989,5,175428.1093750000,199970.6406250000,165609.5000000000,165664.4687500000,132426.5781250000,118811.7343750000,133297.9531250000,154137.1562500000,,,
0.7119999989,5,175217.0937500000,215432.5937500000,165453.5312500000,165448.4062500000,132318.6250000000,118650.9140625000,133114.0625000000,155551.2187500000,,,
0.7159999989,5,175666.0937500000,212054.0468750000,166134.8125000000,166301.5156250000,133141.7343750000,119458.2812500000,134028.7656250000,153599.8281250000,,,
0.7199999988,5,176179.4218750000,193556.4375000000,166805.2343750000,167153.5156250000,133907.5937500000,120236.9843750000,134932.4531250000,150649.2968750000,,,
0.7239999988,5,176027.0468750000,184381.0781250000,166485.0312500000,166787.4218750000,133479.9062500000,119844.2265625000,134501.8281250000,150708.0156250000,,,
0.7279999990,5,175407.0000000000,199787.2343750000,165589.0468750000,165636.7343750000,132404.9531250000,118791.2187500000,133276.7656250000,154060.0937500000,,,
0.7319999989,5,175187.2656250000,215307.0937500000,165415.3125000000,165434.1406250000,132276.2187500000,118632.8593750000,133068.4062500000,155474.0000000000,,,
0.7359999989,5,175654.8125000000,211965.7343750000,166118.7031250000,166319.3750000000,133116.1406250000,119435.5937500000,133999.9375000000,153540.0781250000,,,
0.7399999988,5,176169.0937500000,193469.8593750000,166793.4062500000,167146.4062500000,133887.1562500000,120215.0390625000,134905.0937500000,150589.1093750000,,,
0.7439999988,5,176020.6875000000,184212.8281250000,166480.1250000000,166763.8437500000,133469.1250000000,119841.2734375000,134478.8906250000,150630.0937500000,,,
0.7479999987,5,175413.4375000000,199549.4843750000,165598.2968750000,165640.3750000000,132407.6406250000,118794.9453125000,133262.3750000000,153994.9218750000,,,
0.7519999989,5,175204.2031250000,215139.3437500000,165438.8593750000,165463.4062500000,132292.0937500000,118621.5703125000,133070.6562500000,155446.7812500000,,,
0.7559999989,5,175690.6406250000,211906.7187500000,166159.9531250000,166342.1250000000,133152.6250000000,119454.5312500000,134020.7812500000,153538.6250000000,,,
0.7599999988,5,176177.8125000000,193423.0312500000,166802.2500000000,167161.9375000000,133891.8906250000,120202.9218750000,134887.2656250000,150518.8906250000,,,
0.7639999988,5,175997.2656250000,184045.9375000000,166457.2968750000,166768.1718750000,133444.7187500000,119796.4296875000,134436.7031250000,150467.3125000000,,,
0.7679999988,6,175394.6562500000,199324.8281250000,165581.2343750000,165641.0156250000,132387.9218750000,118745.3828125000,133233.5156250000,153866.8437500000,,,
0.7719999987,6,175198.1562500000,215015.5000000000,165431.5937500000,165452.3281250000,132281.4375000000,118591.8203125000,133053.5156250000,155423.5468750000,,,
0.7759999987,6,175667.1250000000,211906.4843750000,166135.4531250000,166319.2187500000,133121.7031250000,119411.4531250000,133990.1406250000,153537.1250000000,,,
0.7799999986,6,176157.3750000000,193451.7812500000,166778.8125000000,167163.3125000000,133863.7656250000,120181.0078125000,134866.3750000000,150524.6250000000,,,
0.7839999986,6,175990.4375000000,183967.5625000000,166448.7656250000,166765.8281250000,133431.5781250000,119798.0156250000,134427.2343750000,150497.9062500000,,,
0.7879999985,6,175367.5781250000,199155.2031250000,165555.5937500000,165605.9375000000,132360.1406250000,118728.6171875000,133203.9062500000,153891.3281250000,,,
0.7919999987,6,175178.1562500000,214922.9687500000,165408.9843750000,165421.2968750000,132258.4531250000,118577.4453125000,133021.1093750000,155454.8281250000,,,
0.7959999987,6,175621.2343750000,211910.8750000000,166079.6406250000,166252.2968750000,133069.3125000000,119369.1015625000,133924.0781250000,153538.1406250000,,,
0.7999999986,6,176120.6875000000,193498.3125000000,166737.1250000000,167094.2187500000,133821.6250000000,120133.8515625000,134810.4687500000,150502.4375000000,,,
0.8039999986,6,175957.2812500000,183912.7656250000,166411.8125000000,166722.5937500000,133393.7031250000,119743.9140625000,134382.6875000000,150441.3125000000,,,
0.8079999986,6,175364.1562500000,199037.3125000000,165544.3593750000,165595.6875000000,132351.4218750000,118712.6015625000,133184.8593750000,153865.5625000000,,,
0.8119999988,6,175186.0625000000,214892.7968750000,165412.6250000000,165417.1562500000,132263.5468750000,118575.4843750000,133013.7656250000,155469.0312500000,,,
0.8159999987,6,175628.0937500000,212010.8906250000,166085.1093750000,166263.7500000000,133071.0312500000,119367.8125000000,133924.1562500000,153575.9375000000,,,
0.8199999987,6,176103.7500000000,193654.3906250000,166713.3906250000,167098.4531250000,133795.9531250000,120117.2187500000,134788.1562500000,150515.5000000000,,,
0.8239999986,6,175947.1406250000,183995.5156250000,166397.8281250000,166728.3906250000,133379.4062500000,119736.3515625000,134365.7812500000,150432.4843750000,,,
0.8279999986,6,175358.5312500000,199028.1718750000,165536.9531250000,165604.5625000000,132340.6406250000,118709.9765625000,133172.4531250000,153866.8437500000,,,
0.8319999985,6,175159.1093750000,214957.7343750000,165381.2187500000,165410.3437500000,132228.1718750000,118548.9062500000,132974.8750000000,155494.9531250000,,,
0.8359999987,6,175603.1250000000,212208.0625000000,166060.2812500000,166264.0156250000,133042.1718750000,119331.3906250000,133881.6562500000,153604.5312500000,,,
0.8399999987,6,176092.0312500000,193893.3281250000,166712.0000000000,167118.0937500000,133786.7343750000,120080.2343750000,134758.2500000000,150521.2656250000,,,
0.8439999986,6,175930.7500000000,184097.9687500000,166388.2343750000,166754.4531250000,133367.6250000000,119715.4843750000,134351.5000000000,150407.9218750000,,,
0.8479999986,6,175326.5937500000,199019.6093750000,165505.9375000000,165617.3437500000,132314.3281250000,118682.3984375000,133162.6250000000,153839.3281250000,,,
0.8519999986,6,175157.4687500000,214997.4218750000,165379.2656250000,165430.1250000000,132227.9375000000,118549.9531250000,132992.6875000000,155519.1718750000,,,
0.8559999987,6,175590.8437500000,212512.1406250000,166040.3750000000,166255.8906250000,133022.3281250000,119325.2734375000,133879.9062500000,153667.3437500000,,,
0.8599999987,6,176058.3125000000,194234.5312500000,166670.9687500000,167092.3906250000,133752.9531250000,120073.9609375000,134752.1406250000,150539.2500000000,,,
0.8639999987,6,175901.4687500000,184198.4843750000,166359.4218750000,166725.8125000000,133345.0468750000,119700.9453125000,134342.0468750000,150380.7812500000,,,
0.8679999986,6,175346.3281250000,199013.2812500000,165526.0312500000,165629.5468750000,132339.3750000000,118706.7578125000,133169.2500000000,153851.6718750000,,,
0.8719999986,6,175167.7968750000,215043.1875000000,165389.7031250000,165448.2500000000,132244.7500000000,118562.0468750000,132980.5312500000,155541.1875000000,,,
0.8759999985,6,175586.7656250000,212631.7500000000,166040.7500000000,166262.9375000000,133024.6875000000,119310.1484375000,133867.1406250000,153672.0312500000,,,
0.8799999987,6,176093.8281250000,194412.6562500000,166713.6093750000,167101.9375000000,133788.6875000000,120088.7109375000,134782.5781250000,150569.4375000000,,,
0.8839999987,6,175961.2812500000,184309.8906250000,166426.1093750000,166742.3593750000,133408.7031250000,119747.4531250000,134401.0625000000,150418.3281250000,,,
0.8879999986,6,175345.4375000000,198990.8281250000,165531.5937500000,165613.5781250000,132351.2031250000,118698.6562500000,133191.0625000000,153840.5000000000,,,
0.8919999986,6,175171.8281250000,215035.9218750000,165399.6562500000,165424.9687500000,132257.4375000000,118553.1484375000,133013.3906250000,155560.2031250000,,,
0.8959999986,7,175616.0468750000,212549.8906250000,166072.4218750000,166264.9062500000,133059.1250000000,119333.3437500000,133907.5937500000,153703.6562500000,,,
0.8999999985,7,176112.1562500000,194381.6718750000,166728.6093750000,167111.6718750000,133808.1093750000,120097.3437500000,134795.1875000000,150600.8281250000,,,
0.9039999985,7,175987.9062500000,184349.0312500000,166453.2500000000,166777.0468750000,133439.0625000000,119767.0625000000,134422.7031250000,150456.0156250000,,,
0.9079999984,7,175400.2968750000,198943.2187500000,165588.4531250000,165671.9218750000,132404.8750000000,118753.2890625000,133228.7812500000,153889.9062500000,,,
0.9119999984,7,175169.3281250000,214989.2812500000,165393.5937500000,165441.3593750000,132252.6093750000,118560.1484375000,132994.8906250000,155570.5000000000,,,
0.9159999983,7,175606.6562500000,212573.6250000000,166063.0468750000,166274.0000000000,133051.1093750000,119337.2890625000,133902.7031250000,153724.8750000000,,,
0.9199999985,7,176109.6093750000,194477.0312500000,166723.9375000000,167141.1562500000,133803.5781250000,120109.7421875000,134802.0156250000,150650.0156250000,,,
0.9239999985,7,175960.2812500000,184388.8593750000,166425.2656250000,166785.4062500000,133412.9062500000,119743.9687500000,134411.0937500000,150463.4687500000,,,
0.9279999984,7,175336.0312500000,198855.8906250000,165526.4062500000,165620.5312500000,132344.1250000000,118689.2968750000,133191.1718750000,153838.9531250000,,,
0.9319999984,7,175101.8125000000,214948.2656250000,165326.3906250000,165366.6250000000,132185.6875000000,118490.6250000000,132929.8437500000,155526.7343750000,,,
0.9359999984,7,175560.2656250000,212872.1562500000,166009.8750000000,166194.0312500000,132999.3437500000,119280.0234375000,133818.7812500000,153749.5000000000,,,
0.9399999985,7,176105.7187500000,194875.6875000000,166717.2343750000,167091.7968750000,133801.4843750000,120108.7968750000,134776.5468750000,150687.2500000000,,,
0.9439999985,7,175984.5625000000,184508.2500000000,166446.6718750000,166774.3593750000,133434.8281250000,119791.3359375000,134436.1406250000,150476.5312500000,,,
0.9479999985,7,175353.0312500000,198828.5625000000,165543.3125000000,165648.5000000000,132359.7656250000,118710.9140625000,133215.2500000000,153819.4531250000,,,
0.9519999984,7,175121.4843750000,214933.8281250000,165350.1562500000,165412.3125000000,132202.7187500000,118491.8046875000,132966.0468750000,155509.7187500000,,,
0.9559999984,7,175558.7031250000,213087.4531250000,166012.2968750000,166207.7187500000,132991.2968750000,119260.0937500000,133832.5156250000,153775.7812500000,,,
0.9599999983,7,176084.5000000000,195166.1718750000,166708.4531250000,167095.9062500000,133789.7500000000,120077.8750000000,134770.6718750000,150720.4843750000,,,
0.9639999985,7,175968.0312500000,184552.9375000000,166442.4687500000,166795.0937500000,133433.0781250000,119774.1406250000,134429.6718750000,150474.4375000000,,,
0.9679999985,7,175354.0468750000,198758.7187500000,165546.9218750000,165651.0000000000,132361.0781250000,118719.0937500000,133209.7812500000,153808.1093750000,,,
0.9719999984,7,175118.5000000000,214916.3437500000,165342.0625000000,165390.5781250000,132193.4687500000,118506.3437500000,132949.4687500000,155512.1718750000,,,
0.9759999984,7,175561.6250000000,213106.0468750000,166006.1250000000,166209.7031250000,132985.9062500000,119271.6796875000,133833.6875000000,153799.9218750000,,,
0.9799999984,7,176103.6562500000,195206.0781250000,166719.5937500000,167114.6250000000,133799.0156250000,120081.3359375000,134785.4531250000,150782.0312500000,,,
0.9839999985,7,175986.2812500000,184574.4375000000,166460.6250000000,166792.2031250000,133452.6250000000,119776.8203125000,134445.2031250000,150551.8437500000,,,
0.9879999985,7,175337.7500000000,198672.9375000000,165527.8125000000,165625.8906250000,132348.5000000000,118695.6484375000,133191.3906250000,153843.5937500000,,,
0.9919999985,7,175095.5468750000,214809.6250000000,165317.8750000000,165368.7031250000,132173.2500000000,118469.5703125000,132924.6406250000,155519.0937500000,,,
0.9959999984,7,175550.9531250000,212805.0468750000,165998.6093750000,166213.4375000000,132985.1718750000,119259.8515625000,133835.4375000000,153798.8281250000,,,
0.9999999984,7,176101.2343750000,194966.4531250000,166714.0156250000,167112.4531250000,133795.1250000000,120087.3984375000,134792.0156250000,150860.2968750000,,,
1.0039999983,7,175979.9218750000,184536.2187500000,166451.7187500000,166808.2968750000,133445.1718750000,119777.5234375000,134447.0937500000,150634.4843750000,,,
1.0079999985,7,175359.2812500000,198597.5937500000,165556.5625000000,165669.0156250000,132376.2031250000,118719.2031250000,133214.7187500000,153852.3125000000,,,
1.0119999985,7,175132.2812500000,214795.4843750000,165360.5625000000,165412.5000000000,132213.9843750000,118508.8359375000,132952.4531250000,155505.1875000000,,,
1.0159999984,7,175572.4843750000,212828.1875000000,166023.5000000000,166230.0937500000,133008.2500000000,119276.0312500000,133831.8906250000,153789.0625000000,,,
1.0199999984,7,176092.0625000000,195007.4062500000,166709.4218750000,167084.5000000000,133791.8750000000,120066.0703125000,134757.0625000000,150854.0468750000,,,
1.0239999983,8,175975.5156250000,184544.2656250000,166443.5625000000,166768.5937500000,133444.5625000000,119771.9687500000,134415.0937500000,150631.3281250000,,,
1.0279999983,8,175369.3125000000,198531.3750000000,165558.7500000000,165656.8437500000,132381.9531250000,118722.0468750000,133219.7656250000,153823.1718750000,,,
1.0319999983,8,175141.1406250000,214762.3593750000,165360.0312500000,165426.3593750000,132212.8125000000,118508.7031250000,132966.9687500000,155453.1875000000,,,
1.0359999982,8,175580.5937500000,212920.1093750000,166025.4062500000,166222.1250000000,133007.8125000000,119285.8750000000,133850.3437500000,153757.5468750000,,,
1.0399999982,8,176104.1875000000,195168.9062500000,166716.7187500000,167082.8906250000,133797.5156250000,120076.1015625000,134778.0468750000,150845.4218750000,,,
1.0439999981,8,176018.6562500000,184621.2500000000,166496.2656250000,166805.9531250000,133488.1406250000,119796.8828125000,134468.7812500000,150617.5625000000,,,
1.0479999983,8,175395.0312500000,198522.8906250000,165590.7500000000,165670.5312500000,132407.2968750000,118737.8437500000,133241.7500000000,153761.4687500000,,,
1.0519999983,8,175144.8906250000,214768.7656250000,165366.2031250000,165402.5468750000,132215.7812500000,118500.5703125000,132964.8750000000,155377.4062500000,,,
1.0559999982,8,175579.3906250000,213021.3125000000,166025.8437500000,166212.0625000000,133003.2500000000,119259.3203125000,133839.7031250000,153711.7343750000,,,
1.0599999982,8,176135.3593750000,195327.2656250000,166746.0625000000,167120.9375000000,133822.2656250000,120091.2812500000,134796.7968750000,150852.0156250000,,,
1.0639999982,8,176048.5781250000,184647.9843750000,166519.6250000000,166856.1718750000,133513.7031250000,119824.2187500000,134491.3437500000,150617.5156250000,,,
1.0679999983,8,175411.1562500000,198447.3593750000,165606.6562500000,165707.6718750000,132422.6562500000,118742.8281250000,133239.3125000000,153736.5468750000,,,
1.0719999983,8,175146.8750000000,214723.7656250000,165371.2500000000,165405.6093750000,132215.2968750000,118494.4609375000,132951.7812500000,155348.2343750000,,,
1.0759999983,8,175580.2500000000,213087.3437500000,166023.9375000000,166208.7031250000,132998.2343750000,119262.3515625000,133838.9687500000,153706.0468750000,,,
1.0799999982,8,176124.7656250000,195437.2031250000,166733.2968750000,167112.6406250000,133810.4375000000,120089.4843750000,134795.6093750000,150829.4531250000,,,
1.0839999982,8,176026.9062500000,184663.8437500000,166504.5000000000,166830.3125000000,133497.4531250000,119812.8437500000,134491.1093750000,150552.4062500000,,,
1.0879999981,8,175414.4062500000,198389.5625000000,165618.6250000000,165704.3437500000,132433.3125000000,118765.1171875000,133274.7187500000,153694.3593750000,,,
1.0919999983,8,175156.0312500000,214678.5156250000,165384.9843750000,165431.7343750000,132230.3281250000,118522.4843750000,132985.1718750000,155343.5937500000,,,
1.0959999983,8,175577.7968750000,213113.0625000000,166025.0937500000,166232.0781250000,132999.7187500000,119274.3671875000,133843.9843750000,153712.4843750000,,,
1.0999999982,8,176116.0156250000,195488.4062500000,166730.6718750000,167112.7500000000,133805.7500000000,120089.0625000000,134782.0625000000,150825.4843750000,,,
1.1039999982,8,176027.7187500000,184641.5781250000,166508.2343750000,166843.7812500000,133498.0937500000,119816.9453125000,134485.4375000000,150542.0000000000,,,
1.1079999981,8,175436.4531250000,198304.0312500000,165641.2031250000,165745.4062500000,132448.2968750000,118777.2421875000,133285.9843750000,153703.0156250000,,,
1.1119999983,8,175183.7656250000,214648.2031250000,165402.7656250000,165429.4687500000,132243.7812500000,118544.8281250000,132987.6093750000,155384.0625000000,,,
1.1159999983,8,175598.1562500000,213155.2343750000,166037.7656250000,166198.8437500000,133009.8281250000,119282.7890625000,133838.2500000000,153757.5000000000,,,
1.1199999982,8,176123.9218750000,195565.8125000000,166731.1562500000,167079.0000000000,133807.8593750000,120079.8593750000,134780.3281250000,150857.8593750000,,,
1.1239999982,8,176011.2500000000,184638.8125000000,166488.1093750000,166811.1406250000,133484.5156250000,119786.7187500000,134466.9687500000,150527.9531250000,,,
1.1279999982,8,175413.7812500000,198211.6250000000,165612.2968750000,165694.5781250000,132429.2031250000,118754.8984375000,133270.1406250000,153668.6250000000,,,
1.1319999981,8,175170.3281250000,214586.2500000000,165395.6562500000,165417.8593750000,132238.8750000000,118519.8359375000,132989.0625000000,155352.1718750000,,,
1.1359999983,8,175608.7343750000,213210.2500000000,166052.7968750000,166218.0937500000,133027.2343750000,119284.5546875000,133846.9375000000,153769.0000000000,,,
1.1399999983,8,176132.1406250000,195678.5937500000,166738.9843750000,167105.6875000000,133821.6250000000,120100.4609375000,134784.3437500000,150880.4531250000,,,
1.1439999982,8,176014.3906250000,184675.0781250000,166484.2812500000,166835.4687500000,133489.6406250000,119809.3046875000,134483.9375000000,150529.6875000000,,,
1.1479999982,8,175419.0156250000,198156.6875000000,165611.9531250000,165716.1718750000,132432.5312500000,118772.3906250000,133285.8281250000,153655.3750000000,,,
1.1519999981,9,175184.8593750000,214566.7968750000,165401.3593750000,165433.5468750000,132245.2031250000,118547.3750000000,133005.2343750000,155366.5156250000,,,
1.1559999981,9,175583.8125000000,213213.0625000000,166025.8906250000,166208.6250000000,133000.1406250000,119266.6640625000,133842.5937500000,153752.1875000000,,,
1.1599999981,9,176122.1562500000,195723.2031250000,166733.1875000000,167100.8906250000,133813.5156250000,120093.1328125000,134792.3437500000,150871.6562500000,,,
1.1639999980,9,176040.7187500000,184680.4375000000,166525.3437500000,166851.9531250000,133524.9218750000,119837.9531250000,134514.2500000000,150531.2968750000,,,
1.1679999980,9,175426.5312500000,198077.6718750000,165634.3125000000,165715.7812500000,132451.0937500000,118782.2343750000,133301.6718750000,153634.0625000000,,,
1.1719999979,9,175179.2812500000,214532.1718750000,165407.3125000000,165428.2968750000,132247.5156250000,118540.3750000000,133001.3281250000,155350.5937500000,,,
1.1759999981,9,175592.8281250000,213424.0781250000,166031.1406250000,166213.6718750000,133002.1875000000,119283.5937500000,133850.1875000000,153802.9218750000,,,
1.1799999981,9,176103.8437500000,196013.0781250000,166713.1250000000,167098.4062500000,133793.5937500000,120086.7812500000,134784.8593750000,150890.7187500000,,,
1.1839999980,9,176015.3281250000,184731.6406250000,166496.2500000000,166845.9218750000,133499.9687500000,119827.5937500000,134494.2656250000,150503.5937500000,,,
1.1879999980,9,175412.5781250000,198016.4687500000,165619.8593750000,165710.2500000000,132439.7500000000,118772.4140625000,133293.8906250000,153612.7656250000,,,
1.1919999979,9,175169.4843750000,214490.8906250000,165393.9062500000,165425.2031250000,132238.7187500000,118533.4062500000,133004.7031250000,155351.1250000000,,,
1.1959999981,9,175581.9843750000,213420.8281250000,166022.9062500000,166190.3437500000,132998.6875000000,119269.1640625000,133839.3750000000,153809.6562500000,,,
1.1999999981,9,176107.6250000000,196043.2812500000,166721.9218750000,167061.0937500000,133806.7031250000,120081.2812500000,134777.5625000000,150909.0937500000,,,
1.2039999980,9,176024.3593750000,184747.6875000000,166505.5468750000,166825.1406250000,133511.6718750000,119831.8359375000,134497.2968750000,150518.7812500000,,,
1.2079999980,9,175433.9062500000,197949.0156250000,165639.8125000000,165728.9687500000,132454.8281250000,118788.4531250000,133300.4375000000,153619.4687500000,,,
1.2119999980,9,175201.4062500000,214446.1562500000,165431.1093750000,165465.3437500000,132261.3593750000,118553.0937500000,133022.9687500000,155364.4062500000,,,
1.2159999979,9,175587.2500000000,213321.5000000000,166026.0312500000,166220.5312500000,132994.8281250000,119274.3671875000,133840.4531250000,153799.9218750000,,,
1.2199999981,9,176088.8906250000,195974.5781250000,166698.8281250000,167068.7031250000,133778.3593750000,120068.5390625000,134748.9218750000,150899.3906250000,33029,1.2204987018,0.0000000000
1.2239999981,9,176001.4531250000,184742.1406250000,166487.9218750000,166833.6406250000,133491.6562500000,119817.4609375000,134473.2187500000,150500.9375000000,,,
1.2279999980,9,175418.7968750000,197871.6562500000,165631.3437500000,165721.2656250000,132447.5312500000,118790.1171875000,133306.1875000000,153597.5000000000,,,
1.2319999980,9,175173.5468750000,214403.1250000000,165403.7500000000,165426.2500000000,132240.5156250000,118542.8984375000,133015.5312500000,155349.7656250000,,,
1.2359999979,9,175575.0937500000,213342.4218750000,166020.6406250000,166192.5937500000,132994.4218750000,119272.5937500000,133844.9531250000,153808.9062500000,,,
1.2399999981,9,176075.3281250000,196054.5156250000,166690.0000000000,167056.0156250000,133773.3750000000,120057.3828125000,134756.1093750000,150913.8750000000,,,
1.2439999981,9,175996.8125000000,184808.0937500000,166486.5625000000,166812.3906250000,133492.5156250000,119816.1406250000,134481.3593750000,150511.0468750000,,,
1.2479999980,9,175423.3125000000,197840.5468750000,165639.3906250000,165718.5312500000,132453.7812500000,118792.7500000000,133295.7187500000,153593.2812500000,,,
1.2519999980,9,175181.8593750000,214380.4062500000,165411.5312500000,165435.2656250000,132240.2656250000,118536.6484375000,132996.2500000000,155350.8281250000,,,
1.2559999980,9,175575.8125000000,213420.1250000000,166011.2968750000,166190.3593750000,132974.3593750000,119259.9609375000,133814.2968750000,153825.4843750000,,,
1.2599999979,9,176083.6406250000,196195.2500000000,166688.5625000000,167062.1875000000,133763.0937500000,120057.6484375000,134739.6562500000,150954.5625000000,,,
1.2639999981,9,176020.1562500000,184867.7187500000,166507.8906250000,166833.7656250000,133508.0937500000,119832.3437500000,134501.6093750000,150560.2968750000,,,
1.2679999981,9,175448.0937500000,197805.3750000000,165660.0312500000,165747.4843750000,132474.6093750000,118825.1250000000,133335.0937500000,153637.9687500000,,,
1.2719999980,9,175179.6250000000,214341.9531250000,165407.7500000000,165446.2968750000,132239.9843750000,118542.3359375000,133014.3906250000,155364.5312500000,,,
1.2759999980,9,175574.5312500000,213487.8593750000,166015.3281250000,166201.5781250000,132978.3593750000,119251.6718750000,133826.6718750000,153854.9687500000,,,
1.2799999979,10,176092.6562500000,196343.7812500000,166698.6093750000,167077.9531250000,133773.9531250000,120062.8828125000,134748.1093750000,151017.9687500000,,,
1.2839999979,10,176021.5937500000,184906.1250000000,166508.8437500000,166846.5937500000,133512.3906250000,119836.8203125000,134494.7500000000,150603.4062500000,,,
1.2879999978,10,175446.6718750000,197743.0937500000,165664.8593750000,165746.6250000000,132476.9218750000,118813.6406250000,133324.1562500000,153633.7031250000,,,
1.2919999978,10,175193.0468750000,214318.8906250000,165421.7500000000,165436.6562500000,132250.4375000000,118555.6406250000,133010.8125000000,155363.6562500000,,,
1.2959999978,10,175587.3281250000,213567.9218750000,166024.6250000000,166197.0468750000,132988.2656250000,119268.1718750000,133823.2812500000,153876.2812500000,,,
1.2999999977,10,176101.1875000000,196468.4062500000,166709.8593750000,167080.0312500000,133789.2500000000,120072.7500000000,134760.4218750000,151053.0468750000,,,
1.3039999979,10,176029.5156250000,184951.5937500000,166521.4531250000,166855.1562500000,133529.6562500000,119845.8906250000,134519.0468750000,150626.3906250000,,,
1.3079999979,10,175448.9218750000,197689.2343750000,165665.1875000000,165755.5312500000,132484.0625000000,118824.1328125000,133345.2031250000,153624.0468750000,,,
1.3119999978,10,175191.6250000000,214278.7031250000,165421.9062500000,165443.5000000000,132252.1250000000,118559.7968750000,133025.2187500000,155341.2500000000,,,
1.3159999978,10,175577.9375000000,213613.4843750000,166020.7656250000,166187.9218750000,132981.2031250000,119268.7343750000,133826.6406250000,153872.7812500000,,,
1.3199999977,10,176081.1406250000,196578.2656250000,166693.5000000000,167051.2968750000,133770.2812500000,120069.3984375000,134744.4687500000,151070.4531250000,,,
1.3239999979,10,176002.7500000000,184974.6562500000,166501.2031250000,166817.7031250000,133506.7031250000,119839.2890625000,134498.6093750000,150619.9218750000,,,
1.3279999979,10,175430.6250000000,197629.3125000000,165649.0625000000,165728.5156250000,132461.6406250000,118818.0156250000,133320.4531250000,153592.2968750000,,,
1.3319999978,10,175167.3750000000,214254.5156250000,165387.1562500000,165422.9375000000,132213.8281250000,118540.4062500000,132981.8750000000,155300.8906250000,,,
1.3359999978,10,175563.4062500000,213760.2656250000,165995.6562500000,166174.7812500000,132952.6093750000,119240.2500000000,133789.9687500000,153863.3125000000,,,
1.3399999978,10,176077.2343750000,196783.3281250000,166686.1718750000,167052.2343750000,133762.9062500000,120042.9765625000,134727.0781250000,151061.2812500000,,,
1.3439999977,10,176015.1562500000,185016.5468750000,166510.5156250000,166849.6718750000,133521.9687500000,119831.8046875000,134495.0468750000,150596.4218750000,,,
1.3479999979,10,175463.8281250000,197578.2812500000,165683.4062500000,165766.0625000000,132503.2656250000,118835.5781250000,133347.9218750000,153569.1250000000,,,
1.3519999979,10,175221.4375000000,214236.8906250000,165447.0781250000,165470.1875000000,132276.9843750000,118577.5234375000,133046.2968750000,155302.4218750000,,,
1.3559999978,10,175611.0937500000,213698.0000000000,166044.8593750000,166213.7812500000,133005.9843750000,119283.9375000000,133850.2968750000,153871.8906250000,,,
1.3599999978,10,176110.7500000000,196739.9843750000,166713.7656250000,167068.0937500000,133791.4218750000,120082.4843750000,134761.7656250000,151095.0468750000,,,
1.3639999977,10,176043.5625000000,185038.8125000000,166530.1406250000,166867.8906250000,133540.1718750000,119870.5156250000,134519.6406250000,150634.9218750000,,,
1.3679999979,10,175464.9687500000,197517.3125000000,165681.5781250000,165773.1718750000,132502.0312500000,118845.9609375000,133340.0625000000,153565.6406250000,,,
1.3719999979,10,175217.6875000000,214181.2343750000,165446.6718750000,165463.5625000000,132275.9218750000,118577.9843750000,133030.6093750000,155291.6562500000,,,
1.3759999978,10,175587.3281250000,213652.7500000000,166023.9843750000,166191.9687500000,132985.7656250000,119261.8671875000,133830.8281250000,153847.8593750000,,,
1.3799999978,10,176080.6093750000,196731.7500000000,166688.5312500000,167047.6718750000,133767.3125000000,120050.4921875000,134744.5781250000,151068.5468750000,,,
1.3839999977,10,176018.2812500000,185049.3281250000,166515.0468750000,166837.7500000000,133527.1718750000,119840.7968750000,134511.8906250000,150606.0312500000,,,
1.3879999977,10,175465.8750000000,197463.4218750000,165686.2500000000,165764.6718750000,132506.9843750000,118849.9843750000,133357.9218750000,153548.0156250000,,,
1.3919999979,10,175217.1562500000,214161.6562500000,165446.2656250000,165458.8750000000,132275.6562500000,118582.4609375000,133048.6406250000,155280.5625000000,,,
1.3959999979,10,175591.0312500000,213732.9062500000,166028.1250000000,166198.3906250000,132988.0468750000,119268.0625000000,133833.9062500000,153851.8281250000,,,
1.3999999978,10,176076.3437500000,196874.7343750000,166679.9531250000,167051.8593750000,133758.2343750000,120048.9609375000,134729.0625000000,151062.2812500000,,,
1.4039999978,10,176008.0781250000,185092.9062500000,166496.4843750000,166846.7812500000,133510.8125000000,119837.0625000000,134500.2187500000,150571.8906250000,,,
1.4079999977,11,175457.2343750000,197402.6250000000,165670.9531250000,165779.7187500000,132489.5312500000,118834.7500000000,133352.2968750000,153503.5468750000,,,
1.4119999977,11,175220.5000000000,214108.4062500000,165440.7656250000,165479.9531250000,132263.2031250000,118573.8750000000,133035.3281250000,155265.7031250000,,,
1.4159999976,11,175587.7500000000,213800.7343750000,166017.4687500000,166206.2656250000,132971.8437500000,119252.9375000000,133807.2656250000,153860.1093750000,,,
1.4199999976,11,176087.0468750000,197003.7187500000,166694.2500000000,167062.2968750000,133771.1406250000,120057.8125000000,134739.7500000000,151088.7187500000,,,
1.4239999976,11,176004.6562500000,185087.7968750000,166502.5781250000,166837.4218750000,133519.2343750000,119851.4140625000,134513.7343750000,150567.3593750000,,,
1.4279999975,11,175421.2656250000,197278.8593750000,165647.4375000000,165748.3437500000,132471.5000000000,118829.4140625000,133338.9531250000,153467.0625000000,,,
1.4319999977,11,175190.1406250000,214024.0625000000,165422.0781250000,165440.9062500000,132249.0156250000,118577.0156250000,133028.7031250000,155248.7812500000,,,
1.4359999977,11,175569.1406250000,213781.0781250000,166008.4062500000,166172.7968750000,132965.7812500000,119257.8984375000,133809.2343750000,153861.0312500000,,,
1.4399999976,11,176067.1718750000,197023.5937500000,166673.8281250000,167037.7812500000,133752.3906250000,120042.4921875000,134718.4218750000,151086.2031250000,,,
1.4439999976,11,176014.2812500000,185067.6406250000,166512.3593750000,166849.8593750000,133526.7968750000,119842.4843750000,134512.4843750000,150565.1875000000,,,
1.4479999975,11,175459.7812500000,197203.0937500000,165685.5468750000,165774.8593750000,132504.2031250000,118850.3906250000,133370.9531250000,153479.2187500000,,,
1.4519999977,11,175232.5000000000,213986.2031250000,165462.6562500000,165470.7031250000,132283.2968750000,118599.3593750000,133062.5625000000,155274.7031250000,,,
1.4559999977,11,175616.1562500000,213800.6562500000,166051.1562500000,166208.7343750000,133003.3906250000,119287.6406250000,133841.9062500000,153912.0468750000,,,
1.4599999976,11,176093.9687500000,197081.7968750000,166701.2187500000,167069.9218750000,133775.8437500000,120058.3437500000,134729.4218750000,151133.8906250000,,,
1.4639999976,11,176031.3906250000,185090.7656250000,166536.2656250000,166873.2500000000,133548.5156250000,119865.8984375000,134509.6093750000,150598.5468750000,,,
1.4679999975,11,175453.1875000000,197123.7968750000,165676.9687500000,165770.4062500000,132501.9218750000,118863.7968750000,133344.1562500000,153481.4375000000,,,
1.4719999975,11,175202.7187500000,213916.5781250000,165431.1718750000,165442.9375000000,132259.9375000000,118591.4453125000,133024.9062500000,155256.5312500000,,,
1.4759999977,11,175566.5937500000,213810.9218750000,165998.6093750000,166162.9218750000,132959.7968750000,119267.8750000000,133799.6250000000,153885.5937500000,,,
1.4799999977,11,176057.8593750000,197149.0625000000,166660.8281250000,167018.1406250000,133743.6562500000,120049.2265625000,134709.5937500000,151121.5468750000,,,
1.4839999976,11,176016.0000000000,185093.5781250000,166515.4218750000,166851.8281250000,133535.7031250000,119869.2500000000,134515.8593750000,150583.1250000000,,,
1.4879999976,11,175483.3125000000,197045.4531250000,165708.5781250000,165801.9531250000,132529.7656250000,118882.3828125000,133384.9531250000,153476.8750000000,,,
1.4919999975,11,175252.1562500000,213895.0937500000,165477.7343750000,165497.5156250000,132295.9531250000,118607.1953125000,133065.2656250000,155275.7500000000,,,
1.4959999977,11,175613.1250000000,213892.7656250000,166043.4062500000,166200.9375000000,132989.4062500000,119262.8593750000,133820.3593750000,153912.1718750000,,,
1.4999999977,11,176105.5468750000,197284.6562500000,166712.8125000000,167051.8593750000,133779.5625000000,120052.2890625000,134720.5625000000,151147.6250000000,,,
1.5039999976,11,176052.2031250000,185116.1875000000,166555.3906250000,166885.9375000000,133562.2500000000,119880.0625000000,134526.3125000000,150581.8906250000,,,
1.5079999976,11,175498.6562500000,196955.8750000000,165722.8593750000,165807.0156250000,132535.3906250000,118884.2343750000,133381.9531250000,153460.0156250000,,,
1.5119999975,11,175246.5156250000,213818.0937500000,165473.5156250000,165466.5937500000,132288.7968750000,118599.1718750000,133048.7656250000,155267.5000000000,,,
1.5159999975,11,175616.1250000000,213927.2343750000,166047.2187500000,166181.2968750000,132996.9531250000,119276.1093750000,133820.6875000000,153947.4687500000,,,
1.5199999977,11,176087.2656250000,197344.6250000000,166694.0625000000,167044.9375000000,133773.1562500000,120046.5468750000,134715.6562500000,151158.3437500000,,,
1.5239999976,11,176029.0625000000,185048.7968750000,166537.7968750000,166862.3906250000,133561.7968750000,119872.0390625000,134510.0937500000,150558.3906250000,,,
1.5279999976,11,175481.0781250000,196810.9531250000,165714.7500000000,165792.9375000000,132540.3906250000,118884.8828125000,133376.3281250000,153439.2500000000,,,
1.5319999976,11,175233.1406250000,213757.8437500000,165467.0000000000,165475.3750000000,132286.8593750000,118597.6171875000,133052.6093750000,155266.5781250000,,,
1.5359999975,12,175590.6718750000,213941.6093750000,166027.5000000000,166173.2187500000,132975.8750000000,119253.9765625000,133813.0468750000,153933.0625000000,,,
1.5399999975,12,176079.9375000000,197401.2031250000,166689.7968750000,167027.9062500000,133760.3906250000,120043.2500000000,134720.0312500000,151159.1093750000,,,
1.5439999974,12,176036.2968750000,185058.6406250000,166544.5781250000,166873.2031250000,133556.4843750000,119872.7656250000,134536.5156250000,150557.7500000000,,,
1.5479999974,12,175499.8906250000,196742.3593750000,165732.8906250000,165822.3125000000,132543.4218750000,118883.9140625000,133394.5312500000,153431.7343750000,,,
1.5519999973,12,175241.6406250000,213707.5312500000,165475.6093750000,165487.1093750000,132281.8437500000,118577.1796875000,133052.0156250000,155255.6875000000,,,
1.5559999973,12,175581.0000000000,213924.5468750000,166011.0000000000,166179.4531250000,132954.2031250000,119233.8906250000,133792.6562500000,153928.3281250000,,,
1.5599999975,12,176070.3125000000,197420.5625000000,166675.0156250000,167044.2187500000,133747.9218750000,120042.1718750000,134701.7343750000,151166.8593750000,,,
1.5639999975,12,176028.2500000000,185058.6875000000,166533.7656250000,166890.8750000000,133550.7968750000,119886.4687500000,134524.7656250000,150558.1250000000,,,
1.5679999974,12,175480.3593750000,196645.0000000000,165711.6093750000,165804.6093750000,132529.7031250000,118895.1250000000,133393.1718750000,153402.8750000000,,,
1.5719999974,12,175217.8281250000,213656.6406250000,165446.1250000000,165457.2968750000,132261.1718750000,118596.4062500000,133038.0468750000,155241.7968750000,,,
1.5759999973,12,175588.9531250000,213978.2187500000,166018.8593750000,166161.2031250000,132964.6562500000,119275.6484375000,133801.8593750000,153952.0000000000,,,
1.5799999975,12,176093.0000000000,197525.8906250000,166696.1250000000,167037.0781250000,133764.7656250000,120075.2734375000,134729.8125000000,151199.4375000000,,,
1.5839999975,12,176029.1718750000,185072.0937500000,166535.5312500000,166879.4218750000,133549.1562500000,119873.8671875000,134545.2343750000,150543.9375000000,,,
1.5879999974,12,175478.0000000000,196546.8906250000,165711.7968750000,165809.9687500000,132527.2656250000,118866.3750000000,133398.9062500000,153366.4062500000,,,
1.5919999974,12,175235.2812500000,213541.4375000000,165469.5000000000,165467.8906250000,132277.4218750000,118575.1640625000,133054.4062500000,155227.8281250000,,,
1.5959999973,12,175586.2187500000,213953.9687500000,166010.6875000000,166169.4687500000,132951.8281250000,119229.2265625000,133798.9375000000,153949.2968750000,,,
1.5999999973,12,176081.5781250000,197590.6093750000,166677.5312500000,167036.5781250000,133744.9375000000,120029.1093750000,134713.9375000000,151209.0937500000,,,
1.6039999975,12,176041.0156250000,185115.3437500000,166541.5000000000,166884.2187500000,133555.0937500000,119878.0234375000,134541.9843750000,150575.4531250000,,,
1.6079999974,12,175493.6093750000,196496.9375000000,165718.1406250000,165827.9687500000,132533.6250000000,118887.4296875000,133399.5468750000,153388.3906250000,,,
1.6119999974,12,175241.2343750000,213516.7968750000,165461.2343750000,165490.6250000000,132269.5312500000,118586.5390625000,133049.6250000000,155243.4687500000,,,
1.6159999974,12,175594.2187500000,214005.5937500000,166015.1093750000,166182.0156250000,132952.7968750000,119241.7500000000,133798.7500000000,153974.7500000000,,,
1.6199999973,12,176088.8125000000,197696.3125000000,166686.9218750000,167032.5000000000,133751.9375000000,120045.0703125000,134719.9218750000,151242.4843750000,,,
1.6239999975,12,176039.7656250000,185129.0156250000,166539.4218750000,166879.0468750000,133556.8125000000,119896.3125000000,134550.3593750000,150588.6250000000,,,
1.6279999975,12,175506.9687500000,196415.6250000000,165735.7812500000,165828.2343750000,132554.5937500000,118912.0000000000,133421.8906250000,153391.8750000000,,,
1.6319999974,12,175258.1406250000,213479.5468750000,165483.6250000000,165482.8750000000,132292.0625000000,118603.5468750000,133061.5312500000,155250.0625000000,,,
1.6359999974,12,175604.2812500000,214063.7500000000,166021.2187500000,166175.0468750000,132961.1718750000,119248.7265625000,133796.4843750000,153992.8281250000,,,
1.6399999973,12,176097.0468750000,197802.1875000000,166693.3125000000,167038.2343750000,133760.2031250000,120038.2031250000,134722.7031250000,151254.2968750000,,,
1.6439999973,12,176072.0312500000,185183.8906250000,166579.4687500000,166911.3906250000,133591.7343750000,119890.6562500000,134573.9062500000,150593.6406250000,,,
1.6479999975,12,175538.4062500000,196375.8125000000,165775.5625000000,165848.8437500000,132588.0000000000,118907.3593750000,133451.9062500000,153385.2031250000,,,
1.6519999974,12,175275.4375000000,213457.7656250000,165501.3281250000,165497.8906250000,132307.1875000000,118597.7500000000,133090.6406250000,155248.9687500000,,,
1.6559999974,12,175615.3281250000,214110.3906250000,166031.0625000000,166184.1406250000,132969.6406250000,119243.6015625000,133814.1875000000,154001.9687500000,,,
1.6599999974,12,176093.0312500000,197897.7812500000,166685.3593750000,167043.2031250000,133751.2187500000,120029.2421875000,134716.6250000000,151258.1562500000,,,
1.6639999973,13,176062.6093750000,185229.7343750000,166565.5781250000,166909.0156250000,133581.0781250000,119893.4453125000,134570.4687500000,150584.0625000000,,,
1.6679999973,13,175530.5156250000,196312.8437500000,165762.3593750000,165856.2187500000,132577.6093750000,118928.5234375000,133450.7812500000,153369.8906250000,,,
1.6719999972,13,175267.8437500000,213415.9218750000,165490.5000000000,165500.0468750000,132294.3125000000,118622.8281250000,133078.0625000000,155252.6093750000,,,
1.6759999972,13,175601.5468750000,214160.5781250000,166017.7343750000,166166.5781250000,132954.0625000000,119262.1093750000,133793.8593750000,154020.5937500000,,,
1.6799999971,13,176094.1250000000,198012.1562500000,166683.8593750000,167030.0625000000,133750.4843750000,120071.1171875000,134708.2812500000,151301.4531250000,,,
1.6839999971,13,176071.6250000000,185275.5937500000,166573.1406250000,166916.2187500000,133588.2968750000,119937.7578125000,134568.0781250000,150611.9843750000,,,
1.6879999973,13,175526.7031250000,196251.3906250000,165761.8593750000,165864.4218750000,132575.2031250000,118926.4296875000,133434.0468750000,153356.2343750000,,,
1.6919999972,13,175270.3125000000,213380.8281250000,165496.8281250000,165491.5468750000,132299.1250000000,118608.9921875000,133067.1093750000,155244.8281250000,,,
1.6959999972,13,175615.4531250000,214187.2656250000,166039.2500000000,166167.3281250000,132970.8750000000,119250.2265625000,133801.7812500000,154031.7968750000,,,
1.6999999972,13,176086.5312500000,198093.7500000000,166682.5781250000,167022.7812500000,133744.1093750000,120032.5156250000,134697.6562500000,151300.0312500000,,,
1.7039999971,13,176049.5781250000,185308.9375000000,166559.2500000000,166905.2812500000,133571.7812500000,119893.0156250000,134555.9375000000,150581.8593750000,,,
1.7079999973,13,175523.6250000000,196200.4218750000,165758.3906250000,165866.2500000000,132573.3437500000,118922.9453125000,133445.1718750000,153334.3750000000,,,
1.7119999973,13,175261.0312500000,213344.0625000000,165480.0625000000,165498.2500000000,132286.8125000000,118606.1718750000,133075.2968750000,155229.8437500000,,,
1.7159999972,13,175583.6718750000,214231.6250000000,166000.5781250000,166155.6093750000,132936.0156250000,119230.4062500000,133784.9218750000,154013.2343750000,,,
1.7199999972,13,176075.3281250000,198191.9375000000,166668.6250000000,167019.5156250000,133733.2500000000,120039.1406250000,134700.0468750000,151303.7500000000,,,
1.7239999971,13,176052.5781250000,185338.1250000000,166558.1718750000,166899.9375000000,133575.1875000000,119924.5078125000,134566.6562500000,150588.1875000000,,,
1.7279999971,13,175520.1406250000,196115.4843750000,165753.0000000000,165855.8593750000,132569.4062500000,118948.7187500000,133445.7031250000,153319.5156250000,,,
1.7319999973,13,175268.8125000000,213296.1562500000,165494.4843750000,165492.1875000000,132294.9843750000,118626.1796875000,133075.9375000000,155228.7968750000,,,
1.7359999972,13,175606.5625000000,214286.5625000000,166031.6562500000,166168.4218750000,132958.4843750000,119249.9062500000,133788.7656250000,154039.3437500000,,,
1.7399999972,13,176078.6562500000,198290.2187500000,166675.0156250000,167025.8125000000,133733.8281250000,120038.2343750000,134682.5312500000,151313.4687500000,,,
1.7439999972,13,176050.7500000000,185351.4531250000,166562.2187500000,166909.8593750000,133575.6562500000,119922.2812500000,134555.7500000000,150573.2343750000,,,
1.7479999971,13,175525.0468750000,196028.7031250000,165767.3281250000,165870.9687500000,132579.8437500000,118945.7656250000,133446.9218750000,153297.6875000000,,,
1.7519999973,13,175267.5312500000,213242.6250000000,165491.4062500000,165496.9062500000,132288.8750000000,118625.5078125000,133075.1093750000,155224.1250000000,,,
1.7559999973,13,175580.4843750000,214304.3125000000,165993.5781250000,166150.3437500000,132921.9531250000,119235.9531250000,133769.6093750000,154030.7500000000,,,
1.7599999972,13,176062.2968750000,198348.5781250000,166656.3750000000,167001.3593750000,133716.1250000000,120024.0703125000,134684.5625000000,151309.0312500000,,,
1.7639999972,13,176051.7968750000,185339.3593750000,166562.5468750000,166903.2656250000,133581.7812500000,119921.7421875000,134575.5156250000,150566.1250000000,,,
1.7679999971,13,175521.6406250000,195921.6875000000,165759.1406250000,165865.6250000000,132581.8437500000,118949.2812500000,133461.3437500000,153280.6718750000,,,
1.7719999971,13,175262.3437500000,213163.2031250000,165479.7343750000,165489.2343750000,132288.5781250000,118626.0234375000,133072.4218750000,155215.7500000000,,,
1.7759999973,13,175597.2187500000,214311.3125000000,166011.3281250000,166147.1250000000,132947.3906250000,119246.9531250000,133784.9531250000,154050.3906250000,,,
1.7799999972,13,176096.5625000000,198418.0156250000,166696.5781250000,167015.5156250000,133762.2187500000,120057.0625000000,134715.7968750000,151350.1250000000,,,
1.7839999972,13,176077.3593750000,185335.9531250000,166595.1093750000,166913.7500000000,133617.5312500000,119950.5468750000,134594.3125000000,150588.8125000000,,,
1.7879999971,13,175533.9218750000,195824.4843750000,165778.2187500000,165879.5156250000,132597.9375000000,118951.7187500000,133464.4843750000,153270.7812500000,,,
1.7919999971,14,175267.2500000000,213097.9218750000,165493.8750000000,165500.6562500000,132297.4531250000,118619.1796875000,133072.7031250000,155202.3125000000,,,
1.7959999971,14,175583.8125000000,214312.3437500000,165998.7968750000,166138.7031250000,132932.2812500000,119233.4375000000,133767.8437500000,154039.3906250000,,,
1.7999999970,14,176076.7500000000,198460.1250000000,166671.5468750000,167008.3906250000,133735.3281250000,120031.0703125000,134688.0312500000,151337.7031250000,,,
1.8039999970,14,176067.6875000000,185315.0312500000,166580.7343750000,166913.6250000000,133602.0312500000,119924.2109375000,134578.0625000000,150561.9062500000,,,
1.8079999969,14,175543.8125000000,195718.3281250000,165785.1406250000,165880.4375000000,132606.5000000000,118954.0312500000,133476.4531250000,153258.7031250000,,,
1.8119999969,14,175271.5937500000,213037.7031250000,165495.8281250000,165492.6875000000,132299.5000000000,118612.8281250000,133078.3281250000,155201.1406250000,,,
1.8159999971,14,175605.1562500000,214364.9375000000,166024.5468750000,166151.5468750000,132954.1406250000,119232.9218750000,133767.2500000000,154065.5468750000,,,
1.8199999970,14,176099.1093750000,198566.4531250000,166698.7187500000,167029.1250000000,133755.2968750000,120031.1250000000,134697.0468750000,151365.9062500000,,,
1.8239999970,14,176091.5312500000,185354.4218750000,166610.1250000000,166934.9531250000,133621.2343750000,119928.9843750000,134603.4062500000,150580.6093750000,,,
1.8279999970,14,175572.9687500000,195684.9531250000,165811.3125000000,165892.4218750000,132626.3750000000,118969.9609375000,133464.8281250000,153284.2187500000,,,
1.8319999969,14,175290.1875000000,213054.8125000000,165506.9062500000,165489.7968750000,132305.6093750000,118616.4453125000,133040.5156250000,155235.0625000000,,,
1.8359999971,14,175604.8593750000,214458.1406250000,166014.1093750000,166150.7500000000,132936.4375000000,119218.3906250000,133771.0625000000,154084.0781250000,,,
1.8399999971,14,176100.8125000000,198684.7343750000,166690.5625000000,167042.6875000000,133741.6406250000,120032.2500000000,134708.0625000000,151379.9531250000,,,
1.8439999970,14,176082.2187500000,185376.2031250000,166594.6250000000,166947.7656250000,133609.9218750000,119930.1640625000,134596.0625000000,150567.7812500000,,,
1.8479999970,14,175548.3281250000,195601.5625000000,165789.7812500000,165883.5781250000,132610.6562500000,118954.1328125000,133470.8437500000,153242.5156250000,,,
1.8519999969,14,175282.7343750000,213001.4687500000,165506.7187500000,165496.9843750000,132308.0468750000,118614.1640625000,133075.1093750000,155214.6875000000,,,
1.8559999969,14,175601.3593750000,214479.5937500000,166018.4687500000,166139.9062500000,132947.4062500000,119221.3359375000,133771.2812500000,154083.2656250000,,,
1.8599999971,14,176086.8906250000,198751.4218750000,166685.3125000000,167000.3437500000,133749.5000000000,120031.9296875000,134699.5156250000,151375.7500000000,,,
1.8639999970,14,176086.5312500000,185396.4843750000,166607.0156250000,166936.3125000000,133630.5625000000,119950.4453125000,134611.3437500000,150564.1875000000,,,
1.8679999970,14,175565.4375000000,195516.0625000000,165819.0625000000,165896.9062500000,132639.1093750000,118982.7812500000,133508.2812500000,153238.7187500000,,,
1.8719999969,14,175276.0000000000,212938.7812500000,165512.7031250000,165479.5312500000,132310.0937500000,118616.8984375000,133085.2187500000,155207.4687500000,,,
1.8759999969,14,175584.9687500000,214521.8437500000,166006.8437500000,166121.9218750000,132931.4218750000,119217.6328125000,133755.3437500000,154089.1250000000,,,
1.8799999971,14,176072.0468750000,198858.7968750000,166673.1875000000,166999.0000000000,133728.7656250000,120018.3046875000,134676.3125000000,151377.9375000000,,,
1.8839999971,14,176060.9687500000,185408.0781250000,166584.6250000000,166927.4062500000,133599.7500000000,119914.6875000000,134578.5468750000,150527.7968750000,,,
1.8879999970,14,175548.7031250000,195429.4843750000,165797.1250000000,165891.4531250000,132610.6875000000,118951.1875000000,133468.3281250000,153194.7343750000,,,
1.8919999970,14,175280.7187500000,212895.9687500000,165505.2968750000,165487.3593750000,132297.7187500000,118606.2500000000,133057.3593750000,155200.3125000000,,,
1.8959999969,14,175600.7656250000,214567.0156250000,166015.9062500000,166134.7343750000,132935.5312500000,119215.6250000000,133769.4218750000,154105.4531250000,,,
1.8999999969,14,176102.0156250000,198957.0156250000,166698.4843750000,167020.2343750000,133753.5000000000,120029.1093750000,134705.3906250000,151410.2031250000,,,
1.9039999971,14,176100.5937500000,185444.8750000000,166624.4218750000,166949.5937500000,133642.3125000000,119949.0234375000,134612.6093750000,150558.6093750000,,,
1.9079999970,14,175590.5156250000,195365.3750000000,165838.2968750000,165929.8906250000,132655.4843750000,118997.6953125000,133521.5156250000,153224.5156250000,,,
1.9119999970,14,175313.6093750000,212859.0156250000,165536.0937500000,165518.4218750000,132329.9687500000,118639.8046875000,133105.9062500000,155235.1718750000,,,
1.9159999969,14,175604.5156250000,214594.8593750000,166019.0781250000,166143.0000000000,132940.7031250000,119223.2187500000,133773.0000000000,154127.5312500000,,,
1.9199999969,15,176078.6250000000,199028.2812500000,166677.1250000000,166991.0781250000,133736.8125000000,120027.9609375000,134695.2500000000,151414.3125000000,,,
1.9239999969,15,176081.5781250000,185450.7968750000,166605.5468750000,166932.2343750000,133631.9843750000,119958.3046875000,134616.2500000000,150549.7031250000,,,
1.9279999968,15,175568.6250000000,195262.4843750000,165818.8281250000,165908.9687500000,132644.5937500000,118995.6562500000,133506.7343750000,153193.5781250000,,,
1.9319999968,15,175287.3750000000,212781.3125000000,165512.1093750000,165502.5312500000,132313.3281250000,118616.1250000000,133077.9218750000,155204.3593750000,,,
1.9359999967,15,175593.1718750000,214599.7968750000,166005.5312500000,166124.5156250000,132935.3906250000,119209.1328125000,133755.3125000000,154122.4375000000,,,
1.9399999967,15,176080.6406250000,199101.3437500000,166677.5000000000,166987.0312500000,133742.5468750000,120024.8750000000,134686.2031250000,151425.5000000000,,,
1.9439999969,15,176106.4375000000,185481.6406250000,166634.0625000000,166940.2500000000,133662.9218750000,119976.1953125000,134634.5937500000,150561.3750000000,,,
1.9479999968,15,175578.7343750000,195183.3906250000,165837.1406250000,165918.1718750000,132663.3906250000,118997.4296875000,133532.2187500000,153177.1718750000,,,
1.9519999968,15,175273.3750000000,212710.8437500000,165507.2031250000,165480.1718750000,132306.7031250000,118615.0468750000,133083.9375000000,155183.5937500000,,,
1.9559999967,15,175571.0937500000,214619.4843750000,165992.5468750000,166103.6250000000,132917.9062500000,119202.6953125000,133747.2187500000,154111.0000000000,,,
1.9599999967,15,176062.3750000000,199163.6718750000,166666.2968750000,166984.1875000000,133727.0781250000,120009.2656250000,134679.5781250000,151408.0625000000,,,
1.9639999969,15,176074.8437500000,185447.1718750000,166613.9687500000,166942.5937500000,133637.3281250000,119939.5781250000,134628.2500000000,150502.3906250000,,,
1.9679999969,15,175575.5156250000,195055.7343750000,165841.7500000000,165929.5781250000,132661.2656250000,118991.5234375000,133537.5781250000,153138.1718750000,,,
1.9719999968,15,175305.7187500000,212623.8281250000,165541.5625000000,165509.4531250000,132331.4687500000,118637.9531250000,133105.4218750000,155196.0156250000,,,
1.9759999968,15,175595.2031250000,214620.6093750000,166015.9062500000,166122.7968750000,132932.6093750000,119213.8281250000,133756.0937500000,154134.3906250000,,,
1.9799999967,15,176063.7343750000,199209.5468750000,166667.4687500000,166995.2656250000,133720.2812500000,119998.3984375000,134660.2656250000,151409.8906250000,,,
1.9839999967,15,176073.6562500000,185432.7187500000,166607.5312500000,166946.7812500000,133626.1406250000,119934.2968750000,134600.7968750000,150494.4218750000,,,
1.9879999969,15,175558.1875000000,194935.3125000000,165816.1406250000,165921.2343750000,132631.5781250000,118973.1015625000,133506.7812500000,153105.3437500000,,,
1.9919999968,15,175282.9531250000,212527.2968750000,165508.3593750000,165504.1406250000,132293.4375000000,118613.7343750000,133075.5625000000,155171.2812500000,,,
1.9959999968,15,175600.1250000000,214605.3906250000,166014.9531250000,166133.3125000000,132923.1562500000,119214.7656250000,133751.2656250000,154151.2968750000,,,
1.9999999967,15,176097.3437500000,199267.6093750000,166699.2656250000,167026.8906250000,133744.4843750000,120027.6875000000,134689.4531250000,151461.6875000000,,,
2.0039999967,15,176112.4531250000,185452.0937500000,166641.6250000000,166978.2968750000,133660.5000000000,119986.6015625000,134645.5468750000,150539.7500000000,,,
2.0079999969,15,175589.7187500000,194831.1093750000,165842.0312500000,165937.1875000000,132663.2500000000,119025.9687500000,133546.2187500000,153131.4375000000,,,
2.0119999968,15,175289.7031250000,212450.9062500000,165516.4375000000,165496.9531250000,132307.5468750000,118625.9140625000,133095.5156250000,155183.3750000000,,,
2.0159999968,15,175575.5156250000,214675.4062500000,165992.0468750000,166105.2343750000,132908.6250000000,119196.5781250000,133747.4531250000,154157.3281250000,,,
2.0199999968,15,176057.8437500000,199421.9531250000,166660.6406250000,166980.7031250000,133718.0312500000,120012.2968750000,134673.1406250000,151456.5312500000,,,
2.0239999967,15,176073.6093750000,185428.6718750000,166614.4218750000,166950.9843750000,133642.5000000000,119965.6484375000,134628.1562500000,150490.3437500000,,,
2.0279999967,15,175566.5937500000,194700.0000000000,165833.0937500000,165929.3281250000,132657.2812500000,119018.6953125000,133534.3281250000,153082.7343750000,,,
2.0319999969,15,175280.7187500000,212368.7812500000,165509.0625000000,165483.9218750000,132302.6093750000,118640.4765625000,133085.2968750000,155181.0000000000,,,
2.0359999968,15,175591.1250000000,214664.4062500000,166009.5625000000,166092.7812500000,132925.8437500000,119225.8984375000,133753.2812500000,154186.1875000000,,,
2.0399999968,15,176084.7968750000,199437.3906250000,166692.8437500000,166998.4531250000,133747.4062500000,120035.6015625000,134693.3125000000,151487.9687500000,,,
2.0439999967,15,176098.1718750000,185431.0312500000,166641.4062500000,166984.5937500000,133668.6875000000,119992.8203125000,134642.5468750000,150512.2812500000,,,
2.0479999967,16,175571.9843750000,194606.8437500000,165835.6093750000,165954.8125000000,132663.7656250000,119022.1796875000,133535.0312500000,153079.1406250000,,,
2.0519999966,16,175263.0468750000,212295.2031250000,165491.0625000000,165490.7343750000,132285.1718750000,118610.8125000000,133074.1406250000,155159.6406250000,,,
2.0559999966,16,175567.7187500000,214621.5781250000,165985.6250000000,166113.9218750000,132901.3593750000,119198.1093750000,133742.3593750000,154160.5156250000,,,
2.0599999966,16,176069.0468750000,199410.0625000000,166673.9062500000,166997.9218750000,133725.3906250000,120020.7734375000,134680.7656250000,151471.5468750000,,,
2.0639999965,16,176096.5468750000,185422.9062500000,166639.7187500000,166955.5156250000,133658.9687500000,119981.5859375000,134645.0312500000,150504.3750000000,,,
2.0679999965,16,175592.1250000000,194522.7812500000,165866.5937500000,165946.8125000000,132679.9687500000,119025.5078125000,133558.9218750000,153071.8906250000,,,
2.0719999967,16,175290.5312500000,212244.6718750000,165519.5468750000,165514.6875000000,132302.2656250000,118632.8359375000,133080.8750000000,155174.7656250000,,,
2.0759999966,16,175586.8437500000,214631.8750000000,166001.6093750000,166139.3437500000,132910.8281250000,119207.3125000000,133727.3437500000,154178.4062500000,,,
2.0799999966,16,176074.8906250000,199446.8906250000,166680.5937500000,166994.7343750000,133728.7343750000,120017.5000000000,134664.0000000000,151478.0937500000,,,
2.0839999965,16,176085.4687500000,185422.6875000000,166628.2812500000,166954.0625000000,133649.1562500000,119979.5703125000,134629.1250000000,150493.4375000000,,,
2.0879999965,16,175582.5000000000,194423.2187500000,165851.9531250000,165932.3593750000,132670.5468750000,119039.5625000000,133547.0468750000,153059.0468750000,,,
2.0919999967,16,175289.7031250000,212192.1562500000,165523.7812500000,165484.5625000000,132308.2187500000,118637.4765625000,133083.3750000000,155184.0312500000,,,
2.0959999966,16,175579.4062500000,214695.4687500000,165999.6093750000,166099.8593750000,132910.6562500000,119202.6718750000,133733.7187500000,154204.2656250000,,,
2.0999999966,16,176059.6406250000,199600.4687500000,166658.1718750000,166974.3281250000,133711.2968750000,120018.1718750000,134663.2968750000,151506.5625000000,,,
2.1039999966,16,176078.4062500000,185456.2656250000,166616.1718750000,166958.4687500000,133644.5468750000,119989.6562500000,134633.0156250000,150496.0625000000,,,
2.1079999965,16,175564.9843750000,194332.3437500000,165828.8906250000,165932.2343750000,132656.1562500000,119035.3515625000,133534.9218750000,153037.5625000000,,,
2.1119999965,16,175264.1250000000,212115.1250000000,165489.0000000000,165476.5156250000,132279.9687500000,118624.3046875000,133064.0625000000,155165.3593750000,,,
2.1159999967,16,175563.5312500000,214747.3593750000,165973.3125000000,166084.7656250000,132886.9843750000,119199.3125000000,133719.8906250000,154216.4687500000,,,
2.1199999966,16,176053.5781250000,199727.3437500000,166656.3437500000,166969.3593750000,133709.4531250000,120010.1718750000,134660.9687500000,151519.8125000000,,,
2.1239999966,16,176089.2656250000,185446.3437500000,166640.5156250000,166961.0468750000,133668.3593750000,119986.2500000000,134652.1093750000,150486.1875000000,,,
2.1279999965,16,175584.9062500000,194215.5625000000,165859.9687500000,165952.1562500000,132687.9062500000,119045.9218750000,133563.0000000000,153022.4375000000,,,
2.1319999965,16,175269.8593750000,212033.0468750000,165501.4687500000,165491.4375000000,132294.6875000000,118629.5078125000,133073.7343750000,155150.5468750000,,,
2.1359999967,16,175563.0156250000,214756.8906250000,165979.2968750000,166079.5312500000,132894.8593750000,119196.4218750000,133713.0156250000,154211.2343750000,,,
2.1399999966,16,176063.1250000000,199795.8750000000,166669.4843750000,166966.1406250000,133724.9531250000,120020.8750000000,134648.4062500000,151529.0312500000,,,
2.1439999966,16,176108.0781250000,185456.8125000000,166661.7968750000,166974.4531250000,133693.2812500000,120007.7109375000,134653.7187500000,150492.4375000000,,,
2.1479999966,16,175606.5312500000,194114.7343750000,165881.4531250000,165975.6562500000,132711.1875000000,119067.4062500000,133578.4218750000,153022.6718750000,,,
2.1519999965,16,175297.7812500000,211951.8906250000,165528.4687500000,165510.7187500000,132318.5312500000,118641.2578125000,133094.2343750000,155165.8593750000,,,
2.1559999965,16,175573.8281250000,214746.7187500000,165984.9843750000,166092.9687500000,132895.7812500000,119188.0546875000,133713.4218750000,154223.5312500000,,,
2.1599999967,16,176056.8437500000,199824.0156250000,166664.3906250000,166962.5781250000,133711.3281250000,120000.6562500000,134643.7968750000,151525.5156250000,,,
2.1639999966,16,176089.8281250000,185443.5781250000,166647.4687500000,166970.6718750000,133671.5312500000,119993.3281250000,134645.9531250000,150466.1250000000,,,
2.1679999966,16,175585.9062500000,193997.0781250000,165866.5625000000,165963.2343750000,132691.9531250000,119053.3750000000,133569.0156250000,152980.2968750000,,,
2.1719999965,16,175264.7656250000,211875.3125000000,165497.9843750000,165485.1875000000,132285.4062500000,118620.9531250000,133064.7031250000,155137.8593750000,,,
2.1759999965,17,175561.0312500000,214715.6406250000,165979.3281250000,166083.3125000000,132888.5312500000,119191.7812500000,133708.0312500000,154220.3125000000,,,
2.1799999964,17,176067.4062500000,199808.6875000000,166675.6093750000,166984.8125000000,133725.9687500000,120020.6640625000,134660.0000000000,151538.5781250000,,,
2.1839999964,17,176125.5312500000,185434.5781250000,166680.3281250000,167001.0625000000,133709.0781250000,120033.4531250000,134674.5312500000,150493.7031250000,,,
2.1879999964,17,175590.5625000000,193902.2500000000,165866.9687500000,165982.7031250000,132697.7031250000,119055.3906250000,133559.8593750000,152969.6406250000,,,
2.1919999963,17,175264.8125000000,211804.6875000000,165493.4687500000,165488.1562500000,132287.7500000000,118617.7890625000,133053.6250000000,155136.3906250000,,,
2.1959999963,17,175543.4218750000,214729.8750000000,165956.6562500000,166070.9531250000,132874.1250000000,119179.2500000000,133683.8125000000,154223.3906250000,,,
2.1999999965,17,176042.4375000000,199876.6406250000,166650.5312500000,166967.5625000000,133706.4218750000,120009.8515625000,134643.2656250000,151530.1562500000,,,
2.2039999964,17,176085.2031250000,185401.2343750000,166638.2343750000,166966.5625000000,133672.0937500000,120009.2343750000,134661.9843750000,150444.0781250000,,,
2.2079999964,17,175582.0937500000,193776.1875000000,165858.7656250000,165966.7187500000,132689.0000000000,119060.7500000000,133577.5937500000,152938.5625000000,,,
2.2119999963,17,175288.0468750000,211732.0781250000,165516.0312500000,165499.7500000000,132306.1718750000,118648.5781250000,133092.2500000000,155162.4062500000,,,
2.2159999963,17,175566.9062500000,214759.4375000000,165974.8437500000,166075.5937500000,132887.0312500000,119198.0859375000,133712.0000000000,154264.8906250000,,,
2.2199999965,17,176052.5468750000,199977.0312500000,166653.9375000000,166953.6875000000,133704.8593750000,120010.6562500000,134643.4843750000,151549.5781250000,,,
2.2239999964,17,176084.6093750000,185433.5781250000,166637.0000000000,166968.6875000000,133666.2343750000,119999.9531250000,134646.1875000000,150419.3750000000,,,
2.2279999964,17,175587.0625000000,193700.0156250000,165863.0312500000,165974.6093750000,132690.1562500000,119060.9921875000,133568.9062500000,152909.2500000000,,,
2.2319999964,17,175273.5000000000,211668.3750000000,165497.8125000000,165490.8437500000,132284.0937500000,118626.0468750000,133068.7500000000,155141.4375000000,,,
2.2359999963,17,175551.8437500000,214812.0312500000,165957.4375000000,166063.0625000000,132864.4687500000,119175.0156250000,133689.0468750000,154265.5625000000,,,
2.2399999963,17,176066.0156250000,200109.6875000000,166664.9531250000,166973.2500000000,133711.2500000000,120017.6562500000,134648.9218750000,151571.0312500000,,,
2.2439999965,17,176131.3593750000,185492.9062500000,166680.0312500000,166997.5468750000,133703.4375000000,120039.7343750000,134682.6406250000,150449.6250000000,,,
2.2479999964,17,175611.5781250000,193644.2812500000,165889.3593750000,165993.7812500000,132706.9531250000,119070.4921875000,133592.7968750000,152908.8437500000,,,
2.2519999964,17,175292.5468750000,211635.0156250000,165518.2812500000,165527.1562500000,132293.7500000000,118632.0859375000,133081.8125000000,155153.0937500000,,,
2.2559999963,17,175564.7968750000,214852.6406250000,165970.3906250000,166109.6093750000,132866.3281250000,119173.5937500000,133693.5937500000,154287.2031250000,,,
2.2599999963,17,176051.3750000000,200180.0156250000,166649.6093750000,166978.9843750000,133686.3906250000,119988.9296875000,134635.4843750000,151563.0937500000,,,
2.2639999965,17,176095.4687500000,185499.1406250000,166647.4687500000,166984.4531250000,133667.7968750000,120001.4609375000,134653.0468750000,150403.4375000000,,,
2.2679999964,17,175600.0312500000,193553.1406250000,165881.0468750000,165986.2500000000,132700.8906250000,119064.6953125000,133587.1093750000,152887.1406250000,,,
2.2719999964,17,175285.3593750000,211579.6250000000,165510.0000000000,165506.7812500000,132287.8281250000,118630.1250000000,133087.6406250000,155167.4531250000,,,
2.2759999963,17,175551.0937500000,214869.5937500000,165958.1875000000,166061.5937500000,132859.5156250000,119174.4531250000,133701.5625000000,154310.5156250000,,,
2.2799999963,17,176056.6562500000,200242.1875000000,166660.2656250000,166953.3437500000,133702.8750000000,120015.2734375000,134661.1562500000,151603.2812500000,,,
2.2839999963,17,176097.6718750000,185516.3593750000,166654.2812500000,166993.9062500000,133680.2656250000,120019.0234375000,134681.2656250000,150425.1718750000,,,
2.2879999964,17,175605.4218750000,193474.1406250000,165887.5625000000,165989.6875000000,132713.5781250000,119078.7812500000,133611.5000000000,152893.1250000000,,,
2.2919999964,17,175306.0625000000,211533.5156250000,165534.0000000000,165508.9218750000,132317.0312500000,118652.7343750000,133108.0000000000,155196.5000000000,,,
2.2959999964,17,175566.4218750000,214907.9843750000,165971.5781250000,166066.7968750000,132879.3593750000,119184.1093750000,133707.5000000000,154346.5000000000,,,
2.2999999963,17,176061.2187500000,200324.7968750000,166662.9218750000,166958.7968750000,133712.3281250000,120006.1015625000,134649.6406250000,151621.8125000000,,,
2.3039999963,18,176116.5312500000,185548.2656250000,166673.8906250000,166993.7187500000,133708.6250000000,120021.2500000000,134688.8281250000,150438.5312500000,,,
2.3079999962,18,175624.9843750000,193399.2656250000,165908.6250000000,166000.0000000000,132743.2343750000,119083.2812500000,133625.3437500000,152894.8593750000,,,
2.3119999962,18,175305.7656250000,211497.0625000000,165534.9375000000,165495.9062500000,132323.6406250000,118642.2734375000,133105.9218750000,155196.6250000000,,,
2.3159999961,18,175572.7031250000,214973.0000000000,165984.5000000000,166059.1718750000,132891.7812500000,119186.4453125000,133709.6406250000,154365.4218750000,,,
2.3199999961,18,176064.4062500000,200442.6562500000,166674.5312500000,166966.9687500000,133719.7031250000,120010.8750000000,134653.8593750000,151633.2968750000,,,
2.3239999961,18,176120.3906250000,185588.6718750000,166686.4375000000,167013.9687500000,133711.2500000000,120032.7343750000,134696.1875000000,150421.2812500000,,,
2.3279999963,18,175627.0156250000,193327.0468750000,165913.2343750000,166026.5625000000,132737.4531250000,119100.6406250000,133627.1875000000,152864.8593750000,,,
2.3319999962,18,175315.3437500000,211461.0468750000,165536.1250000000,165539.2656250000,132316.0781250000,118657.7500000000,133100.4375000000,155195.9843750000,,,
2.3359999962,18,175578.6093750000,215027.8750000000,165979.8906250000,166101.8750000000,132878.7656250000,119177.3515625000,133702.1875000000,154373.8437500000,,,
2.3399999961,18,176062.0000000000,200566.8437500000,166664.2812500000,166965.4375000000,133704.7343750000,119997.2734375000,134647.0156250000,151637.0937500000,,,
2.3439999961,18,176124.6718750000,185625.6250000000,166685.0781250000,167015.8906250000,133713.2812500000,120041.5000000000,134700.9843750000,150420.6093750000,,,
2.3479999963,18,175638.9531250000,193262.3125000000,165926.4687500000,166016.6406250000,132755.9218750000,119112.3359375000,133643.7343750000,152867.6718750000,,,
2.3519999962,18,175307.2187500000,211414.2187500000,165534.3281250000,165501.6875000000,132319.1562500000,118643.3515625000,133100.1406250000,155194.9375000000,,,
2.3559999962,18,175576.0625000000,215063.3281250000,165978.6875000000,166067.5468750000,132882.2343750000,119180.1953125000,133696.5468750000,154394.6718750000,,,
2.3599999961,18,176080.8281250000,200635.7812500000,166683.6562500000,166961.7343750000,133728.7656250000,120014.9218750000,134658.6875000000,151673.3281250000,,,
2.3639999961,18,176128.9375000000,185641.8593750000,166691.8906250000,167020.6093750000,133722.9218750000,120034.2343750000,134699.0312500000,150421.5781250000,,,
2.3679999961,18,175632.1093750000,193184.8906250000,165920.5625000000,166029.5312500000,132752.2812500000,119101.7109375000,133638.5937500000,152846.4531250000,,,
2.3719999962,18,175302.2656250000,211352.9843750000,165528.5000000000,165487.7343750000,132312.6875000000,118648.7890625000,133091.3125000000,155195.9687500000,,,
2.3759999962,18,175557.4218750000,215082.7500000000,165967.6093750000,166032.6718750000,132867.8593750000,119172.3906250000,133677.7968750000,154401.7656250000,,,
2.3799999962,18,176043.4062500000,200704.4218750000,166652.7187500000,166930.0156250000,133692.5000000000,120000.9218750000,134631.7031250000,151667.7031250000,,,
2.3839999961,18,176101.0781250000,185661.1093750000,166665.5468750000,166996.5312500000,133692.5781250000,120048.3671875000,134690.6093750000,150420.6093750000,,,
2.3879999961,18,175602.0781250000,193093.0781250000,165894.2500000000,166001.2343750000,132721.9218750000,119110.8828125000,133623.9375000000,152830.3125000000,,,
2.3919999963,18,175277.1875000000,211292.7656250000,165511.4687500000,165486.1562500000,132289.2187500000,118643.5390625000,133085.0937500000,155186.1250000000,,,
2.3959999962,18,175521.2656250000,215099.8906250000,165930.6718750000,166032.2187500000,132829.3437500000,119150.6093750000,133654.4687500000,154386.1718750000,,,
2.3999999962,18,176031.1562500000,200771.0468750000,166635.7187500000,166945.0000000000,133676.7031250000,119999.8750000000,134622.5781250000,151669.8437500000,,,
2.4039999961,18,176106.1093750000,185672.1093750000,166668.6093750000,167028.7656250000,133695.6718750000,120051.9921875000,134697.3593750000,150416.4843750000,,,
2.4079999961,18,175610.2343750000,193002.5937500000,165901.1093750000,166033.2343750000,132728.0312500000,119108.9531250000,133622.0625000000,152812.7031250000,,,
2.4119999961,18,175289.8593750000,211238.2812500000,165522.8437500000,165499.9843750000,132299.5468750000,118643.5859375000,133073.8281250000,155188.7656250000,,,
2.4159999962,18,175547.9531250000,215169.6562500000,165954.2812500000,166039.7343750000,132849.1406250000,119162.5937500000,133662.7500000000,154423.8125000000,,,
2.4199999962,18,176032.9218750000,200917.0937500000,166634.1093750000,166937.9531250000,133672.6718750000,119987.0000000000,134611.9843750000,151686.6718750000,,,
2.4239999962,18,176101.3750000000,185696.9531250000,166664.8437500000,167006.4062500000,133692.5312500000,120041.8515625000,134680.9531250000,150402.9843750000,,,
2.4279999961,18,175619.3281250000,192933.2812500000,165907.4687500000,166021.7812500000,132735.9687500000,119123.3281250000,133627.2187500000,152815.5468750000,,,
2.4319999961,19,175287.1875000000,211206.9531250000,165514.2343750000,165501.7343750000,132291.5781250000,118650.0546875000,133062.9531250000,155198.9687500000,,,
2.4359999960,19,175532.9062500000,215218.2812500000,165935.2812500000,166034.3593750000,132830.0625000000,119155.5390625000,133635.1875000000,154429.9218750000,,,
2.4399999960,19,176047.9687500000,201035.8281250000,166648.4375000000,166941.8593750000,133682.5468750000,120007.8437500000,134627.5468750000,151722.2812500000,,,
2.4439999959,19,176120.2187500000,185770.5156250000,166685.2812500000,167021.7187500000,133709.5937500000,120055.3437500000,134711.9062500000,150423.2968750000,,,
2.4479999959,19,175616.9687500000,192877.2812500000,165912.9218750000,166014.5156250000,132739.5937500000,119107.1015625000,133642.5625000000,152781.7656250000,,,
2.4519999959,19,175278.5156250000,211175.0625000000,165506.7187500000,165474.9375000000,132283.4531250000,118627.7656250000,133071.5937500000,155169.0000000000,,,
2.4559999960,19,175527.4843750000,215248.2187500000,165932.5468750000,166014.0312500000,132830.7343750000,119140.3046875000,133654.8906250000,154413.6093750000,,,
2.4599999960,19,176045.6562500000,201079.0468750000,166654.8906250000,166941.7031250000,133697.6250000000,119993.9453125000,134637.8750000000,151705.2031250000,,,
2.4639999960,19,176129.9062500000,185794.7343750000,166705.5312500000,167043.2812500000,133741.2656250000,120064.5156250000,134725.7656250000,150409.2968750000,,,
2.4679999959,19,175633.8281250000,192819.2656250000,165935.3593750000,166041.6562500000,132773.5156250000,119127.4062500000,133663.9687500000,152770.8906250000,,,
2.4719999959,19,175304.5312500000,211144.2812500000,165538.2343750000,165488.3750000000,132321.6718750000,118646.8046875000,133103.8906250000,155180.1093750000,,,
2.4759999961,19,175564.3906250000,215294.7812500000,165970.0937500000,166023.0468750000,132869.1718750000,119165.1718750000,133684.6406250000,154452.2343750000,,,
2.4799999960,19,176057.7812500000,201141.3437500000,166662.2656250000,166937.3281250000,133702.5781250000,119993.6250000000,134641.0156250000,151715.7656250000,,,
2.4839999960,19,176117.1406250000,185824.2968750000,166684.4531250000,167019.8593750000,133716.7968750000,120044.3203125000,134707.0000000000,150380.4843750000,,,
2.4879999959,19,175620.4687500000,192746.4687500000,165908.9218750000,166029.2656250000,132743.9062500000,119121.6406250000,133638.0312500000,152739.4531250000,,,
2.4919999959,19,175283.3437500000,211089.1562500000,165501.4375000000,165479.6093750000,132284.1562500000,118638.5468750000,133074.0312500000,155169.0000000000,,,
2.4959999959,19,175530.3593750000,215331.2031250000,165927.5312500000,166012.8281250000,132826.3281250000,119143.8203125000,133653.9062500000,154445.4218750000,,,
2.4999999960,19,176029.9218750000,201243.5156250000,166628.6562500000,166924.3281250000,133669.6250000000,119985.7656250000,134617.1875000000,151710.7187500000,,,
2.5039999960,19,176120.4687500000,185856.8906250000,166688.3437500000,167037.2968750000,133720.0000000000,120065.2421875000,134715.3281250000,150377.8281250000,,,
2.5079999960,19,175638.8437500000,192674.4687500000,165935.3593750000,166053.3593750000,132768.7968750000,119140.0156250000,133666.3750000000,152735.0937500000,,,
2.5119999959,19,175290.7812500000,211046.0000000000,165515.6250000000,165493.5468750000,132296.7343750000,118642.8671875000,133081.6562500000,155173.3750000000,,,
2.5159999959,19,175544.0000000000,215409.1250000000,165946.3437500000,166029.4062500000,132840.5312500000,119150.8203125000,133660.4531250000,154470.7656250000,,,
2.5199999961,19,176058.3125000000,201451.8125000000,166664.8125000000,166952.5156250000,133697.6562500000,119996.1171875000,134639.7500000000,151747.3125000000,,,
2.5239999960,19,176139.6718750000,185921.5781250000,166714.7656250000,167046.6250000000,133743.6250000000,120078.3046875000,134740.9687500000,150375.3593750000,,,
2.5279999960,19,175658.1406250000,192618.5468750000,165956.2343750000,166070.0156250000,132788.1093750000,119161.4140625000,133683.8593750000,152727.9843750000,,,
2.5319999959,19,175296.2812500000,211007.2968750000,165519.2187500000,165503.2656250000,132298.0468750000,118641.3906250000,133079.5937500000,155173.2656250000,,,
2.5359999959,19,175524.3437500000,215436.0781250000,165922.4843750000,166002.8281250000,132818.6875000000,119125.6328125000,133639.9843750000,154464.3281250000,,,
2.5399999958,19,176038.0625000000,201510.5625000000,166637.6562500000,166908.8437500000,133676.1718750000,119982.7109375000,134616.2500000000,151741.0000000000,,,
2.5439999960,19,176138.0937500000,185946.2812500000,166708.9218750000,167034.2968750000,133740.6406250000,120079.5078125000,134729.6875000000,150366.9062500000,,,
2.5479999960,19,175658.4531250000,192529.3437500000,165956.6875000000,166049.9843750000,132792.0000000000,119158.2812500000,133686.9218750000,152707.5156250000,,,
2.5519999960,19,175315.1562500000,210952.0468750000,165541.3437500000,165479.5312500000,132323.1250000000,118659.6015625000,133106.4062500000,155195.5625000000,,,
2.5559999959,19,175555.2187500000,215450.9843750000,165961.6562500000,166021.8906250000,132859.7031250000,119155.1640625000,133674.5781250000,154511.9687500000,,,
2.5599999959,20,176047.7812500000,201531.0937500000,166658.5781250000,166928.4531250000,133700.8750000000,119996.2031250000,134638.1718750000,151756.5937500000,,,
2.5639999958,20,176136.1093750000,185960.5468750000,166721.7968750000,167029.2500000000,133757.0937500000,120080.1562500000,134742.9062500000,150350.6250000000,,,
2.5679999958,20,175646.7343750000,192453.6406250000,165953.0156250000,166043.6718750000,132790.9062500000,119156.0234375000,133681.6875000000,152671.1718750000,,,
2.5719999957,20,175284.2812500000,210890.2968750000,165504.8125000000,165471.2656250000,132289.3281250000,118643.8828125000,133070.0625000000,155163.6093750000,,,
2.5759999957,20,175531.6718750000,215451.4531250000,165931.0781250000,166003.7343750000,132828.1875000000,119140.0937500000,133648.8125000000,154495.0781250000,,,
2.5799999957,20,176050.7812500000,201561.0625000000,166652.4062500000,166937.3593750000,133690.0312500000,119993.9453125000,134634.5781250000,151753.8750000000,,,
2.5839999958,20,176145.7031250000,185967.6875000000,166717.3593750000,167056.5625000000,133752.7500000000,120085.9218750000,134746.3750000000,150343.3125000000,,,
2.5879999958,20,175649.5468750000,192363.4375000000,165949.5312500000,166053.3281250000,132794.1406250000,119161.8203125000,133687.6406250000,152657.7031250000,,,
2.5919999958,20,175267.3906250000,210821.2343750000,165495.1562500000,165451.7343750000,132285.0312500000,118629.7500000000,133064.2968750000,155158.8593750000,,,
2.5959999957,20,175510.3125000000,215485.3437500000,165918.7343750000,165982.6875000000,132822.0625000000,119127.8125000000,133631.2968750000,154509.1875000000,,,
2.5999999957,20,176041.0937500000,201675.4062500000,166655.5468750000,166928.8593750000,133698.7187500000,119996.3046875000,134632.5000000000,151776.0625000000,,,
2.6039999959,20,176149.5468750000,185997.7343750000,166735.5781250000,167055.8906250000,133775.5156250000,120106.3046875000,134766.5937500000,150352.5937500000,,,
2.6079999958,20,175671.8125000000,192303.7343750000,165978.4375000000,166076.1875000000,132822.6562500000,119192.7421875000,133710.9843750000,152669.9843750000,,,
2.6119999958,20,175300.6562500000,210792.2343750000,165525.2500000000,165483.7968750000,132311.7812500000,118650.8593750000,133076.6406250000,155187.0312500000,,,
2.6159999957,20,175515.0312500000,215527.7500000000,165912.0625000000,165986.1875000000,132812.2812500000,119115.2578125000,133619.5468750000,154519.4531250000,,,
2.6199999957,20,176024.1718750000,201765.3906250000,166625.1718750000,166901.2343750000,133665.9218750000,119972.0312500000,134611.3437500000,151765.8125000000,,,
2.6239999956,20,176126.7187500000,186030.7500000000,166704.5937500000,167034.2343750000,133741.2343750000,120074.4140625000,134744.7656250000,150315.0625000000,,,
2.6279999958,20,175640.3437500000,192230.9687500000,165943.5937500000,166052.9843750000,132785.8593750000,119153.7421875000,133686.5156250000,152615.1093750000,,,
2.6319999958,20,175298.1562500000,210752.9062500000,165522.1406250000,165478.6093750000,132306.0937500000,118642.2734375000,133084.2031250000,155179.5937500000,,,
2.6359999957,20,175557.7968750000,215592.4843750000,165959.1875000000,166016.3125000000,132855.6718750000,119143.1796875000,133657.0156250000,154572.4218750000,,,
2.6399999957,20,176081.3125000000,201888.0000000000,166689.3593750000,166947.6250000000,133728.1406250000,120009.2656250000,134646.7968750000,151833.0312500000,,,
2.6439999957,20,176185.1406250000,186097.8281250000,166768.5937500000,167079.2968750000,133805.2031250000,120119.0703125000,134784.6718750000,150366.7500000000,,,
2.6479999959,20,175686.1562500000,192179.7656250000,165994.4062500000,166094.5312500000,132834.6562500000,119183.8671875000,133725.5781250000,152637.7031250000,,,
2.6519999958,20,175310.8906250000,210704.2031250000,165537.2968750000,165491.5468750000,132316.0156250000,118644.0703125000,133093.4062500000,155187.4375000000,,,
2.6559999958,20,175530.1093750000,215614.9843750000,165932.5468750000,165981.8750000000,132823.6250000000,119123.8359375000,133636.2031250000,154567.8750000000,,,
2.6599999957,20,176047.2968750000,201962.4218750000,166658.5468750000,166930.4687500000,133691.9687500000,119994.3515625000,134629.7500000000,151827.6406250000,,,
2.6639999957,20,176152.2500000000,186118.8593750000,166739.3906250000,167074.5781250000,133774.5781250000,120116.9531250000,134768.6562500000,150354.3593750000,,,
2.6679999956,20,175673.4218750000,192105.8437500000,165982.8437500000,166086.4062500000,132825.7187500000,119206.3984375000,133719.3750000000,152636.2968750000,,,
2.6719999958,20,175291.5000000000,210655.6875000000,165516.8125000000,165468.3125000000,132300.2656250000,118652.6562500000,133066.8437500000,155191.7187500000,,,
2.6759999958,20,175522.2812500000,215656.2343750000,165918.5781250000,165977.6875000000,132818.0781250000,119135.1328125000,133617.7187500000,154587.0937500000,,,
2.6799999957,20,176050.4687500000,202061.9843750000,166654.5781250000,166918.3906250000,133695.2031250000,120003.6875000000,134627.0625000000,151847.4843750000,,,
2.6839999957,20,176162.1250000000,186144.8281250000,166743.8125000000,167065.8593750000,133783.2187500000,120122.4218750000,134769.7031250000,150351.1406250000,,,
2.6879999957,21,175674.0937500000,192034.1562500000,165987.1406250000,166083.7187500000,132828.9687500000,119200.4453125000,133725.1718750000,152606.1250000000,,,
2.6919999956,21,175288.5468750000,210583.9375000000,165519.6250000000,165469.2812500000,132299.5156250000,118642.5468750000,133081.7031250000,155163.7187500000,,,
2.6959999956,21,175516.7500000000,215660.0156250000,165913.0468750000,165974.7656250000,132807.5000000000,119126.3359375000,133617.4218750000,154578.4687500000,,,
2.6999999955,21,176043.0000000000,202137.2812500000,166647.5937500000,166921.5312500000,133683.4062500000,119993.8906250000,134616.0156250000,151845.8593750000,,,
2.7039999955,21,176166.7343750000,186178.8125000000,166756.8437500000,167067.6093750000,133792.2500000000,120125.0546875000,134781.6718750000,150343.0468750000,,,
2.7079999954,21,175693.5156250000,191954.9375000000,166009.6093750000,166093.4531250000,132849.7968750000,119217.0703125000,133741.9531250000,152602.9375000000,,,
2.7119999956,21,175314.8437500000,210538.7343750000,165539.0468750000,165486.4375000000,132317.7656250000,118660.2187500000,133089.2968750000,155195.6093750000,,,
2.7159999956,21,175545.0468750000,215708.3281250000,165939.5312500000,165985.4218750000,132830.2187500000,119132.7734375000,133620.7187500000,154626.4218750000,,,
2.7199999955,21,176076.2968750000,202219.9687500000,166682.4375000000,166936.0937500000,133712.8593750000,120000.2265625000,134627.1093750000,151889.7968750000,,,
2.7239999955,21,176200.0000000000,186202.2187500000,166787.7187500000,167099.4531250000,133818.7812500000,120133.6875000000,134794.5468750000,150374.4531250000,,,
2.7279999955,21,175718.2968750000,191868.2031250000,166032.7500000000,166119.9218750000,132871.4687500000,119214.3125000000,133745.6093750000,152613.9062500000,,,
2.7319999957,21,175335.9218750000,210478.4375000000,165562.1562500000,165478.7812500000,132340.5937500000,118660.1640625000,133098.4218750000,155215.2500000000,,,
2.7359999956,21,175560.0781250000,215744.9531250000,165958.8906250000,165965.3593750000,132850.3437500000,119142.3437500000,133637.5468750000,154662.0156250000,,,
2.7399999956,21,176062.1875000000,202339.9531250000,166668.5156250000,166898.5000000000,133707.0937500000,120005.7734375000,134620.2968750000,151916.5000000000,,,
2.7439999955,21,176168.1875000000,186239.6093750000,166760.7656250000,167065.3750000000,133801.8281250000,120129.4296875000,134778.5468750000,150356.7187500000,,,
2.7479999955,21,175686.1093750000,191787.2500000000,166006.1250000000,166095.6562500000,132852.7500000000,119210.1562500000,133740.9375000000,152567.9843750000,,,
2.7519999954,21,175305.2968750000,210406.9843750000,165537.1406250000,165477.5625000000,132321.8437500000,118651.0468750000,133094.9531250000,155176.3281250000,,,
2.7559999956,21,175530.7812500000,215752.4218750000,165930.3437500000,165966.1562500000,132827.6718750000,119125.2578125000,133626.2500000000,154633.9843750000,,,
2.7599999956,21,176054.8125000000,202405.5312500000,166662.3281250000,166910.7500000000,133700.4375000000,119988.4765625000,134619.7656250000,151897.7343750000,,,
2.7639999955,21,176172.8437500000,186268.5312500000,166764.7031250000,167080.6093750000,133804.8593750000,120122.1562500000,134785.3437500000,150331.2656250000,,,
2.7679999955,21,175704.4062500000,191713.0156250000,166022.4375000000,166117.7812500000,132865.3281250000,119217.0468750000,133749.0937500000,152541.7812500000,,,
2.7719999955,21,175317.8125000000,210349.1875000000,165545.6406250000,165488.7031250000,132321.7812500000,118648.5781250000,133081.0156250000,155165.0937500000,,,
2.7759999956,21,175522.4687500000,215778.6718750000,165917.5625000000,165981.5000000000,132805.8750000000,119106.5625000000,133597.0156250000,154629.0000000000,,,
2.7799999956,21,176039.0625000000,202486.0468750000,166644.1406250000,166913.7343750000,133675.5000000000,119975.6562500000,134593.3437500000,151886.7343750000,,,
2.7839999956,21,176185.7500000000,186295.3281250000,166777.6562500000,167099.0937500000,133812.7500000000,120143.1562500000,134785.9531250000,150327.6093750000,,,
2.7879999955,21,175713.7968750000,191621.8906250000,166030.7187500000,166134.0312500000,132873.6562500000,119235.2031250000,133751.1093750000,152529.2031250000,,,
2.7919999955,21,175316.1718750000,210265.6406250000,165540.5156250000,165490.8125000000,132319.1250000000,118650.5625000000,133079.9062500000,155165.2187500000,,,
2.7959999954,21,175543.1250000000,215766.4218750000,165936.6875000000,165973.4843750000,132826.0625000000,119115.0703125000,133616.7343750000,154659.8437500000,,,
2.7999999956,21,176080.4531250000,202520.8593750000,166680.2968750000,166927.5468750000,133709.7187500000,119990.8359375000,134621.3281250000,151936.8125000000,,,
2.8039999956,21,176200.8750000000,186293.7343750000,166790.0312500000,167079.5937500000,133822.5312500000,120125.6406250000,134794.4062500000,150341.2656250000,,,
2.8079999955,21,175709.8281250000,191504.2812500000,166024.2812500000,166112.8281250000,132864.0781250000,119208.8359375000,133750.1406250000,152515.1718750000,,,
2.8119999955,21,175312.6718750000,210179.3750000000,165528.3125000000,165475.7968750000,132302.1562500000,118638.3828125000,133067.9218750000,155179.2968750000,,,
2.8159999955,22,175522.7343750000,215782.5312500000,165914.8437500000,165945.7968750000,132800.3906250000,119102.7265625000,133591.8125000000,154683.5312500000,,,
2.8199999954,22,176049.7656250000,202591.2656250000,166657.4218750000,166906.3281250000,133687.2968750000,119977.5859375000,134596.3750000000,151953.8906250000,,,
2.8239999954,22,176192.1406250000,186324.7656250000,166790.9843750000,167097.9375000000,133826.6406250000,120140.6875000000,134799.0156250000,150362.7812500000,,,
2.8279999953,22,175724.2968750000,191433.0625000000,166046.4687500000,166128.2187500000,132891.1562500000,119247.0312500000,133781.7187500000,152536.2031250000,,,
2.8319999953,22,175309.4531250000,210114.5937500000,165533.9218750000,165470.3593750000,132313.6875000000,118641.1484375000,133084.9531250000,155178.6562500000,,,
2.8359999952,22,175503.8750000000,215820.7812500000,165889.9375000000,165931.5625000000,132783.3125000000,119084.6796875000,133578.9375000000,154681.0312500000,,,
2.8399999954,22,176032.0312500000,202702.3750000000,166627.2187500000,166874.2500000000,133661.6562500000,119962.1328125000,134580.4218750000,151944.6718750000,,,
2.8439999954,22,176190.8281250000,186358.2656250000,166775.7812500000,167084.3750000000,133812.1250000000,120140.9062500000,134795.9843750000,150330.5625000000,,,
2.8479999953,22,175729.6718750000,191359.5000000000,166046.3593750000,166139.5156250000,132887.4687500000,119246.9531250000,133781.3125000000,152490.9531250000,,,
2.8519999953,22,175316.7187500000,210073.0000000000,165536.6250000000,165480.5937500000,132311.4062500000,118648.5546875000,133076.6093750000,155164.2031250000,,,
2.8559999953,22,175514.0000000000,215851.4218750000,165906.5625000000,165947.1875000000,132792.6718750000,119096.2656250000,133573.7343750000,154690.3593750000,,,
2.8599999954,22,176029.0781250000,202777.8125000000,166630.8593750000,166891.5156250000,133662.0625000000,119964.5234375000,134571.7500000000,151944.3750000000,,,
2.8639999954,22,176174.5468750000,186392.2031250000,166768.5625000000,167100.2812500000,133804.1406250000,120133.1796875000,134786.5937500000,150302.0312500000,,,
2.8679999954,22,175706.3281250000,191278.7656250000,166024.3593750000,166145.1093750000,132868.5000000000,119234.2109375000,133762.8281250000,152451.5000000000,,,
2.8719999953,22,175304.1875000000,210021.2343750000,165521.1250000000,165485.4062500000,132296.0625000000,118636.1093750000,133073.6875000000,155157.7968750000,,,
2.8759999953,22,175510.4218750000,215900.5000000000,165897.7812500000,165944.8281250000,132782.9375000000,119083.0937500000,133584.4375000000,154704.9218750000,,,
2.8799999952,22,176036.0625000000,202892.2187500000,166637.1875000000,166882.7500000000,133665.3281250000,119967.0156250000,134590.9843750000,151970.4687500000,,,
2.8839999954,22,176189.9375000000,186456.2187500000,166782.3593750000,167098.2656250000,133815.2656250000,120150.8828125000,134803.2812500000,150325.9218750000,,,
2.8879999954,22,175725.5937500000,191219.5625000000,166045.8125000000,166159.2187500000,132884.0625000000,119263.8750000000,133784.1562500000,152467.5156250000,,,
2.8919999953,22,175303.5937500000,209963.4062500000,165522.8750000000,165482.6875000000,132292.9531250000,118653.8906250000,133076.9531250000,155175.6875000000,,,
2.8959999953,22,175496.4843750000,215964.8281250000,165881.9687500000,165935.4687500000,132762.6875000000,119087.3593750000,133570.8906250000,154734.5468750000,,,
2.8999999953,22,176027.0781250000,203086.1093750000,166626.2031250000,166894.6875000000,133649.8750000000,119968.7656250000,134583.9531250000,152006.1406250000,,,
2.9039999954,22,176170.5937500000,186513.2968750000,166766.8750000000,167090.8593750000,133802.5781250000,120146.9687500000,134804.7343750000,150317.0000000000,,,
2.9079999954,22,175707.3281250000,191139.7343750000,166029.2968750000,166136.3437500000,132876.9218750000,119253.9531250000,133785.9531250000,152440.7343750000,,,
2.9119999954,22,175290.2656250000,209896.2343750000,165510.2343750000,165460.4843750000,132289.2187500000,118636.4531250000,133068.1406250000,155160.9375000000,,,
2.9159999953,22,175486.2343750000,215960.3125000000,165873.3593750000,165909.3437500000,132763.6718750000,119071.4296875000,133558.9062500000,154730.9218750000,,,
2.9199999953,22,176024.7968750000,203104.3437500000,166625.9218750000,166861.7500000000,133659.2343750000,119963.2343750000,134580.2343750000,152007.6718750000,,,
2.9239999952,22,176184.7031250000,186523.8750000000,166782.2187500000,167096.9531250000,133824.8906250000,120160.6484375000,134822.2812500000,150323.6406250000,,,
2.9279999954,22,175721.2187500000,191054.7968750000,166051.5937500000,166152.8906250000,132900.1250000000,119265.3828125000,133812.2343750000,152429.3125000000,,,
2.9319999954,22,175307.5937500000,209844.1875000000,165528.9062500000,165473.2187500000,132305.6875000000,118654.1875000000,133092.0625000000,155170.4843750000,,,
2.9359999953,22,175496.4218750000,215986.4687500000,165876.4375000000,165918.7656250000,132764.9375000000,119085.9687500000,133568.0468750000,154752.5625000000,,,
2.9399999953,22,176020.0937500000,203172.1875000000,166613.9687500000,166875.2968750000,133644.2500000000,119957.6015625000,134570.8437500000,152015.0468750000,,,
2.9439999952,23,176177.5468750000,186561.9843750000,166768.7500000000,167095.8281250000,133808.6875000000,120155.9296875000,134804.6718750000,150311.0937500000,,,
