Time:250Hz,Epoch,Channel 1,Channel 2,Channel 3,Channel 4,Channel 5,Channel 6,Channel 7,Channel 8,Event Id,Event Date,Event Duration
0.0000000000,0,180568.2343750000,164727.2968750000,194262.0781250000,180125.2187500000,168352.5000000000,139596.8437500000,163085.2812500000,151847.9531250000,,,
0.0040000000,0,180581.5468750000,164736.1718750000,194273.9218750000,180142.2187500000,168364.5937500000,139607.2500000000,163101.1562500000,152289.2968750000,,,
0.0079999999,0,180631.4843750000,164777.3281250000,194332.1250000000,180209.2812500000,168419.4375000000,139646.2500000000,163106.3125000000,151960.7656250000,,,
0.0119999999,0,180657.3437500000,164801.3281250000,194360.9687500000,180252.2968750000,168449.0468750000,139670.2656250000,163136.7500000000,151318.7500000000,,,
0.0159999998,0,180621.5156250000,164770.6718750000,194317.2187500000,180182.8593750000,168404.9531250000,139645.6406250000,163188.9218750000,151261.4843750000,,,
0.0199999998,0,180610.0781250000,164764.5000000000,194300.6406250000,180174.0937500000,168388.1093750000,139635.5781250000,163188.1875000000,151832.3437500000,,,
0.0240000000,0,180624.7031250000,164778.0156250000,194314.5312500000,180208.7656250000,168400.4531250000,139641.8281250000,163180.3281250000,152210.9062500000,,,
0.0279999999,0,180634.5156250000,164781.1562500000,194329.3906250000,180207.9375000000,168415.8750000000,139652.2031250000,163180.7343750000,151857.1406250000,,,
0.0319999999,0,180647.4531250000,164790.2812500000,194351.4375000000,180201.4531250000,168436.9843750000,139666.6875000000,163203.7812500000,151190.4531250000,,,
0.0359999998,0,180635.9062500000,164787.8125000000,194332.1250000000,180194.5312500000,168423.1093750000,139659.1875000000,163185.4062500000,151132.1250000000,,,
0.0399999998,0,180621.1875000000,164780.2968750000,194311.9687500000,180181.6875000000,168403.9687500000,139645.0468750000,163158.5625000000,151793.1718750000,,,
0.0440000000,0,180626.8750000000,164780.6250000000,194316.0937500000,180196.8593750000,168406.0781250000,139641.4843750000,163154.5312500000,152260.5468750000,,,
0.0480000000,0,180644.2031250000,164788.4062500000,194337.8125000000,180212.1562500000,168423.3906250000,139653.9531250000,163172.8750000000,151953.9531250000,,,
0.0519999999,0,180647.2343750000,164791.9687500000,194344.9062500000,180214.8125000000,168428.8593750000,139662.4531250000,163179.0468750000,151346.2968750000,,,
0.0559999999,0,180627.1093750000,164780.1406250000,194323.6875000000,180204.7500000000,168409.6718750000,139647.4687500000,163161.1875000000,151288.0312500000,,,
0.0599999998,0,180611.3750000000,164769.2812500000,194302.9687500000,180188.6875000000,168391.3281250000,139634.4843750000,163146.1875000000,151913.0468750000,,,
0.0639999998,0,180621.0781250000,164774.6093750000,194312.4687500000,180205.9218750000,168399.2500000000,139644.3437500000,163156.1718750000,152326.5625000000,,,
0.0680000000,0,180635.4218750000,164785.3750000000,194330.5781250000,180230.5000000000,168416.5781250000,139657.0937500000,163163.9531250000,152004.3437500000,,,
0.0719999999,0,180636.6875000000,164784.5625000000,194339.6718750000,180218.7968750000,168427.1093750000,139662.1875000000,163159.8125000000,151405.7031250000,,,
0.0759999999,0,180624.8906250000,164780.1406250000,194326.1718750000,180187.0156250000,168419.6250000000,139660.3906250000,163149.7812500000,151355.5468750000,,,
0.0799999998,0,180590.7187500000,164753.8750000000,194279.1562500000,180161.5937500000,168376.5781250000,139629.4843750000,163123.1562500000,152012.2343750000,,,
0.0839999998,0,180619.0156250000,164781.1562500000,194306.4843750000,180203.9218750000,168399.5468750000,139649.7187500000,163165.5000000000,152440.8750000000,,,
0.0880000000,0,180652.4062500000,164811.2500000000,194341.0625000000,180231.2968750000,168430.3906250000,139677.8437500000,163199.4375000000,152111.0781250000,,,
0.0919999999,0,180640.5312500000,164798.5625000000,194333.7343750000,180199.0625000000,168421.3750000000,139668.2187500000,163189.5312500000,151486.8437500000,,,
0.0959999999,0,180622.6093750000,164785.3906250000,194313.4062500000,180193.4843750000,168399.4062500000,139646.6562500000,163162.9218750000,151446.3437500000,,,
0.0999999999,0,180615.1250000000,164780.9218750000,194300.9687500000,180206.2031250000,168386.0468750000,139628.7343750000,163145.7812500000,152047.4218750000,,,
0.1039999998,0,180626.1250000000,164785.3125000000,194313.2187500000,180212.6875000000,168397.5468750000,139633.2968750000,163157.2656250000,152460.9687500000,,,
0.1079999998,0,180660.9843750000,164811.5937500000,194353.8593750000,180243.6406250000,168438.0000000000,139664.8125000000,163188.9687500000,152118.5000000000,,,
0.1120000000,0,180667.6093750000,164816.0312500000,194368.0156250000,180245.3593750000,168452.8281250000,139675.2968750000,163189.4843750000,151475.8437500000,,,
0.1159999999,0,180626.5000000000,164779.2031250000,194332.1875000000,180164.8437500000,168418.4531250000,139644.6250000000,163167.8593750000,151410.5312500000,,,
0.1199999999,0,180604.2968750000,164761.6250000000,194303.2187500000,180149.7031250000,168393.0781250000,139624.4218750000,163140.2968750000,152030.6562500000,,,
0.1239999998,0,180621.0781250000,164776.7812500000,194314.8281250000,180190.9843750000,168405.5156250000,139638.6093750000,163152.7031250000,152477.0000000000,,,
0.1279999998,1,180641.5937500000,164791.3281250000,194337.2343750000,180218.0000000000,168426.0468750000,139657.0625000000,163196.0000000000,152161.7656250000,,,
0.1319999998,1,180651.1718750000,164800.2500000000,194349.1093750000,180241.2812500000,168436.2656250000,139667.0937500000,163218.1875000000,151530.8593750000,,,
0.1359999997,1,180629.0156250000,164783.8437500000,194325.5000000000,180213.2968750000,168412.3281250000,139646.5000000000,163194.5000000000,151443.6093750000,,,
0.1399999997,1,180621.3281250000,164779.3281250000,194316.7031250000,180189.5625000000,168403.8593750000,139638.3906250000,163182.9687500000,152034.3281250000,,,
0.1439999996,1,180641.9218750000,164796.2656250000,194338.3593750000,180210.2500000000,168421.3125000000,139656.0781250000,163198.1718750000,152438.1718750000,,,
0.1479999996,1,180662.9687500000,164814.9218750000,194361.9843750000,180252.7656250000,168441.8125000000,139675.0312500000,163218.0937500000,152087.0156250000,,,
0.1519999998,1,180660.1562500000,164814.4687500000,194364.3750000000,180254.4218750000,168445.9375000000,139680.0312500000,163214.9062500000,151428.6562500000,,,
0.1559999997,1,180640.8750000000,164802.4843750000,194348.7812500000,180194.6093750000,168436.3125000000,139668.7031250000,163176.8750000000,151380.4843750000,,,
0.1599999997,1,180615.1562500000,164779.2812500000,194318.8593750000,180176.5000000000,168409.2187500000,139639.8906250000,163116.5781250000,152010.0312500000,,,
0.1639999996,1,180635.0312500000,164793.8750000000,194330.9218750000,180195.7343750000,168421.0468750000,139653.9531250000,163161.7500000000,152423.6562500000,,,
0.1679999996,1,180658.3281250000,164813.2343750000,194353.6718750000,180229.5781250000,168439.7656250000,139675.1093750000,163231.1406250000,152075.1093750000,,,
0.1719999998,1,180656.1406250000,164812.7500000000,194352.7812500000,180214.8125000000,168439.5625000000,139679.7031250000,163243.6875000000,151445.2656250000,,,
0.1759999997,1,180648.7812500000,164812.0000000000,194341.0937500000,180210.7343750000,168430.8437500000,139672.9375000000,163214.4218750000,151369.7968750000,,,
0.1799999997,1,180621.3281250000,164786.9218750000,194308.6562500000,180186.1875000000,168400.9375000000,139643.9531250000,163172.1562500000,151992.0312500000,,,
0.1839999997,1,180629.0781250000,164787.3750000000,194317.0312500000,180208.9062500000,168405.1718750000,139643.5781250000,163175.7187500000,152433.6562500000,,,
0.1879999996,1,180656.9687500000,164811.6875000000,194349.7343750000,180234.0625000000,168433.6250000000,139666.6093750000,163207.1093750000,152116.5625000000,,,
0.1919999996,1,180667.5312500000,164821.4687500000,194365.3906250000,180226.5000000000,168449.1406250000,139681.6562500000,163227.0000000000,151460.8281250000,,,
0.1959999998,1,180637.3125000000,164796.8437500000,194335.0000000000,180196.4843750000,168421.2656250000,139659.3906250000,163189.1562500000,151368.1250000000,,,
0.1999999997,1,180613.4062500000,164777.1406250000,194305.4218750000,180196.9375000000,168392.5937500000,139637.7187500000,163139.8281250000,151949.5781250000,,,
0.2039999997,1,180621.1093750000,164784.9062500000,194308.9375000000,180207.0312500000,168391.8125000000,139643.1406250000,163141.1718750000,152404.0468750000,,,
0.2079999996,1,180652.7343750000,164812.2187500000,194340.7656250000,180253.2656250000,168420.1875000000,139671.3593750000,163194.7187500000,152114.5000000000,,,
0.2119999996,1,180652.4687500000,164808.7031250000,194347.6875000000,180252.0156250000,168427.6250000000,139676.7812500000,163212.4687500000,151455.8125000000,,,
0.2159999998,1,180616.7031250000,164780.6718750000,194314.2343750000,180192.0625000000,168400.9531250000,139651.5937500000,163139.4531250000,151355.7656250000,,,
0.2199999997,1,180595.6718750000,164767.0468750000,194285.4062500000,180179.0468750000,168377.9531250000,139627.6875000000,163096.3593750000,151996.0000000000,,,
0.2239999997,1,180615.7968750000,164781.2343750000,194308.4687500000,180206.2500000000,168398.4062500000,139637.2656250000,163139.8125000000,152474.7812500000,,,
0.2279999997,1,180646.2187500000,164802.7968750000,194340.5468750000,180225.5000000000,168428.1562500000,139665.5156250000,163201.3437500000,152161.7343750000,,,
0.2319999996,1,180648.7812500000,164804.8906250000,194342.9375000000,180230.4375000000,168430.1093750000,139678.6093750000,163231.1875000000,151505.7500000000,,,
0.2359999996,1,180632.0781250000,164797.1406250000,194321.0000000000,180224.0000000000,168409.1718750000,139664.3593750000,163216.7031250000,151397.7656250000,,,
0.2399999998,1,180605.9531250000,164777.1875000000,194286.7187500000,180198.2500000000,168376.1718750000,139634.3750000000,163182.3437500000,152002.6250000000,,,
0.2439999997,1,180610.5937500000,164777.8906250000,194291.6093750000,180180.6562500000,168378.8906250000,139634.6875000000,163183.0156250000,152501.8125000000,,,
0.2479999997,1,180648.7812500000,164808.6250000000,194334.5468750000,180213.7656250000,168417.8125000000,139665.3281250000,163214.1250000000,152210.0937500000,,,
0.2519999996,1,180651.4375000000,164811.6875000000,194340.6406250000,180205.8750000000,168424.4062500000,139673.9843750000,163214.4843750000,151533.8593750000,,,
0.2559999996,2,180635.5625000000,164803.9531250000,194324.2187500000,180194.3593750000,168410.3281250000,139664.2031250000,163191.7343750000,151410.1093750000,,,
0.2599999995,2,180609.8906250000,164783.4375000000,194292.9218750000,180182.8593750000,168381.8125000000,139639.2500000000,163167.6250000000,152022.0781250000,,,
0.2639999995,2,180625.4218750000,164794.3750000000,194307.4062500000,180214.2187500000,168394.9843750000,139649.9218750000,163188.1718750000,152484.4375000000,,,
0.2679999995,2,180642.7500000000,164807.0468750000,194330.2031250000,180235.5625000000,168413.9375000000,139668.2500000000,163211.1562500000,152184.9375000000,,,
0.2719999994,2,180647.2343750000,164810.2812500000,194343.5312500000,180223.5156250000,168424.7031250000,139677.2812500000,163219.9843750000,151549.3593750000,,,
0.2759999994,2,180627.3906250000,164798.2968750000,194320.6250000000,180209.1250000000,168406.2968750000,139664.1406250000,163194.9843750000,151433.5468750000,,,
0.2799999996,2,180617.8125000000,164791.7500000000,194304.7187500000,180220.5468750000,168393.5000000000,139651.1875000000,163176.9218750000,151981.8437500000,,,
0.2839999995,2,180622.4687500000,164790.4062500000,194307.4062500000,180207.4531250000,168395.7500000000,139649.2656250000,163180.2031250000,152418.1875000000,,,
0.2879999995,2,180654.5312500000,164814.0937500000,194344.3906250000,180228.5937500000,168429.5468750000,139676.3750000000,163226.8906250000,152082.5625000000,,,
0.2919999994,2,180667.0468750000,164826.8593750000,194362.2187500000,180240.7656250000,168446.6875000000,139691.1250000000,163253.5625000000,151411.7343750000,,,
0.2959999994,2,180643.6093750000,164810.2031250000,194339.4531250000,180227.4062500000,168425.6093750000,139667.6875000000,163230.2812500000,151326.7343750000,,,
0.2999999996,2,180615.4218750000,164785.6093750000,194308.5312500000,180209.6093750000,168396.8593750000,139637.8593750000,163195.5937500000,151980.9843750000,,,
0.3039999995,2,180609.6250000000,164773.2968750000,194301.5000000000,180201.2343750000,168390.5468750000,139631.5625000000,163188.2812500000,152486.3125000000,,,
0.3079999995,2,180635.4531250000,164790.7812500000,194331.6718750000,180222.5312500000,168418.0468750000,139657.2187500000,163218.6875000000,152192.9531250000,,,
0.3119999995,2,180651.5781250000,164804.9687500000,194349.8593750000,180224.8125000000,168437.7812500000,139675.7031250000,163237.3281250000,151530.7187500000,,,
0.3159999994,2,180649.2187500000,164809.8593750000,194344.2500000000,180233.3593750000,168434.8906250000,139674.2812500000,163231.5156250000,151387.5937500000,,,
0.3199999994,2,180622.5625000000,164786.2500000000,194314.3750000000,180196.4375000000,168408.3125000000,139647.2812500000,163196.0468750000,151972.9375000000,,,
0.3239999996,2,180623.3593750000,164781.6406250000,194319.4687500000,180191.7656250000,168414.0000000000,139641.2343750000,163185.5937500000,152455.6562500000,,,
0.3279999995,2,180637.6875000000,164788.2187500000,194338.4375000000,180208.4687500000,168431.1875000000,139650.6875000000,163206.0625000000,152199.2343750000,,,
0.3319999995,2,180647.2343750000,164797.8437500000,194342.8125000000,180227.4687500000,168435.0781250000,139663.1562500000,163237.2187500000,151589.8593750000,,,
0.3359999994,2,180631.3281250000,164787.5156250000,194322.1250000000,180206.3281250000,168415.0156250000,139648.1875000000,163229.1562500000,151479.1406250000,,,
0.3399999994,2,180601.9843750000,164761.3125000000,194287.9531250000,180175.9375000000,168382.8750000000,139617.7500000000,163190.2343750000,152104.9531250000,,,
0.3439999996,2,180611.1250000000,164764.3906250000,194298.5781250000,180200.7812500000,168391.5937500000,139620.5000000000,163194.3437500000,152591.2968750000,,,
0.3479999995,2,180648.5937500000,164794.8437500000,194341.6562500000,180247.1875000000,168431.2500000000,139651.7500000000,163235.0781250000,152285.9531250000,,,
0.3519999995,2,180656.3281250000,164803.4218750000,194356.0781250000,180244.0468750000,168446.0468750000,139665.0781250000,163253.0156250000,151625.5312500000,,,
0.3559999994,2,180637.3906250000,164793.4375000000,194335.8125000000,180230.7968750000,168427.7812500000,139653.1718750000,163229.7187500000,151488.1875000000,,,
0.3599999994,2,180618.3125000000,164778.4687500000,194312.9218750000,180213.0156250000,168405.2812500000,139635.0937500000,163207.1250000000,152079.0468750000,,,
0.3639999994,2,180625.9375000000,164782.7656250000,194319.7187500000,180227.8437500000,168410.0312500000,139639.5000000000,163218.7187500000,152575.2812500000,,,
0.3679999996,2,180658.7187500000,164807.5000000000,194355.1718750000,180268.7187500000,168442.7187500000,139668.7343750000,163254.6250000000,152280.1250000000,,,
0.3719999995,2,180679.9531250000,164826.6562500000,194382.6406250000,180265.3437500000,168471.7968750000,139696.4375000000,163279.0156250000,151593.7031250000,,,
0.3759999995,2,180655.5000000000,164808.7031250000,194358.3906250000,180221.5312500000,168451.5781250000,139684.5000000000,163250.8437500000,151424.3750000000,,,
0.3799999994,2,180627.5937500000,164790.1093750000,194319.6093750000,180219.1562500000,168415.0937500000,139663.7187500000,163220.6562500000,152018.5937500000,,,
0.3839999994,3,180630.8125000000,164791.6250000000,194320.0312500000,180231.8437500000,168413.3281250000,139665.0312500000,163226.2812500000,152517.6093750000,,,
0.3879999993,3,180647.2343750000,164800.4218750000,194343.0468750000,180244.2500000000,168434.1406250000,139680.2656250000,163252.6250000000,152261.3281250000,,,
0.3919999993,3,180650.1875000000,164803.0937500000,194350.7500000000,180240.9062500000,168443.3593750000,139687.4531250000,163260.0312500000,151617.4062500000,,,
0.3959999993,3,180622.5625000000,164783.2968750000,194319.7343750000,180218.2968750000,168415.9062500000,139666.0468750000,163230.1093750000,151478.2812500000,,,
0.3999999992,3,180600.4218750000,164765.1250000000,194294.7656250000,180185.4062500000,168393.0468750000,139648.2656250000,163208.0937500000,152039.5937500000,,,
0.4039999992,3,180612.0937500000,164771.9531250000,194307.1406250000,180203.5156250000,168404.2812500000,139653.0468750000,163216.4062500000,152498.5156250000,,,
0.4079999994,3,180661.1250000000,164812.1718750000,194360.1093750000,180249.6406250000,168454.1250000000,139694.1562500000,163269.2500000000,152198.2500000000,,,
0.4119999993,3,180667.7500000000,164816.9687500000,194371.1093750000,180247.2031250000,168465.3125000000,139704.1406250000,163289.7968750000,151532.7812500000,,,
0.4159999993,3,180636.2656250000,164792.6093750000,194339.3750000000,180227.4687500000,168435.0781250000,139675.9218750000,163263.8593750000,151391.0937500000,,,
0.4199999992,3,180613.4375000000,164775.1250000000,194313.2500000000,180204.0156250000,168409.2500000000,139650.2187500000,163241.7812500000,151996.3281250000,,,
0.4239999992,3,180625.0468750000,164782.5312500000,194327.4687500000,180206.2031250000,168422.8437500000,139659.4843750000,163256.9062500000,152503.0156250000,,,
0.4279999994,3,180644.4687500000,164795.5312500000,194354.1250000000,180220.4687500000,168448.7343750000,139681.1562500000,163287.9687500000,152227.1250000000,,,
0.4319999993,3,180664.4218750000,164813.7500000000,194376.5781250000,180250.9375000000,168471.1875000000,139700.4375000000,163315.3281250000,151566.3750000000,,,
0.4359999993,3,180665.6093750000,164817.4531250000,194372.6562500000,180262.2500000000,168468.0625000000,139685.3125000000,163321.0468750000,151391.5156250000,,,
0.4399999992,3,180646.9062500000,164802.9375000000,194343.3906250000,180249.1093750000,168440.9531250000,139653.4218750000,163294.6718750000,151984.2031250000,,,
0.4439999992,3,180642.1562500000,164800.5312500000,194336.4843750000,180231.8437500000,168435.7968750000,139669.7031250000,163286.5000000000,152528.0781250000,,,
0.4479999992,3,180657.6093750000,164814.8437500000,194362.7343750000,180228.5156250000,168463.2187500000,139718.2968750000,163322.1718750000,152276.5156250000,,,
0.4519999993,3,180673.4687500000,164828.9062500000,194384.6562500000,180239.7031250000,168485.5000000000,139738.7656250000,163356.0000000000,151606.6250000000,,,
0.4559999993,3,180668.8281250000,164831.9375000000,194373.2187500000,180241.9687500000,168475.0937500000,139738.8906250000,163355.0781250000,151442.9531250000,,,
0.4599999993,3,180660.1875000000,164833.5156250000,194353.1406250000,180248.1718750000,168459.1875000000,139749.5781250000,163342.0156250000,152055.3906250000,,,
0.4639999992,3,180652.1718750000,164824.0000000000,194343.5781250000,180204.2343750000,168452.6250000000,139759.1562500000,163340.1093750000,152595.9687500000,,,
0.4679999992,3,180674.7187500000,164842.9062500000,194370.6718750000,180226.1562500000,168476.9218750000,139788.6562500000,163364.6093750000,152350.8593750000,,,
0.4719999994,3,180693.0937500000,164861.8437500000,194393.5000000000,180263.2968750000,168496.9375000000,139811.0000000000,163378.8125000000,151710.8125000000,,,
0.4759999993,3,180685.6875000000,164860.6250000000,194384.2812500000,180234.3906250000,168490.9531250000,139819.8437500000,163357.7656250000,151547.5625000000,,,
0.4799999993,3,180675.3437500000,164860.6875000000,194365.7968750000,180223.2343750000,168477.9062500000,139831.1406250000,163327.4062500000,152111.5468750000,,,
0.4839999992,3,180662.9687500000,164852.6093750000,194345.0000000000,180217.5937500000,168459.0781250000,139839.5312500000,163314.3906250000,152649.3125000000,,,
0.4879999992,3,180681.0312500000,164868.8906250000,194363.3593750000,180242.1406250000,168478.0000000000,139871.8750000000,163335.5000000000,152436.1562500000,,,
0.4919999992,3,180695.7187500000,164881.5781250000,194385.7187500000,180244.0468750000,168499.0000000000,139898.9687500000,163347.7812500000,151786.5781250000,,,
0.4959999993,3,180668.0156250000,164865.8593750000,194352.9531250000,180222.3750000000,168468.4687500000,139896.7500000000,163319.3750000000,151637.4687500000,,,
0.4999999993,3,180654.9062500000,164860.8750000000,194328.9062500000,180199.9687500000,168446.2031250000,139899.4843750000,163299.6875000000,152210.5312500000,,,
0.5039999993,3,180667.1406250000,164867.6562500000,194339.3125000000,180212.2031250000,168455.2968750000,139913.1093750000,163308.2812500000,152705.2812500000,,,
0.5079999992,3,180691.4375000000,164884.4843750000,194373.2187500000,180250.3750000000,168484.2500000000,139933.8750000000,163317.7968750000,152455.0156250000,,,
0.5119999992,4,180703.3437500000,164896.9218750000,194393.5000000000,180220.5156250000,168504.2812500000,139953.0156250000,163311.8437500000,151767.2656250000,,,
0.5159999991,4,180678.2656250000,164880.6093750000,194363.0312500000,180199.5156250000,168479.0156250000,139945.2968750000,163259.5937500000,151549.1718750000,,,
0.5199999991,4,180649.5937500000,164854.6562500000,194325.5937500000,180198.8437500000,168441.8437500000,139907.1562500000,163238.7031250000,152143.2656250000,,,
0.5239999990,4,180662.1406250000,164865.6406250000,194335.9062500000,180219.4687500000,168448.3593750000,139914.6093750000,163278.2656250000,152686.0000000000,,,
0.5279999990,4,180671.9062500000,164869.2343750000,194347.3437500000,180218.4062500000,168458.4687500000,139927.5937500000,163287.7500000000,152454.0156250000,,,
0.5319999990,4,180685.8750000000,164880.9843750000,194365.1718750000,180250.5312500000,168474.2343750000,139937.2187500000,163292.2343750000,151780.3593750000,,,
0.5359999991,4,180655.7031250000,164857.7656250000,194333.5468750000,180225.7031250000,168444.4687500000,139907.9531250000,163255.9218750000,151619.8593750000,,,
0.5399999991,4,180635.6250000000,164842.7656250000,194310.0312500000,180180.5781250000,168424.9062500000,139882.8593750000,163221.8593750000,152174.6718750000,,,
0.5439999991,4,180639.9375000000,164844.0625000000,194313.6562500000,180201.7187500000,168427.0625000000,139886.9843750000,163229.3125000000,152662.0312500000,,,
0.5479999990,4,180664.4531250000,164860.2343750000,194343.7187500000,180239.8906250000,168453.3906250000,139903.4218750000,163251.3125000000,152421.4062500000,,,
0.5519999990,4,180671.6093750000,164865.4375000000,194356.5625000000,180232.0000000000,168465.7031250000,139907.6406250000,163259.6250000000,151760.5937500000,,,
0.5559999992,4,180654.7968750000,164858.0781250000,194339.5625000000,180206.1093750000,168450.2812500000,139899.7031250000,163232.9375000000,151569.9375000000,,,
0.5599999991,4,180638.0625000000,164842.4687500000,194317.7343750000,180193.7500000000,168429.5781250000,139870.0625000000,163191.5000000000,152127.2656250000,,,
0.5639999991,4,180628.6406250000,164828.0937500000,194305.7968750000,180193.3437500000,168415.2812500000,139846.6406250000,163188.7500000000,152655.6875000000,,,
0.5679999990,4,180629.9375000000,164823.1406250000,194307.4062500000,180200.5625000000,168413.4062500000,139840.1562500000,163190.5468750000,152426.2656250000,,,
0.5719999990,4,180648.2031250000,164840.5625000000,194326.7187500000,180232.9843750000,168430.0937500000,139854.7656250000,163204.2031250000,151751.1718750000,,,
0.5759999990,4,180635.2187500000,164834.5312500000,194312.9531250000,180235.8281250000,168416.0625000000,139839.7031250000,163214.1562500000,151565.4375000000,,,
0.5799999991,4,180615.3125000000,164819.4375000000,194289.1406250000,180213.6562500000,168393.9375000000,139819.3125000000,163199.5937500000,152141.1875000000,,,
0.5839999991,4,180625.0468750000,164825.6093750000,194295.5937500000,180225.4218750000,168400.3437500000,139821.9375000000,163196.5625000000,152703.4062500000,,,
0.5879999991,4,180643.5625000000,164836.2031250000,194322.3906250000,180231.7812500000,168424.1875000000,139835.8593750000,163208.9062500000,152543.2343750000,,,
0.5919999990,4,180652.0625000000,164840.8593750000,194337.9062500000,180227.7656250000,168440.2031250000,139842.6406250000,163219.7031250000,151972.1406250000,,,
0.5959999990,4,180625.6875000000,164817.1875000000,194306.9218750000,180199.1718750000,168413.7812500000,139818.9062500000,163194.1718750000,151836.7656250000,,,
0.5999999992,4,180599.4843750000,164796.2812500000,194274.3281250000,180185.7031250000,168383.0937500000,139793.5000000000,163156.9218750000,152430.8750000000,,,
0.6039999991,4,180613.2500000000,164806.2656250000,194290.5000000000,180199.2812500000,168395.1093750000,139802.1250000000,163165.8281250000,153002.6406250000,,,
0.6079999991,4,180629.3906250000,164813.7187500000,194311.2968750000,180213.2187500000,168411.0156250000,139814.8593750000,163202.7656250000,152839.3750000000,,,
0.6119999990,4,180631.9218750000,164815.9687500000,194316.6093750000,180223.7343750000,168414.9843750000,139820.7812500000,163218.2343750000,152243.8906250000,,,
0.6159999990,4,180624.0625000000,164814.7343750000,194304.6718750000,180255.6875000000,168403.2656250000,139812.9531250000,163203.4062500000,152126.1406250000,,,
0.6199999989,4,180601.5468750000,164797.2812500000,194277.6562500000,180212.3906250000,168376.7343750000,139788.5468750000,163161.7968750000,152781.4687500000,,,
0.6239999991,4,180596.8281250000,164789.8281250000,194276.7187500000,180157.0000000000,168374.2500000000,139777.7656250000,163152.2031250000,153401.5937500000,,,
0.6279999991,4,180619.2812500000,164805.5156250000,194301.3125000000,180162.5625000000,168398.4687500000,139792.9375000000,163192.0312500000,153285.9062500000,,,
0.6319999991,4,180633.4218750000,164817.7500000000,194316.8906250000,180190.2031250000,168414.4531250000,139805.7968750000,163220.1718750000,152730.8281250000,,,
0.6359999990,4,180615.9375000000,164801.8906250000,194299.9687500000,180176.4531250000,168399.5937500000,139792.0625000000,163199.0625000000,152614.1718750000,,,
0.6399999990,5,180585.3593750000,164777.7031250000,194259.5312500000,180155.7656250000,168362.0937500000,139760.4687500000,163156.9531250000,153293.7656250000,,,
0.6439999989,5,180594.0625000000,164785.7187500000,194266.3437500000,180169.1250000000,168368.8750000000,139761.1093750000,163143.5937500000,153968.6875000000,,,
0.6479999989,5,180623.5000000000,164808.9218750000,194306.1093750000,180200.1875000000,168407.3437500000,139781.2812500000,163112.2343750000,153910.3437500000,,,
0.6519999988,5,180647.5781250000,164830.7187500000,194338.8125000000,180224.9375000000,168436.6562500000,139802.6875000000,163179.4531250000,153386.3593750000,,,
0.6559999988,5,180614.4843750000,164806.0156250000,194294.9062500000,180188.9687500000,168396.2656250000,139783.0937500000,163203.8906250000,153284.6250000000,,,
0.6599999988,5,180578.1093750000,164777.2968750000,194248.6562500000,180136.5156250000,168351.6562500000,139754.0781250000,163178.0000000000,153956.0625000000,,,
0.6639999989,5,180578.5468750000,164776.0937500000,194246.4843750000,180154.1093750000,168346.0312500000,139748.9531250000,163166.4218750000,154635.7031250000,,,
0.6679999989,5,180604.2343750000,164795.7187500000,194276.8281250000,180191.9218750000,168371.4843750000,139770.5468750000,163189.0000000000,154508.5312500000,,,
0.6719999989,5,180622.2656250000,164815.2187500000,194300.4843750000,180213.3281250000,168394.0156250000,139788.1406250000,163206.9375000000,153942.5625000000,,,
0.6759999988,5,180602.1406250000,164804.9218750000,194279.3125000000,180206.1718750000,168376.3125000000,139774.2031250000,163181.2500000000,153836.0000000000,,,
0.6799999988,5,180565.7500000000,164773.4843750000,194235.6250000000,180175.6718750000,168336.8750000000,139744.0468750000,163136.1093750000,154457.6093750000,,,
0.6839999990,5,180563.9218750000,164767.5312500000,194231.2500000000,180207.2968750000,168330.3437500000,139732.1875000000,163130.2656250000,155094.5468750000,,,
0.6879999989,5,180597.6093750000,164794.5937500000,194271.3593750000,180235.1093750000,168366.7031250000,139763.8906250000,163168.5625000000,154982.9687500000,,,
0.6919999989,5,180602.5468750000,164801.2812500000,194280.7968750000,180221.0781250000,168375.7187500000,139776.4687500000,163179.6406250000,154419.8906250000,,,
0.6959999988,5,180580.9062500000,164787.9218750000,194258.7187500000,180173.4687500000,168356.5937500000,139762.8437500000,163160.5156250000,154307.1875000000,,,
0.6999999988,5,180554.2968750000,164766.7343750000,194221.7031250000,180151.9687500000,168326.3750000000,139742.3281250000,163127.4375000000,154923.4687500000,,,
0.7039999987,5,180564.0312500000,164774.0312500000,194231.6093750000,180172.9375000000,168334.9531250000,139746.6250000000,163135.2500000000,155496.0781250000,,,
0.7079999989,5,180589.9375000000,164788.9843750000,194263.3906250000,180219.2656250000,168362.4375000000,139763.1718750000,163162.8750000000,155330.9375000000,,,
0.7119999989,5,180598.2343750000,164798.6718750000,194274.6562500000,180209.6250000000,168373.9218750000,139778.3281250000,163180.3593750000,154746.4687500000,,,
0.7159999989,5,180591.5156250000,164798.9375000000,194267.5937500000,180196.0781250000,168367.3281250000,139775.9375000000,163177.0937500000,154589.1093750000,,,
0.7199999988,5,180570.8750000000,164779.9531250000,194241.7343750000,180175.0312500000,168342.7812500000,139751.1562500000,163148.5468750000,155195.0468750000,,,
0.7239999988,5,180558.1875000000,164759.7500000000,194233.4218750000,180134.5468750000,168330.3125000000,139723.7656250000,163133.2343750000,155829.4218750000,,,
0.7279999990,5,180603.4843750000,164796.5000000000,194284.0468750000,180196.0312500000,168373.4687500000,139742.2500000000,163173.7656250000,155750.0781250000,,,
0.7319999989,5,180581.9687500000,164776.6718750000,194260.2500000000,180185.0312500000,168352.9531250000,139741.7343750000,163158.5000000000,155220.2812500000,,,
0.7359999989,5,180566.2500000000,164769.1718750000,194241.6875000000,180195.8125000000,168339.3437500000,139753.7500000000,163145.3906250000,155027.3906250000,,,
0.7399999988,5,180565.6093750000,164776.1093750000,194232.8437500000,180210.6406250000,168331.9218750000,139752.0468750000,163130.7343750000,155558.3281250000,,,
0.7439999988,5,180569.9375000000,164775.7343750000,194236.5156250000,180187.8281250000,168335.0312500000,139747.0468750000,163131.4062500000,156158.9062500000,,,
0.7479999987,5,180590.5000000000,164784.7812500000,194264.5156250000,180179.5625000000,168362.0156250000,139765.2031250000,163162.7343750000,156023.0000000000,,,
0.7519999989,5,180597.7500000000,164789.7187500000,194279.7968750000,180185.5625000000,168375.1875000000,139767.6562500000,163160.2656250000,155440.0625000000,,,
0.7559999989,5,180592.5625000000,164790.2187500000,194277.0156250000,180180.9531250000,168372.9062500000,139767.5937500000,163139.1093750000,155264.1718750000,,,
0.7599999988,5,180564.2968750000,164772.2812500000,194238.6250000000,180170.3281250000,168336.7187500000,139746.3750000000,163118.9062500000,155838.4531250000,,,
0.7639999988,5,180578.7812500000,164786.3281250000,194247.2968750000,180216.2812500000,168342.5468750000,139749.7812500000,163138.9531250000,156423.4531250000,,,
0.7679999988,6,180599.8437500000,164796.9062500000,194275.6718750000,180254.0000000000,168370.5781250000,139764.0000000000,163157.4843750000,156269.6250000000,,,
0.7719999987,6,180593.4531250000,164794.3281250000,194269.2343750000,180231.1718750000,168365.1250000000,139766.7343750000,163163.8437500000,155687.9531250000,,,
0.7759999987,6,180563.7343750000,164771.4218750000,194235.5781250000,180139.5468750000,168333.4218750000,139748.8750000000,163148.3125000000,155477.3593750000,,,
0.7799999986,6,180535.7343750000,164746.6875000000,194203.4375000000,180123.0000000000,168302.4218750000,139720.6562500000,163117.5781250000,155993.8437500000,,,
0.7839999986,6,180549.2500000000,164761.7656250000,194210.8906250000,180170.5781250000,168307.4531250000,139728.9687500000,163117.0625000000,156561.1718750000,,,
0.7879999985,6,180577.7031250000,164784.3281250000,194245.8125000000,180197.8750000000,168337.7187500000,139756.2812500000,163145.8437500000,156423.9375000000,,,
0.7919999987,6,180585.1875000000,164787.7500000000,194262.3437500000,180208.0000000000,168351.5781250000,139765.0156250000,163162.0156250000,155820.4843750000,,,
0.7959999987,6,180575.3437500000,164785.5000000000,194252.0937500000,180186.7812500000,168344.0156250000,139762.7968750000,163153.8281250000,155566.8281250000,,,
0.7999999986,6,180558.5781250000,164777.7187500000,194228.8593750000,180165.9062500000,168323.9531250000,139749.1406250000,163109.2812500000,156032.4062500000,,,
0.8039999986,6,180555.7656250000,164778.9531250000,194216.0468750000,180179.3125000000,168314.4843750000,139746.3750000000,163102.3593750000,156545.9218750000,,,
0.8079999986,6,180576.9531250000,164786.3906250000,194243.7031250000,180197.7968750000,168340.0937500000,139764.0781250000,163150.5625000000,156353.8437500000,,,
0.8119999988,6,180589.5312500000,164795.5625000000,194263.5937500000,180201.5312500000,168358.1562500000,139778.3281250000,163168.2343750000,155721.2500000000,,,
0.8159999987,6,180568.5937500000,164779.1406250000,194244.9062500000,180180.9531250000,168342.0000000000,139759.5468750000,163147.0781250000,155504.6093750000,,,
0.8199999987,6,180561.3437500000,164776.5781250000,194228.4687500000,180177.6250000000,168327.9843750000,139751.2031250000,163128.2968750000,155968.4687500000,,,
0.8239999986,6,180567.3281250000,164781.1875000000,194228.3593750000,180186.3281250000,168325.9375000000,139748.9531250000,163126.1562500000,156444.1875000000,,,
0.8279999986,6,180608.9062500000,164813.6093750000,194276.1562500000,180237.0625000000,168366.9531250000,139778.0312500000,163173.3906250000,156229.0156250000,,,
0.8319999985,6,180623.8125000000,164821.7656250000,194295.3281250000,180250.0781250000,168385.8125000000,139791.8750000000,163195.0312500000,155577.1093750000,,,
0.8359999987,6,180603.5937500000,164806.9687500000,194275.7187500000,180230.2031250000,168369.2812500000,139778.4062500000,163175.5000000000,155302.7187500000,,,
0.8399999987,6,180578.6250000000,164791.5156250000,194244.5000000000,180177.3125000000,168344.7343750000,139762.5781250000,163155.6562500000,155754.2968750000,,,
0.8439999986,6,180580.9843750000,164790.8750000000,194248.7187500000,180167.2812500000,168348.2812500000,139760.4843750000,163152.3281250000,156244.3906250000,,,
0.8479999986,6,180596.1875000000,164790.9531250000,194274.2031250000,180204.9375000000,168369.5781250000,139760.7656250000,163150.8593750000,156042.0937500000,,,
0.8519999986,6,180602.2031250000,164797.8437500000,194283.9062500000,180221.8906250000,168380.9531250000,139772.5000000000,163155.4218750000,155380.0625000000,,,
0.8559999987,6,180585.4531250000,164789.5000000000,194262.5781250000,180211.0468750000,168362.2500000000,139765.4843750000,163165.3437500000,155104.5000000000,,,
0.8599999987,6,180560.4062500000,164772.7968750000,194233.0000000000,180191.3437500000,168331.4062500000,139741.3437500000,163134.1718750000,155591.0781250000,,,
0.8639999987,6,180570.1718750000,164781.8750000000,194239.0000000000,180204.0781250000,168332.1875000000,139739.5468750000,163138.8437500000,156095.8437500000,,,
0.8679999986,6,180585.4843750000,164790.6250000000,194254.5625000000,180205.0625000000,168343.0312500000,139748.9843750000,163177.4062500000,155903.3125000000,,,
0.8719999986,6,180599.9687500000,164801.5937500000,194271.5156250000,180205.6562500000,168361.1562500000,139768.4062500000,163204.7656250000,155246.4375000000,,,
0.8759999985,6,180585.8593750000,164796.5312500000,194256.6562500000,180186.0000000000,168350.6093750000,139762.7656250000,163186.2656250000,154932.1406250000,,,
0.8799999987,6,180564.2968750000,164778.9375000000,194230.7968750000,180192.5156250000,168328.0312500000,139740.3437500000,163152.6875000000,155318.6406250000,,,
0.8839999987,6,180569.4531250000,164781.0468750000,194238.6093750000,180215.6562500000,168335.7500000000,139740.7187500000,163144.9843750000,155757.0781250000,,,
0.8879999986,6,180604.1875000000,164811.1406250000,194275.6406250000,180263.3593750000,168373.1250000000,139770.8125000000,163150.4531250000,155548.9375000000,,,
0.8919999986,6,180607.6406250000,164813.0781250000,194283.2656250000,180228.7031250000,168379.8281250000,139781.8125000000,163187.2500000000,154921.2968750000,,,
0.8959999986,7,180581.3906250000,164793.4218750000,194254.5156250000,180200.0781250000,168353.2656250000,139765.7812500000,163187.1718750000,154655.5000000000,,,
0.8999999985,7,180551.6875000000,164770.3281250000,194221.0937500000,180163.6875000000,168321.5468750000,139742.0156250000,163154.7968750000,155102.0781250000,,,
0.9039999985,7,180555.9531250000,164774.3750000000,194221.8437500000,180175.2968750000,168320.0625000000,139743.8593750000,163149.4687500000,155603.3906250000,,,
0.9079999984,7,180591.3125000000,164804.0625000000,194260.3593750000,180216.0625000000,168354.9843750000,139771.7343750000,163184.0625000000,155434.5781250000,,,
0.9119999984,7,180615.9062500000,164828.8750000000,194291.7656250000,180236.6406250000,168386.4531250000,139799.2968750000,163212.0156250000,154800.6093750000,,,
0.9159999983,7,180598.7343750000,164815.6250000000,194279.9843750000,180203.2187500000,168375.9375000000,139786.4062500000,163196.2343750000,154502.4531250000,,,
0.9199999985,7,180572.5312500000,164792.0156250000,194250.7031250000,180176.0937500000,168349.3281250000,139757.9687500000,163169.6875000000,154902.0781250000,,,
0.9239999985,7,180585.0781250000,164804.5000000000,194257.7031250000,180223.1250000000,168356.8593750000,139760.5468750000,163175.7812500000,155350.7187500000,,,
0.9279999984,7,180614.0781250000,164826.4062500000,194292.2812500000,180266.0625000000,168385.4843750000,139781.1718750000,163205.0156250000,155151.2187500000,,,
0.9319999984,7,180620.1875000000,164828.1562500000,194307.9062500000,180246.5937500000,168399.3750000000,139788.2812500000,163207.0000000000,154516.8750000000,,,
0.9359999984,7,180586.7812500000,164801.2500000000,194271.6406250000,180192.8125000000,168367.5625000000,139763.3125000000,163171.3750000000,154221.1875000000,,,
0.9399999985,7,180559.9218750000,164781.5625000000,194236.5156250000,180198.3125000000,168331.6250000000,139735.7656250000,163151.7968750000,154659.2187500000,,,
0.9439999985,7,180575.1093750000,164795.2187500000,194245.3125000000,180240.2812500000,168335.0000000000,139739.9687500000,163165.7187500000,155163.1875000000,,,
0.9479999985,7,180597.9375000000,164813.8750000000,194268.2343750000,180234.1406250000,168357.0000000000,139762.4687500000,163190.9375000000,155020.9687500000,,,
0.9519999984,7,180617.0000000000,164834.0000000000,194298.7343750000,180229.7500000000,168386.9843750000,139786.8750000000,163218.0000000000,154394.4375000000,,,
0.9559999984,7,180593.3437500000,164815.9218750000,194281.2187500000,180194.3906250000,168373.3906250000,139768.7500000000,163201.9218750000,154075.6250000000,,,
0.9599999983,7,180553.0781250000,164779.8437500000,194235.2968750000,180175.7812500000,168332.5312500000,139730.2031250000,163162.7968750000,154490.9375000000,,,
0.9639999985,7,180557.8125000000,164781.5000000000,194235.3593750000,180195.7656250000,168331.6562500000,139728.2031250000,163156.8125000000,155002.4375000000,,,
0.9679999985,7,180592.5156250000,164808.6718750000,194275.2187500000,180243.3125000000,168367.7343750000,139755.3906250000,163189.5625000000,154826.8125000000,,,
0.9719999984,7,180606.5937500000,164820.4531250000,194290.2656250000,180249.4531250000,168381.7031250000,139768.9375000000,163204.5000000000,154209.4375000000,,,
0.9759999984,7,180580.8125000000,164801.4843750000,194261.7187500000,180181.4062500000,168357.4843750000,139755.6562500000,163179.2656250000,153899.1406250000,,,
0.9799999984,7,180553.8125000000,164778.9375000000,194228.6718750000,180157.0312500000,168327.1250000000,139732.1718750000,163152.3906250000,154273.0468750000,,,
0.9839999985,7,180546.7031250000,164771.9531250000,194218.3750000000,180167.5781250000,168314.6406250000,139717.7031250000,163140.6718750000,154763.4843750000,,,
0.9879999985,7,180578.1093750000,164795.7187500000,194253.6718750000,180208.0937500000,168345.1406250000,139742.9218750000,163173.0625000000,154614.0312500000,,,
0.9919999985,7,180600.7968750000,164816.6718750000,194282.3281250000,180237.0156250000,168371.8906250000,139770.0625000000,163198.0937500000,153970.1093750000,,,
0.9959999984,7,180573.2343750000,164797.5156250000,194251.9375000000,180197.4531250000,168346.6250000000,139755.5781250000,163168.8750000000,153634.8906250000,,,
0.9999999984,7,180543.4375000000,164775.3437500000,194219.9843750000,180155.6562500000,168317.0312500000,139725.9375000000,163122.2187500000,154047.5781250000,,,
1.0039999983,7,180549.8906250000,164783.2500000000,194220.9531250000,180174.8437500000,168317.6562500000,139727.3437500000,163119.5312500000,154565.3437500000,,,
1.0079999985,7,180581.9531250000,164807.2031250000,194257.4531250000,180214.6406250000,168350.9843750000,139756.7656250000,163161.5000000000,154427.3437500000,,,
1.0119999985,7,180595.4375000000,164819.2656250000,194274.5937500000,180214.0468750000,168366.1718750000,139774.2031250000,163177.2031250000,153758.0312500000,,,
1.0159999984,7,180579.4843750000,164810.0468750000,194255.0781250000,180205.9218750000,168346.8906250000,139763.7812500000,163173.9843750000,153407.7031250000,,,
1.0199999984,7,180544.4531250000,164777.3437500000,194215.0781250000,180182.2500000000,168308.8593750000,139727.1250000000,163150.0468750000,153819.0468750000,,,
1.0239999983,8,180529.9843750000,164762.0625000000,194197.4531250000,180145.4375000000,168293.1406250000,139710.2031250000,163132.3281250000,154368.0468750000,,,
1.0279999983,8,180554.4843750000,164781.9062500000,194226.9843750000,180179.4531250000,168320.8125000000,139735.1718750000,163153.8906250000,154243.4062500000,,,
1.0319999983,8,180570.0312500000,164792.3750000000,194248.9062500000,180206.8906250000,168341.7968750000,139750.2500000000,163174.0625000000,153616.4843750000,,,
1.0359999982,8,180565.4218750000,164790.9531250000,194246.8125000000,180202.5781250000,168339.8593750000,139749.3593750000,163171.8593750000,153286.0625000000,,,
1.0399999982,8,180541.8750000000,164772.0156250000,194222.1093750000,180178.4062500000,168316.8437500000,139722.8906250000,163135.1718750000,153706.5312500000,,,
1.0439999981,8,180557.1875000000,164787.4687500000,194235.4843750000,180198.7187500000,168331.7031250000,139728.9218750000,163136.4843750000,154211.5625000000,,,
1.0479999983,8,180580.3906250000,164804.8125000000,194259.2812500000,180217.8125000000,168352.5937500000,139743.2187500000,163174.4687500000,154059.7187500000,,,
1.0519999983,8,180583.1250000000,164805.2968750000,194266.0468750000,180202.2031250000,168358.3437500000,139744.6875000000,163189.7968750000,153420.6406250000,,,
1.0559999982,8,180584.7343750000,164810.2031250000,194266.3906250000,180207.5312500000,168359.1406250000,139744.3437500000,163186.3906250000,153052.1250000000,,,
1.0599999982,8,180570.9687500000,164800.2812500000,194244.0156250000,180208.7187500000,168337.6406250000,139725.2187500000,163150.5625000000,153440.4062500000,,,
1.0639999982,8,180587.2500000000,164815.0937500000,194256.3593750000,180220.6250000000,168348.7187500000,139725.9218750000,163154.8750000000,153965.9531250000,,,
1.0679999983,8,180591.5000000000,164811.1406250000,194267.8906250000,180197.4531250000,168360.3593750000,139728.5156250000,163181.8437500000,153869.3437500000,,,
1.0719999983,8,180601.1718750000,164816.6093750000,194289.9062500000,180203.1093750000,168381.4062500000,139739.7343750000,163199.4062500000,153265.6562500000,,,
1.0759999983,8,180579.9062500000,164799.5781250000,194267.7656250000,180186.7187500000,168361.6093750000,139727.8437500000,163153.3281250000,152924.3750000000,,,
1.0799999982,8,180549.3906250000,164779.8750000000,194229.4062500000,180158.0468750000,168326.2812500000,139706.8750000000,163120.7656250000,153315.0937500000,,,
1.0839999982,8,180559.9843750000,164791.8125000000,194234.4218750000,180187.0468750000,168329.9843750000,139715.9687500000,163146.4375000000,153848.6875000000,,,
1.0879999981,8,180597.8281250000,164824.5312500000,194276.6562500000,180235.3437500000,168367.0781250000,139749.5781250000,163192.9687500000,153721.6562500000,,,
1.0919999983,8,180608.5468750000,164833.4375000000,194294.9531250000,180253.2343750000,168381.7031250000,139759.7968750000,163204.1250000000,153072.9687500000,,,
1.0959999983,8,180582.7187500000,164815.3593750000,194265.3125000000,180227.5000000000,168355.2500000000,139744.3750000000,163177.6875000000,152738.9218750000,,,
1.0999999982,8,180545.0468750000,164786.1250000000,194221.4062500000,180185.2968750000,168314.8906250000,139716.0468750000,163140.5312500000,153164.8281250000,,,
1.1039999982,8,180551.7968750000,164790.0937500000,194225.0312500000,180195.4687500000,168319.1250000000,139718.4531250000,163140.7656250000,153712.1562500000,,,
1.1079999981,8,180585.8281250000,164808.6250000000,194262.8437500000,180233.5781250000,168353.8906250000,139742.7812500000,163165.9843750000,153599.1562500000,,,
1.1119999983,8,180591.3906250000,164804.0937500000,194273.8437500000,180228.1406250000,168362.6875000000,139749.3125000000,163172.6406250000,153003.8437500000,,,
1.1159999983,8,180568.3750000000,164782.7968750000,194252.3593750000,180199.4843750000,168343.2656250000,139732.4062500000,163153.4531250000,152708.0468750000,,,
1.1199999982,8,180559.5000000000,164782.7187500000,194237.0000000000,180190.5000000000,168331.5468750000,139726.1875000000,163126.5781250000,153114.1875000000,,,
1.1239999982,8,180562.0156250000,164781.1250000000,194233.5000000000,180191.9218750000,168327.1250000000,139720.1250000000,163140.8750000000,153660.9062500000,,,
1.1279999982,8,180579.8593750000,164792.2968750000,194254.7031250000,180209.0156250000,168344.1250000000,139730.8281250000,163173.0937500000,153597.2031250000,,,
1.1319999981,8,180596.9687500000,164809.1406250000,194281.2500000000,180228.6250000000,168370.7656250000,139745.3593750000,163188.4687500000,152999.9843750000,,,
1.1359999983,8,180592.7343750000,164810.2031250000,194277.9218750000,180237.5468750000,168373.1250000000,139744.9062500000,163168.9687500000,152641.6875000000,,,
1.1399999983,8,180558.9375000000,164784.6406250000,194235.5156250000,180219.5468750000,168333.0781250000,139711.3593750000,163132.7812500000,153049.4375000000,,,
1.1439999982,8,180541.0156250000,164768.4375000000,194210.8125000000,180187.2812500000,168308.7187500000,139692.0937500000,163120.0468750000,153647.7656250000,,,
1.1479999982,8,180559.3281250000,164777.9687500000,194235.1406250000,180166.9843750000,168330.7968750000,139705.5781250000,163149.0937500000,153615.8437500000,,,
1.1519999981,9,180555.9531250000,164768.7656250000,194240.8906250000,180145.9218750000,168336.1875000000,139702.7968750000,163151.1718750000,153059.6406250000,,,
1.1559999981,9,180556.2500000000,164771.4531250000,194241.6875000000,180151.2968750000,168339.7812500000,139705.6875000000,163151.7187500000,152719.5781250000,,,
1.1599999981,9,180550.3437500000,164773.6718750000,194226.9375000000,180161.6406250000,168325.5625000000,139698.1875000000,163135.9375000000,153089.8125000000,,,
1.1639999980,9,180551.2812500000,164774.6406250000,194221.8125000000,180185.2968750000,168317.9218750000,139686.5468750000,163125.5156250000,153647.1406250000,,,
1.1679999980,9,180580.9062500000,164799.7968750000,194253.1875000000,180221.0781250000,168345.3281250000,139709.0781250000,163155.7343750000,153569.3281250000,33029,1.1685988221,0.0000000000
1.1719999979,9,180598.7343750000,164819.1718750000,194279.5625000000,180230.3281250000,168369.6875000000,139731.8906250000,163174.2968750000,152933.6250000000,,,
1.1759999981,9,180579.2968750000,164807.2343750000,194263.5156250000,180201.6093750000,168353.9375000000,139715.7812500000,163150.8281250000,152566.1875000000,,,
1.1799999981,9,180552.4687500000,164787.8906250000,194229.0000000000,180180.4687500000,168321.8281250000,139690.1093750000,163114.6250000000,152955.8281250000,,,
1.1839999980,9,180545.8906250000,164783.1718750000,194216.1562500000,180182.6406250000,168309.4375000000,139678.9843750000,163096.6718750000,153505.6562500000,,,
1.1879999980,9,180569.9375000000,164798.0000000000,194240.4062500000,180215.4531250000,168330.9843750000,139695.8750000000,163120.8750000000,153453.2031250000,,,
1.1919999979,9,180570.5000000000,164796.3437500000,194248.6406250000,180204.3437500000,168338.6562500000,139702.0468750000,163132.1093750000,152859.3281250000,,,
1.1959999981,9,180548.2812500000,164781.0000000000,194228.3281250000,180175.1562500000,168320.3906250000,139690.3281250000,163114.7812500000,152492.0000000000,,,
1.1999999981,9,180531.0937500000,164768.7968750000,194207.5468750000,180167.0625000000,168299.5468750000,139675.7031250000,163088.1406250000,152834.0312500000,,,
1.2039999980,9,180534.4218750000,164771.3906250000,194207.3281250000,180181.0937500000,168298.5312500000,139675.6718750000,163083.9062500000,153329.2500000000,,,
1.2079999980,9,180561.9062500000,164791.5156250000,194239.3281250000,180210.2968750000,168327.3906250000,139699.0156250000,163116.1718750000,153263.8906250000,,,
1.2119999980,9,180574.1406250000,164796.7343750000,194258.1875000000,180221.6718750000,168346.4843750000,139711.5937500000,163137.8437500000,152703.7656250000,,,
1.2159999979,9,180556.6562500000,164782.8750000000,194244.2968750000,180190.7656250000,168334.6250000000,139700.0937500000,163123.2812500000,152346.9218750000,,,
1.2199999981,9,180546.1406250000,164778.2343750000,194227.5781250000,180178.8437500000,168318.1875000000,139691.6718750000,163103.7031250000,152672.9375000000,,,
1.2239999981,9,180542.1406250000,164775.4687500000,194216.6093750000,180183.0156250000,168306.3125000000,139687.3125000000,163089.4375000000,153205.8437500000,,,
1.2279999980,9,180562.9531250000,164790.8906250000,194239.5937500000,180213.8437500000,168325.7031250000,139706.4687500000,163115.8281250000,153178.3750000000,,,
1.2319999980,9,180582.2343750000,164809.5312500000,194264.4062500000,180232.3281250000,168350.2343750000,139733.2968750000,163146.2656250000,152626.5937500000,,,
1.2359999979,9,180572.9375000000,164805.6406250000,194257.3593750000,180226.5468750000,168345.2500000000,139733.6093750000,163143.3281250000,152284.3906250000,,,
1.2399999981,9,180547.9375000000,164785.5000000000,194228.9218750000,180189.2187500000,168319.1562500000,139710.3281250000,163114.2500000000,152681.5781250000,,,
1.2439999981,9,180547.7187500000,164784.7187500000,194226.6875000000,180185.2187500000,168316.2500000000,139705.2031250000,163100.0312500000,153272.4218750000,,,
1.2479999980,9,180575.4218750000,164804.7812500000,194255.4218750000,180207.0781250000,168343.8906250000,139725.1093750000,163125.7187500000,153290.3593750000,,,
1.2519999980,9,180587.2031250000,164813.0468750000,194271.8281250000,180222.9843750000,168361.1250000000,139740.1093750000,163152.3125000000,152770.5000000000,,,
1.2559999980,9,180570.9531250000,164799.2656250000,194255.8281250000,180204.0781250000,168346.7500000000,139729.3750000000,163139.3281250000,152422.4218750000,,,
1.2599999979,9,180541.7187500000,164776.5156250000,194222.7500000000,180176.9843750000,168317.3281250000,139702.1718750000,163102.0937500000,152776.8750000000,,,
1.2639999981,9,180547.2968750000,164785.5000000000,194227.4687500000,180183.3437500000,168323.6250000000,139698.9843750000,163098.6093750000,153310.2343750000,,,
1.2679999981,9,180586.1093750000,164815.5156250000,194269.6406250000,180220.4375000000,168363.8437500000,139725.9375000000,163121.3593750000,153270.8125000000,,,
1.2719999980,9,180592.7343750000,164819.1093750000,194284.7031250000,180227.8906250000,168377.5468750000,139733.6406250000,163119.7500000000,152743.7187500000,,,
1.2759999980,9,180586.1250000000,164819.7031250000,194278.0000000000,180209.9218750000,168370.3906250000,139733.4218750000,163124.5468750000,152406.0937500000,,,
1.2799999979,10,180573.1562500000,164813.3125000000,194254.3437500000,180198.1250000000,168347.8281250000,139724.8437500000,163109.9531250000,152719.7187500000,,,
1.2839999979,10,180575.1562500000,164814.9062500000,194253.2187500000,180213.3906250000,168345.3281250000,139723.9531250000,163099.6250000000,153217.1562500000,,,
1.2879999978,10,180595.7343750000,164827.9375000000,194278.1718750000,180229.5625000000,168368.2031250000,139737.0156250000,163119.9375000000,153164.2656250000,,,
1.2919999978,10,180617.0625000000,164843.2500000000,194305.0468750000,180259.5468750000,168393.9375000000,139760.1718750000,163149.9687500000,152609.2968750000,,,
1.2959999978,10,180606.3750000000,164837.5156250000,194291.9843750000,180224.5156250000,168382.4218750000,139761.7031250000,163155.9218750000,152213.5312500000,,,
1.2999999977,10,180576.4687500000,164810.8437500000,194257.1093750000,180198.1562500000,168347.4531250000,139735.7031250000,163122.7500000000,152498.4375000000,,,
1.3039999979,10,180570.8906250000,164802.9375000000,194250.2500000000,180233.0468750000,168338.8437500000,139722.9687500000,163105.9062500000,153006.6875000000,,,
1.3079999979,10,180598.7656250000,164822.2500000000,194282.7187500000,180272.8437500000,168370.2031250000,139745.6562500000,163127.7031250000,152990.2968750000,,,
1.3119999978,10,180617.5468750000,164838.0000000000,194310.2187500000,180273.9218750000,168398.9218750000,139768.8281250000,163143.9843750000,152447.8281250000,,,
1.3159999978,10,180600.5312500000,164827.7812500000,194295.9687500000,180227.4687500000,168387.7031250000,139762.2656250000,163135.5625000000,152059.0312500000,,,
1.3199999977,10,180570.0625000000,164806.7656250000,194257.1718750000,180193.6718750000,168348.4375000000,139735.9687500000,163108.3750000000,152347.7031250000,,,
1.3239999979,10,180567.7031250000,164806.2343750000,194251.5781250000,180206.0937500000,168340.9062500000,139727.3593750000,163084.4218750000,152852.0781250000,,,
1.3279999979,10,180599.1718750000,164831.4687500000,194285.1875000000,180233.8437500000,168371.6406250000,139750.9218750000,163111.6093750000,152845.4375000000,,,
1.3319999978,10,180600.5000000000,164834.2187500000,194289.5937500000,180222.2812500000,168376.4218750000,139762.3906250000,163146.3750000000,152296.4687500000,,,
1.3359999978,10,180580.9062500000,164816.8281250000,194272.2187500000,180215.5781250000,168358.6093750000,139748.9531250000,163135.3281250000,151887.9687500000,,,
1.3399999978,10,180566.5468750000,164810.1250000000,194253.9531250000,180219.1562500000,168341.8125000000,139734.7343750000,163099.4062500000,152158.8906250000,,,
1.3439999977,10,180563.6250000000,164807.6250000000,194250.5468750000,180218.2968750000,168338.7031250000,139729.2656250000,163083.2656250000,152698.0000000000,,,
1.3479999979,10,180578.8906250000,164817.9375000000,194268.2343750000,180213.9687500000,168356.3750000000,139747.0468750000,163117.5937500000,152719.5625000000,,,
1.3519999979,10,180574.1875000000,164814.0625000000,194267.7031250000,180206.5937500000,168355.4687500000,139748.4531250000,163124.8906250000,152210.2812500000,,,
1.3559999978,10,180579.7968750000,164823.6250000000,194274.8125000000,180219.9531250000,168364.0312500000,139755.8281250000,163113.1250000000,151814.3125000000,,,
1.3599999978,10,180562.6875000000,164807.9531250000,194255.2031250000,180197.7812500000,168348.7656250000,139737.0156250000,163054.4062500000,152125.0937500000,,,
1.3639999977,10,180543.1093750000,164784.8281250000,194232.8906250000,180165.1562500000,168328.5937500000,139717.8437500000,163057.4062500000,152663.3125000000,,,
1.3679999979,10,180571.8125000000,164809.2656250000,194257.3750000000,180208.0468750000,168350.7968750000,139741.3437500000,163120.6875000000,152658.4843750000,,,
1.3719999979,10,180571.8906250000,164805.1406250000,194260.7812500000,180210.3593750000,168354.3750000000,139742.0156250000,163129.0468750000,152145.9375000000,,,
1.3759999978,10,180546.1875000000,164782.9218750000,194239.9375000000,180178.3593750000,168337.1562500000,139722.6093750000,163104.7187500000,151765.2812500000,,,
1.3799999978,10,180527.1718750000,164769.6250000000,194217.6562500000,180165.8281250000,168314.7031250000,139700.2968750000,163067.5000000000,152048.7968750000,,,
1.3839999977,10,180548.4218750000,164786.2031250000,194235.7656250000,180204.9843750000,168330.1250000000,139705.4843750000,163067.8750000000,152539.6093750000,,,
1.3879999977,10,180582.3281250000,164813.4531250000,194272.2343750000,180233.7968750000,168364.5625000000,139731.4218750000,163102.0468750000,152538.7812500000,,,
1.3919999979,10,180596.4531250000,164825.4218750000,194289.1406250000,180242.2656250000,168383.9218750000,139753.2500000000,163130.9218750000,151987.7656250000,,,
1.3959999979,10,180571.3281250000,164804.5156250000,194264.2500000000,180212.1250000000,168361.5000000000,139740.4218750000,163112.0937500000,151559.4687500000,,,
1.3999999978,10,180547.0000000000,164786.9843750000,194234.2343750000,180193.0468750000,168330.0156250000,139715.8281250000,163076.1562500000,151813.4218750000,,,
1.4039999978,10,180543.9062500000,164784.4531250000,194226.9375000000,180199.2500000000,168320.7031250000,139705.1250000000,163058.2187500000,152335.6250000000,,,
1.4079999977,11,180566.7187500000,164802.2968750000,194252.7968750000,180230.9218750000,168345.6250000000,139723.7968750000,163064.7343750000,152353.2187500000,,,
1.4119999977,11,180568.4218750000,164801.1093750000,194257.7031250000,180234.7031250000,168352.6562500000,139727.0937500000,163066.6875000000,151827.5156250000,,,
1.4159999976,11,180548.5312500000,164783.8437500000,194239.5156250000,180212.8437500000,168335.8125000000,139713.3593750000,163067.0156250000,151430.5156250000,,,
1.4199999976,11,180531.9218750000,164774.1562500000,194215.5156250000,180212.0937500000,168314.0625000000,139697.9062500000,163047.8281250000,151723.1406250000,,,
1.4239999976,11,180546.8593750000,164790.3593750000,194225.9218750000,180227.8437500000,168322.9062500000,139704.8906250000,163048.5312500000,152268.8125000000,,,
1.4279999975,11,180578.3281250000,164814.7968750000,194261.5937500000,180242.6718750000,168357.4531250000,139728.9218750000,163085.0156250000,152273.1562500000,,,
1.4319999977,11,180604.6875000000,164837.6250000000,194296.1875000000,180262.1718750000,168393.3437500000,139759.0468750000,163119.4687500000,151679.5000000000,,,
1.4359999977,11,180596.8593750000,164834.1875000000,194289.8906250000,180254.6406250000,168387.6093750000,139757.9687500000,163104.4843750000,151219.8593750000,,,
1.4399999976,11,180559.6875000000,164803.1250000000,194245.7187500000,180210.1093750000,168344.6562500000,139727.1250000000,163068.7500000000,151476.6718750000,,,
1.4439999976,11,180559.5156250000,164802.9375000000,194240.2968750000,180210.5156250000,168337.5468750000,139722.2656250000,163067.0312500000,151999.0156250000,,,
1.4479999975,11,180576.7968750000,164813.5312500000,194260.4375000000,180228.1406250000,168355.1562500000,139734.2031250000,163080.8593750000,152034.0937500000,,,
1.4519999977,11,180594.4531250000,164827.6875000000,194286.1250000000,180243.5625000000,168380.0156250000,139751.2656250000,163103.7031250000,151502.4218750000,,,
1.4559999977,11,180576.6875000000,164814.8750000000,194272.5312500000,180216.9531250000,168368.4062500000,139740.5625000000,163092.2500000000,151086.4687500000,,,
1.4599999976,11,180551.1562500000,164796.3906250000,194241.8281250000,180178.2968750000,168342.5468750000,139726.2656250000,163067.0156250000,151347.9843750000,,,
1.4639999976,11,180564.4843750000,164806.7187500000,194247.6718750000,180199.8437500000,168349.7031250000,139731.0468750000,163072.5937500000,151867.2031250000,,,
1.4679999975,11,180592.4375000000,164825.7968750000,194276.6875000000,180240.1250000000,168375.3750000000,139746.0312500000,163095.2031250000,151912.5937500000,,,
1.4719999975,11,180600.3750000000,164830.5312500000,194290.9062500000,180258.9218750000,168388.5937500000,139757.8281250000,163111.2343750000,151426.6718750000,,,
1.4759999977,11,180587.6093750000,164819.4531250000,194282.0000000000,180233.6562500000,168381.9375000000,139752.2812500000,163107.0312500000,151059.4375000000,,,
1.4799999977,11,180574.5468750000,164811.2812500000,194267.8593750000,180206.7343750000,168368.9843750000,139743.7187500000,163097.1406250000,151341.6562500000,,,
1.4839999976,11,180575.4843750000,164813.4218750000,194265.5000000000,180206.0625000000,168367.1406250000,139747.1093750000,163099.3281250000,151903.7343750000,,,
1.4879999976,11,180602.6250000000,164833.2187500000,194294.7656250000,180238.0000000000,168395.7500000000,139765.1875000000,163128.1093750000,151992.1406250000,,,
1.4919999975,11,180605.2812500000,164831.4531250000,194307.5156250000,180238.2187500000,168407.6406250000,139774.2968750000,163146.2187500000,151544.7968750000,,,
1.4959999977,11,180574.5937500000,164805.7812500000,194284.9843750000,180188.4375000000,168387.8750000000,139767.2812500000,163132.7500000000,151211.8281250000,,,
1.4999999977,11,180545.5000000000,164784.7031250000,194246.2500000000,180160.0937500000,168353.5468750000,139745.3906250000,163098.0468750000,151544.6406250000,,,
1.5039999976,11,180542.8125000000,164782.6406250000,194236.1562500000,180153.1093750000,168343.2656250000,139742.6250000000,163092.3125000000,152111.1250000000,,,
1.5079999976,11,180565.4843750000,164801.8593750000,194261.9062500000,180186.2187500000,168368.7968750000,139771.0781250000,163120.3281250000,152205.8125000000,,,
1.5119999975,11,180572.4843750000,164807.9531250000,194277.0625000000,180193.4531250000,168385.2968750000,139788.2968750000,163129.7968750000,151758.0625000000,,,
1.5159999975,11,180569.3593750000,164809.7500000000,194274.4687500000,180186.6406250000,168385.1875000000,139792.8593750000,163131.6875000000,151379.1718750000,,,
1.5199999977,11,180565.8750000000,164813.8593750000,194262.9375000000,180196.3593750000,168375.7812500000,139794.6562500000,163132.1406250000,151626.7500000000,,,
1.5239999976,11,180564.7031250000,164818.1250000000,194257.0312500000,180199.1718750000,168370.4375000000,139800.4218750000,163123.4531250000,152153.0468750000,,,
1.5279999976,11,180580.9218750000,164829.9687500000,194276.7968750000,180216.5156250000,168389.3750000000,139814.2968750000,163114.3593750000,152223.7500000000,,,
1.5319999976,11,180596.9062500000,164839.8125000000,194301.6875000000,180218.6718750000,168413.2656250000,139828.9687500000,163132.0781250000,151743.6093750000,,,
1.5359999975,12,180587.7343750000,164836.1406250000,194294.5781250000,180192.1718750000,168409.0312500000,139836.5625000000,163167.9687500000,151319.2031250000,,,
1.5399999975,12,180560.0937500000,164814.7187500000,194262.4687500000,180192.6250000000,168377.4062500000,139812.8750000000,163151.9062500000,151554.1093750000,,,
1.5439999974,12,180555.5468750000,164810.0781250000,194251.1875000000,180199.6250000000,168365.5781250000,139801.0937500000,163135.9687500000,152076.6562500000,,,
1.5479999974,12,180570.5937500000,164817.2656250000,194267.3593750000,180205.9531250000,168379.0156250000,139809.4375000000,163153.1093750000,152157.5312500000,,,
1.5519999973,12,180585.0000000000,164825.6093750000,194292.3750000000,180189.8281250000,168403.1093750000,139822.8437500000,163183.9843750000,151670.6718750000,,,
1.5559999973,12,180578.3750000000,164819.4531250000,194289.7500000000,180163.8750000000,168403.7968750000,139816.7031250000,163181.1718750000,151256.9218750000,,,
1.5599999975,12,180570.7031250000,164817.8281250000,194276.6562500000,180162.7968750000,168392.6406250000,139808.4218750000,163160.7343750000,151503.9062500000,,,
1.5639999975,12,180576.5000000000,164824.5312500000,194276.0468750000,180169.9843750000,168391.4687500000,139802.8750000000,163144.7500000000,152044.5468750000,,,
1.5679999974,12,180600.6875000000,164840.9218750000,194300.2343750000,180190.1875000000,168415.6250000000,139815.7187500000,163159.8750000000,152102.4062500000,,,
1.5719999974,12,180615.3437500000,164850.0156250000,194322.0781250000,180205.6250000000,168437.3593750000,139824.3593750000,163181.7500000000,151616.6562500000,,,
1.5759999973,12,180618.8750000000,164855.9687500000,194328.1875000000,180220.7656250000,168445.2656250000,139831.9375000000,163190.2656250000,151188.1250000000,,,
1.5799999975,12,180592.1875000000,164836.4687500000,194294.6562500000,180204.0468750000,168413.6250000000,139807.8593750000,163144.0468750000,151425.3906250000,,,
1.5839999975,12,180585.2656250000,164828.2343750000,194282.0625000000,180206.4062500000,168398.4062500000,139792.5468750000,163121.0781250000,151963.4687500000,,,
1.5879999974,12,180602.3281250000,164835.6875000000,194300.6718750000,180220.2187500000,168413.4062500000,139795.8437500000,163154.3906250000,152022.5625000000,,,
1.5919999974,12,180624.4531250000,164855.5156250000,194332.3125000000,180237.6250000000,168443.4531250000,139814.8593750000,163193.7187500000,151514.7343750000,,,
1.5959999973,12,180612.0937500000,164848.2343750000,194324.5937500000,180223.1250000000,168438.0781250000,139809.7812500000,163183.1562500000,151070.7968750000,,,
1.5999999973,12,180572.3906250000,164816.7031250000,194279.0312500000,180180.2812500000,168394.2031250000,139778.5468750000,163133.3125000000,151306.2187500000,,,
1.6039999975,12,180557.0625000000,164800.8125000000,194261.9062500000,180168.3750000000,168375.7968750000,139759.3125000000,163103.6562500000,151827.2187500000,,,
1.6079999974,12,180588.1406250000,164827.6718750000,194292.5625000000,180225.3437500000,168404.2812500000,139779.8281250000,163111.7031250000,151870.0781250000,,,
1.6119999974,12,180606.3281250000,164845.1875000000,194313.2968750000,180263.2187500000,168422.7187500000,139799.8125000000,163139.0312500000,151339.9062500000,,,
1.6159999974,12,180588.4843750000,164835.3906250000,194299.7500000000,180234.1250000000,168411.7968750000,139797.1562500000,163136.6093750000,150886.8281250000,,,
1.6199999973,12,180552.5468750000,164808.1875000000,194258.5781250000,180197.1875000000,168374.0312500000,139770.8906250000,163091.7656250000,151131.8750000000,,,
1.6239999975,12,180535.7343750000,164793.7656250000,194234.8281250000,180203.8125000000,168350.1875000000,139748.3437500000,163055.3125000000,151686.2656250000,,,
1.6279999975,12,180545.2500000000,164798.6406250000,194242.8437500000,180224.1875000000,168356.0937500000,139748.9062500000,163055.5000000000,151755.1406250000,,,
1.6319999974,12,180547.5312500000,164799.7968750000,194251.0468750000,180204.8750000000,168364.1875000000,139759.9218750000,163062.5937500000,151259.0156250000,,,
1.6359999974,12,180539.6718750000,164795.9843750000,194247.7812500000,180163.0312500000,168364.5156250000,139767.4062500000,163059.9843750000,150823.6875000000,,,
1.6399999973,12,180514.1093750000,164776.7343750000,194217.8750000000,180130.9843750000,168336.3437500000,139747.4218750000,163031.0625000000,151074.8750000000,,,
1.6439999973,12,180500.2656250000,164764.2031250000,194197.4062500000,180141.0937500000,168313.3125000000,139730.4218750000,163005.5312500000,151650.0312500000,,,
1.6479999975,12,180522.3750000000,164779.1250000000,194221.4062500000,180161.2187500000,168335.4687500000,139751.6718750000,163031.3593750000,151750.9531250000,,,
1.6519999974,12,180548.9531250000,164800.5781250000,194255.9375000000,180178.2187500000,168371.9062500000,139778.8906250000,163071.1093750000,151269.5781250000,,,
1.6559999974,12,180535.0312500000,164788.5937500000,194248.2031250000,180157.8906250000,168366.4375000000,139772.8593750000,163065.0781250000,150870.5156250000,,,
1.6599999974,12,180535.2500000000,164792.7656250000,194244.2343750000,180167.4843750000,168363.0625000000,139774.6562500000,163058.7968750000,151110.1562500000,,,
1.6639999973,13,180535.9687500000,164792.6875000000,194238.0625000000,180193.0781250000,168356.8906250000,139766.0468750000,163048.6406250000,151676.5312500000,,,
1.6679999973,13,180559.8750000000,164808.0312500000,194265.6875000000,180245.9531250000,168383.0937500000,139781.1718750000,163073.8750000000,151768.9062500000,,,
1.6719999972,13,180583.5625000000,164826.4843750000,194299.1093750000,180250.0781250000,168417.1093750000,139811.6875000000,163116.3437500000,151253.6250000000,,,
1.6759999972,13,180577.7343750000,164822.5156250000,194295.8906250000,180218.8750000000,168417.5625000000,139814.5625000000,163125.5156250000,150812.9843750000,,,
1.6799999971,13,180558.1250000000,164807.9843750000,194268.6406250000,180195.7656250000,168394.3593750000,139795.0937500000,163104.8593750000,151027.2500000000,,,
1.6839999971,13,180562.9531250000,164816.2968750000,194267.2031250000,180198.7968750000,168393.0781250000,139798.5000000000,163102.8437500000,151537.0781250000,,,
1.6879999973,13,180575.0312500000,164822.4375000000,194281.3593750000,180180.2656250000,168406.8281250000,139811.4531250000,163120.1406250000,151599.5937500000,,,
1.6919999972,13,180589.8593750000,164831.0156250000,194305.9062500000,180175.6718750000,168431.7187500000,139825.5625000000,163133.8750000000,151096.6562500000,,,
1.6959999972,13,180593.0468750000,164835.1562500000,194316.8125000000,180177.0468750000,168445.0000000000,139834.2812500000,163144.1562500000,150651.8750000000,,,
1.6999999972,13,180596.3750000000,164847.8125000000,194316.0937500000,180194.0937500000,168442.1250000000,139836.9531250000,163154.0000000000,150915.6093750000,,,
1.7039999971,13,180625.9375000000,164876.1562500000,194339.9843750000,180247.1562500000,168462.8125000000,139854.3125000000,163170.3906250000,151479.2187500000,,,
1.7079999973,13,180621.2187500000,164863.1875000000,194333.4687500000,180243.6718750000,168457.6562500000,139852.5156250000,163159.3593750000,151544.6406250000,,,
1.7119999973,13,180622.3125000000,164859.7968750000,194338.7500000000,180244.5781250000,168463.1406250000,139855.9531250000,163169.4218750000,151041.0781250000,,,
1.7159999972,13,180595.4062500000,164840.8437500000,194310.4531250000,180214.6718750000,168433.2500000000,139835.6718750000,163162.2031250000,150611.8281250000,,,
1.7199999972,13,180570.9531250000,164826.7500000000,194277.0468750000,180196.2656250000,168400.8750000000,139820.4375000000,163130.2812500000,150845.0156250000,,,
1.7239999971,13,180564.6718750000,164822.4062500000,194266.0156250000,180199.0312500000,168388.7343750000,139817.4062500000,163101.6718750000,151392.7187500000,,,
1.7279999971,13,180581.5156250000,164833.7812500000,194282.0312500000,180228.7500000000,168405.0156250000,139824.9375000000,163112.7500000000,151497.4375000000,,,
1.7319999973,13,180597.0156250000,164846.2812500000,194304.7968750000,180246.2968750000,168429.1718750000,139838.5625000000,163149.7812500000,151048.9218750000,,,
1.7359999972,13,180577.3281250000,164830.9687500000,194288.3593750000,180230.3281250000,168414.4062500000,139827.1406250000,163140.0781250000,150661.7343750000,,,
1.7399999972,13,180554.5000000000,164814.9531250000,194257.5937500000,180226.3125000000,168383.9843750000,139803.0781250000,163086.1875000000,150899.2968750000,,,
1.7439999972,13,180560.0000000000,164820.6718750000,194260.8437500000,180237.9531250000,168387.6093750000,139797.0000000000,163022.4843750000,151423.7031250000,,,
1.7479999971,13,180584.9531250000,164835.9218750000,194288.4062500000,180241.9687500000,168412.5000000000,139808.9843750000,163065.3437500000,151513.9062500000,,,
1.7519999973,13,180601.4687500000,164845.7656250000,194309.9843750000,180227.9687500000,168430.9218750000,139826.0156250000,163139.8593750000,151048.2187500000,,,
1.7559999973,13,180581.9687500000,164827.8593750000,194295.7031250000,180193.4843750000,168417.1562500000,139812.3437500000,163128.8906250000,150667.3125000000,,,
1.7599999972,13,180558.1562500000,164810.6406250000,194268.4218750000,180170.1250000000,168390.1250000000,139784.8437500000,163082.1406250000,150977.1093750000,,,
1.7639999972,13,180559.9531250000,164815.5781250000,194258.6875000000,180194.7968750000,168380.6875000000,139784.3906250000,163070.9843750000,151598.5625000000,,,
1.7679999971,13,180589.0781250000,164837.1406250000,194287.3593750000,180236.6718750000,168406.1093750000,139807.3281250000,163093.1562500000,151735.2968750000,,,
1.7719999971,13,180599.7343750000,164844.6406250000,194307.7187500000,180220.6718750000,168425.8593750000,139821.7031250000,163107.5156250000,151320.3281250000,,,
1.7759999973,13,180578.5625000000,164826.5937500000,194291.0156250000,180180.1250000000,168410.9375000000,139809.2812500000,163085.5781250000,151019.2812500000,,,
1.7799999972,13,180565.0781250000,164817.2343750000,194272.3750000000,180177.1718750000,168390.7656250000,139793.1875000000,163057.4375000000,151336.8593750000,,,
1.7839999972,13,180555.3125000000,164808.6562500000,194257.8281250000,180175.6250000000,168374.7343750000,139776.9375000000,163035.5156250000,151919.9843750000,,,
1.7879999971,13,180565.7187500000,164810.1875000000,194269.2343750000,180199.4062500000,168383.5000000000,139775.9062500000,163033.6718750000,152042.2500000000,,,
1.7919999971,14,180573.2031250000,164813.2968750000,194282.4375000000,180226.9218750000,168395.9687500000,139778.8437500000,163029.1718750000,151615.2656250000,,,
1.7959999971,14,180572.9375000000,164817.5000000000,194284.0625000000,180221.2500000000,168401.4375000000,139785.8437500000,163021.5781250000,151205.3437500000,,,
1.7999999970,14,180548.9843750000,164803.4531250000,194253.1406250000,180204.7500000000,168371.7187500000,139766.2500000000,163014.2500000000,151464.7343750000,,,
1.8039999970,14,180523.9062500000,164777.7500000000,194225.4062500000,180179.5000000000,168340.1875000000,139735.8125000000,162997.6718750000,152079.2343750000,,,
1.8079999969,14,180559.0468750000,164803.6562500000,194262.8437500000,180229.7968750000,168374.0000000000,139756.4375000000,163027.7500000000,152185.2812500000,,,
1.8119999969,14,180557.1875000000,164797.4062500000,194266.6093750000,180216.5156250000,168378.6250000000,139753.0937500000,163023.1093750000,151737.5468750000,,,
1.8159999971,14,180536.1093750000,164777.7187500000,194252.2500000000,180177.7343750000,168367.9687500000,139738.8437500000,163004.3593750000,151363.5156250000,,,
1.8199999970,14,180519.2968750000,164769.2500000000,194230.6875000000,180155.5000000000,168347.8281250000,139724.6250000000,162987.0312500000,151651.0000000000,,,
1.8239999970,14,180525.3593750000,164776.7343750000,194229.4843750000,180175.2500000000,168344.8281250000,139722.6718750000,162981.0000000000,152248.6093750000,,,
1.8279999970,14,180544.9062500000,164788.3125000000,194245.0156250000,180208.2031250000,168359.0312500000,139731.1250000000,162998.9375000000,152411.5625000000,,,
1.8319999969,14,180571.2500000000,164808.7343750000,194277.2343750000,180230.5468750000,168391.2812500000,139754.0000000000,163029.0000000000,151975.0000000000,,,
1.8359999971,14,180589.2968750000,164827.6093750000,194307.5156250000,180233.4531250000,168419.9843750000,139773.5468750000,163038.3125000000,151563.1718750000,,,
1.8399999971,14,180568.5156250000,164815.3593750000,194276.0937500000,180208.6406250000,168392.5937500000,139759.0468750000,163002.1562500000,151829.2187500000,,,
1.8439999970,14,180551.5312500000,164800.9218750000,194245.6250000000,180188.4687500000,168362.9218750000,139740.1875000000,162982.4687500000,152464.4062500000,,,
1.8479999970,14,180578.5468750000,164819.6718750000,194273.2500000000,180213.0937500000,168386.3750000000,139755.8281250000,163002.5000000000,152634.5625000000,,,
1.8519999969,14,180604.5312500000,164840.5625000000,194305.9531250000,180224.9218750000,168416.7031250000,139776.5312500000,163029.6718750000,152212.0781250000,,,
1.8559999969,14,180583.0468750000,164822.4375000000,194287.0156250000,180191.9218750000,168401.2031250000,139761.4843750000,163018.8593750000,151846.2812500000,,,
1.8599999971,14,180557.5625000000,164803.6093750000,194255.3593750000,180161.6406250000,168372.6562500000,139738.8906250000,162981.8750000000,152162.4375000000,,,
1.8639999970,14,180556.7031250000,164803.0156250000,194249.0625000000,180168.0000000000,168366.0156250000,139730.7500000000,162966.3750000000,152809.2500000000,,,
1.8679999970,14,180574.5937500000,164814.7656250000,194267.8906250000,180189.8593750000,168382.4843750000,139742.0625000000,162989.7656250000,153002.0468750000,,,
1.8719999969,14,180584.4687500000,164820.1875000000,194284.1250000000,180207.8281250000,168397.7968750000,139750.7812500000,163009.4218750000,152580.5156250000,,,
1.8759999969,14,180583.6093750000,164825.0156250000,194288.7656250000,180213.0312500000,168405.4687500000,139759.7343750000,163010.1718750000,152180.2656250000,,,
1.8799999971,14,180569.9062500000,164822.6250000000,194270.6562500000,180215.0000000000,168390.2343750000,139756.5156250000,162971.0625000000,152460.5312500000,,,
1.8839999971,14,180562.6406250000,164819.0000000000,194257.1875000000,180236.2031250000,168374.9218750000,139751.6406250000,162973.4218750000,153070.7656250000,,,
1.8879999970,14,180579.2968750000,164831.3906250000,194274.4062500000,180275.5625000000,168389.4843750000,139766.4687500000,163000.4687500000,153192.9375000000,,,
1.8919999970,14,180574.5468750000,164822.4843750000,194276.7500000000,180267.0781250000,168393.7500000000,139765.5937500000,162993.8125000000,152741.8437500000,,,
1.8959999969,14,180555.7343750000,164807.6562500000,194262.8437500000,180209.3125000000,168382.6718750000,139754.9062500000,162986.7343750000,152363.3281250000,,,
1.8999999969,14,180530.5625000000,164790.1718750000,194235.6718750000,180183.0156250000,168356.2187500000,139735.3593750000,162957.9843750000,152654.3281250000,,,
1.9039999971,14,180521.2500000000,164779.9531250000,194219.1875000000,180196.2656250000,168340.6875000000,139724.7968750000,162942.1562500000,153255.0000000000,,,
1.9079999970,14,180538.2031250000,164788.0781250000,194236.7031250000,180223.7968750000,168354.8281250000,139734.3593750000,162964.3125000000,153391.6093750000,,,
1.9119999970,14,180559.1718750000,164803.5000000000,194266.8125000000,180227.9687500000,168383.2812500000,139751.6406250000,162990.5625000000,152986.6250000000,,,
1.9159999969,14,180545.3125000000,164793.0156250000,194257.0625000000,180205.2031250000,168375.7187500000,139741.8750000000,162979.4375000000,152640.0625000000,,,
1.9199999969,15,180513.6250000000,164767.0000000000,194219.3437500000,180186.3437500000,168338.8437500000,139710.2812500000,162937.6562500000,152958.0000000000,,,
1.9239999969,15,180494.4531250000,164747.9218750000,194194.0312500000,180186.4843750000,168311.7031250000,139681.5468750000,162903.3125000000,153611.5312500000,,,
1.9279999968,15,180508.8593750000,164749.5312500000,194211.0625000000,180171.1718750000,168327.3125000000,139687.3750000000,162928.0781250000,153838.0625000000,,,
1.9319999968,15,180537.5625000000,164769.7812500000,194246.6562500000,180178.6562500000,168361.2656250000,139714.6562500000,162973.2656250000,153484.5781250000,,,
1.9359999967,15,180539.0000000000,164774.5312500000,194250.2656250000,180182.9375000000,168364.9375000000,139714.0937500000,162976.7031250000,153164.9687500000,,,
1.9399999967,15,180509.6406250000,164752.0625000000,194219.6718750000,180153.1093750000,168334.9531250000,139688.4218750000,162935.5312500000,153474.4062500000,,,
1.9439999969,15,180495.2812500000,164745.0000000000,194203.3906250000,180140.1562500000,168318.9687500000,139688.9062500000,162915.8750000000,154065.2500000000,,,
1.9479999968,15,180530.6093750000,164778.9531250000,194235.8125000000,180182.8593750000,168353.2187500000,139721.6250000000,162926.9218750000,154240.0468750000,,,
1.9519999968,15,180527.0156250000,164769.9531250000,194233.7968750000,180177.4375000000,168352.7031250000,139717.1250000000,162926.0937500000,153852.9843750000,,,
1.9559999967,15,180487.7812500000,164735.7968750000,194198.3906250000,180131.9218750000,168316.6875000000,139695.3125000000,162927.7031250000,153498.8437500000,,,
1.9599999967,15,180472.1875000000,164729.3906250000,194181.2343750000,180125.9218750000,168301.0781250000,139694.1250000000,162920.9062500000,153751.1562500000,,,
1.9639999969,15,180482.8593750000,164744.7031250000,194186.1406250000,180146.8125000000,168307.6718750000,139709.2031250000,162918.4218750000,154319.4687500000,,,
1.9679999969,15,180512.5781250000,164767.9687500000,194217.8906250000,180188.5781250000,168339.0312500000,139738.8906250000,162946.9843750000,154485.6875000000,,,
1.9719999968,15,180525.4062500000,164776.8125000000,194233.7812500000,180208.3125000000,168354.5625000000,139754.6718750000,162968.1250000000,154108.3750000000,,,
1.9759999968,15,180521.4375000000,164778.0156250000,194231.8750000000,180190.8281250000,168355.0937500000,139763.5781250000,162966.8281250000,153768.0312500000,,,
1.9799999967,15,180494.5625000000,164758.8437500000,194201.6406250000,180162.1562500000,168327.3593750000,139747.0781250000,162933.0625000000,154111.9218750000,,,
1.9839999967,15,180489.7656250000,164755.8593750000,194191.2656250000,180164.7343750000,168317.2968750000,139739.8593750000,162921.4531250000,154843.6562500000,,,
1.9879999969,15,180512.1093750000,164770.5156250000,194214.5937500000,180190.1093750000,168337.8281250000,139756.4062500000,162945.3125000000,155105.1406250000,,,
1.9919999968,15,180546.5468750000,164797.5781250000,194254.2968750000,180225.9843750000,168373.5781250000,139789.1093750000,162986.5468750000,154672.3125000000,,,
1.9959999968,15,180576.3125000000,164830.2656250000,194286.8593750000,180266.8437500000,168409.1718750000,139822.0781250000,163022.7812500000,154172.4375000000,,,
1.9999999967,15,180554.8906250000,164816.4218750000,194261.7187500000,180228.7812500000,168389.7031250000,139809.3281250000,163005.2343750000,154360.3750000000,,,
2.0039999967,15,180550.1875000000,164813.1093750000,194252.8125000000,180202.5156250000,168383.6562500000,139808.7656250000,162995.4843750000,154936.1406250000,,,
2.0079999969,15,180556.4062500000,164813.1250000000,194259.9843750000,180209.2500000000,168390.5312500000,139813.5937500000,162994.2500000000,155088.6406250000,,,
2.0119999968,15,180569.5781250000,164820.1875000000,194278.4843750000,180196.8281250000,168405.3593750000,139831.0625000000,163019.0781250000,154605.8437500000,,,
2.0159999968,15,180579.0156250000,164832.4687500000,194298.0156250000,180168.5312500000,168424.4531250000,139843.6093750000,163039.0156250000,154138.4218750000,,,
2.0199999968,15,180571.6718750000,164824.5312500000,194291.8125000000,180178.0625000000,168422.1718750000,139833.2656250000,163034.3437500000,154366.1718750000,,,
2.0239999967,15,180568.7187500000,164816.0000000000,194275.4375000000,180225.3437500000,168409.7656250000,139822.4687500000,163029.8125000000,154964.4531250000,,,
2.0279999967,15,180582.8125000000,164826.0000000000,194288.2031250000,180220.0937500000,168420.4375000000,139830.5000000000,163053.7812500000,155142.6093750000,,,
2.0319999969,15,180590.6562500000,164831.6718750000,194304.2656250000,180202.8906250000,168435.3437500000,139847.5781250000,163059.4531250000,154694.7031250000,,,
2.0359999968,15,180581.8593750000,164829.0937500000,194298.8437500000,180175.8906250000,168431.5156250000,139853.4843750000,163083.6406250000,154235.1406250000,,,
2.0399999968,15,180580.4375000000,164837.9687500000,194291.8125000000,180177.5781250000,168425.9375000000,139860.5312500000,163097.1875000000,154429.9531250000,,,
2.0439999967,15,180583.3437500000,164842.5468750000,194290.7187500000,180201.3750000000,168426.6250000000,139859.1718750000,163081.3125000000,154974.5156250000,,,
2.0479999967,16,180596.3281250000,164851.4843750000,194306.9687500000,180219.8750000000,168442.6406250000,139868.3437500000,163087.3906250000,155091.5937500000,,,
2.0519999966,16,180621.4062500000,164872.9375000000,194340.0156250000,180233.0468750000,168475.4687500000,139901.5156250000,163124.0156250000,154560.8750000000,,,
2.0559999966,16,180598.8906250000,164852.0468750000,194317.2968750000,180204.7500000000,168454.3906250000,139895.8906250000,163118.1406250000,154037.0625000000,,,
2.0599999966,16,180574.4843750000,164836.9218750000,194286.7812500000,180181.2187500000,168426.6562500000,139880.1406250000,163098.2812500000,154225.2656250000,,,
2.0639999965,16,180575.1875000000,164840.9218750000,194285.9218750000,180184.8437500000,168427.3281250000,139877.3593750000,163074.0156250000,154772.9218750000,,,
2.0679999965,16,180602.3906250000,164864.2187500000,194313.6718750000,180225.7812500000,168451.5781250000,139899.5312500000,163084.8437500000,154868.1718750000,,,
2.0719999967,16,180622.8750000000,164879.4687500000,194339.5156250000,180247.5781250000,168470.7031250000,139919.6718750000,163118.9062500000,154376.3281250000,,,
2.0759999966,16,180618.6875000000,164874.5000000000,194339.9843750000,180247.0468750000,168470.0781250000,139912.5937500000,163122.8750000000,153915.7187500000,,,
2.0799999966,16,180578.9375000000,164843.7031250000,194291.8750000000,180230.3593750000,168425.9375000000,139878.5000000000,163098.2656250000,154141.5625000000,,,
2.0839999965,16,180566.0156250000,164832.8125000000,194276.7968750000,180230.2343750000,168408.9062500000,139860.1406250000,163051.3437500000,154747.7656250000,,,
2.0879999965,16,180586.9375000000,164846.0625000000,194300.0781250000,180261.4687500000,168430.1718750000,139871.1562500000,163075.7500000000,154913.3125000000,,,
2.0919999967,16,180597.5625000000,164859.0781250000,194311.7968750000,180235.6406250000,168441.1718750000,139886.5000000000,163116.4375000000,154465.7812500000,,,
2.0959999966,16,180568.3281250000,164832.3593750000,194284.6250000000,180177.4218750000,168416.8593750000,139865.3593750000,163097.7500000000,154066.2187500000,,,
2.0999999966,16,180542.5468750000,164808.0937500000,194258.5625000000,180167.1406250000,168390.8750000000,139836.0781250000,163059.0937500000,154318.2656250000,,,
2.1039999966,16,180544.5625000000,164810.9843750000,194253.2812500000,180198.1562500000,168387.6562500000,139834.7343750000,163045.2812500000,154918.4843750000,,,
2.1079999965,16,180558.5312500000,164817.0937500000,194263.8906250000,180215.5781250000,168395.4843750000,139838.2968750000,163050.8125000000,155084.0000000000,,,
2.1119999965,16,180579.5937500000,164831.8593750000,194293.4218750000,180204.0468750000,168422.2343750000,139851.5312500000,163066.8437500000,154597.4843750000,,,
2.1159999967,16,180574.2968750000,164825.0156250000,194296.1093750000,180190.5000000000,168426.6875000000,139843.1875000000,163058.0312500000,154127.9375000000,,,
2.1199999966,16,180535.6250000000,164793.8437500000,194250.1562500000,180169.0781250000,168383.7968750000,139804.3437500000,163016.7968750000,154375.4687500000,,,
2.1239999966,16,180525.2187500000,164787.0625000000,194229.4531250000,180168.3750000000,168365.6093750000,139789.3437500000,162998.2343750000,154998.6875000000,,,
2.1279999965,16,180559.0468750000,164812.7812500000,194265.6718750000,180205.4218750000,168398.5156250000,139807.5156250000,163031.6093750000,155138.2343750000,,,
2.1319999965,16,180583.3906250000,164824.8750000000,194301.7500000000,180225.7812500000,168426.4218750000,139811.6093750000,163043.8906250000,154635.5937500000,,,
2.1359999967,16,180590.7187500000,164832.5468750000,194312.6250000000,180237.8750000000,168439.0156250000,139822.5000000000,163008.9218750000,154111.8125000000,,,
2.1399999966,16,180571.4531250000,164817.2812500000,194287.3906250000,180219.4687500000,168416.6250000000,139806.7812500000,162991.1875000000,154241.9062500000,,,
2.1439999966,16,180561.8906250000,164810.8437500000,194268.0781250000,180209.0156250000,168397.2656250000,139795.0156250000,163024.7187500000,154756.3125000000,,,
2.1479999966,16,180584.2500000000,164831.4531250000,194288.5000000000,180232.4531250000,168414.5312500000,139812.1562500000,163059.7656250000,154826.2656250000,,,
2.1519999965,16,180604.1875000000,164847.9375000000,194317.2500000000,180244.0468750000,168439.1093750000,139829.3906250000,163072.1875000000,154283.1562500000,,,
2.1559999965,16,180599.9375000000,164844.6718750000,194320.3281250000,180244.1562500000,168441.1093750000,139826.8281250000,163066.6406250000,153745.2656250000,,,
2.1599999967,16,180563.8906250000,164820.2343750000,194276.3437500000,180224.1875000000,168400.8281250000,139800.4062500000,163013.3437500000,153951.3125000000,,,
2.1639999966,16,180555.7187500000,164818.1406250000,194260.3281250000,180221.7500000000,168386.4843750000,139794.6562500000,162991.0468750000,154581.1406250000,,,
2.1679999966,16,180576.2812500000,164834.2656250000,194283.2343750000,180242.5468750000,168408.6562500000,139807.5625000000,163002.7968750000,154768.6093750000,,,
2.1719999965,16,180587.1718750000,164841.3750000000,194300.5937500000,180246.5937500000,168424.6406250000,139816.4375000000,162998.8593750000,154327.4687500000,,,
2.1759999965,17,180574.4687500000,164829.4843750000,194293.7187500000,180220.4687500000,168417.2343750000,139809.6875000000,162999.5312500000,153862.9531250000,,,
2.1799999964,17,180562.3437500000,164824.3750000000,194276.4687500000,180203.1875000000,168400.3437500000,139802.5000000000,162987.5156250000,154022.6875000000,,,
2.1839999964,17,180540.3437500000,164806.5000000000,194247.1875000000,180177.3125000000,168376.1718750000,139781.6250000000,162960.5781250000,154568.3281250000,,,
2.1879999964,17,180553.1718750000,164812.9687500000,194258.9062500000,180194.5000000000,168385.3281250000,139788.8750000000,163008.1718750000,154673.8437500000,,,
2.1919999963,17,180590.0468750000,164841.0781250000,194302.2812500000,180218.5625000000,168423.1718750000,139815.6875000000,163041.2968750000,154115.1718750000,,,
2.1959999963,17,180588.9531250000,164845.9843750000,194298.1406250000,180223.3906250000,168423.7812500000,139823.7968750000,163017.9843750000,153519.3906250000,,,
2.1999999965,17,180565.3750000000,164831.6406250000,194271.8281250000,180198.2812500000,168397.0937500000,139806.2968750000,163013.2656250000,153583.9531250000,,,
2.2039999964,17,180564.7031250000,164830.9062500000,194267.4375000000,180199.0625000000,168390.4531250000,139796.8281250000,163010.1718750000,154011.2500000000,,,
2.2079999964,17,180585.6250000000,164843.4687500000,194292.1875000000,180220.5156250000,168412.8437500000,139805.7968750000,163029.6718750000,154049.9843750000,,,
2.2119999963,17,180604.2656250000,164852.7656250000,194321.2187500000,180242.2968750000,168439.5625000000,139818.6718750000,163057.0000000000,153452.2343750000,,,
2.2159999963,17,180610.8593750000,164858.1406250000,194331.7812500000,180255.0625000000,168450.7500000000,139825.2187500000,163065.3437500000,152824.5468750000,,,
2.2199999965,17,180571.7343750000,164826.0781250000,194287.5468750000,180216.3125000000,168409.1718750000,139789.5625000000,163017.5312500000,152888.8906250000,,,
2.2239999964,17,180543.4375000000,164799.2343750000,194251.2343750000,180180.3593750000,168375.4531250000,139761.2968750000,162981.0468750000,153381.2343750000,,,
2.2279999964,17,180574.5468750000,164825.2812500000,194283.7656250000,180217.4843750000,168406.2187500000,139783.4218750000,163011.9218750000,153465.4531250000,,,
2.2319999964,17,180600.7187500000,164846.3125000000,194316.7656250000,180240.9531250000,168436.2031250000,139809.5781250000,163047.0000000000,152940.3593750000,,,
2.2359999963,17,180596.3281250000,164844.9218750000,194315.8750000000,180230.3125000000,168436.8281250000,139813.2187500000,163045.3906250000,152380.5781250000,,,
2.2399999963,17,180588.1406250000,164845.7500000000,194305.2500000000,180221.1562500000,168428.0468750000,139811.0156250000,163034.0937500000,152450.2343750000,,,
2.2439999965,17,180579.8281250000,164847.1718750000,194290.5000000000,180225.0000000000,168413.3281250000,139811.8750000000,163026.5937500000,152974.1562500000,,,
2.2479999964,17,180591.0468750000,164854.3750000000,194298.2343750000,180236.7656250000,168421.3125000000,139822.1250000000,163036.1093750000,153128.6250000000,,,
2.2519999964,17,180605.6250000000,164859.2343750000,194319.8750000000,180249.4062500000,168442.7500000000,139833.7343750000,163059.4531250000,152604.7343750000,,,
2.2559999963,17,180598.2500000000,164855.4531250000,194315.5625000000,180239.4531250000,168438.6718750000,139839.5625000000,163061.3281250000,152030.8750000000,,,
2.2599999963,17,180567.6562500000,164833.4375000000,194281.3906250000,180204.9843750000,168406.8125000000,139821.1406250000,163029.8437500000,152140.8906250000,,,
2.2639999965,17,180559.2031250000,164826.1093750000,194264.3281250000,180208.2656250000,168390.7968750000,139816.4375000000,163016.2343750000,152660.2031250000,,,
2.2679999964,17,180588.9687500000,164849.8281250000,194297.9375000000,180232.8593750000,168423.1718750000,139848.3281250000,163049.1250000000,152788.2500000000,,,
2.2719999964,17,180617.9687500000,164872.3593750000,194334.3593750000,180247.6406250000,168459.1718750000,139879.2656250000,163083.2656250000,152242.7656250000,,,
2.2759999963,17,180609.7031250000,164867.2031250000,194334.2812500000,180234.9531250000,168458.5781250000,139879.9531250000,163085.2812500000,151696.9843750000,,,
2.2799999963,17,180569.7500000000,164835.1562500000,194295.8437500000,180199.9218750000,168424.0781250000,139854.9375000000,163032.2812500000,151819.6562500000,,,
2.2839999963,17,180571.1875000000,164841.7187500000,194290.6875000000,180201.0156250000,168419.5781250000,139853.4062500000,163052.5781250000,152369.9843750000,,,
2.2879999964,17,180602.0937500000,164869.0000000000,194315.7187500000,180220.1718750000,168441.8906250000,139876.8125000000,163122.7500000000,152523.2187500000,,,
2.2919999964,17,180594.5000000000,164859.9687500000,194312.0156250000,180210.5625000000,168438.9062500000,139878.5000000000,163134.0625000000,152133.7343750000,,,
2.2959999964,17,180577.5000000000,164844.7500000000,194300.7031250000,180187.8437500000,168429.9843750000,139872.2812500000,163127.4375000000,151746.7500000000,,,
2.2999999963,17,180577.4062500000,164849.9843750000,194300.5312500000,180189.9218750000,168431.3281250000,139875.4687500000,163126.4531250000,151996.6250000000,,,
2.3039999963,18,180572.2343750000,164847.0625000000,194292.3593750000,180206.5468750000,168422.4687500000,139863.1718750000,163110.8906250000,152725.1562500000,,,
2.3079999962,18,180573.8750000000,164840.4843750000,194296.2187500000,180217.5468750000,168423.9218750000,139853.5312500000,163102.2343750000,153197.0468750000,,,
2.3119999962,18,180571.0625000000,164831.9062500000,194300.7031250000,180213.3281250000,168427.0781250000,139848.0937500000,163099.9531250000,153116.8437500000,,,
2.3159999961,18,180550.3437500000,164813.3906250000,194283.6093750000,180200.5937500000,168412.8750000000,139835.3750000000,163051.7187500000,153089.9375000000,,,
2.3199999961,18,180523.0937500000,164792.2343750000,194251.0781250000,180163.9843750000,168381.5625000000,139818.7812500000,163051.4531250000,153869.3906250000,,,
2.3239999961,18,180524.2812500000,164794.0937500000,194245.0937500000,180160.4843750000,168372.8281250000,139812.5468750000,163080.7968750000,155088.1875000000,,,
2.3279999963,18,180555.9062500000,164820.3750000000,194275.0000000000,180198.0937500000,168398.0312500000,139829.7187500000,163102.0937500000,155688.9531250000,,,
2.3319999962,18,180591.0468750000,164850.3125000000,194317.0781250000,180230.9062500000,168439.4218750000,139855.4687500000,163141.5781250000,155454.3593750000,,,
2.3359999962,18,180585.4062500000,164847.6718750000,194319.3906250000,180211.9843750000,168442.0312500000,139853.4531250000,163141.6562500000,155014.0000000000,,,
2.3399999961,18,180558.6718750000,164828.9843750000,194288.0625000000,180201.0468750000,168411.9531250000,139834.3281250000,163097.0312500000,155133.8437500000,,,
2.3439999961,18,180560.4062500000,164832.7343750000,194282.9375000000,180211.6875000000,168405.3281250000,139829.3125000000,163078.7031250000,155642.0156250000,,,
2.3479999963,18,180585.4843750000,164854.8437500000,194308.3437500000,180215.2031250000,168429.7343750000,139849.1406250000,163089.8437500000,155780.5781250000,,,
2.3519999962,18,180601.5000000000,164866.6093750000,194330.3281250000,180216.2812500000,168451.8437500000,139868.0468750000,163104.0468750000,155279.3750000000,,,
2.3559999962,18,180601.8437500000,164865.4843750000,194333.0156250000,180211.7812500000,168451.7031250000,139869.4218750000,163118.4375000000,154697.7656250000,,,
2.3599999961,18,180572.2656250000,164844.4531250000,194294.9062500000,180184.5468750000,168415.2031250000,139847.6875000000,163065.0312500000,154716.0937500000,,,
2.3639999961,18,180539.8593750000,164816.7031250000,194254.4062500000,180132.9218750000,168377.3906250000,139823.7031250000,163023.6093750000,155184.5312500000,,,
2.3679999961,18,180557.0625000000,164827.5625000000,194268.1093750000,180160.3906250000,168385.1406250000,139829.0000000000,163046.5937500000,155297.5937500000,,,
2.3719999962,18,180596.3750000000,164858.3281250000,194312.2343750000,180233.8437500000,168427.0000000000,139854.2343750000,163077.7343750000,154778.0468750000,,,
2.3759999962,18,180586.6875000000,164849.7968750000,194310.8125000000,180220.0937500000,168426.4218750000,139845.3750000000,163058.1406250000,154182.8906250000,,,
2.3799999962,18,180552.4687500000,164824.2031250000,194272.5937500000,180166.0468750000,168390.5312500000,139820.9218750000,163020.2343750000,154224.2968750000,,,
2.3839999961,18,180536.9375000000,164811.1250000000,194251.6093750000,180161.1562500000,168367.9687500000,139805.6250000000,163010.3906250000,154724.2656250000,,,
2.3879999961,18,180552.7031250000,164819.7812500000,194267.1406250000,180187.6406250000,168380.7343750000,139811.7968750000,163030.2968750000,154862.0781250000,,,
2.3919999963,18,180577.9531250000,164839.8437500000,194298.4687500000,180213.5781250000,168409.8593750000,139833.6562500000,163061.5937500000,154368.3437500000,,,
2.3959999962,18,180584.0937500000,164849.0156250000,194307.8593750000,180224.6718750000,168420.5625000000,139841.7031250000,163061.6718750000,153812.8750000000,,,
2.3999999962,18,180551.8281250000,164824.0000000000,194270.3593750000,180199.7656250000,168385.4531250000,139810.2500000000,163018.4843750000,153884.6093750000,,,
2.4039999961,18,180539.6718750000,164813.5000000000,194255.7656250000,180194.0156250000,168370.3906250000,139791.0625000000,162987.9062500000,154389.8750000000,,,
2.4079999961,18,180557.7031250000,164825.9218750000,194275.3437500000,180217.5468750000,168387.9843750000,139796.6718750000,162989.0468750000,154550.2500000000,,,
2.4119999961,18,180577.8125000000,164839.2812500000,194300.1562500000,180226.3437500000,168411.4687500000,139810.0625000000,163039.5468750000,154037.8906250000,,,
2.4159999962,18,180592.7812500000,164855.1875000000,194320.1093750000,180238.6718750000,168430.8906250000,139832.0468750000,163057.6250000000,153417.9218750000,,,
2.4199999962,18,180563.1718750000,164833.7812500000,194287.0781250000,180212.8437500000,168399.2187500000,139813.5156250000,163016.4531250000,153471.2187500000,,,
2.4239999962,18,180536.1406250000,164809.5312500000,194253.2500000000,180188.7812500000,168365.7187500000,139787.0937500000,162981.9062500000,153985.9687500000,,,
2.4279999961,18,180547.8593750000,164815.8437500000,194265.8750000000,180201.9843750000,168378.0781250000,139789.8281250000,162984.8281250000,154152.2343750000,,,
2.4319999961,19,180557.3750000000,164819.5625000000,194277.3593750000,180207.6406250000,168391.5937500000,139797.0468750000,163020.2343750000,153697.8125000000,,,
2.4359999960,19,180536.0000000000,164796.7343750000,194261.5312500000,180184.9843750000,168376.6562500000,139778.8906250000,163029.0781250000,153157.7812500000,,,
2.4399999960,19,180518.2656250000,164785.0781250000,194240.4843750000,180158.9375000000,168357.3437500000,139762.4218750000,162995.7500000000,153214.9062500000,,,
2.4439999959,19,180517.0156250000,164784.7812500000,194227.2031250000,180185.0312500000,168342.1718750000,139751.4531250000,162973.4062500000,153702.4062500000,,,
2.4479999959,19,180544.9531250000,164806.9687500000,194256.7656250000,180219.8437500000,168365.5625000000,139768.6093750000,162991.4062500000,153871.9375000000,,,
2.4519999959,19,180554.2343750000,164810.3906250000,194275.7187500000,180178.5625000000,168383.4531250000,139777.3125000000,162991.4218750000,153395.2343750000,,,
2.4559999960,19,180556.0937500000,164808.1718750000,194283.5000000000,180156.9531250000,168390.8281250000,139780.4531250000,163012.0468750000,152816.8437500000,,,
2.4599999960,19,180547.1250000000,164804.4375000000,194264.0000000000,180141.4218750000,168374.8437500000,139777.9218750000,163010.0625000000,152862.8750000000,,,
2.4639999960,19,180536.3281250000,164796.6562500000,194245.2343750000,180151.3125000000,168356.9531250000,139765.0468750000,162982.3281250000,153360.7343750000,,,
2.4679999959,19,180557.7812500000,164811.8750000000,194267.1093750000,180199.7812500000,168377.5781250000,139776.3750000000,162984.0312500000,153540.8281250000,,,
2.4719999959,19,180591.7031250000,164837.2187500000,194307.7187500000,180236.6875000000,168416.1406250000,139802.1718750000,163031.2343750000,153051.2656250000,,,
2.4759999961,19,180594.3437500000,164839.7656250000,194319.4375000000,180227.9218750000,168425.2812500000,139809.0625000000,163051.5625000000,152444.0468750000,,,
2.4799999960,19,180563.7656250000,164820.7968750000,194283.8750000000,180209.8437500000,168391.8750000000,139788.7812500000,163006.0937500000,152504.3906250000,,,
2.4839999960,19,180526.9843750000,164792.0468750000,194238.2500000000,180175.4843750000,168348.4375000000,139759.8125000000,162948.9218750000,153059.5468750000,,,
2.4879999959,19,180521.1093750000,164783.9687500000,194229.3437500000,180186.7500000000,168338.2031250000,139750.5156250000,162953.7656250000,153289.0156250000,,,
2.4919999959,19,180546.6718750000,164804.2812500000,194260.6250000000,180227.0156250000,168366.1406250000,139773.6562500000,162993.7812500000,152852.5625000000,,,
2.4959999959,19,180554.4843750000,164814.1562500000,194273.6875000000,180231.0312500000,168379.3906250000,139787.0781250000,163006.0781250000,152286.4062500000,,,
2.4999999960,19,180527.1562500000,164794.9687500000,194243.6718750000,180191.9843750000,168352.0625000000,139767.8437500000,162979.2500000000,152363.8125000000,,,
2.5039999960,19,180505.7968750000,164779.0937500000,194216.8437500000,180172.6718750000,168326.4531250000,139753.0625000000,162957.3906250000,152922.7812500000,,,
2.5079999960,19,180506.5156250000,164775.3125000000,194216.8437500000,180185.4375000000,168324.0156250000,139749.8750000000,162951.6250000000,153156.2968750000,,,
2.5119999959,19,180527.6875000000,164788.4843750000,194244.5312500000,180198.2812500000,168350.6093750000,139763.7656250000,162948.5937500000,152740.7187500000,,,
2.5159999959,19,180522.1093750000,164782.8281250000,194243.5625000000,180191.6875000000,168350.3750000000,139757.9687500000,162951.9687500000,152203.7343750000,,,
2.5199999961,19,180500.9687500000,164771.5000000000,194217.3281250000,180163.3125000000,168324.4062500000,139744.7968750000,162959.7031250000,152306.6562500000,,,
2.5239999960,19,180493.8281250000,164768.2500000000,194201.8281250000,180150.8281250000,168307.4531250000,139737.3906250000,162945.7812500000,152906.6718750000,,,
2.5279999960,19,180528.5156250000,164791.4062500000,194236.4531250000,180192.5625000000,168340.4843750000,139759.2500000000,162965.7031250000,153119.9062500000,,,
2.5319999959,19,180555.7968750000,164809.6718750000,194272.1250000000,180223.8906250000,168373.6562500000,139776.6562500000,162991.2343750000,152691.9062500000,,,
2.5359999959,19,180550.0625000000,164804.5468750000,194272.3437500000,180209.3281250000,168373.4375000000,139770.4062500000,162978.2812500000,152171.7187500000,,,
2.5399999958,19,180527.5468750000,164786.6562500000,194241.8437500000,180173.3437500000,168344.2812500000,139746.9218750000,162954.7343750000,152275.4062500000,,,
2.5439999960,19,180513.4218750000,164774.4843750000,194220.8125000000,180172.7187500000,168326.7656250000,139731.7656250000,162938.4218750000,152836.0000000000,,,
2.5479999960,19,180515.5312500000,164771.0468750000,194222.6406250000,180188.8437500000,168328.9218750000,139726.6406250000,162952.2968750000,153084.9843750000,,,
2.5519999960,19,180536.9687500000,164786.4687500000,194251.9843750000,180208.7500000000,168355.9062500000,139740.6093750000,162985.0156250000,152654.4375000000,,,
2.5559999959,19,180540.7500000000,164791.2656250000,194261.9062500000,180204.3125000000,168365.9531250000,139751.9843750000,162998.0000000000,152107.4531250000,,,
2.5599999959,20,180515.7187500000,164776.3593750000,194234.9531250000,180175.3750000000,168341.3906250000,139739.5937500000,162978.6406250000,152193.0937500000,,,
2.5639999958,20,180503.9218750000,164770.2343750000,194214.8437500000,180170.2812500000,168323.4218750000,139727.8437500000,162961.0625000000,152794.4375000000,,,
2.5679999958,20,180528.1718750000,164787.0781250000,194240.9375000000,180193.3750000000,168346.9375000000,139743.4062500000,162992.1718750000,153028.9843750000,,,
2.5719999957,20,180544.0156250000,164797.1250000000,194263.9531250000,180217.2656250000,168366.6093750000,139755.9531250000,162998.9687500000,152579.4062500000,,,
2.5759999957,20,180527.2031250000,164783.4062500000,194254.5625000000,180206.1718750000,168356.5937500000,139743.8125000000,162958.1093750000,152015.2343750000,,,
2.5799999957,20,180497.8125000000,164762.1718750000,194222.2187500000,180159.5312500000,168329.8750000000,139725.0781250000,162946.2656250000,152082.6875000000,,,
2.5839999958,20,180496.5156250000,164767.6718750000,194215.3437500000,180169.1875000000,168321.6250000000,139721.3593750000,162969.5625000000,152646.3593750000,,,
2.5879999958,20,180504.4531250000,164775.1718750000,194224.6562500000,180179.9687500000,168327.3125000000,139725.2500000000,162969.3750000000,152890.4218750000,,,
2.5919999958,20,180516.1250000000,164779.8906250000,194241.1718750000,180185.4062500000,168341.0937500000,139734.6406250000,162985.9062500000,152468.2812500000,,,
2.5959999957,20,180497.8906250000,164759.8281250000,194226.1250000000,180165.4218750000,168326.1875000000,139723.5781250000,162975.0312500000,151916.4843750000,,,
2.5999999957,20,180502.5468750000,164770.6406250000,194228.5468750000,180177.8125000000,168329.9687500000,139735.9687500000,162958.2812500000,151979.4531250000,,,
2.6039999959,20,180501.6875000000,164778.9375000000,194218.2500000000,180161.4843750000,168319.4531250000,139737.6406250000,162949.7968750000,152573.6406250000,,,
2.6079999958,20,180527.6875000000,164803.0468750000,194240.4531250000,180178.1093750000,168338.6250000000,139755.9531250000,162981.0781250000,152847.8281250000,,,
2.6119999958,20,180539.5625000000,164802.0312500000,194261.1406250000,180207.6250000000,168358.7500000000,139765.0468750000,163004.4687500000,152447.9531250000,,,
2.6159999957,20,180504.1406250000,164767.7187500000,194228.5937500000,180170.2031250000,168329.9062500000,139742.6562500000,162973.8125000000,151900.1093750000,,,
2.6199999957,20,180485.2812500000,164752.1406250000,194207.4062500000,180153.1718750000,168312.3750000000,139725.6406250000,162935.8750000000,151973.3437500000,,,
2.6239999956,20,180506.7656250000,164777.2187500000,194219.7812500000,180179.9062500000,168323.0625000000,139737.3125000000,162946.3437500000,152541.9375000000,,,
2.6279999958,20,180526.4218750000,164794.2812500000,194233.2343750000,180207.3437500000,168334.3281250000,139750.9375000000,162973.9062500000,152774.7812500000,,,
2.6319999958,20,180507.2812500000,164766.4531250000,194223.3906250000,180193.5625000000,168323.2812500000,139736.7500000000,162971.2500000000,152371.4531250000,,,
2.6359999957,20,180529.2187500000,164790.2031250000,194257.7812500000,180178.4687500000,168354.0468750000,139763.7031250000,163001.7031250000,151830.5156250000,,,
2.6399999957,20,180483.0781250000,164748.4843750000,194208.6718750000,180133.4062500000,168309.5312500000,139727.5781250000,162941.0312500000,151914.6562500000,,,
2.6439999957,20,180485.8906250000,164755.5468750000,194202.1718750000,180163.5000000000,168308.6718750000,139734.0625000000,162868.9531250000,152510.5000000000,,,
2.6479999959,20,180518.5625000000,164782.9843750000,194237.1875000000,180213.1093750000,168338.0625000000,139745.8125000000,162920.0781250000,152788.1093750000,,,
2.6519999958,20,180520.5468750000,164774.9062500000,194241.1562500000,180206.9687500000,168342.5468750000,139741.1562500000,162993.6250000000,152394.4531250000,,,
2.6559999958,20,180526.3906250000,164781.5625000000,194248.3593750000,180197.6406250000,168350.8906250000,139755.6562500000,163025.4687500000,151848.1406250000,,,
2.6599999957,20,180502.0468750000,164766.2187500000,194220.4218750000,180179.7812500000,168325.0312500000,139737.3906250000,162990.6562500000,151930.5781250000,,,
2.6639999957,20,180482.9531250000,164754.2500000000,194193.7031250000,180167.7656250000,168299.6875000000,139719.9687500000,162954.7343750000,152555.8906250000,,,
2.6679999956,20,180493.2500000000,164757.5000000000,194205.1093750000,180180.9843750000,168309.3437500000,139723.3906250000,162952.5625000000,152848.8593750000,,,
2.6719999958,20,180506.2343750000,164762.0625000000,194225.4843750000,180182.2656250000,168327.5781250000,139731.7343750000,162972.2812500000,152456.7812500000,,,
2.6759999958,20,180529.5937500000,164782.0625000000,194253.2812500000,180198.2343750000,168354.2031250000,139757.1406250000,162989.3125000000,151929.5156250000,,,
2.6799999957,20,180516.0156250000,164776.0156250000,194233.6093750000,180174.0937500000,168337.8437500000,139750.7031250000,162924.8281250000,152017.5156250000,,,
2.6839999957,20,180502.5781250000,164768.6250000000,194210.3593750000,180169.0468750000,168314.6718750000,139733.5937500000,162933.2812500000,152597.7031250000,,,
2.6879999957,21,180515.9687500000,164778.0156250000,194221.6718750000,180191.8750000000,168321.3593750000,139738.2500000000,162984.3437500000,152892.0000000000,,,
2.6919999956,21,180546.7343750000,164801.5156250000,194259.8750000000,180208.0937500000,168357.7812500000,139767.7343750000,163001.7031250000,152482.5625000000,,,
2.6959999956,21,180549.7812500000,164806.1875000000,194266.0625000000,180198.8750000000,168366.5156250000,139776.9843750000,163004.7812500000,151901.0312500000,,,
2.6999999955,21,180501.5312500000,164767.8281250000,194209.9062500000,180154.7812500000,168313.8437500000,139738.3125000000,162971.5468750000,151939.0625000000,,,
2.7039999955,21,180483.2656250000,164755.8593750000,194183.4062500000,180145.9062500000,168289.4843750000,139724.4375000000,162933.9687500000,152503.4218750000,,,
2.7079999954,21,180504.0781250000,164772.8125000000,194203.3906250000,180173.6406250000,168309.3593750000,139737.5000000000,162945.4062500000,152809.2812500000,,,
2.7119999956,21,180523.0937500000,164786.6250000000,194228.6718750000,180199.2968750000,168332.0312500000,139753.2968750000,162966.8906250000,152432.7031250000,,,
2.7159999956,21,180520.1718750000,164784.3281250000,194234.5468750000,180189.7343750000,168335.7812500000,139755.2812500000,162980.9687500000,151903.8125000000,,,
2.7199999955,21,180493.7500000000,164764.4218750000,194206.6250000000,180156.3906250000,168309.5000000000,139734.9218750000,162964.4218750000,151917.6875000000,,,
2.7239999955,21,180466.3750000000,164738.1875000000,194175.2187500000,180140.5156250000,168278.5156250000,139704.3437500000,162898.9218750000,152468.1250000000,,,
2.7279999955,21,180503.5156250000,164764.9062500000,194215.0312500000,180188.9687500000,168320.0625000000,139730.8437500000,162893.4687500000,152765.4843750000,,,
2.7319999957,21,180535.9687500000,164792.9531250000,194254.8906250000,180210.8906250000,168358.5000000000,139763.5000000000,162976.2187500000,152412.0937500000,,,
2.7359999956,21,180536.5312500000,164797.0937500000,194258.1093750000,180203.1093750000,168362.4687500000,139777.6562500000,163021.0937500000,151879.0000000000,,,
2.7399999956,21,180509.0156250000,164778.8750000000,194221.3906250000,180171.6250000000,168328.1406250000,139763.0937500000,163009.8750000000,151918.9687500000,,,
2.7439999955,21,180473.2031250000,164748.2812500000,194175.5937500000,180147.4843750000,168282.1093750000,139726.6875000000,162961.4687500000,152490.7343750000,,,
2.7479999955,21,180492.0156250000,164762.9531250000,194193.8437500000,180175.9375000000,168299.0625000000,139739.0625000000,162958.3750000000,152825.5312500000,,,
2.7519999954,21,180530.3906250000,164789.9062500000,194241.2812500000,180210.3750000000,168344.7343750000,139767.4843750000,162989.9531250000,152505.3593750000,,,
2.7559999956,21,180540.9375000000,164795.9687500000,194261.4218750000,180202.3281250000,168365.7187500000,139777.8437500000,163012.9843750000,151991.8437500000,,,
2.7599999956,21,180522.5937500000,164782.9843750000,194242.2031250000,180180.6875000000,168349.7500000000,139762.0468750000,162992.1562500000,152044.2343750000,,,
2.7639999955,21,180509.8281250000,164774.9843750000,194223.8437500000,180173.6875000000,168331.7031250000,139747.2343750000,162970.5000000000,152620.9375000000,,,
2.7679999955,21,180518.1093750000,164776.6718750000,194233.1562500000,180189.0625000000,168339.0312500000,139745.3281250000,162970.1875000000,152947.0625000000,,,
2.7719999955,21,180535.3906250000,164789.1250000000,194256.2031250000,180203.4375000000,168360.4843750000,139756.3593750000,162974.0156250000,152613.0000000000,,,
2.7759999956,21,180511.7187500000,164771.1562500000,194233.4843750000,180179.5000000000,168335.9218750000,139742.9531250000,162979.9531250000,152082.8593750000,,,
2.7799999956,21,180525.5156250000,164794.7343750000,194245.0937500000,180188.3125000000,168350.6406250000,139766.5312500000,163007.3906250000,152116.7656250000,,,
2.7839999956,21,180513.5468750000,164783.3906250000,194225.1093750000,180196.7031250000,168330.6562500000,139752.7343750000,163003.1250000000,152712.4843750000,,,
2.7879999955,21,180522.7187500000,164786.3593750000,194231.3593750000,180220.8125000000,168333.6875000000,139755.6093750000,163006.0781250000,153029.0781250000,,,
2.7919999955,21,180541.3437500000,164799.8593750000,194253.4843750000,180229.5312500000,168355.4687500000,139773.3125000000,163020.4218750000,152650.5781250000,,,
2.7959999954,21,180484.6562500000,164748.6250000000,194203.1406250000,180154.9375000000,168308.1875000000,139728.9687500000,162981.0000000000,152086.1250000000,,,
2.7999999956,21,180480.0781250000,164753.0000000000,194198.6406250000,180157.9375000000,168305.9531250000,139734.7968750000,162969.9218750000,152081.4375000000,,,
2.8039999956,21,180520.6875000000,164797.5468750000,194233.5937500000,180208.5312500000,168342.1406250000,139775.7812500000,163000.5156250000,152600.4687500000,,,
2.8079999955,21,180537.8750000000,164812.1718750000,194248.8281250000,180233.5000000000,168355.5312500000,139791.7343750000,163008.8281250000,152904.5000000000,,,
2.8119999955,21,180534.3593750000,164802.0312500000,194255.4218750000,180223.4218750000,168360.4531250000,139786.4843750000,162987.2968750000,152589.9843750000,,,
2.8159999955,22,180534.5312500000,164802.8593750000,194261.1875000000,180217.4062500000,168367.7500000000,139790.4218750000,163009.8593750000,152053.0781250000,,,
2.8199999954,22,180480.7968750000,164758.0156250000,194200.2187500000,180155.0468750000,168307.3750000000,139747.6718750000,162976.3750000000,152058.1562500000,,,
2.8239999954,22,180445.2656250000,164727.0625000000,194157.7343750000,180116.6093750000,168265.0312500000,139714.0312500000,162915.8437500000,152601.6406250000,,,
2.8279999953,22,180462.8281250000,164735.5937500000,194172.4062500000,180140.1562500000,168279.3437500000,139716.6093750000,162936.7031250000,152920.2343750000,,,
2.8319999953,22,180480.9375000000,164747.7968750000,194193.7500000000,180157.9687500000,168300.9687500000,139730.0781250000,162972.2968750000,152599.4218750000,,,
2.8359999952,22,180496.2187500000,164761.0468750000,194216.6875000000,180168.2968750000,168326.0781250000,139746.4062500000,162970.6406250000,152080.7343750000,,,
2.8399999954,22,180493.4843750000,164763.0000000000,194212.8593750000,180158.4531250000,168325.2343750000,139747.9062500000,162939.5312500000,152097.4531250000,,,
2.8439999954,22,180489.9531250000,164762.0000000000,194198.2031250000,180149.5156250000,168312.5000000000,139737.4218750000,162970.7968750000,152604.3281250000,,,
2.8479999953,22,180520.1718750000,164784.2500000000,194227.4218750000,180183.0781250000,168337.7656250000,139755.2812500000,163006.7187500000,152913.2343750000,,,
2.8519999953,22,180579.8750000000,164833.0000000000,194298.5312500000,180237.8750000000,168403.2187500000,139808.1250000000,163061.8125000000,152625.8906250000,,,
2.8559999953,22,180572.4843750000,164828.7656250000,194290.3906250000,180225.3437500000,168399.7500000000,139808.8437500000,163055.1562500000,152119.0937500000,,,
2.8599999954,22,180518.4375000000,164777.0781250000,194235.4375000000,180177.2343750000,168344.7187500000,139751.9375000000,163001.4375000000,152137.5468750000,,,
2.8639999954,22,180494.5312500000,164754.3906250000,194210.2187500000,180157.9375000000,168318.5312500000,139724.0937500000,162938.4531250000,152652.3906250000,,,
2.8679999954,22,180496.6250000000,164754.9218750000,194210.2812500000,180171.9375000000,168316.9062500000,139725.7500000000,162950.3281250000,152943.7031250000,,,
2.8719999953,22,180533.6406250000,164785.6718750000,194251.0468750000,180195.6250000000,168355.1718750000,139758.6406250000,163007.5937500000,152643.1406250000,,,
2.8759999953,22,180534.5312500000,164784.7187500000,194258.3750000000,180172.5312500000,168362.8750000000,139758.4843750000,163031.2343750000,152123.6250000000,,,
2.8799999952,22,180509.5781250000,164768.3906250000,194230.3750000000,180141.5781250000,168337.4531250000,139740.1875000000,163015.8593750000,152103.2343750000,,,
2.8839999954,22,180490.6250000000,164752.9687500000,194203.9687500000,180132.9218750000,168312.7656250000,139717.3125000000,162981.5781250000,152597.7031250000,,,
2.8879999954,22,180490.8281250000,164747.8437500000,194202.6562500000,180140.3437500000,168310.4375000000,139711.6250000000,162952.6406250000,152910.2968750000,,,
2.8919999953,22,180509.3593750000,164758.7343750000,194230.5781250000,180156.9531250000,168336.9843750000,139727.1718750000,162963.7812500000,152620.2968750000,,,
2.8959999953,22,180526.9687500000,164776.4687500000,194251.4843750000,180165.4218750000,168357.3437500000,139749.5000000000,163014.5781250000,152101.2031250000,,,
2.8999999953,22,180503.2187500000,164763.2187500000,194220.6875000000,180138.0156250000,168326.8281250000,139734.0156250000,162994.2656250000,152088.2656250000,,,
2.9039999954,22,180472.8125000000,164742.4843750000,194180.4218750000,180109.7187500000,168287.1250000000,139708.7187500000,162955.0000000000,152606.9531250000,,,
2.9079999954,22,180476.8593750000,164742.5937500000,194184.4218750000,180125.4062500000,168288.8125000000,139710.7031250000,162948.9218750000,152910.5625000000,,,
2.9119999954,22,180511.6406250000,164772.8125000000,194223.0937500000,180160.9687500000,168327.6250000000,139748.2656250000,162968.9843750000,152606.0000000000,,,
2.9159999953,22,180525.0625000000,164784.5937500000,194242.2812500000,180167.6562500000,168345.8750000000,139764.0625000000,163009.1562500000,152062.8750000000,,,
2.9199999953,22,180483.5937500000,164749.1562500000,194199.5468750000,180118.1406250000,168302.3906250000,139729.4531250000,162970.7968750000,151965.7187500000,,,
2.9239999952,22,180471.6562500000,164742.5312500000,194182.4843750000,180107.1718750000,168284.0625000000,139718.2656250000,162937.4687500000,152399.5468750000,,,
2.9279999954,22,180480.6718750000,164748.4062500000,194188.6562500000,180130.0781250000,168293.4375000000,139721.6250000000,162928.0781250000,152678.7343750000,,,
2.9319999954,22,180489.0156250000,164751.3906250000,194204.1093750000,180141.3437500000,168307.3281250000,139727.0156250000,162954.7031250000,152414.2187500000,,,
2.9359999953,22,180480.1875000000,164742.4843750000,194200.4687500000,180123.8281250000,168304.4218750000,139724.6250000000,162967.8281250000,151910.5156250000,,,
2.9399999953,22,180464.9687500000,164731.8125000000,194182.4843750000,180105.9843750000,168289.9375000000,139714.0000000000,162962.7031250000,151854.7812500000,,,
2.9439999952,23,180458.0625000000,164726.3906250000,194168.5781250000,180112.0468750000,168276.9687500000,139706.8437500000,162951.9218750000,152277.0000000000,,,
