Time:250Hz,Epoch,Channel 1,Channel 2,Channel 3,Channel 4,Channel 5,Channel 6,Channel 7,Channel 8,Event Id,Event Date,Event Duration
0.0000000000,0,180168.1875000000,163970.5937500000,193798.9843750000,179551.4687500000,167842.9843750000,138141.9375000000,161984.2500000000,151767.1093750000,,,
0.0040000000,0,180156.2500000000,163967.7031250000,193783.2187500000,179550.2656250000,167827.6875000000,138141.9843750000,161949.5781250000,152076.1250000000,,,
0.0079999999,0,180186.7187500000,163997.7187500000,193812.4531250000,179607.3437500000,167855.9062500000,138172.3281250000,161941.2343750000,152447.3125000000,,,
0.0119999999,0,180227.3593750000,164036.4218750000,193853.8437500000,179651.4062500000,167898.8437500000,138210.1718750000,162038.1406250000,152348.9843750000,,,
0.0159999998,0,180230.8125000000,164036.7968750000,193863.8750000000,179646.9843750000,167908.2968750000,138231.9843750000,162084.0156250000,151910.5000000000,,,
0.0199999998,0,180217.4843750000,164027.6406250000,193850.5468750000,179630.4062500000,167897.2187500000,138233.7500000000,162066.3906250000,151700.4218750000,,,
0.0240000000,0,180207.5312500000,164023.2968750000,193838.3437500000,179624.6406250000,167886.5468750000,138224.2812500000,162051.9531250000,151999.6718750000,,,
0.0279999999,0,180237.3437500000,164053.0781250000,193868.3437500000,179651.2500000000,167919.3750000000,138234.8750000000,162060.9218750000,152370.6562500000,,,
0.0319999999,0,180279.5312500000,164093.5937500000,193915.1250000000,179700.3593750000,167969.7968750000,138280.1562500000,162089.5000000000,152295.4218750000,,,
0.0359999998,0,180260.6250000000,164071.6875000000,193902.9218750000,179664.2812500000,167958.6875000000,138292.5468750000,162137.3906250000,151872.9218750000,,,
0.0399999998,0,180228.7500000000,164041.5937500000,193876.9687500000,179620.5625000000,167931.9687500000,138271.0781250000,162120.2656250000,151664.4531250000,,,
0.0440000000,0,180218.4218750000,164037.9218750000,193861.9687500000,179598.0625000000,167920.2812500000,138263.3281250000,162066.7343750000,151979.0000000000,,,
0.0480000000,0,180233.4687500000,164053.3437500000,193866.7187500000,179624.3750000000,167925.5468750000,138284.2343750000,162080.3281250000,152361.5156250000,,,
0.0519999999,0,180262.5156250000,164078.8281250000,193891.5000000000,179656.1562500000,167947.5000000000,138313.8437500000,162112.4375000000,152292.6250000000,,,
0.0559999999,0,180278.5937500000,164087.2187500000,193915.2968750000,179661.9687500000,167972.5000000000,138319.3593750000,162130.7031250000,151873.9375000000,,,
0.0599999998,0,180264.4531250000,164074.0781250000,193906.7812500000,179645.3750000000,167966.4375000000,138293.4218750000,162163.8593750000,151636.3281250000,,,
0.0639999998,0,180236.9531250000,164052.8593750000,193870.6093750000,179620.1875000000,167931.8906250000,138264.0000000000,162128.7187500000,151932.1718750000,,,
0.0680000000,0,180244.0468750000,164058.9687500000,193874.6875000000,179635.6406250000,167939.1406250000,138273.0156250000,162080.7656250000,152325.1875000000,,,
0.0719999999,0,180286.3593750000,164097.8437500000,193921.8906250000,179681.2812500000,167984.2812500000,138318.6718750000,162151.7812500000,152256.3906250000,,,
0.0759999999,0,180313.2187500000,164123.1562500000,193952.2500000000,179704.7343750000,168007.8593750000,138343.3750000000,162195.2187500000,151817.0781250000,,,
0.0799999998,0,180295.8593750000,164111.8593750000,193933.7500000000,179688.6406250000,167989.0000000000,138319.9531250000,162150.3125000000,151579.8906250000,,,
0.0839999998,0,180279.5468750000,164102.0781250000,193908.0000000000,179686.5937500000,167964.4843750000,138297.7812500000,162129.0625000000,151857.5000000000,,,
0.0880000000,0,180280.9218750000,164104.5781250000,193904.6093750000,179669.4531250000,167957.1406250000,138291.0937500000,162125.1875000000,152237.2656250000,,,
0.0919999999,0,180312.3281250000,164129.2500000000,193941.5000000000,179693.1718750000,167989.4843750000,138316.2343750000,162164.4531250000,152186.1406250000,,,
0.0959999999,0,180315.2812500000,164129.6250000000,193956.1875000000,179699.7343750000,168004.7500000000,138307.5156250000,162115.9218750000,151764.9062500000,,,
0.0999999999,0,180290.3593750000,164102.9687500000,193930.1250000000,179692.9843750000,167980.9062500000,138275.3437500000,162072.7187500000,151528.9531250000,,,
0.1039999998,0,180263.4062500000,164081.8281250000,193888.1718750000,179686.3281250000,167938.1718750000,138249.6250000000,162115.1718750000,151793.4375000000,,,
0.1079999998,0,180275.2656250000,164101.5468750000,193893.3750000000,179683.7500000000,167941.7187500000,138254.9687500000,162108.8750000000,152172.4062500000,,,
0.1120000000,0,180283.5468750000,164098.8593750000,193912.2812500000,179706.7968750000,167959.7968750000,138254.0468750000,162080.7968750000,152149.1093750000,,,
0.1159999999,0,180304.2500000000,164113.2031250000,193942.7812500000,179697.4062500000,167989.1562500000,138271.0625000000,162128.8593750000,151723.5781250000,,,
0.1199999999,0,180283.7187500000,164100.7656250000,193918.7968750000,179650.8125000000,167968.1875000000,138259.9531250000,162126.6562500000,151462.8281250000,,,
0.1239999998,0,180266.0156250000,164089.5000000000,193893.3750000000,179639.7968750000,167943.8281250000,138240.6406250000,162086.7968750000,151700.6093750000,,,
0.1279999998,1,180270.0312500000,164093.0937500000,193891.8750000000,179671.0468750000,167940.6875000000,138233.1562500000,162061.2656250000,152083.8281250000,,,
0.1319999998,1,180297.4375000000,164114.0156250000,193927.6250000000,179701.4062500000,167973.0937500000,138252.8437500000,162053.8593750000,152045.3906250000,,,
0.1359999997,1,180288.1562500000,164104.7343750000,193928.0000000000,179662.5937500000,167973.4687500000,138247.7187500000,162069.1562500000,151639.4531250000,,,
0.1399999997,1,180271.0781250000,164092.0468750000,193908.8750000000,179658.3593750000,167954.4531250000,138228.1093750000,162069.2500000000,151367.1093750000,,,
0.1439999996,1,180259.2500000000,164084.7812500000,193889.4375000000,179663.5625000000,167936.1093750000,138214.0156250000,162039.9375000000,151636.0000000000,,,
0.1479999996,1,180270.8125000000,164090.0937500000,193900.3437500000,179688.1250000000,167941.7343750000,138212.1093750000,162039.8125000000,152014.8906250000,,,
0.1519999998,1,180287.6875000000,164098.5937500000,193918.8593750000,179718.7031250000,167956.8125000000,138219.9843750000,162055.5781250000,151992.2031250000,,,
0.1559999997,1,180286.2656250000,164097.1406250000,193922.6093750000,179698.2343750000,167960.7031250000,138224.0625000000,162069.0625000000,151601.6718750000,,,
0.1599999997,1,180266.4062500000,164079.2187500000,193902.6562500000,179664.7343750000,167943.0312500000,138209.9375000000,162038.9218750000,151350.6093750000,,,
0.1639999996,1,180237.2031250000,164053.0937500000,193866.6093750000,179630.7500000000,167907.3281250000,138180.8593750000,161987.8593750000,151642.4062500000,,,
0.1679999996,1,180254.3750000000,164066.5312500000,193880.9375000000,179651.5468750000,167919.5625000000,138185.9062500000,161998.1562500000,152057.9687500000,,,
0.1719999998,1,180289.8281250000,164093.6875000000,193920.6250000000,179685.9531250000,167956.5156250000,138207.2500000000,162034.7031250000,152016.0625000000,,,
0.1759999997,1,180293.1875000000,164094.0625000000,193930.7343750000,179696.5156250000,167963.7812500000,138203.8906250000,162034.8906250000,151598.4687500000,,,
0.1799999997,1,180300.6406250000,164106.3125000000,193937.2343750000,179709.9843750000,167970.5781250000,138203.7031250000,162021.9375000000,151317.6718750000,,,
0.1839999997,1,180293.1875000000,164103.9843750000,193922.9531250000,179707.3281250000,167957.2500000000,138209.1250000000,162000.1093750000,151570.2031250000,,,
0.1879999996,1,180268.0156250000,164077.2187500000,193898.8281250000,179661.3281250000,167931.7343750000,138194.7187500000,161977.3593750000,151963.2031250000,,,
0.1919999996,1,180288.4062500000,164091.9375000000,193924.4062500000,179684.4531250000,167958.4531250000,138188.8437500000,161976.7968750000,151918.7500000000,,,
0.1959999998,1,180304.1250000000,164104.4843750000,193944.1718750000,179700.0937500000,167979.7500000000,138205.0781250000,162047.5312500000,151465.8593750000,,,
0.1999999997,1,180287.2812500000,164089.2812500000,193926.3750000000,179667.7656250000,167965.2656250000,138206.8125000000,162069.6562500000,151149.8281250000,,,
0.2039999997,1,180276.1250000000,164083.4062500000,193908.8593750000,179668.6250000000,167949.4375000000,138189.2500000000,162030.2812500000,151353.7187500000,,,
0.2079999996,1,180280.3593750000,164091.3281250000,193909.6250000000,179674.7968750000,167946.8281250000,138182.7656250000,162018.1406250000,151746.9687500000,,,
0.2119999996,1,180308.2812500000,164115.1718750000,193941.8750000000,179703.9531250000,167975.4218750000,138204.7031250000,162029.5312500000,151740.4375000000,,,
0.2159999998,1,180321.7656250000,164120.0000000000,193969.6875000000,179707.8906250000,168007.5937500000,138224.3906250000,162004.2968750000,151315.8281250000,,,
0.2199999997,1,180305.4687500000,164110.7968750000,193953.5937500000,179681.6406250000,167996.3437500000,138218.0781250000,162015.4531250000,151018.2343750000,,,
0.2239999997,1,180293.0781250000,164106.3750000000,193923.7968750000,179689.9531250000,167962.7968750000,138194.0312500000,162042.0625000000,151259.9531250000,,,
0.2279999997,1,180297.1250000000,164108.1093750000,193919.0937500000,179729.4062500000,167951.9843750000,138189.8437500000,162036.1875000000,151672.8750000000,,,
0.2319999996,1,180329.2500000000,164140.2968750000,193953.9375000000,179779.2343750000,167984.3593750000,138220.3593750000,162059.3593750000,151667.8437500000,,,
0.2359999996,1,180335.6875000000,164145.4218750000,193969.0468750000,179780.5000000000,167995.8593750000,138227.2656250000,162064.0781250000,151247.0468750000,,,
0.2399999998,1,180297.0156250000,164108.8125000000,193932.8593750000,179717.3125000000,167960.2500000000,138194.0000000000,162019.4531250000,150945.2031250000,,,
0.2439999997,1,180272.5000000000,164090.4843750000,193904.3437500000,179690.9375000000,167934.1562500000,138176.0625000000,161978.2031250000,151184.9843750000,,,
0.2479999997,1,180287.3281250000,164105.4531250000,193917.2812500000,179726.4062500000,167944.5625000000,138187.9687500000,161993.8593750000,151579.3750000000,,,
0.2519999996,1,180313.2968750000,164124.7343750000,193945.4062500000,179763.5000000000,167971.1875000000,138201.2343750000,162034.6093750000,151554.4531250000,,,
0.2559999996,2,180316.7812500000,164126.3437500000,193955.5781250000,179747.0625000000,167983.8437500000,138207.1093750000,162026.7187500000,151143.8906250000,,,
0.2599999995,2,180283.3906250000,164101.4531250000,193925.2343750000,179649.0937500000,167958.8593750000,138190.2656250000,161992.0625000000,150887.9062500000,,,
0.2639999995,2,180266.8125000000,164089.8750000000,193906.0625000000,179628.7187500000,167941.7343750000,138181.2812500000,161963.7656250000,151178.4062500000,,,
0.2679999995,2,180275.0000000000,164092.1250000000,193912.0156250000,179655.2968750000,167945.5781250000,138175.4375000000,161981.2031250000,151601.9375000000,,,
0.2719999994,2,180292.7812500000,164100.7656250000,193932.0000000000,179686.7812500000,167962.7187500000,138181.3906250000,162009.1250000000,151599.7656250000,,,
0.2759999994,2,180306.4531250000,164112.1562500000,193952.4843750000,179698.9375000000,167981.3593750000,138198.0468750000,162028.6250000000,151190.4843750000,,,
0.2799999996,2,180302.5156250000,164115.8906250000,193951.0781250000,179678.2500000000,167979.6406250000,138202.4218750000,162014.8125000000,150913.8125000000,,,
0.2839999995,2,180273.9531250000,164088.3906250000,193921.9375000000,179653.8750000000,167949.4062500000,138164.1718750000,161967.8437500000,151198.0000000000,,,
0.2879999995,2,180274.4531250000,164089.0468750000,193908.1562500000,179675.6562500000,167938.7343750000,138165.2656250000,161974.3906250000,151642.2812500000,,,
0.2919999994,2,180297.9062500000,164105.1875000000,193933.0781250000,179720.2812500000,167961.0468750000,138185.9218750000,162000.6406250000,151654.8281250000,,,
0.2959999994,2,180327.6406250000,164138.4218750000,193972.1250000000,179748.8593750000,167997.1562500000,138216.3437500000,162003.6718750000,151225.6250000000,,,
0.2999999996,2,180310.7187500000,164130.0468750000,193955.8125000000,179724.7656250000,167984.5468750000,138209.7187500000,162025.1875000000,150946.9062500000,,,
0.3039999995,2,180279.1562500000,164101.3593750000,193914.2187500000,179674.9843750000,167946.3593750000,138185.0468750000,162000.2500000000,151227.6250000000,,,
0.3079999995,2,180298.8125000000,164118.4062500000,193929.5312500000,179707.6875000000,167959.6093750000,138198.2968750000,161997.2187500000,151682.2656250000,,,
0.3119999995,2,180329.8750000000,164143.5937500000,193967.3750000000,179755.4531250000,167994.7343750000,138219.2187500000,162010.9687500000,151719.8437500000,,,
0.3159999994,2,180337.7812500000,164153.2187500000,193983.3593750000,179740.7812500000,168010.8906250000,138221.8906250000,162045.5156250000,151305.7656250000,,,
0.3199999994,2,180317.4531250000,164136.1718750000,193964.0000000000,179707.0937500000,167994.0156250000,138210.1718750000,162009.8125000000,151049.9843750000,,,
0.3239999996,2,180309.6562500000,164126.0781250000,193953.0312500000,179699.5468750000,167983.9062500000,138203.2812500000,161968.1093750000,151320.9531250000,,,
0.3279999995,2,180314.2343750000,164130.2187500000,193950.4218750000,179710.6093750000,167980.1562500000,138203.6875000000,161994.9062500000,151739.9375000000,,,
0.3319999995,2,180338.9062500000,164153.8750000000,193973.9218750000,179741.5625000000,167999.8593750000,138227.2343750000,162033.1875000000,151753.0468750000,,,
0.3359999994,2,180358.0156250000,164174.8437500000,193996.2656250000,179752.5781250000,168022.4531250000,138247.6093750000,162050.7031250000,151320.6562500000,,,
0.3399999994,2,180337.7343750000,164159.7187500000,193977.2187500000,179741.6875000000,168004.2812500000,138227.1718750000,162027.2500000000,151045.6406250000,,,
0.3439999996,2,180315.0156250000,164138.5000000000,193951.6406250000,179718.0937500000,167981.1718750000,138205.0468750000,161975.1718750000,151290.8281250000,,,
0.3479999995,2,180307.1250000000,164126.3750000000,193940.2031250000,179727.8281250000,167968.6718750000,138188.1718750000,161963.3125000000,151730.9218750000,,,
0.3519999995,2,180345.7500000000,164156.5468750000,193982.9687500000,179785.4062500000,168007.3750000000,138213.2031250000,162007.5625000000,151770.1406250000,,,
0.3559999994,2,180331.4843750000,164139.8437500000,193975.6875000000,179734.2031250000,167997.9375000000,138202.3906250000,162051.0937500000,151358.3593750000,,,
0.3599999994,2,180292.7812500000,164103.3125000000,193935.9687500000,179696.2500000000,167962.3125000000,138173.1093750000,162010.3593750000,151072.2031250000,,,
0.3639999994,2,180272.8437500000,164086.1406250000,193913.3125000000,179689.8750000000,167939.4531250000,138158.5625000000,161958.1406250000,151343.0781250000,,,
0.3679999996,2,180273.4062500000,164090.1718750000,193918.0781250000,179692.4687500000,167944.6093750000,138158.6718750000,161900.7656250000,151793.6250000000,,,
0.3719999995,2,180297.1718750000,164119.7187500000,193944.3437500000,179694.3437500000,167972.9062500000,138179.8906250000,161926.5937500000,151828.9531250000,,,
0.3759999995,2,180301.3593750000,164122.4062500000,193947.4531250000,179696.5000000000,167975.2187500000,138181.5468750000,161972.7968750000,151428.2812500000,,,
0.3799999994,2,180279.5000000000,164096.3593750000,193922.7500000000,179671.7187500000,167946.5937500000,138164.3281250000,161993.3750000000,151139.1718750000,,,
0.3839999994,3,180264.1250000000,164085.4687500000,193898.3125000000,179673.4843750000,167925.1875000000,138151.7031250000,161932.7656250000,151415.6250000000,,,
0.3879999993,3,180266.5468750000,164086.1718750000,193898.0156250000,179689.4218750000,167926.8593750000,138148.5156250000,161914.1718750000,151891.3125000000,,,
0.3919999993,3,180286.8281250000,164100.6875000000,193922.4531250000,179694.8593750000,167954.0000000000,138161.9687500000,161931.5781250000,151927.7500000000,,,
0.3959999993,3,180314.3125000000,164124.4687500000,193957.6718750000,179720.4687500000,167990.8281250000,138187.4062500000,162017.4687500000,151486.0625000000,,,
0.3999999992,3,180301.8906250000,164112.4531250000,193945.0312500000,179695.0937500000,167979.3437500000,138177.2656250000,162011.9062500000,151161.3750000000,,,
0.4039999992,3,180275.9531250000,164095.1250000000,193911.9375000000,179671.1718750000,167946.7812500000,138156.9375000000,161959.8750000000,151444.8906250000,,,
0.4079999994,3,180283.6875000000,164109.2656250000,193914.6250000000,179692.9531250000,167947.8281250000,138161.7343750000,161928.1406250000,151932.8906250000,,,
0.4119999993,3,180298.8437500000,164122.4687500000,193932.8593750000,179698.6875000000,167963.7343750000,138168.7812500000,161944.5937500000,152012.0156250000,,,
0.4159999993,3,180297.2812500000,164106.1562500000,193940.6093750000,179691.8750000000,167970.1250000000,138161.1718750000,161985.5781250000,151605.5312500000,,,
0.4199999992,3,180278.7812500000,164090.6718750000,193924.8593750000,179667.7968750000,167958.0937500000,138160.0468750000,161963.3437500000,151300.5156250000,,,
0.4239999992,3,180247.7187500000,164063.0781250000,193889.0312500000,179643.6093750000,167926.0156250000,138129.2968750000,161898.9687500000,151571.4843750000,,,
0.4279999994,3,180264.8750000000,164077.6875000000,193903.4687500000,179667.4531250000,167938.2031250000,138136.3593750000,161919.3750000000,152040.7968750000,,,
0.4319999993,3,180308.7968750000,164119.6250000000,193949.1718750000,179720.0156250000,167984.8906250000,138175.9218750000,161944.7812500000,152049.6562500000,,,
0.4359999993,3,180320.0000000000,164127.2343750000,193968.6406250000,179726.1562500000,168005.3125000000,138191.0468750000,161987.8593750000,151471.9062500000,,,
0.4399999992,3,180311.3593750000,164121.3906250000,193963.5937500000,179713.3125000000,167999.9375000000,138191.6093750000,161973.2812500000,150923.7187500000,,,
0.4439999992,3,180295.1875000000,164106.1562500000,193937.7343750000,179709.9375000000,167970.6875000000,138176.3750000000,161967.3281250000,150955.0625000000,,,
0.4479999992,3,180300.6093750000,164111.2812500000,193933.0937500000,179729.1718750000,167961.6406250000,138173.4062500000,161986.5156250000,151230.0937500000,,,
0.4519999993,3,180345.7812500000,164153.7031250000,193981.4375000000,179770.8125000000,168005.6250000000,138213.1250000000,162025.3750000000,151092.0468750000,,,
0.4559999993,3,180349.0468750000,164156.0156250000,193998.1718750000,179760.2812500000,168022.5781250000,138216.4218750000,162036.7187500000,150474.0625000000,,,
0.4599999993,3,180322.4687500000,164131.7187500000,193970.6718750000,179733.8593750000,168000.6875000000,138198.5000000000,161999.4375000000,149942.5781250000,,,
0.4639999992,3,180303.9062500000,164118.7812500000,193947.7656250000,179713.9531250000,167978.5468750000,138177.9843750000,161955.5000000000,150020.2968750000,,,
0.4679999992,3,180311.9218750000,164125.0625000000,193947.3750000000,179741.2343750000,167978.0781250000,138174.8281250000,161949.4218750000,150324.2031250000,,,
0.4719999994,3,180333.1406250000,164140.8593750000,193966.8437500000,179763.0468750000,167998.9218750000,138188.4687500000,161975.5625000000,150221.7812500000,,,
0.4759999993,3,180343.5781250000,164145.9531250000,193985.1093750000,179746.5468750000,168014.8593750000,138206.1562500000,162020.5000000000,149664.3125000000,,,
0.4799999993,3,180320.4375000000,164124.2031250000,193963.7500000000,179710.9531250000,167994.3906250000,138188.2343750000,161986.8593750000,149174.0468750000,,,
0.4839999992,3,180293.7187500000,164103.9218750000,193929.4843750000,179683.1875000000,167960.1875000000,138154.9687500000,161938.1250000000,149285.5312500000,,,
0.4879999992,3,180301.7031250000,164115.8437500000,193929.3125000000,179705.0468750000,167957.3437500000,138156.1250000000,161953.8437500000,149665.7031250000,,,
0.4919999992,3,180333.2187500000,164142.1562500000,193964.7968750000,179740.4375000000,167990.6562500000,138181.1562500000,161986.0312500000,149638.9843750000,,,
0.4959999993,3,180347.5781250000,164152.3125000000,193989.9687500000,179751.7812500000,168015.3125000000,138193.0937500000,161989.4843750000,149167.9375000000,,,
0.4999999993,3,180329.9218750000,164137.6406250000,193976.5000000000,179719.8593750000,168006.1718750000,138188.3437500000,161972.6718750000,148831.9843750000,,,
0.5039999993,3,180309.2656250000,164120.0000000000,193949.6562500000,179695.0000000000,167980.8125000000,138175.4687500000,161957.3750000000,149053.7500000000,,,
0.5079999992,3,180328.6093750000,164144.3437500000,193959.7031250000,179720.2656250000,167988.4375000000,138191.0468750000,161958.6718750000,149470.5156250000,,,
0.5119999992,4,180364.1250000000,164175.7500000000,193995.1406250000,179759.5468750000,168021.3281250000,138215.9687500000,162009.2500000000,149503.0312500000,,,
0.5159999991,4,180369.5625000000,164175.9687500000,194003.8906250000,179779.9375000000,168030.9531250000,138217.9218750000,162004.6718750000,149068.5625000000,,,
0.5199999991,4,180356.0312500000,164162.7812500000,193991.9531250000,179761.3437500000,168022.2656250000,138210.5156250000,162009.6562500000,148704.8281250000,,,
0.5239999990,4,180334.6250000000,164143.1406250000,193966.8125000000,179734.9375000000,167997.3437500000,138187.7187500000,161986.0312500000,148952.1875000000,,,
0.5279999990,4,180331.8906250000,164139.5156250000,193963.4687500000,179743.1406250000,167993.7187500000,138179.2812500000,161901.0000000000,149412.3125000000,,,
0.5319999990,4,180355.0000000000,164159.7500000000,193984.4375000000,179783.5000000000,168016.5156250000,138197.8593750000,161966.2343750000,149435.3593750000,,,
0.5359999991,4,180372.3125000000,164176.9375000000,194004.4531250000,179796.0781250000,168034.5156250000,138222.1093750000,162060.8593750000,148956.9218750000,,,
0.5399999991,4,180360.3125000000,164170.9531250000,193996.1093750000,179765.0000000000,168027.2812500000,138216.3437500000,162044.4218750000,148559.6093750000,,,
0.5439999991,4,180353.7500000000,164170.6093750000,193985.8125000000,179760.6562500000,168019.8125000000,138209.8281250000,161976.6718750000,148747.3593750000,,,
0.5479999990,4,180338.3750000000,164151.4218750000,193964.2656250000,179751.3437500000,167996.4375000000,138193.3750000000,161956.8437500000,149220.9843750000,,,
0.5519999990,4,180358.0156250000,164165.3281250000,193982.2343750000,179783.5312500000,168010.1875000000,138213.3125000000,162004.5312500000,149295.2656250000,,,
0.5559999992,4,180372.1718750000,164174.9843750000,194003.7812500000,179797.7968750000,168029.6406250000,138217.8750000000,162017.6250000000,148907.2500000000,,,
0.5599999991,4,180368.9062500000,164175.7031250000,194000.0156250000,179764.8125000000,168029.5625000000,138233.8593750000,162009.2812500000,148613.3437500000,,,
0.5639999991,4,180355.5156250000,164164.8437500000,193979.9531250000,179746.3906250000,168014.0000000000,138228.6562500000,161972.2968750000,148900.5156250000,,,
0.5679999990,4,180356.3437500000,164161.4843750000,193979.1562500000,179767.0937500000,168012.9531250000,138210.7968750000,161931.1562500000,149427.4375000000,,,
0.5719999990,4,180390.7656250000,164188.6250000000,194018.2656250000,179829.1093750000,168046.6875000000,138233.0468750000,161983.0312500000,149543.0156250000,,,
0.5759999990,4,180426.0781250000,164223.2656250000,194057.3437500000,179849.9218750000,168085.0468750000,138270.8750000000,162018.3750000000,149180.8437500000,,,
0.5799999991,4,180392.9062500000,164193.5468750000,194026.2812500000,179780.3750000000,168059.2187500000,138252.3125000000,162025.0000000000,148877.9843750000,,,
0.5839999991,4,180355.0781250000,164162.1562500000,193982.9687500000,179740.5625000000,168019.3437500000,138218.6562500000,162017.4687500000,149141.9218750000,,,
0.5879999991,4,180348.0000000000,164153.4687500000,193974.7812500000,179752.6562500000,168007.6406250000,138208.1875000000,162002.7968750000,149668.8437500000,,,
0.5919999990,4,180376.1875000000,164180.3750000000,194001.6562500000,179792.6250000000,168032.4531250000,138234.7343750000,162019.3125000000,149806.3281250000,,,
0.5959999990,4,180401.3281250000,164202.0156250000,194035.3125000000,179831.6562500000,168066.7343750000,138257.5156250000,162033.6562500000,149437.7187500000,,,
0.5999999992,4,180393.0625000000,164192.0625000000,194034.6250000000,179836.2968750000,168067.8906250000,138250.1093750000,162002.8437500000,149111.2031250000,,,
0.6039999991,4,180361.5781250000,164169.4218750000,193994.3281250000,179774.0312500000,168027.7812500000,138234.6875000000,161986.3437500000,149348.2656250000,,,
0.6079999991,4,180365.2031250000,164178.6875000000,193988.4531250000,179755.9843750000,168021.4531250000,138244.5000000000,161995.1406250000,149851.3593750000,,,
0.6119999990,4,180388.5000000000,164198.5000000000,194012.9687500000,179786.2656250000,168045.3593750000,138251.2343750000,162007.7031250000,149959.4531250000,,,
0.6159999990,4,180416.0781250000,164222.8593750000,194052.5937500000,179805.2812500000,168086.6875000000,138276.1875000000,162015.2031250000,149579.8750000000,,,
0.6199999989,4,180394.9687500000,164204.0312500000,194034.9687500000,179768.0000000000,168069.9218750000,138265.1250000000,162004.9687500000,149263.3750000000,,,
0.6239999991,4,180364.8437500000,164182.1875000000,193995.2500000000,179726.2187500000,168030.2031250000,138250.9218750000,162005.9531250000,149513.8593750000,,,
0.6279999991,4,180364.9062500000,164183.4531250000,193990.2343750000,179741.3906250000,168024.4843750000,138242.8906250000,161999.8437500000,150066.4218750000,,,
0.6319999991,4,180399.1562500000,164210.6250000000,194025.6875000000,179790.3125000000,168058.1406250000,138268.5312500000,162047.1093750000,150211.6875000000,,,
0.6359999990,4,180410.9218750000,164218.2187500000,194045.7187500000,179799.0625000000,168078.8281250000,138283.5781250000,162047.8593750000,149864.1562500000,,,
0.6399999990,5,180409.5000000000,164214.8906250000,194048.1875000000,179798.9062500000,168082.5000000000,138281.9218750000,162034.1718750000,149520.7500000000,,,
0.6439999989,5,180392.4531250000,164205.2812500000,194021.0468750000,179790.0312500000,168055.2812500000,138267.2187500000,161993.7500000000,149724.0156250000,,,
0.6479999989,5,180384.7812500000,164198.5000000000,194005.9687500000,179800.5312500000,168036.9531250000,138252.9843750000,161988.7031250000,150219.0468750000,,,
0.6519999988,5,180421.7343750000,164228.4375000000,194046.2812500000,179837.0156250000,168074.8281250000,138285.5625000000,162037.7968750000,150314.8437500000,,,
0.6559999988,5,180445.2031250000,164247.3437500000,194076.5781250000,179853.6718750000,168105.6250000000,138311.6875000000,162060.5937500000,149900.7656250000,,,
0.6599999988,5,180420.7968750000,164226.8281250000,194056.3750000000,179799.6250000000,168086.5781250000,138297.8750000000,162024.7343750000,149535.6875000000,,,
0.6639999989,5,180382.5781250000,164194.3750000000,194017.5156250000,179758.2968750000,168048.8906250000,138264.7812500000,161989.3750000000,149757.1718750000,,,
0.6679999989,5,180388.5000000000,164204.2187500000,194015.6562500000,179794.7656250000,168046.0312500000,138267.1718750000,161982.0625000000,150252.4062500000,,,
0.6719999989,5,180410.4531250000,164219.2031250000,194039.3437500000,179824.2812500000,168069.4375000000,138282.2500000000,162005.0781250000,150343.8437500000,,,
0.6759999988,5,180411.8125000000,164216.7343750000,194050.7187500000,179800.9375000000,168080.8125000000,138290.3906250000,162035.0625000000,149933.5156250000,,,
0.6799999988,5,180409.9843750000,164220.6562500000,194049.6875000000,179806.4062500000,168080.3593750000,138295.5000000000,162059.5781250000,149567.4843750000,,,
0.6839999990,5,180382.3593750000,164201.1250000000,194012.7812500000,179763.5312500000,168044.9531250000,138273.2031250000,162029.8750000000,149785.7343750000,,,
0.6879999989,5,180357.4687500000,164177.3125000000,193981.9218750000,179738.5781250000,168015.4531250000,138247.5937500000,161972.0468750000,150291.0625000000,,,
0.6919999989,5,180392.8281250000,164204.4218750000,194017.1875000000,179812.9375000000,168051.2031250000,138274.6562500000,162000.3750000000,150372.3906250000,,,
0.6959999988,5,180409.8281250000,164215.2187500000,194038.8125000000,179837.7968750000,168070.6250000000,138282.5625000000,162034.6875000000,149962.0000000000,,,
0.6999999988,5,180383.0937500000,164191.1562500000,194018.8437500000,179782.9375000000,168052.6250000000,138264.5625000000,161996.7500000000,149604.3906250000,,,
0.7039999987,5,180336.3593750000,164149.8125000000,193971.8281250000,179709.4843750000,168009.5781250000,138229.8281250000,161913.4218750000,149833.3437500000,,,
0.7079999989,5,180322.0625000000,164137.4843750000,193954.4843750000,179707.0312500000,167990.7500000000,138217.5000000000,161907.5468750000,150363.3906250000,,,
0.7119999989,5,180356.6718750000,164168.6718750000,193990.4218750000,179761.4843750000,168025.0156250000,138245.3593750000,161963.5468750000,150494.7187500000,,,
0.7159999989,5,180378.5468750000,164188.9218750000,194014.3750000000,179781.3906250000,168048.4062500000,138265.6406250000,162040.5781250000,150101.0781250000,,,
0.7199999988,5,180361.7031250000,164174.4218750000,193997.7968750000,179758.7968750000,168032.7187500000,138257.8125000000,162034.4375000000,149758.9062500000,,,
0.7239999988,5,180342.4218750000,164157.5781250000,193973.9531250000,179739.3906250000,168007.2968750000,138242.5000000000,161990.8750000000,149982.9062500000,,,
0.7279999990,5,180348.5937500000,164166.9843750000,193976.3593750000,179761.1093750000,168007.1875000000,138246.4062500000,161977.7968750000,150491.4218750000,,,
0.7319999989,5,180376.2187500000,164193.5468750000,194004.8750000000,179812.1718750000,168033.2500000000,138266.1718750000,161996.9375000000,150623.8437500000,,,
0.7359999989,5,180393.6562500000,164207.0781250000,194032.3437500000,179806.5000000000,168061.8437500000,138285.2968750000,162015.0468750000,150222.6406250000,,,
0.7399999988,5,180365.5937500000,164176.2656250000,194012.3906250000,179750.6562500000,168043.9375000000,138280.6562500000,161990.1562500000,149847.6406250000,,,
0.7439999988,5,180336.8437500000,164149.0156250000,193977.6250000000,179717.5312500000,168011.3906250000,138247.6718750000,161967.7812500000,150065.3750000000,,,
0.7479999987,5,180340.0625000000,164153.8750000000,193973.0625000000,179746.7031250000,168006.1093750000,138242.5468750000,161947.1562500000,150574.3281250000,,,
0.7519999989,5,180359.9062500000,164167.5468750000,193996.7968750000,179773.6562500000,168025.1250000000,138255.5625000000,161975.3281250000,150741.8281250000,,,
0.7559999989,5,180377.5937500000,164184.9531250000,194020.7812500000,179777.3593750000,168047.9531250000,138280.5000000000,162008.2343750000,150370.7968750000,,,
0.7599999988,5,180380.6250000000,164194.4531250000,194021.9843750000,179766.3906250000,168051.0468750000,138271.3593750000,161989.7031250000,150013.6406250000,,,
0.7639999988,5,180355.7500000000,164169.7187500000,193992.2500000000,179759.7343750000,168023.3906250000,138266.3906250000,161972.0000000000,150212.7187500000,,,
0.7679999988,6,180353.1875000000,164169.3750000000,193983.8125000000,179759.3593750000,168019.8125000000,138260.7812500000,161966.1718750000,150720.2968750000,,,
0.7719999987,6,180380.2500000000,164193.7812500000,194012.7343750000,179764.4687500000,168044.7343750000,138288.2812500000,162024.5468750000,150825.2968750000,,,
0.7759999987,6,180412.7812500000,164221.1093750000,194063.0312500000,179793.0625000000,168089.8750000000,138318.0000000000,162069.9843750000,150425.9218750000,,,
0.7799999986,6,180416.7031250000,164225.6406250000,194063.2187500000,179795.0156250000,168092.8750000000,138322.0937500000,162079.5781250000,150061.2500000000,,,
0.7839999986,6,180389.9531250000,164208.1875000000,194021.6093750000,179798.9843750000,168054.3125000000,138306.7656250000,162030.0937500000,150293.6875000000,,,
0.7879999985,6,180377.8593750000,164197.1875000000,194006.6718750000,179797.7968750000,168037.5468750000,138291.5781250000,162000.3750000000,150836.1406250000,,,
0.7919999987,6,180394.5625000000,164207.2500000000,194028.0000000000,179806.8437500000,168056.6718750000,138296.4375000000,161998.4687500000,150968.3750000000,,,
0.7959999987,6,180395.0468750000,164203.5937500000,194032.6406250000,179781.3593750000,168060.5625000000,138303.9687500000,162025.1406250000,150581.3281250000,,,
0.7999999986,6,180389.4218750000,164200.2968750000,194028.9375000000,179753.0625000000,168057.0781250000,138302.4375000000,162032.1562500000,150200.2656250000,,,
0.8039999986,6,180387.7031250000,164203.4687500000,194023.2968750000,179765.9687500000,168052.7343750000,138298.4218750000,162029.8593750000,150409.0156250000,,,
0.8079999986,6,180383.2812500000,164193.1406250000,194016.3750000000,179785.8906250000,168046.5312500000,138289.1093750000,162026.8750000000,150944.3906250000,,,
0.8119999988,6,180416.7968750000,164220.8750000000,194049.8906250000,179802.1718750000,168080.4062500000,138314.6406250000,162052.3906250000,151056.1562500000,33029,0.8157550411,0.0000000000
0.8159999987,6,180439.2812500000,164240.2968750000,194080.8281250000,179805.6406250000,168114.0937500000,138339.4062500000,162058.0937500000,150647.0625000000,,,
0.8199999987,6,180426.4531250000,164231.3281250000,194071.2812500000,179796.1093750000,168106.9375000000,138331.9375000000,162049.2500000000,150254.9062500000,,,
0.8239999986,6,180387.5468750000,164196.6250000000,194027.1093750000,179756.1250000000,168062.0312500000,138302.5468750000,162011.3750000000,150483.1875000000,,,
0.8279999986,6,180378.7968750000,164190.5312500000,194013.6718750000,179754.1875000000,168045.9375000000,138298.7656250000,162009.2343750000,151020.9687500000,,,
0.8319999985,6,180405.6406250000,164212.7500000000,194046.9375000000,179795.0468750000,168074.9843750000,138320.1718750000,162043.3437500000,151148.9687500000,,,
0.8359999987,6,180423.0000000000,164227.6562500000,194066.4375000000,179823.9843750000,168094.4843750000,138336.9375000000,162065.1562500000,150755.7500000000,,,
0.8399999987,6,180409.2343750000,164217.0625000000,194053.9843750000,179804.0000000000,168082.8750000000,138328.9218750000,162068.3750000000,150359.1875000000,,,
0.8439999986,6,180391.4531250000,164206.3593750000,194030.8593750000,179781.2031250000,168059.7500000000,138309.2812500000,162032.0781250000,150559.3125000000,,,
0.8479999986,6,180399.1250000000,164213.4375000000,194038.4062500000,179791.3437500000,168066.2968750000,138309.9531250000,162004.0000000000,151073.8906250000,,,
0.8519999986,6,180419.0625000000,164229.4218750000,194062.9687500000,179815.8750000000,168089.7968750000,138331.8125000000,162028.4843750000,151239.3593750000,,,
0.8559999987,6,180441.2343750000,164249.9531250000,194085.0156250000,179838.0156250000,168115.8437500000,138352.7656250000,162074.8125000000,150866.5312500000,,,
0.8599999987,6,180428.3906250000,164241.6250000000,194072.7656250000,179802.7343750000,168103.0781250000,138346.7812500000,162054.8593750000,150453.8437500000,,,
0.8639999987,6,180401.9375000000,164220.9843750000,194037.8593750000,179770.7656250000,168068.2812500000,138332.3437500000,162038.5468750000,150629.1250000000,,,
0.8679999986,6,180396.3593750000,164212.3125000000,194029.0156250000,179787.3125000000,168058.9531250000,138321.7031250000,162006.0156250000,151157.1718750000,,,
0.8719999986,6,180425.0937500000,164234.9218750000,194061.5468750000,179825.0468750000,168089.6562500000,138340.4218750000,162034.8906250000,151309.5000000000,,,
0.8759999985,6,180447.0312500000,164255.0937500000,194092.5625000000,179835.2968750000,168117.9843750000,138364.6875000000,162084.2500000000,150909.6093750000,,,
0.8799999987,6,180452.5625000000,164264.1562500000,194098.7187500000,179845.9687500000,168122.7031250000,138374.8906250000,162095.3281250000,150486.8125000000,,,
0.8839999987,6,180409.7812500000,164221.3281250000,194052.8906250000,179783.9687500000,168078.0468750000,138334.1250000000,162080.7968750000,150664.2656250000,,,
0.8879999986,6,180413.3125000000,164221.2187500000,194054.5156250000,179786.7812500000,168079.1562500000,138336.1875000000,162043.1562500000,151143.3906250000,,,
0.8919999986,6,180429.1718750000,164235.7031250000,194066.7343750000,179817.4062500000,168089.8750000000,138348.6562500000,162045.9687500000,151264.7343750000,,,
0.8959999986,7,180428.2343750000,164233.2031250000,194067.1250000000,179821.6406250000,168092.3437500000,138347.4531250000,162050.7031250000,150894.6093750000,,,
0.8999999985,7,180416.0000000000,164222.5000000000,194057.5312500000,179788.5781250000,168084.9218750000,138351.7187500000,162054.6093750000,150511.5312500000,,,
0.9039999985,7,180388.8281250000,164203.5156250000,194025.1875000000,179748.6875000000,168052.9218750000,138335.4531250000,162037.3906250000,150742.4531250000,,,
0.9079999984,7,180377.9375000000,164195.5312500000,194007.7656250000,179737.6718750000,168033.6562500000,138316.0937500000,162014.5625000000,151325.3125000000,,,
0.9119999984,7,180406.2031250000,164211.5312500000,194044.9687500000,179791.1250000000,168067.9062500000,138332.4843750000,162010.4375000000,151477.1093750000,,,
0.9159999983,7,180429.8906250000,164232.1093750000,194075.1562500000,179816.7968750000,168099.2656250000,138358.3125000000,162035.5937500000,151077.4218750000,,,
0.9199999985,7,180404.8437500000,164217.6562500000,194045.9375000000,179783.8281250000,168071.7500000000,138346.7500000000,162031.4062500000,150697.3593750000,,,
0.9239999985,7,180362.2500000000,164181.9843750000,193997.0156250000,179734.4687500000,168026.6875000000,138315.0468750000,161997.7500000000,150916.7343750000,,,
0.9279999984,7,180358.6718750000,164178.8437500000,193993.0781250000,179724.0937500000,168023.6875000000,138311.2187500000,161984.5000000000,151428.5000000000,,,
0.9319999984,7,180376.4687500000,164196.6718750000,194012.6250000000,179740.9062500000,168042.3750000000,138325.7812500000,161991.3437500000,151560.2031250000,,,
0.9359999984,7,180406.1250000000,164221.3281250000,194051.4375000000,179769.2656250000,168078.9375000000,138355.0156250000,162029.4843750000,151128.6250000000,,,
0.9399999985,7,180410.0781250000,164227.2343750000,194056.7031250000,179760.4375000000,168083.8125000000,138363.4062500000,162058.3593750000,150678.8593750000,,,
0.9439999985,7,180388.5312500000,164208.1562500000,194022.9218750000,179743.5937500000,168051.7031250000,138344.6875000000,162061.6093750000,150847.3437500000,,,
0.9479999985,7,180400.5781250000,164219.2656250000,194029.5312500000,179774.2031250000,168056.8281250000,138358.2500000000,162055.6250000000,151334.0156250000,,,
0.9519999984,7,180419.5625000000,164231.6562500000,194054.8437500000,179808.2968750000,168079.5312500000,138372.6093750000,162067.0781250000,151446.7968750000,,,
0.9559999984,7,180430.6718750000,164239.0312500000,194074.4218750000,179819.7500000000,168097.7031250000,138383.9843750000,162081.2500000000,151027.1562500000,,,
0.9599999983,7,180408.8125000000,164218.7812500000,194054.3906250000,179788.6093750000,168078.8281250000,138367.9687500000,162055.5468750000,150625.3906250000,,,
0.9639999985,7,180383.7656250000,164197.9687500000,194022.1562500000,179754.1406250000,168049.4843750000,138348.0312500000,162016.4375000000,150805.5000000000,,,
0.9679999985,7,180390.4375000000,164203.4843750000,194024.9375000000,179786.2968750000,168050.7187500000,138348.2500000000,162004.5937500000,151322.6093750000,,,
0.9719999984,7,180429.1875000000,164236.6718750000,194071.9531250000,179850.5625000000,168094.2968750000,138378.3750000000,162004.4843750000,151462.5625000000,,,
0.9759999984,7,180436.1718750000,164240.9687500000,194083.1718750000,179832.1562500000,168106.0312500000,138387.6875000000,162038.7656250000,151057.8750000000,,,
0.9799999984,7,180419.7500000000,164229.9843750000,194068.6093750000,179755.2031250000,168095.4843750000,138390.8125000000,162057.1562500000,150643.3125000000,,,
0.9839999985,7,180397.1406250000,164214.5625000000,194041.1093750000,179741.2812500000,168067.1875000000,138373.8437500000,162038.8437500000,150827.5000000000,,,
0.9879999985,7,180413.0000000000,164230.2812500000,194048.8593750000,179764.2812500000,168072.2812500000,138386.6562500000,162056.2500000000,151323.3593750000,,,
0.9919999985,7,180434.5000000000,164242.8593750000,194071.2656250000,179789.5468750000,168094.9687500000,138402.4375000000,162092.7187500000,151451.3750000000,,,
0.9959999984,7,180451.3437500000,164259.0937500000,194091.3281250000,179816.0468750000,168114.9375000000,138421.4531250000,162117.2656250000,151035.9062500000,,,
0.9999999984,7,180450.2812500000,164258.2656250000,194092.7500000000,179802.3593750000,168118.7968750000,138421.6718750000,162110.5156250000,150576.7187500000,,,
1.0039999983,7,180416.5625000000,164232.7343750000,194052.1562500000,179764.3750000000,168080.1875000000,138395.0000000000,162067.2656250000,150739.9062500000,,,
1.0079999985,7,180410.8750000000,164226.3125000000,194038.9375000000,179769.6875000000,168064.9375000000,138386.4218750000,162053.4062500000,151266.1718750000,,,
1.0119999985,7,180433.0625000000,164242.6562500000,194066.9375000000,179796.9687500000,168089.0156250000,138402.0781250000,162056.4375000000,151414.3125000000,,,
1.0159999984,7,180452.6406250000,164261.5625000000,194096.9218750000,179801.8750000000,168116.8125000000,138423.0000000000,162061.9843750000,150994.3906250000,,,
1.0199999984,7,180439.9843750000,164249.7656250000,194089.4687500000,179787.2343750000,168110.9843750000,138413.8281250000,162046.5937500000,150541.1406250000,,,
1.0239999983,8,180408.8437500000,164227.7656250000,194053.3437500000,179762.6875000000,168077.8906250000,138392.5625000000,162008.8281250000,150710.9062500000,,,
1.0279999983,8,180395.6406250000,164210.7812500000,194028.4531250000,179768.1718750000,168051.4375000000,138374.7812500000,162018.9375000000,151234.9843750000,,,
1.0319999983,8,180414.6875000000,164227.3593750000,194046.8750000000,179790.7500000000,168065.9062500000,138393.1875000000,162078.8281250000,151406.2343750000,,,
1.0359999982,8,180439.1718750000,164243.7812500000,194078.6406250000,179817.5156250000,168096.8750000000,138416.8906250000,162105.2031250000,151027.9218750000,,,
1.0399999982,8,180433.8593750000,164236.1562500000,194081.0781250000,179806.9687500000,168101.0937500000,138411.9062500000,162109.2500000000,150591.0312500000,,,
1.0439999981,8,180413.6875000000,164227.5156250000,194051.7343750000,179781.7343750000,168076.5781250000,138400.9062500000,162075.0781250000,150706.0000000000,,,
1.0479999983,8,180382.3593750000,164206.4218750000,194011.7656250000,179737.9375000000,168038.8281250000,138396.1250000000,162023.2031250000,151213.3437500000,,,
1.0519999983,8,180411.4062500000,164229.5156250000,194046.3437500000,179782.4375000000,168070.1875000000,138420.9375000000,162029.4062500000,151378.4843750000,,,
1.0559999982,8,180445.8750000000,164248.6093750000,194091.4531250000,179841.8437500000,168110.3750000000,138431.9843750000,162086.6406250000,150999.4375000000,,,
1.0599999982,8,180456.7656250000,164260.0000000000,194108.4062500000,179841.2343750000,168126.5937500000,138447.1718750000,162114.8281250000,150576.1718750000,,,
1.0639999982,8,180411.2500000000,164219.5625000000,194058.0156250000,179756.4375000000,168084.3593750000,138415.6250000000,162009.1250000000,150750.6875000000,,,
1.0679999983,8,180400.1406250000,164212.7187500000,194035.1250000000,179743.8125000000,168061.9843750000,138405.4062500000,161994.4843750000,151272.0468750000,,,
1.0719999983,8,180421.8750000000,164230.8437500000,194053.0000000000,179788.5781250000,168074.1875000000,138419.8906250000,162074.7343750000,151434.1406250000,,,
1.0759999983,8,180459.6718750000,164263.5937500000,194098.9687500000,179830.0468750000,168120.7812500000,138455.2187500000,162121.2968750000,151049.0000000000,,,
1.0799999982,8,180451.2500000000,164257.5312500000,194090.8437500000,179823.8125000000,168113.6093750000,138452.1406250000,162136.1562500000,150627.0625000000,,,
1.0839999982,8,180431.1718750000,164242.0312500000,194067.5312500000,179800.2968750000,168089.0000000000,138437.1093750000,162111.8437500000,150790.2656250000,,,
1.0879999981,8,180413.2656250000,164220.8906250000,194046.1250000000,179783.9687500000,168067.4531250000,138419.2968750000,162081.1875000000,151326.7187500000,,,
1.0919999983,8,180445.4687500000,164248.9218750000,194078.9531250000,179829.5937500000,168099.4062500000,138451.9218750000,162102.2812500000,151502.1875000000,,,
1.0959999983,8,180479.6406250000,164281.7812500000,194121.3906250000,179862.3906250000,168140.7031250000,138479.8437500000,162131.5937500000,151121.0937500000,,,
1.0999999982,8,180474.9062500000,164280.5781250000,194124.9375000000,179857.2656250000,168146.0468750000,138484.0000000000,162097.4531250000,150684.3437500000,,,
1.1039999982,8,180440.0781250000,164252.5000000000,194084.3750000000,179824.5937500000,168110.8593750000,138460.2656250000,162029.1875000000,150806.7656250000,,,
1.1079999981,8,180417.8750000000,164231.3593750000,194053.1250000000,179806.3593750000,168077.4531250000,138441.5468750000,162085.6250000000,151320.4687500000,,,
1.1119999983,8,180437.3750000000,164247.2343750000,194071.3437500000,179824.6562500000,168091.9375000000,138460.0468750000,162121.7500000000,151515.2500000000,,,
1.1159999983,8,180459.5625000000,164264.2968750000,194098.9062500000,179851.9062500000,168119.7031250000,138484.1093750000,162130.8125000000,151124.5625000000,,,
1.1199999982,8,180450.8593750000,164257.2500000000,194092.8281250000,179822.6875000000,168116.6250000000,138483.4843750000,162117.5156250000,150687.5625000000,,,
1.1239999982,8,180421.9218750000,164229.5156250000,194063.1875000000,179767.2031250000,168088.6406250000,138455.5937500000,162082.4062500000,150835.3593750000,,,
1.1279999982,8,180415.2187500000,164221.7031250000,194052.1093750000,179772.3750000000,168078.7500000000,138436.9531250000,162053.2656250000,151366.5937500000,,,
1.1319999981,8,180450.2968750000,164253.0781250000,194086.3281250000,179825.6093750000,168110.6406250000,138462.8437500000,162110.0000000000,151541.9375000000,,,
1.1359999983,8,180479.4531250000,164275.2968750000,194123.3750000000,179862.2500000000,168145.8593750000,138489.7968750000,162159.0000000000,151153.0468750000,,,
1.1399999983,8,180481.2500000000,164280.7968750000,194129.9687500000,179856.7812500000,168152.6093750000,138503.1718750000,162147.9218750000,150717.7968750000,,,
1.1439999982,8,180453.6093750000,164261.0468750000,194096.1562500000,179823.9218750000,168118.8125000000,138485.0937500000,162108.0156250000,150857.6718750000,,,
1.1479999982,8,180452.4218750000,164261.9843750000,194085.0156250000,179824.6250000000,168106.7812500000,138482.6250000000,162094.2031250000,151384.5937500000,,,
1.1519999981,9,180475.3750000000,164280.3125000000,194101.5468750000,179852.4375000000,168121.6875000000,138495.4531250000,162093.3125000000,151565.1562500000,,,
1.1559999981,9,180506.0468750000,164307.5000000000,194139.8750000000,179889.8750000000,168158.3593750000,138522.2500000000,162125.8437500000,151167.9218750000,,,
1.1599999981,9,180483.5937500000,164286.3906250000,194122.2187500000,179876.5468750000,168145.5000000000,138511.4375000000,162128.2656250000,150741.7812500000,,,
1.1639999980,9,180454.8437500000,164263.3906250000,194087.8437500000,179825.6093750000,168115.0312500000,138487.7343750000,162134.4687500000,150886.3437500000,,,
1.1679999980,9,180445.7187500000,164254.5312500000,194074.4531250000,179812.0156250000,168098.3281250000,138474.5781250000,162138.0000000000,151396.8593750000,,,
1.1719999979,9,180479.7500000000,164287.0468750000,194112.7343750000,179846.2656250000,168131.9062500000,138501.8906250000,162159.3593750000,151576.6093750000,,,
1.1759999981,9,180487.4843750000,164284.9687500000,194131.3750000000,179864.9062500000,168149.9375000000,138503.0468750000,162141.0937500000,151193.0625000000,,,
1.1799999981,9,180479.5937500000,164276.1718750000,194127.6406250000,179865.1718750000,168149.9531250000,138500.5156250000,162072.3437500000,150763.1250000000,,,
1.1839999980,9,180457.2812500000,164262.6406250000,194092.0000000000,179846.5156250000,168115.1718750000,138485.0781250000,162105.3125000000,150912.4531250000,,,
1.1879999980,9,180445.7656250000,164254.0000000000,194068.7968750000,179833.5312500000,168086.8437500000,138477.7968750000,162130.8906250000,151407.3593750000,,,
1.1919999979,9,180450.0312500000,164254.1875000000,194074.6406250000,179827.8125000000,168088.8593750000,138483.1093750000,162123.3593750000,151571.3281250000,,,
1.1959999981,9,180471.2500000000,164268.7187500000,194102.7031250000,179844.5000000000,168116.2187500000,138501.4531250000,162137.7031250000,151207.2500000000,,,
1.1999999981,9,180482.5781250000,164281.5468750000,194115.6718750000,179843.8593750000,168131.0468750000,138517.8750000000,162138.4375000000,150764.3281250000,,,
1.2039999980,9,180459.7500000000,164264.9687500000,194088.9687500000,179816.8750000000,168108.5781250000,138498.2187500000,162079.2656250000,150892.1093750000,,,
1.2079999980,9,180442.4218750000,164246.2656250000,194069.4843750000,179817.4375000000,168089.4687500000,138476.9218750000,162048.6250000000,151382.3125000000,,,
1.2119999980,9,180460.0625000000,164259.1250000000,194088.9687500000,179845.1406250000,168105.2187500000,138489.0625000000,162105.0312500000,151570.9218750000,,,
1.2159999979,9,180480.0781250000,164278.2187500000,194117.4687500000,179852.2187500000,168132.5000000000,138512.3437500000,162135.9687500000,151190.4062500000,,,
1.2199999981,9,180472.9218750000,164274.2187500000,194116.0781250000,179848.6875000000,168131.7968750000,138507.6875000000,162146.2031250000,150731.6093750000,,,
1.2239999981,9,180430.9843750000,164238.0312500000,194065.6875000000,179838.8125000000,168085.3125000000,138478.3437500000,162103.7968750000,150872.7812500000,,,
1.2279999980,9,180406.7968750000,164213.6875000000,194032.0468750000,179816.8125000000,168053.0000000000,138456.8281250000,162069.7343750000,151443.3281250000,,,
1.2319999980,9,180437.9375000000,164238.9218750000,194064.6406250000,179830.1562500000,168082.8281250000,138480.6406250000,162096.3125000000,151617.7031250000,,,
1.2359999979,9,180442.1250000000,164241.8437500000,194076.2187500000,179823.2500000000,168093.6562500000,138492.0937500000,162107.3906250000,151239.6718750000,,,
1.2399999981,9,180432.0625000000,164234.7968750000,194071.4687500000,179798.2343750000,168090.5781250000,138491.7187500000,162102.2500000000,150787.1875000000,,,
1.2439999981,9,180425.2187500000,164232.8281250000,194060.9375000000,179790.5000000000,168082.1562500000,138486.5156250000,162076.1250000000,150879.1093750000,,,
1.2479999980,9,180428.7656250000,164236.4531250000,194059.4531250000,179800.8906250000,168082.0781250000,138487.6406250000,162043.6875000000,151396.7500000000,,,
1.2519999980,9,180463.9062500000,164261.0000000000,194096.1718750000,179854.1093750000,168119.1875000000,138510.1562500000,162077.5468750000,151571.3593750000,,,
1.2559999980,9,180473.7656250000,164264.6250000000,194112.4531250000,179856.6562500000,168132.2343750000,138512.1406250000,162101.9062500000,151197.2500000000,,,
1.2599999979,9,180476.7812500000,164266.7031250000,194119.7500000000,179846.5937500000,168137.0000000000,138519.6250000000,162124.5625000000,150744.5156250000,,,
1.2639999981,9,180477.7187500000,164275.4843750000,194110.2656250000,179853.3750000000,168127.0000000000,138524.1562500000,162170.8906250000,150849.1406250000,,,
1.2679999981,9,180479.8281250000,164277.5781250000,194106.0781250000,179880.0312500000,168123.2968750000,138521.9062500000,162173.7812500000,151368.5625000000,,,
1.2719999980,9,180500.8906250000,164299.7500000000,194127.7968750000,179868.6406250000,168145.9062500000,138538.6093750000,162188.8906250000,151578.7031250000,,,
1.2759999980,9,180524.5937500000,164320.8906250000,194160.2500000000,179857.0000000000,168176.7343750000,138563.8437500000,162204.0937500000,151179.4375000000,,,
1.2799999979,10,180490.0468750000,164282.0000000000,194134.3750000000,179820.9843750000,168152.4531250000,138539.8906250000,162148.0312500000,150731.6093750000,,,
1.2839999979,10,180442.0625000000,164240.1093750000,194078.7187500000,179785.3593750000,168101.9218750000,138506.8281250000,162098.8125000000,150849.7968750000,,,
1.2879999978,10,180440.0312500000,164240.8593750000,194071.3750000000,179802.2343750000,168093.8281250000,138502.4062500000,162073.2500000000,151314.5937500000,,,
1.2919999978,10,180468.9218750000,164263.4062500000,194099.4218750000,179845.6562500000,168116.2656250000,138522.8125000000,162131.7500000000,151505.5312500000,,,
1.2959999978,10,180502.1718750000,164295.4843750000,194138.3906250000,179873.2031250000,168153.6406250000,138557.1406250000,162174.2343750000,151131.7500000000,,,
1.2999999977,10,180478.0312500000,164278.2500000000,194114.9531250000,179839.2968750000,168131.0000000000,138537.2187500000,162157.4687500000,150674.9843750000,,,
1.3039999979,10,180443.3281250000,164250.1406250000,194076.0625000000,179809.6562500000,168092.6406250000,138514.9062500000,162115.9218750000,150793.4062500000,,,
1.3079999979,10,180449.6406250000,164258.6875000000,194078.7968750000,179821.1875000000,168095.8593750000,138519.7187500000,162082.9062500000,151274.9687500000,,,
1.3119999978,10,180479.6250000000,164286.2968750000,194111.3906250000,179826.5312500000,168132.6562500000,138547.4531250000,162127.3593750000,151463.7187500000,,,
1.3159999978,10,180496.0312500000,164297.2812500000,194131.5000000000,179833.5000000000,168150.5000000000,138558.3437500000,162182.5781250000,151118.8125000000,,,
1.3199999977,10,180475.9218750000,164277.8125000000,194113.0468750000,179824.2968750000,168132.0468750000,138547.0312500000,162159.5937500000,150696.8750000000,,,
1.3239999979,10,180451.6250000000,164258.6093750000,194085.2656250000,179801.2031250000,168103.4843750000,138533.3750000000,162115.1718750000,150794.5937500000,,,
1.3279999979,10,180454.7343750000,164264.8281250000,194078.9375000000,179819.5000000000,168094.0937500000,138531.2343750000,162119.3281250000,151299.1406250000,,,
1.3319999978,10,180467.2343750000,164269.5468750000,194090.4062500000,179857.7968750000,168100.9218750000,138527.2031250000,162127.8437500000,151490.1718750000,,,
1.3359999978,10,180477.1250000000,164273.9062500000,194109.7500000000,179859.0625000000,168117.6875000000,138536.6250000000,162139.3125000000,151143.3281250000,,,
1.3399999978,10,180472.8906250000,164272.1093750000,194114.9531250000,179833.3906250000,168122.3125000000,138544.5312500000,162147.1406250000,150713.6406250000,,,
1.3439999977,10,180481.7343750000,164280.0468750000,194124.7656250000,179860.0000000000,168131.7500000000,138547.4531250000,162127.4531250000,150801.3750000000,,,
1.3479999979,10,180489.9218750000,164288.1718750000,194120.2343750000,179877.2968750000,168129.3125000000,138560.2812500000,162151.0156250000,151286.9687500000,,,
1.3519999979,10,180492.6250000000,164293.0781250000,194114.2343750000,179858.5781250000,168124.7500000000,138563.7343750000,162170.1093750000,151513.2812500000,,,
1.3559999978,10,180497.1562500000,164292.1875000000,194128.7343750000,179847.6093750000,168139.4687500000,138563.9531250000,162172.6250000000,151154.7812500000,,,
1.3599999978,10,180480.0468750000,164273.9531250000,194118.9843750000,179822.9687500000,168131.8281250000,138553.8906250000,162163.4531250000,150685.3125000000,,,
1.3639999977,10,180463.3125000000,164262.7656250000,194097.5937500000,179812.0781250000,168112.0312500000,138539.5000000000,162143.9843750000,150781.6562500000,,,
1.3679999979,10,180470.0937500000,164271.0781250000,194098.5156250000,179833.1875000000,168112.3281250000,138543.9218750000,162137.8125000000,151253.7500000000,,,
1.3719999979,10,180495.9062500000,164295.8593750000,194123.3281250000,179857.3281250000,168137.0000000000,138567.5781250000,162151.6562500000,151470.8750000000,,,
1.3759999978,10,180519.4843750000,164315.6093750000,194155.4843750000,179870.7343750000,168169.2968750000,138588.7187500000,162156.6406250000,151103.9062500000,,,
1.3799999978,10,180501.6875000000,164297.1875000000,194144.4062500000,179848.0468750000,168157.5156250000,138578.6875000000,162143.2656250000,150604.6562500000,,,
1.3839999977,10,180453.0468750000,164252.0625000000,194090.2031250000,179795.3125000000,168102.4062500000,138538.6406250000,162126.7031250000,150649.4843750000,,,
1.3879999977,10,180434.5000000000,164236.4531250000,194061.2812500000,179787.5312500000,168073.7656250000,138517.7656250000,162110.9843750000,151131.5312500000,,,
1.3919999979,10,180446.3906250000,164246.0625000000,194071.2031250000,179814.6250000000,168082.8281250000,138522.1875000000,162130.1718750000,151336.3906250000,,,
1.3959999979,10,180469.6093750000,164265.0156250000,194102.1250000000,179838.7656250000,168113.2187500000,138543.4843750000,162157.7968750000,150994.1718750000,,,
1.3999999978,10,180485.0156250000,164278.2968750000,194126.1406250000,179874.2500000000,168137.2187500000,138557.8750000000,162158.7031250000,150537.1562500000,,,
1.4039999978,10,180474.7187500000,164269.9218750000,194115.9531250000,179856.0625000000,168129.4062500000,138550.4375000000,162125.5625000000,150594.6562500000,,,
1.4079999977,11,180469.3281250000,164268.7968750000,194101.9218750000,179858.3437500000,168118.2812500000,138541.5937500000,162131.0625000000,151086.3593750000,,,
1.4119999977,11,180498.9531250000,164297.1875000000,194129.4375000000,179896.5625000000,168144.7812500000,138559.8281250000,162178.7500000000,151325.2187500000,,,
1.4159999976,11,180516.5781250000,164308.7187500000,194155.2187500000,179905.7812500000,168170.1875000000,138578.8125000000,162203.4687500000,150980.5781250000,,,
1.4199999976,11,180513.3125000000,164308.8750000000,194158.2500000000,179892.4843750000,168172.6250000000,138593.0000000000,162206.8281250000,150488.6250000000,,,
1.4239999976,11,180479.6250000000,164285.9375000000,194120.9687500000,179846.8593750000,168135.7656250000,138572.4062500000,162164.3906250000,150531.2968750000,,,
1.4279999975,11,180462.4531250000,164270.1406250000,194099.1562500000,179834.8750000000,168114.4687500000,138554.2500000000,162120.1875000000,151019.6875000000,,,
1.4319999977,11,180472.2968750000,164270.0937500000,194106.6406250000,179868.3750000000,168122.5781250000,138554.9218750000,162136.9843750000,151257.8906250000,,,
1.4359999977,11,180492.5156250000,164286.5312500000,194128.7656250000,179880.0937500000,168145.9375000000,138571.7656250000,162199.4218750000,150926.4687500000,,,
1.4399999976,11,180493.3593750000,164292.9687500000,194133.4062500000,179866.7031250000,168152.6093750000,138578.3906250000,162189.1250000000,150437.9062500000,,,
1.4439999976,11,180468.1875000000,164274.4843750000,194102.0468750000,179846.5312500000,168121.2656250000,138560.4218750000,162152.0000000000,150491.4687500000,,,
1.4479999975,11,180456.7656250000,164265.3125000000,194082.6093750000,179845.2500000000,168099.0000000000,138540.4531250000,162132.5312500000,151005.2812500000,,,
1.4519999977,11,180489.1093750000,164293.3437500000,194114.5312500000,179881.8906250000,168126.4843750000,138560.9218750000,162163.6406250000,151267.8593750000,,,
1.4559999977,11,180504.8125000000,164303.0781250000,194137.3437500000,179887.4218750000,168148.0312500000,138581.5312500000,162194.6250000000,150926.9375000000,,,
1.4599999976,11,180493.3281250000,164291.5468750000,194133.2968750000,179868.4531250000,168144.2500000000,138577.5781250000,162192.1250000000,150442.8750000000,,,
1.4639999976,11,180468.8125000000,164271.5312500000,194105.4375000000,179851.6875000000,168117.2968750000,138554.2656250000,162143.0156250000,150500.6718750000,,,
1.4679999975,11,180458.2656250000,164265.5781250000,194084.3437500000,179847.3750000000,168096.9062500000,138543.7812500000,162108.7187500000,151014.3750000000,,,
1.4719999975,11,180475.3281250000,164281.9531250000,194102.5937500000,179872.8281250000,168114.6093750000,138552.8281250000,162137.9218750000,151259.7343750000,,,
1.4759999977,11,180505.7656250000,164308.2812500000,194139.9843750000,179890.4531250000,168152.8593750000,138574.6250000000,162186.6562500000,150906.5156250000,,,
1.4799999977,11,180524.2187500000,164327.3750000000,194160.7968750000,179904.8437500000,168174.8750000000,138601.3125000000,162221.0468750000,150383.4062500000,,,
1.4839999976,11,180506.2812500000,164315.0156250000,194136.8906250000,179892.9375000000,168153.7343750000,138589.8437500000,162177.5312500000,150436.7812500000,,,
1.4879999976,11,180470.5312500000,164283.4218750000,194097.6875000000,179833.8750000000,168115.5781250000,138558.2656250000,162137.7656250000,150958.6093750000,,,
1.4919999975,11,180475.8906250000,164285.6250000000,194103.8750000000,179836.4218750000,168119.6718750000,138557.7343750000,162147.1250000000,151249.7656250000,,,
1.4959999977,11,180508.6406250000,164312.7968750000,194142.8281250000,179876.1718750000,168155.9687500000,138589.5781250000,162192.7500000000,150936.8750000000,,,
1.4999999977,11,180514.4062500000,164320.2812500000,194152.5312500000,179872.0156250000,168166.5937500000,138597.9375000000,162201.8593750000,150438.6562500000,,,
1.5039999976,11,180502.3437500000,164312.7656250000,194136.3281250000,179851.1718750000,168151.4687500000,138586.4531250000,162175.6093750000,150473.0000000000,,,
1.5079999976,11,180489.0625000000,164297.2812500000,194116.8906250000,179866.3906250000,168132.7187500000,138568.2812500000,162130.9218750000,150990.9531250000,,,
1.5119999975,11,180508.7500000000,164310.7031250000,194140.5625000000,179913.1875000000,168154.2812500000,138584.7500000000,162158.2187500000,151253.7031250000,,,
1.5159999975,11,180522.6406250000,164324.8125000000,194158.4531250000,179922.0937500000,168169.4531250000,138601.3125000000,162232.3906250000,150913.6562500000,,,
1.5199999977,11,180508.6406250000,164311.2031250000,194145.6875000000,179897.0937500000,168159.2187500000,138594.8750000000,162209.1406250000,150427.6406250000,,,
1.5239999976,11,180483.5625000000,164285.4375000000,194120.3750000000,179869.5781250000,168134.9062500000,138572.3437500000,162140.3281250000,150464.3281250000,,,
1.5279999976,11,180464.0937500000,164270.8125000000,194092.0000000000,179824.7343750000,168107.7656250000,138552.8750000000,162145.2500000000,150974.7500000000,,,
1.5319999976,11,180494.0000000000,164297.0156250000,194118.1406250000,179855.0468750000,168130.0781250000,138574.1718750000,162181.4218750000,151242.2500000000,,,
1.5359999975,12,180523.4531250000,164321.6406250000,194154.2968750000,179870.1406250000,168164.2812500000,138600.0312500000,162199.0000000000,150919.3593750000,,,
1.5399999975,12,180517.8750000000,164310.4062500000,194159.1250000000,179861.6718750000,168169.3750000000,138592.7031250000,162185.3750000000,150398.2187500000,,,
1.5439999974,12,180488.1718750000,164282.4531250000,194129.3593750000,179843.4062500000,168141.7031250000,138560.7968750000,162147.3125000000,150416.9375000000,,,
1.5479999974,12,180482.6718750000,164287.0937500000,194110.7968750000,179846.2500000000,168124.6406250000,138559.3906250000,162155.5156250000,150920.9218750000,,,
1.5519999973,12,180501.1250000000,164304.6406250000,194127.9062500000,179874.2656250000,168139.7343750000,138574.9843750000,162180.7500000000,151196.1093750000,,,
1.5559999973,12,180515.6093750000,164316.4687500000,194149.4531250000,179888.5156250000,168157.9843750000,138593.1093750000,162182.1250000000,150919.1718750000,,,
1.5599999975,12,180508.7500000000,164311.9375000000,194144.9062500000,179867.0625000000,168153.0156250000,138596.5468750000,162167.5312500000,150457.1406250000,,,
1.5639999975,12,180483.4843750000,164289.5937500000,194115.5468750000,179839.5625000000,168123.3593750000,138574.5468750000,162170.0000000000,150491.3437500000,,,
1.5679999974,12,180473.1093750000,164282.3437500000,194099.2031250000,179841.4218750000,168107.2812500000,138554.7343750000,162150.4218750000,150998.8593750000,,,
1.5719999974,12,180486.5937500000,164293.4843750000,194115.4687500000,179858.1718750000,168122.0312500000,138564.4062500000,162145.4375000000,151309.7031250000,,,
1.5759999973,12,180514.1875000000,164315.0781250000,194153.5312500000,179881.1093750000,168159.7187500000,138590.0000000000,162168.2500000000,150997.0937500000,,,
1.5799999975,12,180501.7187500000,164302.9218750000,194146.2343750000,179850.7187500000,168155.6250000000,138585.2187500000,162187.7812500000,150499.3125000000,,,
1.5839999975,12,180474.5000000000,164281.6562500000,194113.7500000000,179819.4531250000,168125.3906250000,138560.2500000000,162147.8125000000,150538.0937500000,,,
1.5879999974,12,180483.6093750000,164298.4375000000,194110.2343750000,179844.3593750000,168124.7968750000,138569.6093750000,162123.1406250000,151046.6875000000,,,
1.5919999974,12,180513.3593750000,164320.4062500000,194135.4531250000,179920.7031250000,168147.2500000000,138591.8281250000,162184.3750000000,151334.5468750000,,,
1.5959999973,12,180537.8750000000,164337.9218750000,194167.7968750000,179950.4218750000,168175.3593750000,138611.0000000000,162234.7968750000,151037.1718750000,,,
1.5999999973,12,180513.3125000000,164309.4062500000,194148.6093750000,179874.6406250000,168156.5312500000,138590.6718750000,162218.5000000000,150543.4062500000,,,
1.6039999975,12,180470.4531250000,164269.1250000000,194102.6718750000,179808.9062500000,168113.8593750000,138555.6406250000,162166.5937500000,150575.8281250000,,,
1.6079999974,12,180465.1093750000,164265.3906250000,194094.4062500000,179803.0312500000,168104.8750000000,138553.0468750000,162142.1562500000,151061.6562500000,,,
1.6119999974,12,180486.2656250000,164283.5000000000,194116.7812500000,179841.5781250000,168125.2500000000,138566.9843750000,162157.8437500000,151333.9531250000,,,
1.6159999974,12,180517.2500000000,164313.1406250000,194152.5781250000,179879.7656250000,168160.3125000000,138599.0937500000,162191.8906250000,151024.7500000000,,,
1.6199999973,12,180513.6093750000,164310.4843750000,194153.6875000000,179869.3906250000,168161.8750000000,138603.1093750000,162191.1406250000,150522.7968750000,,,
1.6239999975,12,180496.3593750000,164297.8750000000,194136.0625000000,179853.6250000000,168144.0312500000,138590.5625000000,162183.7656250000,150517.1718750000,,,
1.6279999975,12,180484.0781250000,164290.9531250000,194117.6562500000,179860.5468750000,168125.3125000000,138576.2343750000,162176.5468750000,151021.0000000000,,,
1.6319999974,12,180489.5781250000,164295.0625000000,194128.3593750000,179861.8593750000,168136.6093750000,138580.9375000000,162168.0625000000,151334.8593750000,,,
1.6359999974,12,180511.9687500000,164315.5468750000,194154.0312500000,179878.0781250000,168163.2656250000,138601.6406250000,162184.2968750000,151035.1093750000,,,
1.6399999973,12,180515.4843750000,164321.9843750000,194159.2031250000,179870.4062500000,168169.7343750000,138610.1718750000,162199.1875000000,150524.6562500000,,,
1.6439999973,12,180484.0781250000,164295.1406250000,194120.3125000000,179848.7656250000,168133.4687500000,138579.2968750000,162166.5156250000,150548.1406250000,,,
1.6479999975,12,180463.7187500000,164277.1718750000,194088.7500000000,179843.4218750000,168100.3125000000,138554.7031250000,162153.3906250000,151041.8906250000,,,
1.6519999974,12,180495.2500000000,164304.2031250000,194120.2656250000,179880.5000000000,168128.0468750000,138579.7031250000,162175.2031250000,151318.6718750000,,,
1.6559999974,12,180511.1406250000,164314.0000000000,194146.6093750000,179881.0625000000,168153.3593750000,138595.6093750000,162189.5468750000,151025.0937500000,,,
1.6599999974,12,180495.4687500000,164298.2031250000,194139.0625000000,179859.3281250000,168147.4687500000,138586.6250000000,162154.5312500000,150543.3125000000,,,
1.6639999973,13,180459.6093750000,164269.8750000000,194096.6875000000,179832.6406250000,168106.2343750000,138557.3906250000,162146.9531250000,150545.8125000000,,,
1.6679999973,13,180450.2187500000,164264.5625000000,194078.2812500000,179841.8906250000,168087.7031250000,138545.3906250000,162148.2500000000,151063.2656250000,,,
1.6719999972,13,180479.9687500000,164287.0156250000,194112.9218750000,179876.2500000000,168120.1875000000,138559.1562500000,162148.1718750000,151368.2343750000,,,
1.6759999972,13,180502.4218750000,164305.6093750000,194142.9531250000,179887.0156250000,168149.6875000000,138576.6718750000,162146.9531250000,151065.3281250000,,,
1.6799999971,13,180494.8750000000,164295.9531250000,194138.1562500000,179869.7968750000,168146.5781250000,138572.2187500000,162176.2968750000,150552.1406250000,,,
1.6839999971,13,180460.7343750000,164260.5625000000,194097.3906250000,179845.7031250000,168107.4531250000,138542.6250000000,162147.2500000000,150543.6093750000,,,
1.6879999973,13,180459.0781250000,164263.1406250000,194089.2031250000,179836.6718750000,168098.9218750000,138544.5625000000,162142.1250000000,151024.2343750000,,,
1.6919999972,13,180476.9843750000,164279.6406250000,194106.2968750000,179844.7187500000,168115.0937500000,138562.2968750000,162163.7812500000,151349.8906250000,,,
1.6959999972,13,180496.2500000000,164293.6875000000,194133.5156250000,179857.2343750000,168142.7187500000,138574.9843750000,162183.0937500000,151108.1875000000,,,
1.6999999972,13,180502.9531250000,164301.7968750000,194146.4375000000,179869.2031250000,168157.0468750000,138584.6875000000,162180.8906250000,150613.6718750000,,,
1.7039999971,13,180470.6562500000,164275.4843750000,194112.7343750000,179848.5468750000,168123.5468750000,138558.3437500000,162160.2968750000,150595.7031250000,,,
1.7079999973,13,180466.4531250000,164273.6093750000,194102.7812500000,179865.2656250000,168115.0312500000,138551.8906250000,162151.5781250000,151055.2968750000,,,
1.7119999973,13,180494.6093750000,164300.9687500000,194124.7500000000,179927.5625000000,168137.8593750000,138575.0312500000,162173.7500000000,151335.1406250000,,,
1.7159999972,13,180508.6093750000,164311.7500000000,194143.3593750000,179924.9687500000,168154.9687500000,138586.3750000000,162194.7812500000,151069.1093750000,,,
1.7199999972,13,180501.0000000000,164305.6250000000,194145.5625000000,179864.6406250000,168158.0312500000,138586.0000000000,162194.7812500000,150584.5781250000,,,
1.7239999971,13,180465.5156250000,164276.6875000000,194110.5781250000,179810.8125000000,168123.5156250000,138560.3125000000,162124.7500000000,150591.5156250000,,,
1.7279999971,13,180454.5625000000,164264.5625000000,194091.3437500000,179817.8906250000,168103.2968750000,138547.5937500000,162087.3906250000,151089.0156250000,,,
1.7319999973,13,180488.9062500000,164295.4687500000,194118.1718750000,179865.0937500000,168127.0312500000,138564.5781250000,162159.1875000000,151388.8281250000,,,
1.7359999972,13,180507.0000000000,164310.9687500000,194138.1875000000,179879.9843750000,168147.2500000000,138581.6562500000,162203.2031250000,151123.2343750000,,,
1.7399999972,13,180499.2343750000,164301.2500000000,194136.1406250000,179871.3281250000,168145.7968750000,138578.7343750000,162201.7343750000,150639.8593750000,,,
1.7439999972,13,180472.8125000000,164282.8906250000,194106.4531250000,179855.5000000000,168116.8125000000,138556.0781250000,162153.6093750000,150641.9687500000,,,
1.7479999971,13,180469.0781250000,164287.5000000000,194099.1562500000,179866.5781250000,168110.5625000000,138547.8125000000,162135.4218750000,151166.0468750000,,,
1.7519999973,13,180472.2656250000,164283.0156250000,194109.5312500000,179866.4375000000,168120.6406250000,138547.4531250000,162123.4062500000,151502.2656250000,,,
1.7559999973,13,180475.3750000000,164281.0625000000,194119.3750000000,179820.5468750000,168131.5000000000,138560.0625000000,162166.7031250000,151229.0000000000,,,
1.7599999972,13,180470.2656250000,164274.4062500000,194117.8281250000,179816.7656250000,168127.0468750000,138562.1562500000,162186.9843750000,150730.3437500000,,,
1.7639999972,13,180462.2968750000,164270.2031250000,194105.2968750000,179831.1406250000,168114.3906250000,138556.2656250000,162161.5312500000,150710.1562500000,,,
1.7679999971,13,180446.6093750000,164256.1093750000,194082.3593750000,179819.7187500000,168092.6718750000,138543.1093750000,162138.8593750000,151209.6875000000,,,
1.7719999971,13,180458.1093750000,164264.6406250000,194095.0000000000,179829.1562500000,168103.5312500000,138544.8281250000,162144.2187500000,151551.4062500000,,,
1.7759999973,13,180491.3750000000,164291.3281250000,194137.6250000000,179854.7656250000,168144.1718750000,138572.5937500000,162181.8593750000,151274.0312500000,,,
1.7799999972,13,180506.4375000000,164308.2812500000,194157.5468750000,179858.2656250000,168164.3906250000,138595.7187500000,162196.4531250000,150744.4843750000,,,
1.7839999972,13,180478.0312500000,164286.0781250000,194126.2187500000,179834.0468750000,168133.9687500000,138576.1875000000,162165.7343750000,150701.7656250000,,,
1.7879999971,13,180460.4218750000,164275.7187500000,194100.1718750000,179833.1875000000,168109.9687500000,138562.4218750000,162111.6406250000,151179.7343750000,,,
1.7919999971,14,180471.2187500000,164283.6875000000,194110.5000000000,179843.8906250000,168121.3437500000,138571.1250000000,162117.8593750000,151500.2031250000,,,
1.7959999971,14,180500.3593750000,164308.8437500000,194142.6875000000,179871.4531250000,168153.0468750000,138600.0000000000,162210.8437500000,151239.0625000000,,,
1.7999999970,14,180504.3437500000,164315.6875000000,194149.7343750000,179871.1406250000,168161.2187500000,138610.0312500000,162235.0781250000,150726.4687500000,,,
1.8039999970,14,180474.2812500000,164289.2656250000,194114.4218750000,179841.2343750000,168127.5625000000,138582.6718750000,162190.3281250000,150691.8906250000,,,
1.8079999969,14,180458.7031250000,164276.0781250000,194089.6562500000,179827.1406250000,168102.3437500000,138560.9531250000,162141.7812500000,151209.0156250000,,,
1.8119999969,14,180481.5312500000,164296.0000000000,194114.1562500000,179859.8125000000,168126.1875000000,138573.6406250000,162137.7031250000,151546.2812500000,,,
1.8159999971,14,180503.2031250000,164313.1718750000,194146.1406250000,179888.0781250000,168158.1406250000,138595.4687500000,162181.3437500000,151298.3593750000,,,
1.8199999970,14,180502.6093750000,164312.8125000000,194152.9375000000,179875.7500000000,168166.2187500000,138610.0937500000,162207.5312500000,150781.2343750000,,,
1.8239999970,14,180462.8593750000,164280.0468750000,194108.4843750000,179820.0312500000,168123.1093750000,138580.2656250000,162177.7500000000,150756.4218750000,,,
1.8279999970,14,180452.1875000000,164272.6875000000,194090.4062500000,179823.8437500000,168104.4687500000,138562.9687500000,162159.2500000000,151248.2656250000,,,
1.8319999969,14,180478.4687500000,164295.4687500000,194115.8593750000,179854.7500000000,168129.3281250000,138579.4531250000,162179.8906250000,151576.1250000000,,,
1.8359999971,14,180494.5625000000,164308.2031250000,194138.8281250000,179873.3125000000,168153.0468750000,138596.2500000000,162185.6718750000,151312.8437500000,,,
1.8399999971,14,180506.0625000000,164317.2500000000,194162.0312500000,179880.4375000000,168176.1406250000,138609.5781250000,162149.6093750000,150766.1562500000,,,
1.8439999970,14,180490.0000000000,164306.2187500000,194142.3125000000,179843.7968750000,168155.1562500000,138591.6562500000,162147.8437500000,150687.1093750000,,,
1.8479999970,14,180475.1406250000,164293.6718750000,194112.3750000000,179835.4062500000,168123.0625000000,138572.3437500000,162181.4218750000,151147.4375000000,,,
1.8519999969,14,180495.5000000000,164308.6406250000,194129.2187500000,179866.4687500000,168136.7343750000,138589.6718750000,162203.4218750000,151466.2656250000,,,
1.8559999969,14,180531.2500000000,164342.7187500000,194168.3593750000,179894.9062500000,168174.8750000000,138626.6718750000,162228.0781250000,151176.4062500000,,,
1.8599999971,14,180529.5312500000,164342.8906250000,194174.1250000000,179885.1875000000,168181.2812500000,138623.2343750000,162220.0468750000,150624.3750000000,,,
1.8639999970,14,180509.1250000000,164324.3281250000,194154.7812500000,179863.4843750000,168164.0156250000,138601.3437500000,162179.0937500000,150527.0156250000,,,
1.8679999970,14,180484.1562500000,164298.8750000000,194121.6562500000,179854.3750000000,168132.2031250000,138576.1406250000,162137.8750000000,150973.1406250000,,,
1.8719999969,14,180461.2812500000,164271.6406250000,194097.9687500000,179842.8437500000,168107.1718750000,138545.3125000000,162124.9687500000,151305.8125000000,,,
1.8759999969,14,179501.2343750000,163326.1875000000,193127.4375000000,178883.5937500000,167138.7343750000,137601.7343750000,161163.1718750000,150943.9062500000,,,
1.8799999971,14,179308.7031250000,163122.7812500000,192954.8906250000,178682.7031250000,166962.2500000000,137412.1562500000,161011.2812500000,150358.2968750000,,,
1.8839999971,14,179846.8125000000,163664.2343750000,193486.6406250000,179208.6875000000,167494.7968750000,137941.0468750000,161559.8281250000,150337.5937500000,,,
1.8879999970,14,180033.5937500000,163854.2656250000,193664.6718750000,179397.1875000000,167673.7343750000,138131.0468750000,161720.9375000000,150847.5625000000,,,
1.8919999970,14,180178.8437500000,163996.2656250000,193812.5625000000,179544.2187500000,167820.6875000000,138278.4687500000,161826.3281250000,151211.1406250000,,,
1.8959999969,14,180289.3750000000,164101.4375000000,193926.9531250000,179654.8125000000,167934.4218750000,138387.6250000000,161954.0312500000,150959.6250000000,,,
1.8999999969,14,180330.1093750000,164143.0625000000,193972.8281250000,179692.0156250000,167980.6875000000,138437.3281250000,162025.3281250000,150456.2812500000,,,
1.9039999971,14,180349.1875000000,164169.6093750000,193990.4218750000,179710.6562500000,167999.9218750000,138460.1875000000,162037.3906250000,150426.4218750000,,,
1.9079999970,14,180365.1406250000,164187.9375000000,193997.7187500000,179741.0156250000,168006.2968750000,138472.1250000000,162045.8906250000,150929.9531250000,,,
1.9119999970,14,180409.9062500000,164229.4218750000,194041.2187500000,179792.1406250000,168047.8437500000,138507.2500000000,162067.4843750000,151278.6250000000,,,
1.9159999969,14,180450.2968750000,164262.8281250000,194088.9843750000,179827.2031250000,168093.5468750000,138537.8281250000,162106.8125000000,151037.5781250000,,,
1.9199999969,15,180455.7812500000,164269.0156250000,194098.3281250000,179837.0625000000,168101.8906250000,138551.7187500000,162144.0937500000,150542.0625000000,,,
1.9239999969,15,180466.5625000000,164285.6718750000,194105.2968750000,179846.1875000000,168107.3125000000,138559.9062500000,162152.8593750000,150461.5468750000,,,
1.9279999968,15,180452.5000000000,164270.7343750000,194086.6250000000,179817.1093750000,168090.1406250000,138541.2343750000,162109.0937500000,150939.8906250000,,,
1.9319999968,15,180463.1250000000,164276.9062500000,194092.5000000000,179840.3125000000,168096.4687500000,138554.7031250000,162125.5000000000,151294.2031250000,,,
1.9359999967,15,180493.5625000000,164304.9843750000,194124.8437500000,179880.5156250000,168125.7343750000,138581.9218750000,162161.9843750000,151063.0468750000,,,
1.9399999967,15,180510.0937500000,164316.1406250000,194150.0156250000,179894.7968750000,168151.0312500000,138592.5156250000,162166.0625000000,150522.0468750000,,,
1.9439999969,15,180498.5781250000,164307.8750000000,194138.6093750000,179874.1718750000,168142.3125000000,138578.6562500000,162124.7500000000,150437.0781250000,,,
1.9479999968,15,180470.7187500000,164283.7656250000,194101.2500000000,179844.9843750000,168104.2812500000,138548.1250000000,162122.0937500000,150945.8437500000,,,
1.9519999968,15,180483.0468750000,164293.7187500000,194109.7031250000,179877.2968750000,168113.1562500000,138564.6562500000,162146.1562500000,151335.0625000000,,,
1.9559999967,15,180517.0156250000,164322.2812500000,194151.2187500000,179900.3750000000,168154.2500000000,138595.6093750000,162170.7500000000,151108.0000000000,,,
1.9599999967,15,180525.5156250000,164330.8125000000,194163.1562500000,179899.7500000000,168165.5156250000,138607.6250000000,162183.7812500000,150585.7500000000,,,
1.9639999969,15,180497.4062500000,164305.7343750000,194134.9062500000,179867.3281250000,168140.1718750000,138590.1875000000,162147.9062500000,150495.1718750000,,,
1.9679999969,15,180466.7656250000,164277.7031250000,194097.6875000000,179837.0156250000,168103.4531250000,138561.6250000000,162101.2812500000,150985.8281250000,,,
1.9719999968,15,180508.3125000000,164316.9218750000,194135.8750000000,179881.2656250000,168138.4218750000,138590.7187500000,162177.5312500000,151354.4218750000,,,
1.9759999968,15,180518.9687500000,164324.8906250000,194150.3281250000,179882.9375000000,168153.7187500000,138598.4687500000,162185.2343750000,151159.0781250000,,,
1.9799999967,15,180507.0312500000,164308.7656250000,194147.2812500000,179840.6093750000,168151.9218750000,138590.1875000000,162174.5625000000,150686.1718750000,,,
1.9839999967,15,180486.0625000000,164291.7656250000,194124.7968750000,179825.1406250000,168131.4531250000,138570.7343750000,162122.2343750000,150610.3281250000,,,
1.9879999969,15,180469.9687500000,164280.9218750000,194102.0000000000,179820.2031250000,168108.8437500000,138554.4062500000,162086.9375000000,151051.0937500000,,,
1.9919999968,15,180498.3750000000,164305.7343750000,194127.6875000000,179870.7031250000,168130.7343750000,138572.7031250000,162155.8593750000,151386.2656250000,,,
1.9959999968,15,180536.8906250000,164341.2812500000,194173.9687500000,179908.0156250000,168174.1562500000,138609.2343750000,162209.8593750000,151138.0781250000,,,
1.9999999967,15,180533.3125000000,164340.2031250000,194179.3281250000,179899.4843750000,168181.4218750000,138615.7968750000,162213.5312500000,150605.3593750000,,,
2.0039999967,15,180500.6562500000,164312.5000000000,194144.3750000000,179857.2656250000,168152.2343750000,138596.2812500000,162170.4375000000,150509.1718750000,,,
2.0079999969,15,180490.7500000000,164305.2812500000,194125.0156250000,179868.6406250000,168134.7812500000,138581.6562500000,162145.5312500000,150954.5312500000,,,
2.0119999968,15,180498.2343750000,164310.2500000000,194128.6875000000,179880.7343750000,168135.1562500000,138582.5468750000,162146.8281250000,151331.4375000000,,,
2.0159999968,15,180526.9375000000,164334.5468750000,194162.8906250000,179904.2343750000,168167.3125000000,138605.6718750000,162172.0312500000,151114.9218750000,,,
2.0199999968,15,180535.8593750000,164339.5000000000,194177.7187500000,179899.7812500000,168182.5781250000,138613.3593750000,162180.4687500000,150594.1406250000,,,
2.0239999967,15,180521.1093750000,164329.3125000000,194159.0468750000,179881.8437500000,168164.4687500000,138606.3593750000,162163.9062500000,150480.8281250000,,,
2.0279999967,15,180509.2812500000,164319.5781250000,194146.0625000000,179877.2187500000,168150.8750000000,138591.3750000000,162134.0781250000,150941.7031250000,,,
2.0319999969,15,180529.2968750000,164336.8437500000,194164.7812500000,179893.0781250000,168167.1250000000,138602.5781250000,162148.1406250000,151307.3437500000,,,
2.0359999968,15,180555.8281250000,164356.2968750000,194192.9218750000,179932.6093750000,168194.6250000000,138629.5625000000,162189.0156250000,151098.7500000000,,,
2.0399999968,15,180545.0468750000,164341.6250000000,194183.5625000000,179925.6093750000,168189.2343750000,138632.3281250000,162212.0625000000,150587.2343750000,,,
2.0439999967,15,180512.7656250000,164317.3437500000,194148.9843750000,179879.2812500000,168155.9062500000,138609.1718750000,162211.6562500000,150479.6718750000,,,
2.0479999967,16,180504.5937500000,164311.1875000000,194135.5781250000,179867.9687500000,168143.2500000000,138598.2812500000,162182.5468750000,150910.4687500000,,,
2.0519999966,16,180524.6250000000,164325.1093750000,194158.2500000000,179889.1250000000,168164.0937500000,138605.2656250000,162188.7500000000,151271.0625000000,,,
2.0559999966,16,180552.7656250000,164349.0468750000,194195.7968750000,179919.1406250000,168201.2656250000,138629.9687500000,162206.0781250000,151077.1406250000,,,
2.0599999966,16,180562.5312500000,164363.6718750000,194206.4687500000,179939.4531250000,168213.5000000000,138635.5468750000,162193.7187500000,150580.6093750000,,,
2.0639999965,16,180549.4062500000,164352.4062500000,194191.0468750000,179925.9843750000,168196.7343750000,138626.2656250000,162206.3125000000,150459.2343750000,,,
2.0679999965,16,180521.8125000000,164328.1875000000,194156.1250000000,179869.7968750000,168161.8906250000,138602.2812500000,162170.1875000000,150905.9062500000,,,
2.0719999967,16,180532.8593750000,164338.3593750000,194166.7500000000,179877.7812500000,168173.0781250000,138616.2031250000,162156.7187500000,151275.5156250000,,,
2.0759999966,16,180547.1250000000,164348.7656250000,194186.9687500000,179892.0625000000,168191.6093750000,138630.8437500000,162189.4687500000,151086.6875000000,,,
2.0799999966,16,180534.3125000000,164336.8437500000,194177.6562500000,179875.8593750000,168181.5312500000,138619.0156250000,162216.0781250000,150643.7343750000,,,
2.0839999965,16,180506.9531250000,164313.0312500000,194147.7812500000,179846.5625000000,168151.2500000000,138596.3593750000,162189.0156250000,150592.1562500000,,,
2.0879999965,16,180500.4843750000,164309.3906250000,194132.5468750000,179848.6875000000,168135.6093750000,138587.4843750000,162162.4375000000,151042.5312500000,,,
2.0919999967,16,180516.8281250000,164323.9531250000,194145.6718750000,179880.6562500000,168147.5781250000,138597.7031250000,162169.7031250000,151434.2500000000,,,
2.0959999966,16,180546.8437500000,164347.1250000000,194183.0625000000,179911.8281250000,168184.0000000000,138617.9218750000,162193.3593750000,151262.0937500000,,,
2.0999999966,16,180561.9843750000,164360.1562500000,194206.5312500000,179927.8125000000,168209.3125000000,138633.7812500000,162209.4531250000,150752.5312500000,,,
2.1039999966,16,180526.2343750000,164330.1406250000,194172.9375000000,179871.8906250000,168178.9062500000,138607.4062500000,162167.2187500000,150636.5781250000,,,
2.1079999965,16,180502.6875000000,164308.0625000000,194148.0000000000,179837.9531250000,168157.1718750000,138586.1093750000,162070.3281250000,151107.2031250000,,,
2.1119999965,16,180517.3281250000,164323.2187500000,194153.1406250000,179881.1718750000,168161.5781250000,138599.2500000000,162156.2968750000,151520.7656250000,,,
2.1159999967,16,180529.7500000000,164334.6250000000,194164.0937500000,179904.1562500000,168168.4687500000,138614.3593750000,162225.2343750000,151371.9375000000,,,
2.1199999966,16,180531.2812500000,164335.1562500000,194172.8593750000,179897.2343750000,168177.8593750000,138621.3593750000,162218.2500000000,150896.8593750000,,,
2.1239999966,16,180522.6406250000,164325.7968750000,194165.0781250000,179880.7656250000,168172.7343750000,138618.8281250000,162195.1406250000,150752.2343750000,,,
2.1279999965,16,180510.1093750000,164315.0468750000,194145.7187500000,179882.3125000000,168152.4531250000,138602.8750000000,162165.9218750000,151169.4843750000,,,
2.1319999965,16,180524.6250000000,164325.3906250000,194156.6406250000,179896.8906250000,168161.2031250000,138612.9843750000,162175.5781250000,151559.8750000000,,,
2.1359999967,16,180545.2343750000,164339.7500000000,194184.2031250000,179905.5468750000,168189.1718750000,138622.3281250000,162198.4531250000,151399.8281250000,,,
2.1399999966,16,180550.7812500000,164344.2812500000,194193.6250000000,179907.0000000000,168201.1875000000,138624.7343750000,162211.3125000000,150894.6406250000,,,
2.1439999966,16,180536.6718750000,164335.9375000000,194180.0000000000,179892.8593750000,168189.2500000000,138621.4843750000,162201.4062500000,150735.0781250000,,,
2.1479999966,16,180509.0781250000,164312.7031250000,194144.9687500000,179865.8281250000,168154.6562500000,138595.4687500000,162165.4687500000,151125.8437500000,,,
2.1519999965,16,180520.2812500000,164319.5000000000,194153.2500000000,179879.1875000000,168161.7343750000,138596.5781250000,162172.8437500000,151484.1562500000,,,
2.1559999965,16,180541.5312500000,164338.0625000000,194181.5468750000,179903.9062500000,168188.8281250000,138611.9375000000,162177.8281250000,151323.1718750000,,,
2.1599999967,16,180550.3281250000,164349.4375000000,194193.4687500000,179910.4843750000,168203.9218750000,138622.6093750000,162178.5625000000,150847.6093750000,,,
2.1639999966,16,180531.9531250000,164336.3906250000,194171.3593750000,179891.6875000000,168180.8593750000,138611.8281250000,162180.9375000000,150708.2031250000,,,
2.1679999966,16,180522.1562500000,164330.2812500000,194155.3750000000,179887.8750000000,168161.9531250000,138598.4531250000,162171.7187500000,151096.1562500000,,,
2.1719999965,16,180538.2031250000,164344.7656250000,194168.3281250000,179927.2500000000,168173.1875000000,138610.2187500000,162167.4843750000,151473.0781250000,,,
2.1759999965,17,180557.1093750000,164361.0156250000,194191.2656250000,179939.8750000000,168194.4843750000,138624.7031250000,162167.9375000000,151321.4218750000,,,
2.1799999964,17,180549.6562500000,164356.7500000000,194191.1875000000,179900.0156250000,168197.3593750000,138624.5468750000,162160.5625000000,150829.0625000000,,,
2.1839999964,17,180534.1250000000,164339.8750000000,194172.5468750000,179881.2656250000,168181.3125000000,138615.5312500000,162199.0000000000,150670.5937500000,,,
2.1879999964,17,180524.9531250000,164332.4843750000,194153.9062500000,179885.5312500000,168160.0781250000,138606.7031250000,162187.0312500000,151066.5625000000,,,
2.1919999963,17,180538.6562500000,164344.2812500000,194165.7031250000,179894.6093750000,168168.6562500000,138610.4062500000,162166.0781250000,151422.9843750000,,,
2.1959999963,17,180561.4531250000,164361.6093750000,194199.2812500000,179919.5781250000,168201.0625000000,138627.6562500000,162180.7031250000,151251.7500000000,,,
2.1999999965,17,180552.7343750000,164352.6718750000,194197.8125000000,179917.9375000000,168201.4375000000,138623.9531250000,162206.0468750000,150753.4375000000,,,
2.2039999964,17,180528.4843750000,164332.6406250000,194168.1406250000,179894.1406250000,168176.3281250000,138603.6562500000,162195.5625000000,150586.0781250000,,,
2.2079999964,17,180520.3906250000,164326.7968750000,194150.7343750000,179902.4687500000,168160.1250000000,138591.7968750000,162154.1250000000,150977.2187500000,,,
2.2119999963,17,180526.7656250000,164331.4375000000,194158.1562500000,179903.6406250000,168165.4375000000,138595.9843750000,162134.6562500000,151373.1093750000,,,
2.2159999963,17,180548.2656250000,164344.2812500000,194189.6250000000,179908.8125000000,168194.0000000000,138608.0781250000,162185.8593750000,151233.2656250000,,,
2.2199999965,17,180553.0781250000,164352.6250000000,194196.5000000000,179905.3906250000,168201.9062500000,138617.2500000000,162217.9843750000,150750.0937500000,,,
2.2239999964,17,180536.1875000000,164338.7500000000,194179.2187500000,179878.9687500000,168186.0937500000,138608.1875000000,162194.5625000000,150575.7187500000,,,
2.2279999964,17,180517.8125000000,164315.7656250000,194152.3125000000,179873.5468750000,168160.9375000000,138583.9375000000,162139.0156250000,150974.7500000000,,,
2.2319999964,17,180531.7656250000,164328.0468750000,194161.6562500000,179902.3281250000,168167.6875000000,138584.5312500000,162150.3437500000,151397.2500000000,,,
2.2359999963,17,180571.5625000000,164363.1406250000,194208.9062500000,179940.2500000000,168209.0468750000,138624.7343750000,162219.1875000000,151256.4375000000,,,
2.2399999963,17,180569.5312500000,164364.3437500000,194209.7656250000,179929.3906250000,168209.0156250000,138628.9531250000,162208.3281250000,150785.4375000000,,,
2.2439999965,17,180548.5312500000,164350.7187500000,194185.0468750000,179906.4062500000,168188.2343750000,138612.1875000000,162166.0625000000,150658.6562500000,,,
2.2479999964,17,180519.2968750000,164319.3593750000,194150.1718750000,179898.8125000000,168155.4531250000,138576.1093750000,162142.7500000000,151093.2031250000,,,
2.2519999964,17,180520.2500000000,164317.3437500000,194151.0000000000,179898.8437500000,168153.6562500000,138569.9843750000,162124.2187500000,151539.3281250000,,,
2.2559999963,17,180556.3906250000,164350.1250000000,194191.6875000000,179931.7500000000,168192.8437500000,138599.0625000000,162152.5156250000,151432.2812500000,,,
2.2599999963,17,180553.8125000000,164350.2656250000,194191.8593750000,179901.1406250000,168196.5468750000,138606.8437500000,162211.7968750000,150927.2187500000,,,
2.2639999965,17,180537.4531250000,164341.0312500000,194174.3593750000,179873.4062500000,168180.9687500000,138598.0156250000,162207.3125000000,150737.3281250000,,,
2.2679999964,17,180520.1718750000,164326.2500000000,194149.9218750000,179863.5468750000,168156.2656250000,138584.6093750000,162165.5781250000,151140.5156250000,,,
2.2719999964,17,180533.1875000000,164337.3281250000,194159.1250000000,179880.0937500000,168164.0156250000,138594.4843750000,162148.7343750000,151580.8593750000,,,
2.2759999963,17,180563.4687500000,164361.7343750000,194198.7500000000,179932.0781250000,168200.0156250000,138614.0000000000,162167.0468750000,151457.0625000000,,,
2.2799999963,17,180579.9687500000,164377.4843750000,194226.4062500000,179887.8437500000,168226.5312500000,138627.7968750000,162191.5312500000,150958.8437500000,,,
2.2839999963,17,180552.2031250000,164353.1875000000,194190.2656250000,179874.0000000000,168198.6406250000,138613.9843750000,162172.3593750000,150763.0000000000,,,
2.2879999964,17,180525.0000000000,164326.0625000000,194153.8437500000,179885.0000000000,168165.5156250000,138588.0937500000,162142.4062500000,151146.6093750000,,,
2.2919999964,17,180542.9531250000,164343.7968750000,194167.9218750000,179921.6406250000,168179.2812500000,138597.7031250000,162173.8437500000,151546.2031250000,,,
2.2959999964,17,180563.6562500000,164362.4687500000,194197.3437500000,179915.2500000000,168204.0312500000,138613.7343750000,162205.9687500000,151430.5156250000,,,
2.2999999963,17,180570.7031250000,164371.0781250000,194213.6562500000,179891.6562500000,168221.0937500000,138626.6875000000,162193.1718750000,150925.4218750000,,,
2.3039999963,18,180543.5156250000,164340.8437500000,194185.9218750000,179880.2343750000,168194.0781250000,138604.8125000000,162191.4375000000,150754.8437500000,,,
2.3079999962,18,180517.6875000000,164314.8281250000,194150.3593750000,179864.7187500000,168159.7031250000,138577.9531250000,162173.0781250000,151204.2656250000,,,
2.3119999962,18,180523.8437500000,164318.5781250000,194154.9218750000,179874.2656250000,168164.1562500000,138578.8750000000,162165.8750000000,151657.1875000000,,,
2.3159999961,18,180548.3125000000,164338.7812500000,194184.9843750000,179894.6562500000,168192.9062500000,138600.0000000000,162183.4062500000,151539.6875000000,,,
2.3199999961,18,180566.2031250000,164354.0625000000,194208.6093750000,179909.6562500000,168216.5312500000,138618.1562500000,162184.1562500000,151026.7812500000,,,
2.3239999961,18,180565.8593750000,164357.1875000000,194204.9218750000,179914.3125000000,168213.3906250000,138620.4687500000,162202.7031250000,150828.0937500000,,,
2.3279999963,18,180553.4062500000,164346.0781250000,194193.0000000000,179915.1250000000,168201.4531250000,138604.4531250000,162157.0156250000,151198.9062500000,,,
2.3319999962,18,180555.9062500000,164350.1250000000,194193.3281250000,179914.1875000000,168201.1406250000,138603.7656250000,162155.0937500000,151576.5625000000,,,
2.3359999962,18,180562.2343750000,164354.0156250000,194197.7031250000,179911.9531250000,168204.4375000000,138614.5468750000,162212.4062500000,151451.7031250000,,,
2.3399999961,18,180574.1406250000,164363.1562500000,194217.8125000000,179922.8437500000,168221.6250000000,138629.0468750000,162241.7968750000,150922.8750000000,,,
2.3439999961,18,180573.0625000000,164370.4531250000,194219.9062500000,179900.5781250000,168223.4062500000,138634.7968750000,162235.7968750000,150690.5781250000,,,
2.3479999963,18,180570.6875000000,164379.6250000000,194208.8593750000,179890.6562500000,168213.7187500000,138633.8281250000,162202.3281250000,151049.9375000000,,,
2.3519999962,18,180540.5312500000,164343.2343750000,194175.6718750000,179891.8437500000,168182.2031250000,138599.8437500000,162154.1250000000,151494.1875000000,,,
2.3559999962,18,180551.4687500000,164352.0781250000,194188.8281250000,179904.1718750000,168195.9843750000,138610.7656250000,162181.2968750000,151405.6562500000,,,
2.3599999961,18,180586.3437500000,164383.6875000000,194234.4531250000,179915.2031250000,168239.2968750000,138643.9687500000,162224.7187500000,150926.0156250000,,,
2.3639999961,18,180561.7968750000,164358.0468750000,194207.5156250000,179897.4687500000,168214.8437500000,138620.2812500000,162197.1718750000,150685.6875000000,,,
2.3679999961,18,180547.2343750000,164345.3593750000,194183.0781250000,179900.3437500000,168191.8750000000,138600.2656250000,162184.0625000000,151013.7812500000,,,
2.3719999962,18,180560.9375000000,164363.5625000000,194189.0312500000,179923.1718750000,168198.1250000000,138608.7500000000,162182.0468750000,151436.4375000000,,,
2.3759999962,18,180580.0937500000,164379.6093750000,194214.7031250000,179934.9687500000,168223.6406250000,138631.0937500000,162180.4062500000,151347.1250000000,,,
2.3799999962,18,180574.1718750000,164367.6093750000,194217.9218750000,179915.4687500000,168226.1093750000,138628.8437500000,162209.1562500000,150889.3281250000,,,
2.3839999961,18,180565.1875000000,164367.0000000000,194208.0000000000,179872.3750000000,168215.3750000000,138628.7343750000,162225.9843750000,150720.6406250000,,,
2.3879999961,18,180553.0000000000,164363.0000000000,194187.9687500000,179867.0781250000,168197.6562500000,138627.7343750000,162195.8281250000,151072.0937500000,,,
2.3919999963,18,180576.6875000000,164386.4218750000,194207.0937500000,179902.8437500000,168217.2812500000,138639.0625000000,162205.8281250000,151474.2343750000,,,
2.3959999962,18,180559.2343750000,164354.4687500000,194198.1093750000,179918.5312500000,168209.9843750000,138614.6562500000,162193.6875000000,151377.1718750000,,,
2.3999999962,18,180551.5312500000,164339.0468750000,194200.2187500000,179914.6875000000,168212.5937500000,138609.9531250000,162175.4218750000,150905.7656250000,,,
2.4039999961,18,180521.0312500000,164311.6875000000,194168.1093750000,179869.0468750000,168183.2968750000,138585.3593750000,162146.0781250000,150704.6562500000,,,
2.4079999961,18,180505.6093750000,164303.9062500000,194141.7500000000,179840.0781250000,168155.9375000000,138578.2187500000,162158.4062500000,151064.9531250000,,,
2.4119999961,18,180525.5468750000,164326.0625000000,194157.2500000000,179869.6562500000,168167.3437500000,138593.3593750000,162185.9843750000,151482.0156250000,,,
2.4159999962,18,180548.0625000000,164346.7812500000,194183.1093750000,179904.9375000000,168191.6718750000,138608.6406250000,162212.3593750000,151425.9843750000,,,
2.4199999962,18,180559.2812500000,164352.6250000000,194205.6875000000,179912.7812500000,168213.5312500000,138622.0312500000,162228.0156250000,150942.4531250000,,,
2.4239999962,18,180539.3281250000,164337.6875000000,194185.5156250000,179886.3437500000,168194.9375000000,138608.0468750000,162200.2031250000,150713.0000000000,,,
2.4279999961,18,180516.3906250000,164316.1406250000,194154.8906250000,179861.7656250000,168164.8125000000,138588.9218750000,162160.4218750000,151086.4375000000,,,
2.4319999961,19,180515.2343750000,164316.3906250000,194151.3750000000,179857.8281250000,168161.2187500000,138589.0625000000,162157.0781250000,151525.7343750000,,,
2.4359999960,19,180562.0781250000,164356.3750000000,194209.8281250000,179895.2812500000,168214.8437500000,138622.8281250000,162224.9531250000,151456.1250000000,,,
2.4399999960,19,180565.9531250000,164359.6718750000,194218.3281250000,179889.2187500000,168222.8906250000,138625.6406250000,162223.3437500000,150988.1718750000,,,
2.4439999959,19,180525.9375000000,164319.7343750000,194176.5156250000,179858.4531250000,168186.1718750000,138596.2031250000,162174.6718750000,150759.6718750000,,,
2.4479999959,19,180507.2812500000,164307.1875000000,194151.1875000000,179854.8593750000,168162.8593750000,138580.3125000000,162148.2968750000,151109.7968750000,,,
2.4519999959,19,180507.2968750000,164309.6718750000,194145.2656250000,179868.6875000000,168155.8593750000,138580.7968750000,162132.0781250000,151552.5781250000,,,
2.4559999960,19,180541.9218750000,164342.7031250000,194178.6250000000,179901.0625000000,168184.9687500000,138613.7968750000,162192.1562500000,151459.9687500000,,,
2.4599999960,19,180562.4687500000,164364.7187500000,194204.0000000000,179903.6406250000,168208.7500000000,138637.1250000000,162234.9843750000,150951.7656250000,,,
2.4639999960,19,180543.5312500000,164347.5312500000,194187.3750000000,179889.6406250000,168192.2656250000,138625.0000000000,162214.4218750000,150744.2187500000,,,
2.4679999959,19,180513.1406250000,164313.5156250000,194156.6093750000,179877.0937500000,168163.1562500000,138589.9687500000,162161.4218750000,151113.3906250000,,,
2.4719999959,19,180527.6562500000,164325.3125000000,194170.2812500000,179883.1562500000,168177.8750000000,138595.9218750000,162163.9375000000,151553.8906250000,,,
2.4759999961,19,180564.1562500000,164353.8593750000,194211.7812500000,179927.0625000000,168219.0312500000,138623.4218750000,162220.6093750000,151465.2187500000,,,
2.4799999960,19,180573.6093750000,164362.0625000000,194227.6875000000,179915.3906250000,168234.9531250000,138632.6406250000,162255.7187500000,150978.5625000000,,,
2.4839999960,19,180550.0625000000,164343.0937500000,194205.3125000000,179877.7343750000,168215.5468750000,138617.6875000000,162229.2500000000,150743.3906250000,,,
2.4879999959,19,180519.9531250000,164320.1718750000,194163.4218750000,179854.9843750000,168175.8437500000,138591.7187500000,162181.2656250000,151117.0937500000,,,
2.4919999959,19,180507.2968750000,164310.9062500000,194142.1250000000,179849.6718750000,168155.4531250000,138578.7812500000,162152.1875000000,151629.2656250000,,,
2.4959999959,19,180531.5781250000,164329.6875000000,194169.7187500000,179888.2187500000,168179.8437500000,138596.3281250000,162185.5000000000,151606.7343750000,,,
2.4999999960,19,180548.8281250000,164344.7656250000,194195.6406250000,179894.8750000000,168203.1406250000,138621.2187500000,162214.6093750000,151140.5937500000,,,
2.5039999960,19,180531.0937500000,164333.8437500000,194182.0312500000,179871.8593750000,168190.0625000000,138610.5781250000,162207.7968750000,150908.9843750000,,,
2.5079999960,19,180517.4062500000,164323.8906250000,194162.2343750000,179878.7500000000,168168.8125000000,138596.7656250000,162191.4062500000,151257.0625000000,,,
2.5119999959,19,180530.7656250000,164333.5000000000,194169.5156250000,179906.0000000000,168176.6406250000,138601.8593750000,162194.3750000000,151679.3906250000,,,
2.5159999959,19,180546.1718750000,164345.2656250000,194190.7812500000,179911.6875000000,168198.7812500000,138613.2500000000,162212.2187500000,151609.0937500000,,,
2.5199999961,19,180568.4062500000,164367.6093750000,194222.8281250000,179912.8437500000,168230.0468750000,138638.7031250000,162236.7656250000,151128.7968750000,,,
2.5239999960,19,180553.2187500000,164354.5312500000,194211.4375000000,179881.4531250000,168221.7656250000,138626.1875000000,162195.0312500000,150888.6875000000,,,
2.5279999960,19,180525.9375000000,164328.8593750000,194177.3750000000,179859.7656250000,168190.6562500000,138598.9843750000,162131.6406250000,151234.7343750000,,,
2.5319999959,19,180531.9531250000,164337.7343750000,194172.9218750000,179879.0937500000,168183.8125000000,138602.8437500000,162180.0000000000,151688.0937500000,,,
2.5359999959,19,180546.7031250000,164351.6250000000,194189.0625000000,179887.9531250000,168195.9062500000,138621.4687500000,162241.9687500000,151643.2656250000,,,
2.5399999958,19,180563.4687500000,164368.6093750000,194211.5625000000,179901.2500000000,168216.4531250000,138645.2500000000,162254.9687500000,151148.8593750000,,,
2.5439999960,19,180547.8593750000,164358.4218750000,194193.5156250000,179891.7343750000,168198.7812500000,138635.5468750000,162225.5000000000,150915.9531250000,,,
2.5479999960,19,180521.9687500000,164332.5625000000,194164.2187500000,179863.7343750000,168171.2500000000,138606.0625000000,162182.0937500000,151280.1562500000,,,
2.5519999960,19,180529.7031250000,164341.8437500000,194171.2031250000,179861.7500000000,168179.9218750000,138607.6718750000,162175.3906250000,151735.2187500000,,,
2.5559999959,19,180552.7343750000,164356.3437500000,194193.5468750000,179907.0156250000,168204.1406250000,138618.9375000000,162207.5000000000,151671.6718750000,,,
2.5599999959,20,180559.0468750000,164355.1718750000,194204.8125000000,179931.3750000000,168216.2031250000,138626.0468750000,162229.2500000000,151165.7500000000,,,
2.5639999958,20,180545.3906250000,164346.0156250000,194193.3593750000,179906.4375000000,168206.7968750000,138624.2812500000,162213.4062500000,150897.4843750000,,,
2.5679999958,20,180535.2031250000,164339.5937500000,194178.9843750000,179889.2968750000,168193.7343750000,138616.9531250000,162187.1093750000,151207.5156250000,,,
2.5719999957,20,180540.5312500000,164340.4218750000,194184.6875000000,179886.4218750000,168196.2031250000,138617.5000000000,162188.2187500000,151646.0781250000,,,
2.5759999957,20,180570.6875000000,164364.5625000000,194219.1093750000,179920.7500000000,168226.5937500000,138643.4843750000,162213.1562500000,151576.9062500000,,,
2.5799999957,20,180573.5468750000,164368.0937500000,194230.5625000000,179916.9687500000,168235.5781250000,138651.5312500000,162222.4843750000,151085.7187500000,,,
2.5839999958,20,180564.1406250000,164360.6093750000,194222.8281250000,179904.4687500000,168227.4218750000,138645.9843750000,162226.2656250000,150802.0781250000,,,
2.5879999958,20,180542.0312500000,164346.7812500000,194193.2187500000,179882.5625000000,168198.5625000000,138628.8125000000,162219.0781250000,151135.7343750000,,,
2.5919999958,20,180554.0468750000,164358.3125000000,194200.8437500000,179908.3437500000,168206.4687500000,138636.8281250000,162220.8281250000,151563.9062500000,,,
2.5959999957,20,180575.2187500000,164372.9843750000,194225.0312500000,179927.4531250000,168227.8437500000,138652.5156250000,162248.7500000000,151499.2812500000,,,
2.5999999957,20,180575.7500000000,164372.7656250000,194234.0781250000,179913.0312500000,168235.7031250000,138656.0312500000,162258.2656250000,151043.8750000000,,,
2.6039999959,20,180569.8437500000,164373.3281250000,194230.5625000000,179910.6718750000,168233.3750000000,138658.6406250000,162241.2656250000,150765.7343750000,,,
2.6079999958,20,180545.7031250000,164354.0937500000,194199.8125000000,179896.5625000000,168202.7187500000,138637.4531250000,162198.8125000000,151075.3906250000,,,
2.6119999958,20,180559.6093750000,164365.8750000000,194207.6250000000,179930.2812500000,168209.0156250000,138646.2656250000,162205.1093750000,151506.4531250000,,,
2.6159999957,20,180591.3593750000,164395.1093750000,194239.2812500000,179963.9062500000,168238.7968750000,138680.7968750000,162238.6875000000,151414.3125000000,,,
2.6199999957,20,180583.1250000000,164386.8437500000,194238.6093750000,179934.0312500000,168237.9062500000,138676.9843750000,162222.8125000000,150913.9531250000,,,
2.6239999956,20,180559.6562500000,164367.6406250000,194215.6718750000,179902.0937500000,168217.2343750000,138655.0156250000,162216.8281250000,150651.7343750000,,,
2.6279999958,20,180526.6718750000,164336.9843750000,194172.3593750000,179881.5937500000,168176.9687500000,138622.3750000000,162209.8593750000,150977.5156250000,,,
2.6319999958,20,180539.6250000000,164348.2968750000,194180.0781250000,179900.7187500000,168186.9218750000,138634.3125000000,162233.0000000000,151414.9062500000,,,
2.6359999957,20,180572.1562500000,164373.4843750000,194218.0781250000,179932.5781250000,168226.2656250000,138664.6718750000,162266.6875000000,151357.8593750000,,,
2.6399999957,20,180585.2656250000,164379.3437500000,194238.1406250000,179933.6562500000,168248.5781250000,138677.3125000000,162268.0156250000,150849.4687500000,,,
2.6439999957,20,180551.0937500000,164344.5781250000,194205.4218750000,179882.0468750000,168216.4531250000,138652.6562500000,162240.2968750000,150570.9531250000,,,
2.6479999959,20,180530.8750000000,164325.0000000000,194180.3125000000,179870.5468750000,168190.1406250000,138634.2500000000,162218.1718750000,150879.4218750000,,,
2.6519999958,20,180554.3750000000,164347.2343750000,194200.1093750000,179931.4843750000,168207.4062500000,138644.2031250000,162212.7812500000,151327.5468750000,,,
2.6559999958,20,180589.1093750000,164376.1250000000,194239.5625000000,179963.0000000000,168244.5000000000,138672.2031250000,162246.2500000000,151292.2812500000,,,
2.6599999957,20,180575.7812500000,164358.7656250000,194235.5156250000,179910.1406250000,168242.2812500000,138668.2656250000,162260.6562500000,150803.9531250000,,,
2.6639999957,20,180564.3437500000,164351.6093750000,194226.7187500000,179892.4375000000,168234.9843750000,138665.2968750000,162218.0937500000,150505.7968750000,,,
2.6679999956,20,180549.0625000000,164343.4531250000,194201.5937500000,179878.6250000000,168210.3125000000,138651.0781250000,162173.4843750000,150826.1093750000,,,
2.6719999958,20,180545.9218750000,164337.1250000000,194191.3906250000,179876.7656250000,168198.8281250000,138643.4843750000,162230.8593750000,151290.7968750000,,,
2.6759999958,20,180560.2812500000,164347.3593750000,194209.7656250000,179902.6562500000,168214.2812500000,138653.2187500000,162247.3281250000,151263.0156250000,,,
2.6799999957,20,180560.2187500000,164347.2343750000,194219.7812500000,179901.0468750000,168223.3437500000,138653.2812500000,162230.6406250000,150809.9375000000,,,
2.6839999957,20,180555.7656250000,164347.1250000000,194217.2031250000,179895.3281250000,168219.3281250000,138651.1250000000,162236.8906250000,150548.7968750000,,,
2.6879999957,21,180538.9843750000,164334.0000000000,194189.5937500000,179881.9218750000,168193.5156250000,138632.2187500000,162215.1093750000,150869.7500000000,,,
2.6919999956,21,180543.3281250000,164339.1875000000,194187.1562500000,179893.7968750000,168190.8593750000,138631.5156250000,162210.9843750000,151319.2343750000,,,
2.6959999956,21,180569.2656250000,164365.2812500000,194215.4843750000,179918.0000000000,168217.9843750000,138655.7187500000,162234.1250000000,151305.7656250000,,,
2.6999999955,21,180567.4062500000,164364.0468750000,194224.0312500000,179905.6875000000,168225.1093750000,138664.1093750000,162240.5156250000,150866.5312500000,,,
2.7039999955,21,180548.5312500000,164350.8750000000,194206.6562500000,179886.4687500000,168208.7031250000,138653.6250000000,162206.4531250000,150599.7031250000,,,
2.7079999954,21,180526.8750000000,164337.9218750000,194172.6718750000,179879.7656250000,168177.1562500000,138636.8906250000,162175.9062500000,150916.3281250000,,,
2.7119999956,21,180530.6562500000,164339.4531250000,194167.9843750000,179883.0625000000,168171.7343750000,138636.6718750000,162197.2031250000,151372.3125000000,,,
2.7159999956,21,180563.9687500000,164370.3281250000,194203.5468750000,179913.5468750000,168205.3437500000,138667.5625000000,162234.5625000000,151327.4687500000,,,
2.7199999955,21,180565.3750000000,164369.4062500000,194214.7812500000,179903.9375000000,168217.0937500000,138669.6406250000,162236.2812500000,150845.0625000000,,,
2.7239999955,21,180555.3437500000,164360.0468750000,194211.7343750000,179874.2968750000,168215.1875000000,138657.4843750000,162192.0156250000,150546.2656250000,,,
2.7279999955,21,180540.6875000000,164342.4218750000,194193.0937500000,179870.7031250000,168197.8906250000,138636.1406250000,162174.0000000000,150839.2500000000,,,
2.7319999957,21,180547.1250000000,164345.0625000000,194188.1718750000,179894.4687500000,168194.3750000000,138637.8437500000,162196.7968750000,151311.8593750000,,,
2.7359999956,21,180580.3906250000,164373.4843750000,194222.0312500000,179933.9843750000,168226.2656250000,138666.6562500000,162228.4218750000,151311.1875000000,,,
2.7399999956,21,180582.2343750000,164371.8593750000,194232.7031250000,179917.4062500000,168235.0468750000,138674.9218750000,162259.8750000000,150837.7656250000,,,
2.7439999955,21,180563.5000000000,164351.7968750000,194217.8437500000,179895.8437500000,168217.6093750000,138664.4062500000,162254.6562500000,150525.8906250000,,,
2.7479999955,21,180544.1562500000,164333.8125000000,194192.5781250000,179894.3593750000,168193.2031250000,138644.8750000000,162215.8437500000,150819.6718750000,,,
2.7519999954,21,180559.6875000000,164352.3281250000,194204.4375000000,179921.3750000000,168206.1562500000,138656.5156250000,162221.6562500000,151292.8125000000,,,
2.7559999956,21,180583.4687500000,164367.6718750000,194237.6406250000,179945.0000000000,168237.1250000000,138678.6406250000,162246.9218750000,151265.3125000000,,,
2.7599999956,21,180590.2031250000,164371.8593750000,194257.8125000000,179940.5468750000,168257.2500000000,138685.8593750000,162244.5468750000,150777.5625000000,,,
2.7639999955,21,180557.7812500000,164344.8437500000,194220.8750000000,179903.0781250000,168221.5156250000,138661.0468750000,162241.7031250000,150483.9687500000,,,
2.7679999955,21,180528.8125000000,164318.4218750000,194182.5937500000,179894.1406250000,168182.7031250000,138632.3750000000,162203.8750000000,150814.5468750000,,,
2.7719999955,21,180532.0625000000,164322.1718750000,194180.6718750000,179898.2031250000,168179.4375000000,138629.4843750000,162201.8593750000,151329.3437500000,,,
2.7759999956,21,180560.0625000000,164346.2343750000,194210.1406250000,179934.5156250000,168207.7031250000,138651.2343750000,162241.3750000000,151348.6562500000,,,
2.7799999956,21,180572.8750000000,164360.7812500000,194231.0937500000,179927.9375000000,168229.1406250000,138669.5781250000,162240.1406250000,150893.2968750000,,,
2.7839999956,21,180552.0937500000,164346.3750000000,194212.4218750000,179881.4375000000,168214.0156250000,138659.3906250000,162201.5468750000,150575.7812500000,,,
2.7879999955,21,180525.7812500000,164325.7656250000,194175.7031250000,179857.2656250000,168179.0156250000,138634.9062500000,162207.6093750000,150839.0625000000,,,
2.7919999955,21,180532.3281250000,164335.8281250000,194172.5937500000,179882.0000000000,168175.4062500000,138637.0000000000,162212.9375000000,151312.4375000000,,,
2.7959999954,21,180566.4687500000,164368.3125000000,194210.4062500000,179927.5468750000,168212.9687500000,138669.0156250000,162238.0781250000,151329.3906250000,,,
2.7999999956,21,180572.2343750000,164372.6093750000,194227.1562500000,179913.3593750000,168231.5312500000,138680.6093750000,162243.8125000000,150890.0000000000,,,
2.8039999956,21,180547.2968750000,164351.6093750000,194202.4531250000,179869.6875000000,168209.6875000000,138668.2343750000,162220.8593750000,150615.3437500000,,,
2.8079999955,21,180532.0781250000,164336.1718750000,194180.0468750000,179874.0781250000,168186.7656250000,138653.6250000000,162220.6406250000,150893.5937500000,,,
2.8119999955,21,180537.6875000000,164338.1093750000,194180.7187500000,179888.1718750000,168187.6718750000,138653.2812500000,162222.8593750000,151346.8281250000,,,
2.8159999955,22,180564.5625000000,164361.2812500000,194212.0156250000,179920.0312500000,168217.2343750000,138675.6093750000,162251.5625000000,151360.1093750000,,,
2.8199999954,22,180572.9375000000,164365.7031250000,194231.2343750000,179916.5468750000,168235.3281250000,138685.1093750000,162256.6406250000,150915.3437500000,,,
2.8239999954,22,180547.4843750000,164339.5000000000,194210.1406250000,179876.7968750000,168215.0625000000,138665.9843750000,162219.6250000000,150630.8750000000,,,
2.8279999953,22,180536.6718750000,164332.0781250000,194191.6406250000,179879.0468750000,168198.4843750000,138658.4843750000,162193.2343750000,150935.4375000000,,,
2.8319999953,22,180547.9843750000,164341.2187500000,194199.5000000000,179893.7500000000,168205.2656250000,138667.2968750000,162206.1093750000,151400.7187500000,,,
2.8359999952,22,180566.3593750000,164349.7812500000,194222.0468750000,179904.9375000000,168223.2343750000,138682.2187500000,162275.2968750000,151445.0000000000,,,
2.8399999954,22,180570.2500000000,164350.2656250000,194233.4062500000,179902.5156250000,168235.1250000000,138689.0468750000,162274.0156250000,150991.3593750000,,,
2.8439999954,22,180560.1718750000,164344.5000000000,194223.1875000000,179892.7812500000,168229.3593750000,138683.7656250000,162241.0312500000,150654.2812500000,,,
2.8479999953,22,180534.0937500000,164324.9687500000,194188.1562500000,179873.8437500000,168195.6093750000,138660.5468750000,162229.5937500000,150935.7500000000,,,
2.8519999953,22,180546.8125000000,164337.1718750000,194196.7812500000,179902.5625000000,168199.5781250000,138666.0625000000,162254.5781250000,151398.4062500000,,,
2.8559999953,22,180569.9843750000,164355.8125000000,194223.3437500000,179922.5468750000,168224.9218750000,138682.7812500000,162270.5781250000,151396.9531250000,,,
2.8599999954,22,180573.1718750000,164360.0468750000,194232.9687500000,179915.7187500000,168235.7343750000,138689.6718750000,162272.9687500000,150936.3437500000,,,
2.8639999954,22,180562.2812500000,164356.9687500000,194221.8125000000,179901.5781250000,168227.0468750000,138689.5937500000,162253.3125000000,150628.1875000000,,,
2.8679999954,22,180544.5312500000,164341.5937500000,194193.8125000000,179897.3593750000,168201.0625000000,138672.6093750000,162228.5468750000,150926.4218750000,,,
2.8719999953,22,180547.7968750000,164344.5781250000,194190.8906250000,179900.4531250000,168194.8593750000,138668.8281250000,162235.3437500000,151429.9843750000,,,
2.8759999953,22,180580.5000000000,164375.0156250000,194225.1093750000,179925.6406250000,168228.3593750000,138697.2031250000,162282.2812500000,151437.3593750000,,,
2.8799999952,22,180587.4687500000,164383.0312500000,194237.4531250000,179925.5000000000,168241.1562500000,138705.8750000000,162289.5781250000,150958.5468750000,,,
2.8839999954,22,180565.7656250000,164370.6406250000,194215.3281250000,179891.0156250000,168221.5937500000,138693.8750000000,162261.9531250000,150645.5625000000,,,
2.8879999954,22,180544.2656250000,164352.0625000000,194189.3906250000,179883.1562500000,168196.6875000000,138672.4218750000,162213.0468750000,150939.3437500000,,,
2.8919999953,22,180555.8750000000,164361.6875000000,194200.7812500000,179920.2187500000,168207.4687500000,138674.8593750000,162193.0156250000,151401.8125000000,,,
2.8959999953,22,180587.8750000000,164387.8906250000,194238.9218750000,179962.5468750000,168244.5625000000,138703.1093750000,162246.8437500000,151403.4843750000,,,
2.8999999953,22,180583.3906250000,164378.3906250000,194239.7343750000,179940.4375000000,168246.2500000000,138703.6406250000,162290.2500000000,150943.1562500000,,,
2.9039999954,22,180559.8125000000,164354.4687500000,194218.6718750000,179895.4375000000,168226.1093750000,138681.8437500000,162282.5468750000,150626.5156250000,,,
2.9079999954,22,180527.0156250000,164329.0156250000,194178.7031250000,179853.8281250000,168189.8125000000,138656.4687500000,162244.8281250000,150917.8906250000,,,
2.9119999954,22,180527.9062500000,164330.9531250000,194173.1250000000,179861.1250000000,168185.6093750000,138650.5312500000,162232.5000000000,151424.2656250000,,,
2.9159999953,22,180572.2968750000,164368.3593750000,194224.5468750000,179902.8437500000,168232.3593750000,138684.3906250000,162264.6093750000,151465.5156250000,,,
2.9199999953,22,180596.1406250000,164387.9218750000,194256.9531250000,179927.8593750000,168263.1562500000,138705.9062500000,162278.7656250000,151005.0156250000,,,
2.9239999952,22,180582.1406250000,164376.0156250000,194238.9843750000,179911.7500000000,168246.8750000000,138698.0156250000,162268.8125000000,150686.5156250000,,,
2.9279999954,22,180563.3281250000,164360.4218750000,194212.1093750000,179890.7968750000,168219.7500000000,138682.8125000000,162263.0156250000,150960.2968750000,,,
2.9319999954,22,180559.6093750000,164354.1562500000,194206.3593750000,179901.3906250000,168213.9843750000,138672.9687500000,162244.8281250000,151448.8125000000,,,
2.9359999953,22,180576.4687500000,164364.9531250000,194230.5000000000,179909.7343750000,168236.1718750000,138684.6875000000,162263.7656250000,151474.4218750000,,,
2.9399999953,22,180588.2968750000,164373.7343750000,194254.3750000000,179907.4843750000,168258.2187500000,138699.6250000000,162275.4843750000,151006.8906250000,,,
2.9439999952,23,180569.9062500000,164358.7031250000,194233.0781250000,179906.2968750000,168238.7343750000,138687.7343750000,162247.6718750000,150650.3125000000,,,
