Time:250Hz,Epoch,Channel 1,Channel 2,Channel 3,Channel 4,Channel 5,Channel 6,Channel 7,Channel 8,Event Id,Event Date,Event Duration
0.0000000000,0,177753.8750000000,190629.7187500000,163811.5937500000,161259.5000000000,130750.1718750000,118408.1171875000,131107.7031250000,146779.6250000000,,,
0.0040000000,0,177602.3906250000,183648.8437500000,163527.6250000000,160916.1406250000,130390.6484375000,118070.8046875000,130740.5703125000,146579.3593750000,,,
0.0079999999,0,177671.9375000000,195240.4062500000,163109.6875000000,160203.4843750000,129669.6953125000,117407.0390625000,129976.8359375000,150013.0468750000,,,
0.0119999999,0,177812.6718750000,206835.2031250000,163189.5312500000,160230.4687500000,129708.5625000000,117448.4218750000,130005.4531250000,151611.3437500000,,,
0.0159999998,0,177869.9687500000,204382.2968750000,163573.1406250000,160819.6718750000,130290.1718750000,117986.3125000000,130615.3906250000,149842.3750000000,,,
0.0199999998,0,177753.6406250000,190728.5312500000,163809.9531250000,161282.7500000000,130746.7890625000,118402.8906250000,131104.5156250000,146792.7343750000,,,
0.0240000000,0,177589.1562500000,183621.1250000000,163515.0000000000,160917.5468750000,130376.0546875000,118058.0390625000,130728.2578125000,146549.2968750000,,,
0.0279999999,0,177657.8593750000,195123.4062500000,163092.2500000000,160206.1093750000,129649.0156250000,117389.4687500000,129959.4296875000,149971.6562500000,,,
0.0319999999,0,177812.8593750000,206793.1093750000,163182.0312500000,160242.5312500000,129697.4609375000,117438.4765625000,129993.2265625000,151605.7656250000,,,
0.0359999998,0,177870.9375000000,204442.9062500000,163564.1093750000,160815.6406250000,130280.0312500000,117980.5703125000,130606.5937500000,149859.1406250000,,,
0.0399999998,0,177748.5937500000,190840.9687500000,163795.9843750000,161261.6093750000,130733.0546875000,118398.1406250000,131096.6875000000,146806.2031250000,,,
0.0440000000,0,177594.6562500000,183641.8593750000,163517.1718750000,160919.7187500000,130381.6875000000,118069.1640625000,130741.1875000000,146541.7812500000,,,
0.0480000000,0,177671.5156250000,195039.6718750000,163101.6875000000,160207.3281250000,129661.1093750000,117405.7265625000,129974.0468750000,149959.5312500000,,,
0.0519999999,0,177828.0937500000,206769.5312500000,163188.9687500000,160234.1406250000,129701.6171875000,117444.8046875000,129993.0078125000,151617.7812500000,,,
0.0559999999,0,177888.7343750000,204538.6875000000,163571.4843750000,160806.7968750000,130281.3750000000,117982.9375000000,130595.4062500000,149896.0468750000,,,
0.0599999998,0,177768.4218750000,190981.7343750000,163811.2968750000,161259.9062500000,130744.2734375000,118408.0390625000,131090.9531250000,146844.9843750000,,,
0.0639999998,0,177604.7500000000,183653.7187500000,163532.1093750000,160931.2968750000,130395.5546875000,118086.2031250000,130736.3281250000,146546.2968750000,,,
0.0680000000,0,177665.7343750000,194941.2031250000,163103.9218750000,160220.0000000000,129663.0156250000,117410.8750000000,129960.6093750000,149940.6562500000,,,
0.0719999999,0,177816.4062500000,206733.7500000000,163184.9218750000,160241.1093750000,129698.1250000000,117442.2265625000,129982.6015625000,151620.1250000000,,,
0.0759999999,0,177872.0312500000,204635.7031250000,163562.0156250000,160795.9843750000,130274.2968750000,117970.6484375000,130591.5703125000,149922.0625000000,,,
0.0799999998,0,177744.6562500000,191116.7500000000,163798.0000000000,161243.0625000000,130739.1484375000,118390.5000000000,131096.2812500000,146854.6875000000,,,
0.0839999998,0,177590.1562500000,183644.5937500000,163531.7343750000,160915.3437500000,130407.8906250000,118077.3203125000,130760.6015625000,146518.9843750000,,,
0.0880000000,0,177664.0312500000,194825.5781250000,163110.6718750000,160204.1093750000,129680.1562500000,117408.0312500000,129987.0312500000,149910.9843750000,,,
0.0919999999,0,177819.8281250000,206684.7812500000,163189.3281250000,160232.2187500000,129705.1015625000,117431.2343750000,129992.2343750000,151618.0781250000,,,
0.0959999999,0,177877.8437500000,204683.6093750000,163569.8125000000,160796.6093750000,130275.3359375000,117956.6484375000,130586.1250000000,149937.4687500000,,,
0.0999999999,0,177750.6562500000,191205.9687500000,163809.5468750000,161239.8593750000,130735.8984375000,118381.2968750000,131082.5468750000,146869.3593750000,,,
0.1039999998,0,177591.6562500000,183625.3125000000,163541.6875000000,160919.7968750000,130405.0234375000,118078.5546875000,130747.8671875000,146502.8437500000,,,
0.1079999998,0,177664.2968750000,194704.1562500000,163116.0625000000,160209.6875000000,129675.1953125000,117413.1015625000,129974.1250000000,149888.2187500000,,,
0.1120000000,0,177817.9218750000,206646.8750000000,163184.5000000000,160216.6875000000,129694.3203125000,117436.1953125000,129977.6953125000,151626.5312500000,,,
0.1159999999,0,177880.4531250000,204782.8750000000,163563.7812500000,160781.3437500000,130269.4375000000,117968.3125000000,130586.3671875000,149973.6250000000,,,
0.1199999999,0,177762.5937500000,191339.3281250000,163811.5468750000,161259.1718750000,130746.6875000000,118403.0234375000,131106.0156250000,146899.7500000000,,,
0.1239999998,0,177605.0156250000,183631.0000000000,163548.6875000000,160945.1406250000,130425.0625000000,118097.3046875000,130783.3203125000,146496.1406250000,,,
0.1279999998,1,177674.0312500000,194601.4218750000,163121.1875000000,160218.2343750000,129694.3203125000,117416.9609375000,130006.6093750000,149862.9218750000,,,
0.1319999998,1,177831.1875000000,206609.2500000000,163193.7656250000,160235.1093750000,129712.5312500000,117433.0000000000,130006.5312500000,151625.1875000000,,,
0.1359999997,1,177897.4375000000,204973.7656250000,163570.6718750000,160805.2343750000,130276.3046875000,117956.6718750000,130592.0312500000,150025.0937500000,,,
0.1399999997,1,177772.5000000000,191582.4687500000,163819.5625000000,161270.4687500000,130752.9062500000,118392.1562500000,131103.1250000000,146931.7812500000,,,
0.1439999996,1,177601.7187500000,183622.0468750000,163550.9843750000,160943.5312500000,130427.2031250000,118086.6250000000,130776.4296875000,146463.1406250000,,,
0.1479999996,1,177667.7812500000,194481.9375000000,163118.7031250000,160210.4843750000,129688.0703125000,117412.0000000000,129993.7578125000,149827.4687500000,,,
0.1519999998,1,177824.6093750000,206561.6406250000,163185.2968750000,160204.0156250000,129695.0937500000,117425.8359375000,129985.0468750000,151620.8906250000,,,
0.1559999997,1,177887.7812500000,204989.5156250000,163560.6250000000,160769.7031250000,130256.1093750000,117946.8281250000,130575.7968750000,150028.3906250000,,,
0.1599999997,1,177769.6250000000,191636.5625000000,163812.0156250000,161258.2656250000,130736.7578125000,118396.0234375000,131094.1406250000,146947.9218750000,,,
0.1639999996,1,177601.9531250000,183614.2187500000,163548.1718750000,160961.9531250000,130421.3046875000,118101.8671875000,130777.1015625000,146462.2343750000,,,
0.1679999996,1,177654.5781250000,194364.2187500000,163108.0156250000,160225.4062500000,129679.9687500000,117414.6015625000,129996.3359375000,149798.9531250000,,,
0.1719999998,1,177799.8281250000,206503.2500000000,163166.2031250000,160206.5156250000,129679.4062500000,117414.1484375000,129977.3437500000,151603.5468750000,,,
0.1759999997,1,177860.4218750000,204939.2187500000,163543.4062500000,160766.4843750000,130246.6640625000,117937.4140625000,130567.2421875000,150004.0625000000,,,
0.1799999997,1,177750.5781250000,191616.3906250000,163803.7812500000,161254.3281250000,130736.9453125000,118385.8828125000,131093.2812500000,146930.8125000000,,,
0.1839999997,1,177591.4375000000,183578.7031250000,163553.1875000000,160961.1250000000,130435.1171875000,118098.5937500000,130789.4921875000,146435.3593750000,,,
0.1879999996,1,177653.5937500000,194234.1562500000,163119.4218750000,160235.1406250000,129695.9843750000,117419.1875000000,130007.5703125000,149769.0937500000,,,
0.1919999996,1,177810.1718750000,206445.0625000000,163177.7812500000,160219.1250000000,129689.9765625000,117421.4921875000,129985.9296875000,151612.7656250000,,,
0.1959999998,1,177873.6406250000,204938.0937500000,163552.0625000000,160777.7656250000,130250.6093750000,117944.2265625000,130575.6953125000,150025.7656250000,,,
0.1999999997,1,177757.3593750000,191658.6093750000,163805.8593750000,161260.2500000000,130730.8593750000,118389.2109375000,131095.8281250000,146957.3437500000,,,
0.2039999997,1,177588.2500000000,183573.6093750000,163549.9687500000,160974.3750000000,130424.4687500000,118107.8437500000,130792.9218750000,146438.3906250000,,,
0.2079999996,1,177643.1562500000,194122.0625000000,163111.9687500000,160242.0000000000,129681.4140625000,117425.0859375000,130007.7890625000,149750.3593750000,,,
0.2119999996,1,177788.8750000000,206396.3906250000,163159.3125000000,160206.0312500000,129665.4843750000,117408.9921875000,129972.9765625000,151605.4687500000,,,
0.2159999998,1,177849.0156250000,205029.2656250000,163530.3593750000,160758.2656250000,130226.4140625000,117925.1875000000,130558.5000000000,150041.6093750000,,,
0.2199999997,1,177740.7656250000,191789.4531250000,163795.6406250000,161254.6406250000,130724.8750000000,118377.2734375000,131091.9375000000,146967.8593750000,,,
0.2239999997,1,177582.3750000000,183548.2031250000,163556.5625000000,160980.7031250000,130442.4921875000,118110.4453125000,130806.8203125000,146414.5625000000,,,
0.2279999997,1,177641.1406250000,193997.3125000000,163113.7031250000,160246.9375000000,129697.8828125000,117428.7109375000,130015.8906250000,149724.7656250000,,,
0.2319999996,1,177790.0937500000,206359.4218750000,163152.7031250000,160202.0625000000,129670.8750000000,117407.3828125000,129968.1718750000,151610.8125000000,,,
0.2359999996,1,177856.9062500000,205139.3437500000,163520.8125000000,160740.8125000000,130223.6250000000,117923.5468750000,130546.1093750000,150074.3281250000,,,
0.2399999998,1,177755.1875000000,191933.7812500000,163788.2812500000,161237.5000000000,130719.8046875000,118384.9687500000,131077.7968750000,146993.9531250000,,,
0.2439999997,1,177596.8281250000,183551.2656250000,163548.6875000000,160964.6406250000,130433.2421875000,118115.8671875000,130790.0781250000,146407.6718750000,,,
0.2479999997,1,177658.1562500000,193908.9375000000,163109.3906250000,160236.1250000000,129686.1093750000,117429.9140625000,130000.7578125000,149711.9687500000,,,
0.2519999996,1,177818.2812500000,206338.3750000000,163163.8593750000,160208.5468750000,129667.5468750000,117412.3750000000,129962.8359375000,151630.6093750000,,,
0.2559999996,2,177888.9843750000,205325.5156250000,163539.2187500000,160759.3125000000,130221.5312500000,117923.6562500000,130540.7968750000,150140.7812500000,,,
0.2599999995,2,177773.8281250000,192179.7343750000,163806.4218750000,161248.2031250000,130722.8359375000,118385.3750000000,131079.1406250000,147036.7343750000,,,
0.2639999995,2,177600.7031250000,183553.9375000000,163564.7031250000,160978.7968750000,130444.5078125000,118124.5546875000,130798.7187500000,146384.0468750000,,,
0.2679999995,2,177648.6562500000,193793.3593750000,163117.1093750000,160248.8437500000,129694.1328125000,117432.6250000000,130002.7187500000,149676.7500000000,,,
0.2719999994,2,177784.7812500000,206291.0625000000,163145.0156250000,160197.8593750000,129652.1796875000,117392.8203125000,129937.9140625000,151610.0156250000,,,
0.2759999994,2,177839.0625000000,205329.9218750000,163502.6875000000,160730.4062500000,130193.3984375000,117892.8359375000,130503.9140625000,150114.3281250000,,,
0.2799999996,2,177739.4218750000,192208.0312500000,163781.2812500000,161236.6250000000,130706.6953125000,118365.0937500000,131058.1171875000,147021.5000000000,,,
0.2839999995,2,177587.3125000000,183543.7812500000,163559.0625000000,160987.7968750000,130446.6796875000,118118.7343750000,130800.4062500000,146363.9218750000,,,
0.2879999995,2,177653.8125000000,193667.5312500000,163125.7500000000,160259.0937500000,129705.8281250000,117433.5625000000,130017.3671875000,149646.1406250000,,,
0.2919999994,2,177805.1406250000,206225.0468750000,163159.7656250000,160204.6093750000,129665.7812500000,117399.6093750000,129957.8437500000,151610.3906250000,,,
0.2959999994,2,177874.8125000000,205276.4375000000,163532.9062500000,160762.7187500000,130223.0625000000,117916.8437500000,130541.4687500000,150128.8593750000,,,
0.2999999996,2,177769.7500000000,192176.9218750000,163807.8437500000,161260.8906250000,130729.7890625000,118384.1093750000,131086.7031250000,147043.5000000000,,,
0.3039999995,2,177607.4062500000,183508.9687500000,163584.1406250000,160997.6562500000,130469.3437500000,118136.3046875000,130827.1796875000,146375.7031250000,,,
0.3079999995,2,177656.0781250000,193535.2812500000,163136.0312500000,160256.6250000000,129717.5703125000,117443.8671875000,130032.3828125000,149637.7031250000,,,
0.3119999995,2,177807.5156250000,206167.9375000000,163167.4531250000,160204.8593750000,129674.5546875000,117406.9062500000,129966.1640625000,151629.4218750000,,,
0.3159999994,2,177884.5312500000,205330.6718750000,163548.5468750000,160757.1250000000,130238.2421875000,117928.0859375000,130556.3515625000,150171.0625000000,,,
0.3199999994,2,177776.8906250000,192283.2656250000,163820.6562500000,161255.6875000000,130743.9765625000,118394.1953125000,131101.5468750000,147082.0156250000,,,
0.3239999996,2,177604.3750000000,183514.6406250000,163586.0937500000,160998.2500000000,130479.0234375000,118150.2500000000,130840.9375000000,146374.9531250000,,,
0.3279999995,2,177642.4531250000,193427.0156250000,163125.7187500000,160244.6093750000,129715.9375000000,117450.7031250000,130038.1250000000,149612.1406250000,,,
0.3319999995,2,177797.4062500000,206124.7812500000,163152.5000000000,160189.4843750000,129664.4140625000,117406.2031250000,129967.2578125000,151627.4218750000,,,
0.3359999994,2,177867.5000000000,205429.0781250000,163518.7187500000,160721.3125000000,130207.8828125000,117908.7968750000,130539.0781250000,150182.4843750000,,,
0.3399999994,2,177762.5156250000,192436.4843750000,163791.0937500000,161229.0312500000,130711.1406250000,118373.4921875000,131082.6875000000,147080.1875000000,,,
0.3439999996,2,177600.8906250000,183513.0937500000,163573.4687500000,160999.9062500000,130460.5156250000,118141.3750000000,130833.9921875000,146335.2343750000,,,
0.3479999995,2,177648.5781250000,193297.4687500000,163125.0625000000,160262.3281250000,129707.4375000000,117447.9921875000,130037.6171875000,149563.4843750000,,,
0.3519999995,2,177797.0312500000,206055.2656250000,163146.1875000000,160188.6562500000,129646.8203125000,117399.2890625000,129953.1250000000,151605.5625000000,,,
0.3559999994,2,177865.0312500000,205483.9062500000,163509.3906250000,160721.6406250000,130188.9218750000,117909.8203125000,130518.2109375000,150196.0000000000,,,
0.3599999994,2,177763.6718750000,192535.2656250000,163791.7968750000,161227.9062500000,130708.2187500000,118388.6171875000,131072.8750000000,147102.2343750000,,,
0.3639999994,2,177600.3437500000,183485.0156250000,163579.5781250000,161003.5937500000,130471.3281250000,118158.2734375000,130834.8750000000,146324.7968750000,,,
0.3679999996,2,177649.5468750000,193156.2187500000,163131.3906250000,160266.2812500000,129722.0000000000,117461.7812500000,130041.3125000000,149542.4062500000,,,
0.3719999995,2,177800.3281250000,205982.3593750000,163151.6875000000,160188.0156250000,129659.5859375000,117402.6406250000,129956.1015625000,151609.8437500000,,,
0.3759999995,2,177869.4531250000,205539.9062500000,163517.5625000000,160719.8125000000,130201.2578125000,117903.1953125000,130526.0703125000,150222.4687500000,,,
0.3799999994,2,177766.9687500000,192668.2968750000,163800.2812500000,161239.8906250000,130719.2421875000,118380.6250000000,131085.7968750000,147126.0312500000,,,
0.3839999994,3,177595.3593750000,183535.3750000000,163582.4843750000,161007.0781250000,130478.1640625000,118155.5078125000,130848.7421875000,146315.3281250000,,,
0.3879999993,3,177641.5000000000,193091.3906250000,163132.5312500000,160266.0000000000,129723.6640625000,117462.4218750000,130051.1562500000,149513.9687500000,,,
0.3919999993,3,177805.7031250000,205963.0781250000,163157.4531250000,160190.3906250000,129661.3281250000,117410.6328125000,129965.4921875000,151615.9687500000,,,
0.3959999993,3,177878.5156250000,205620.1093750000,163520.7656250000,160715.1406250000,130198.5781250000,117911.2421875000,130528.1093750000,150253.6875000000,,,
0.3999999992,3,177772.5156250000,192788.9218750000,163801.6093750000,161218.0781250000,130717.0156250000,118391.4921875000,131087.0000000000,147159.0468750000,,,
0.4039999992,3,177598.9843750000,183544.6406250000,163587.3593750000,160992.0000000000,130483.4765625000,118169.9687500000,130857.9921875000,146314.0156250000,,,
0.4079999994,3,177638.9218750000,192962.8906250000,163129.4062500000,160252.0937500000,129724.4687500000,117468.8046875000,130055.9375000000,149489.8750000000,,,
0.4119999993,3,177793.5156250000,205899.0312500000,163142.8593750000,160168.9375000000,129650.9765625000,117398.8593750000,129953.1250000000,151611.1562500000,,,
0.4159999993,3,177869.2187500000,205639.5781250000,163511.8906250000,160704.3906250000,130194.5546875000,117897.2656250000,130518.9375000000,150263.6718750000,,,
0.4199999992,3,177765.1093750000,192846.5156250000,163795.5000000000,161225.0781250000,130714.1718750000,118373.1406250000,131079.0156250000,147166.6093750000,,,
0.4239999992,3,177592.8437500000,183514.1875000000,163585.4843750000,161002.7343750000,130486.2421875000,118160.5468750000,130856.5703125000,146295.3750000000,,,
0.4279999994,3,177636.5312500000,192812.6562500000,163133.6406250000,160270.6718750000,129732.9453125000,117465.0546875000,130060.4375000000,149458.0156250000,,,
0.4319999993,3,177795.2968750000,205817.3593750000,163144.6406250000,160187.1718750000,129654.3515625000,117394.3750000000,129955.2187500000,151608.6093750000,,,
0.4359999993,3,177866.2968750000,205669.2968750000,163502.1718750000,160698.0000000000,130185.2734375000,117890.5312500000,130509.7109375000,150275.6875000000,,,
0.4399999992,3,177766.9687500000,192912.5156250000,163789.0312500000,161218.8593750000,130707.4453125000,118374.1093750000,131073.3281250000,147172.5000000000,,,
0.4439999992,3,177595.4687500000,183485.9218750000,163581.5937500000,161014.0468750000,130482.3750000000,118168.8359375000,130855.1484375000,146271.5781250000,,,
0.4479999992,3,177637.7656250000,192681.4687500000,163127.1250000000,160285.4218750000,129723.9296875000,117472.9687500000,130055.3984375000,149423.3593750000,,,
0.4519999993,3,177790.8593750000,205760.0312500000,163129.8593750000,160192.6562500000,129629.7343750000,117387.7812500000,129939.3906250000,151594.8593750000,,,
0.4559999993,3,177862.0312500000,205731.7031250000,163488.5156250000,160694.7343750000,130157.6171875000,117877.8984375000,130492.9765625000,150281.7500000000,,,
0.4599999993,3,177760.3125000000,193041.5312500000,163779.4843750000,161192.9062500000,130684.7500000000,118361.9296875000,131060.3671875000,147181.6875000000,,,
0.4639999992,3,177603.8125000000,183519.3437500000,163598.8906250000,161010.2343750000,130490.0000000000,118172.4843750000,130866.6875000000,146263.6406250000,,,
0.4679999992,3,177645.3281250000,192601.3750000000,163144.2343750000,160271.5000000000,129736.6718750000,117476.8515625000,130067.5468750000,149405.2031250000,,,
0.4719999994,3,177798.4062500000,205743.0625000000,163141.1250000000,160161.1093750000,129640.7812500000,117388.1796875000,129941.3515625000,151606.8750000000,,,
0.4759999993,3,177873.2343750000,205831.8593750000,163502.2812500000,160681.2656250000,130172.9609375000,117879.7734375000,130492.9218750000,150324.0781250000,,,
0.4799999993,3,177775.0625000000,193195.9531250000,163797.4062500000,161212.5781250000,130704.7578125000,118369.2031250000,131064.5234375000,147227.2500000000,,,
0.4839999992,3,177601.0468750000,183557.9375000000,163597.0625000000,161013.8125000000,130493.0781250000,118172.3281250000,130860.5156250000,146262.2968750000,,,
0.4879999992,3,177630.2812500000,192506.0312500000,163129.1093750000,160271.7187500000,129723.2578125000,117466.1796875000,130053.0390625000,149371.5156250000,,,
0.4919999992,3,177780.0781250000,205688.2812500000,163121.8593750000,160162.2656250000,129618.1718750000,117372.2187500000,129925.7968750000,151593.7343750000,,,
0.4959999993,3,177862.2343750000,205893.9843750000,163489.6250000000,160692.9687500000,130154.0468750000,117874.2265625000,130492.7578125000,150343.5781250000,,,
0.4999999993,3,177771.5000000000,193310.4218750000,163792.5156250000,161236.0000000000,130695.5312500000,118372.6093750000,131079.9218750000,147247.6875000000,,,
0.5039999993,3,177595.4687500000,183555.9531250000,163596.7968750000,161037.3281250000,130493.8046875000,118179.6484375000,130884.5468750000,146248.1093750000,,,
0.5079999992,3,177625.1093750000,192377.5781250000,163130.8437500000,160287.7812500000,129729.5078125000,117473.4453125000,130077.3359375000,149340.6718750000,,,
0.5119999992,4,177792.6093750000,205620.9375000000,163135.1093750000,160191.3125000000,129632.8671875000,117381.1796875000,129950.7890625000,151597.4531250000,,,
0.5159999991,4,177878.4687500000,205955.1718750000,163500.4062500000,160719.6250000000,130165.5546875000,117868.5390625000,130499.3281250000,150369.1093750000,,,
0.5199999991,4,177785.5312500000,193419.1875000000,163800.2187500000,161224.6093750000,130708.1406250000,118364.7734375000,131077.3125000000,147269.8906250000,,,
0.5239999990,4,177607.7187500000,183548.4375000000,163609.2500000000,161016.8593750000,130513.8125000000,118179.4609375000,130888.4921875000,146240.0937500000,,,
0.5279999990,4,177642.8593750000,192255.0312500000,163151.3125000000,160285.1250000000,129756.6796875000,117481.2265625000,130090.7500000000,149327.8750000000,,,
0.5319999990,4,177800.4687500000,205566.8125000000,163142.6562500000,160166.7968750000,129645.4765625000,117383.6484375000,129956.1562500000,151608.5312500000,,,
0.5359999991,4,177871.0937500000,205980.9687500000,163492.8437500000,160667.6718750000,130161.8515625000,117864.8359375000,130499.4375000000,150382.9218750000,,,
0.5399999991,4,177769.7812500000,193499.7031250000,163788.3437500000,161200.6718750000,130694.8671875000,118357.0234375000,131075.8750000000,147277.5156250000,,,
0.5439999991,4,177594.8750000000,183556.8593750000,163603.6718750000,161027.7500000000,130506.3593750000,118180.9062500000,130899.0078125000,146222.7656250000,,,
0.5479999990,4,177628.3437500000,192136.6875000000,163140.0781250000,160282.9531250000,129743.9140625000,117480.9843750000,130098.5000000000,149288.3437500000,,,
0.5519999990,4,177791.2187500000,205507.4218750000,163128.0000000000,160160.5937500000,129626.3281250000,117374.6328125000,129952.7265625000,151595.2812500000,,,
0.5559999992,4,177876.2187500000,206045.2343750000,163487.5781250000,160673.5468750000,130150.7734375000,117864.0078125000,130497.2421875000,150406.7968750000,,,
0.5599999991,4,177786.7031250000,193629.4531250000,163793.4843750000,161224.7968750000,130698.1328125000,118366.5468750000,131082.1406250000,147315.8906250000,,,
0.5639999991,4,177615.2343750000,183595.6562500000,163615.6250000000,161065.0937500000,130524.0625000000,118196.0859375000,130910.0000000000,146234.3437500000,,,
0.5679999990,4,177638.5937500000,192031.8906250000,163146.8906250000,160309.9687500000,129759.7656250000,117489.3515625000,130101.7734375000,149270.6406250000,,,
0.5719999990,4,177796.5312500000,205456.8125000000,163126.8281250000,160175.1406250000,129632.6796875000,117375.6562500000,129947.5156250000,151598.8281250000,,,
0.5759999990,4,177880.0781250000,206115.9375000000,163483.6875000000,160677.3281250000,130151.2343750000,117856.7656250000,130486.8828125000,150430.9687500000,,,
0.5799999991,4,177787.3750000000,193763.7500000000,163790.6406250000,161213.5468750000,130697.0625000000,118359.8671875000,131070.9062500000,147335.9375000000,,,
0.5839999991,4,177615.2343750000,183611.5000000000,163623.6718750000,161057.4687500000,130532.6406250000,118204.2421875000,130915.0703125000,146221.9531250000,,,
0.5879999991,4,177636.6406250000,191914.9218750000,163157.2187500000,160306.1406250000,129768.8593750000,117497.6718750000,130111.7812500000,149242.9375000000,,,
0.5919999990,4,177791.1562500000,205387.5312500000,163131.9218750000,160160.4062500000,129633.2187500000,117378.3359375000,129951.2734375000,151597.4218750000,,,
0.5959999990,4,177867.8750000000,206176.3437500000,163478.5937500000,160665.1250000000,130140.5859375000,117855.1796875000,130483.5312500000,150455.4843750000,,,
0.5999999992,4,177778.6093750000,193887.0937500000,163785.4687500000,161215.6406250000,130687.3281250000,118361.2578125000,131071.9843750000,147361.2812500000,,,
0.6039999991,4,177609.8906250000,183614.4062500000,163618.5000000000,161067.7187500000,130525.8046875000,118208.6718750000,130919.1250000000,146212.1406250000,,,
0.6079999991,4,177634.6250000000,191795.7500000000,163147.1250000000,160305.0312500000,129757.9921875000,117500.0312500000,130113.0625000000,149216.3281250000,,,
0.6119999990,4,177800.7656250000,205331.9843750000,163125.7500000000,160159.2500000000,129626.6484375000,117375.3906250000,129954.4140625000,151600.7343750000,,,
0.6159999990,4,177896.0937500000,206225.3437500000,163489.3750000000,160677.5937500000,130153.4296875000,117858.5625000000,130498.3359375000,150493.4375000000,,,
0.6199999989,4,177807.8125000000,193985.6718750000,163802.1718750000,161233.0312500000,130708.0312500000,118373.6250000000,131089.9062500000,147403.5312500000,,,
0.6239999991,4,177619.0937500000,183636.0781250000,163625.9843750000,161073.2187500000,130538.9765625000,118217.7890625000,130928.8046875000,146217.4843750000,,,
0.6279999991,4,177633.1562500000,191686.2187500000,163154.1875000000,160314.4218750000,129771.3515625000,117510.9765625000,130124.1406250000,149196.6562500000,,,
0.6319999991,4,177788.2031250000,205263.6093750000,163120.0625000000,160158.0781250000,129623.0781250000,117375.8437500000,129947.0937500000,151599.1406250000,,,
0.6359999990,4,177875.4062500000,206264.1562500000,163474.0312500000,160664.9062500000,130136.0000000000,117850.4296875000,130477.4453125000,150503.2500000000,,,
0.6399999990,5,177788.7187500000,194079.7968750000,163784.7656250000,161211.2187500000,130690.1953125000,118358.7656250000,131074.0781250000,147407.0156250000,,,
0.6439999989,5,177605.6562500000,183651.6562500000,163615.6093750000,161054.6093750000,130532.9375000000,118208.2968750000,130929.1562500000,146191.2500000000,,,
0.6479999989,5,177628.1562500000,191585.6093750000,163150.3750000000,160315.3281250000,129771.4609375000,117507.4609375000,130126.0703125000,149154.5468750000,,,
0.6519999988,5,177793.0156250000,205217.2656250000,163122.3750000000,160162.7187500000,129623.9140625000,117372.8125000000,129948.4609375000,151587.1875000000,,,
0.6559999988,5,177878.5000000000,206308.2187500000,163474.0156250000,160666.4687500000,130131.0937500000,117845.2812500000,130475.2421875000,150510.3750000000,,,
0.6599999988,5,177796.1250000000,194180.0468750000,163792.4375000000,161224.7343750000,130689.6875000000,118358.4140625000,131072.0312500000,147425.6562500000,,,
0.6639999989,5,177625.1875000000,183680.3281250000,163638.1406250000,161087.2656250000,130548.1718750000,118218.8046875000,130934.0078125000,146201.3281250000,,,
0.6679999989,5,177651.6875000000,191472.4375000000,163177.5937500000,160355.6406250000,129792.2500000000,117521.2968750000,130135.0078125000,149151.3125000000,,,
0.6719999989,5,177818.7031250000,205148.6718750000,163147.6406250000,160198.0937500000,129641.3984375000,117381.2890625000,129956.3671875000,151607.4375000000,,,
0.6759999988,5,177899.0937500000,206366.5937500000,163489.2187500000,160654.1562500000,130140.1796875000,117843.4609375000,130476.9609375000,150546.5937500000,,,
0.6799999988,5,177821.8437500000,194300.9375000000,163815.6093750000,161201.9687500000,130711.1171875000,118367.9140625000,131086.5781250000,147466.1875000000,,,
0.6839999990,5,177643.8750000000,183710.8437500000,163659.1406250000,161072.2031250000,130573.1484375000,118233.2890625000,130957.6093750000,146209.8906250000,,,
0.6879999989,5,177652.0937500000,191371.7187500000,163181.8906250000,160325.5312500000,129805.0703125000,117530.0703125000,130148.6328125000,149125.5625000000,,,
0.6919999989,5,177803.1718750000,205091.2500000000,163133.5312500000,160151.2031250000,129634.2656250000,117377.0000000000,129950.0390625000,151596.5937500000,,,
0.6959999988,5,177878.7812500000,206419.7812500000,163471.7031250000,160630.9218750000,130124.7343750000,117831.3125000000,130464.4921875000,150555.2031250000,,,
0.6999999988,5,177798.8125000000,194414.3437500000,163794.3437500000,161188.8281250000,130688.6640625000,118352.8359375000,131070.2109375000,147466.7656250000,,,
0.7039999987,5,177619.5468750000,183695.9062500000,163643.1562500000,161066.9218750000,130556.4609375000,118223.6875000000,130950.0781250000,146166.4843750000,,,
0.7079999989,5,177630.7187500000,191207.9218750000,163170.3906250000,160324.7500000000,129792.3828125000,117518.6171875000,130146.5937500000,149060.4531250000,,,
0.7119999989,5,177791.3437500000,204980.9531250000,163126.2656250000,160151.2031250000,129622.4921875000,117363.0234375000,129946.6093750000,151561.9687500000,,,
0.7159999989,5,177879.0312500000,206436.3593750000,163470.0468750000,160643.7656250000,130117.2734375000,117819.9062500000,130461.1328125000,150558.0468750000,,,
0.7199999988,5,177794.0312500000,194513.0781250000,163785.5000000000,161211.4062500000,130675.2578125000,118339.2421875000,131060.1015625000,147477.3437500000,,,
0.7239999988,5,177617.4062500000,183710.9531250000,163639.3437500000,161093.4687500000,130552.7343750000,118226.1328125000,130948.4375000000,146159.1093750000,,,
0.7279999990,5,177619.6562500000,191091.5625000000,163155.4218750000,160345.8593750000,129777.8984375000,117513.3906250000,130135.8906250000,149028.0000000000,,,
0.7319999989,5,177781.6093750000,204911.8437500000,163105.1718750000,160158.5000000000,129598.9687500000,117354.3046875000,129926.7578125000,151555.1093750000,,,
0.7359999989,5,177870.4218750000,206471.4843750000,163448.9843750000,160638.9375000000,130094.2343750000,117810.5468750000,130440.3515625000,150574.1406250000,,,
0.7399999988,5,177796.9218750000,194605.2656250000,163781.2031250000,161208.1562500000,130672.2265625000,118338.1093750000,131056.1875000000,147505.0000000000,,,
0.7439999988,5,177630.3593750000,183751.5156250000,163651.8750000000,161107.2031250000,130568.9843750000,118231.9531250000,130959.7578125000,146168.9062500000,,,
0.7479999987,5,177642.4843750000,191005.5000000000,163183.9531250000,160360.8750000000,129812.2812500000,117529.8046875000,130158.8515625000,149024.7343750000,,,
0.7519999989,5,177799.3906250000,204870.4843750000,163128.6718750000,160157.9218750000,129628.8437500000,117363.1796875000,129941.2187500000,151570.5468750000,,,
0.7559999989,5,177889.5156250000,206532.5625000000,163474.8125000000,160634.6718750000,130124.0078125000,117822.0312500000,130453.1953125000,150608.4375000000,,,
0.7599999988,5,177815.8125000000,194729.9375000000,163805.8281250000,161205.5312500000,130697.4140625000,118352.3281250000,131067.9296875000,147539.8593750000,,,
0.7639999988,5,177633.5468750000,183775.5000000000,163660.4843750000,161103.6406250000,130580.8671875000,118243.4296875000,130962.3359375000,146161.9843750000,,,
0.7679999988,6,177637.4375000000,190886.7812500000,163183.9843750000,160351.2968750000,129814.9609375000,117540.1562500000,130157.4062500000,148992.3281250000,,,
0.7719999987,6,177789.9218750000,204795.2500000000,163118.7812500000,160149.5000000000,129616.5625000000,117365.8671875000,129932.7968750000,151561.3593750000,,,
0.7759999987,6,177880.6718750000,206578.3750000000,163459.7187500000,160636.4687500000,130103.4062500000,117819.8828125000,130441.5000000000,150628.3125000000,,,
0.7799999986,6,177804.0312500000,194846.7656250000,163785.7031250000,161205.8750000000,130672.0625000000,118345.8671875000,131052.9921875000,147561.1093750000,,,
0.7839999986,6,177630.3281250000,183798.9687500000,163654.0156250000,161120.0156250000,130570.3281250000,118247.9609375000,130962.6562500000,146157.7812500000,,,
0.7879999985,6,177637.7187500000,190775.6875000000,163185.2500000000,160369.5468750000,129813.1953125000,117546.9921875000,130167.2734375000,148966.5312500000,,,
0.7919999987,6,177792.3437500000,204726.9531250000,163120.3281250000,160147.1562500000,129614.2265625000,117364.4687500000,129933.9453125000,151557.2968750000,,,
0.7959999987,6,177875.6250000000,206628.3750000000,163449.0937500000,160612.3593750000,130092.2500000000,117804.4843750000,130426.2656250000,150640.3906250000,,,
0.7999999986,6,177805.7500000000,194965.8906250000,163785.5781250000,161190.1093750000,130674.3437500000,118335.5625000000,131045.1093750000,147575.6718750000,,,
0.8039999986,6,177632.5937500000,183832.7031250000,163664.0156250000,161110.2812500000,130584.8671875000,118243.3515625000,130967.2656250000,146144.4218750000,,,
0.8079999986,6,177634.1718750000,190683.2500000000,163189.3437500000,160368.4687500000,129821.5078125000,117537.2578125000,130166.3046875000,148931.1250000000,,,
0.8119999988,6,177789.4218750000,204669.9375000000,163119.7500000000,160153.8593750000,129614.0390625000,117349.5312500000,129930.1406250000,151542.7968750000,,,
0.8159999987,6,177878.5937500000,206735.0156250000,163453.2500000000,160628.4218750000,130090.3203125000,117793.1718750000,130424.2578125000,150668.2031250000,,,
0.8199999987,6,177806.2656250000,195197.8750000000,163789.9687500000,161195.1250000000,130672.9765625000,118329.5312500000,131044.8125000000,147616.2187500000,,,
0.8239999986,6,177629.3906250000,183883.9375000000,163668.3125000000,161116.4062500000,130591.0312500000,118249.1953125000,130973.6015625000,146135.2187500000,,,
0.8279999986,6,177633.7187500000,190572.6406250000,163194.3593750000,160376.4531250000,129832.8281250000,117553.0000000000,130174.1953125000,148910.2500000000,,,
0.8319999985,6,177789.9531250000,204601.4531250000,163118.5312500000,160144.6093750000,129618.4140625000,117360.9843750000,129929.7109375000,151552.2656250000,,,
0.8359999987,6,177884.0781250000,206745.2968750000,163453.0312500000,160616.5781250000,130094.3203125000,117803.9765625000,130423.9296875000,150695.0000000000,,,
0.8399999987,6,177820.2343750000,195249.7968750000,163792.3906250000,161199.1250000000,130676.0859375000,118340.3125000000,131046.7968750000,147642.1562500000,,,
0.8439999986,6,177654.0937500000,183892.5468750000,163683.8125000000,161135.0937500000,130601.7109375000,118266.9531250000,130985.3750000000,146143.1093750000,,,
0.8479999986,6,177642.3593750000,190443.7812500000,163198.5000000000,160380.7812500000,129828.9375000000,117555.5781250000,130175.0234375000,148875.7968750000,,,
0.8519999986,6,177782.2812500000,204526.5625000000,163105.5312500000,160134.6875000000,129593.4375000000,117348.4062500000,129909.3515625000,151531.1250000000,,,
0.8559999987,6,177868.2187500000,206758.2187500000,163436.7500000000,160601.1250000000,130067.3359375000,117787.1328125000,130404.0312500000,150686.7187500000,,,
0.8599999987,6,177798.8906250000,195273.2343750000,163780.4843750000,161186.8906250000,130657.4453125000,118328.4062500000,131035.9609375000,147630.0312500000,,,
0.8639999987,6,177625.1093750000,183886.3281250000,163670.2656250000,161117.4687500000,130589.2109375000,118258.4531250000,130977.7265625000,146118.3750000000,,,
0.8679999986,6,177623.6250000000,190318.4531250000,163199.1093750000,160375.8906250000,129834.6484375000,117558.0156250000,130180.2812500000,148838.8281250000,,,
0.8719999986,6,177781.6406250000,204447.3593750000,163118.6250000000,160142.2031250000,129609.5625000000,117351.0078125000,129917.6953125000,151527.1562500000,,,
0.8759999985,6,177884.3906250000,206777.1562500000,163460.4375000000,160610.3281250000,130092.5468750000,117797.0546875000,130414.3046875000,150712.5156250000,,,
0.8799999987,6,177827.3437500000,195346.1875000000,163812.3125000000,161202.7500000000,130689.8750000000,118341.7890625000,131045.3203125000,147668.0468750000,,,
0.8839999987,6,177656.4375000000,183917.6718750000,163706.0781250000,161146.3125000000,130627.8593750000,118268.4296875000,130991.7031250000,146140.9531250000,,,
0.8879999986,6,177648.5781250000,190213.5937500000,163227.8437500000,160403.2500000000,129869.1718750000,117568.7187500000,130194.9296875000,148837.2500000000,,,
0.8919999986,6,177797.0937500000,204382.3906250000,163131.9531250000,160149.6562500000,129627.0234375000,117360.1015625000,129924.3984375000,151543.1718750000,,,
0.8959999986,7,177883.5625000000,206821.7656250000,163452.1250000000,160603.4218750000,130085.3046875000,117791.5312500000,130403.8984375000,150736.1718750000,,,
0.8999999985,7,177810.4531250000,195454.9375000000,163787.7812500000,161187.1562500000,130663.3750000000,118323.9531250000,131026.1718750000,147677.0781250000,,,
0.9039999985,7,177632.1093750000,183945.7656250000,163679.3281250000,161124.6093750000,130597.9531250000,118255.5546875000,130974.9921875000,146113.2500000000,,,
0.9079999984,7,177632.3750000000,190105.2187500000,163212.8750000000,160394.1093750000,129850.7187500000,117563.5703125000,130190.0703125000,148791.9687500000,,,
0.9119999984,7,177791.4218750000,204317.0000000000,163122.9687500000,160148.2656250000,129614.1171875000,117346.1484375000,129918.5234375000,151528.5000000000,,,
0.9159999983,7,177890.7812500000,206894.6093750000,163452.0468750000,160603.4218750000,130083.8281250000,117785.3593750000,130404.8125000000,150765.9218750000,,,
0.9199999985,7,177828.0468750000,195627.1250000000,163797.8593750000,161185.9218750000,130676.3281250000,118332.7187500000,131035.2656250000,147728.2343750000,,,
0.9239999985,7,177654.6093750000,183999.2656250000,163698.8906250000,161132.5000000000,130624.8046875000,118279.7500000000,130992.6406250000,146138.0000000000,,,
0.9279999984,7,177650.6875000000,190019.6718750000,163228.6718750000,160401.7812500000,129874.6953125000,117583.2031250000,130201.7656250000,148792.8906250000,,,
0.9319999984,7,177810.0937500000,204268.7031250000,163138.1718750000,160146.1718750000,129633.0312500000,117360.5000000000,129926.7890625000,151546.6875000000,,,
0.9359999984,7,177900.0625000000,206949.9375000000,163458.4531250000,160592.1093750000,130090.7500000000,117781.8750000000,130399.1796875000,150792.0937500000,,,
0.9399999985,7,177827.9062500000,195753.7343750000,163798.0000000000,161177.2812500000,130676.1171875000,118314.6953125000,131024.6640625000,147741.7500000000,,,
0.9439999985,7,177644.5781250000,184027.5937500000,163694.7031250000,161136.8593750000,130622.9765625000,118254.7734375000,130983.0390625000,146103.4531250000,,,
0.9479999985,7,177620.4687500000,189892.2968750000,163206.8593750000,160384.9375000000,129855.3593750000,117544.8515625000,130177.4921875000,148718.5625000000,,,
0.9519999984,7,177770.2968750000,204176.7812500000,163103.0312500000,160124.8750000000,129595.2109375000,117311.2031250000,129884.3281250000,151489.7968750000,,,
0.9559999984,7,177869.8906250000,206980.9687500000,163428.4687500000,160578.4531250000,130054.9140625000,117745.2890625000,130361.2500000000,150774.4531250000,,,
0.9599999983,7,177822.6718750000,195855.3593750000,163790.4062500000,161182.5468750000,130663.5390625000,118311.6093750000,131009.8046875000,147758.8437500000,,,
0.9639999985,7,177654.7656250000,184052.8281250000,163703.6406250000,161152.8750000000,130629.4140625000,118277.5468750000,130990.3593750000,146115.0156250000,,,
0.9679999985,7,177643.8281250000,189781.1718750000,163227.0937500000,160414.5468750000,129874.2656250000,117581.1640625000,130196.3984375000,148717.1406250000,,,
0.9719999984,7,177800.9531250000,204111.8750000000,163124.5468750000,160147.9843750000,129614.0156250000,117344.2500000000,129901.3046875000,151519.1406250000,,,
0.9759999984,7,177908.0312500000,207049.6875000000,163454.3437500000,160627.0937500000,130073.1562500000,117770.3984375000,130375.7109375000,150832.4062500000,,,
0.9799999984,7,177854.3281250000,196014.0625000000,163812.1562500000,161222.1562500000,130673.2968750000,118321.4843750000,131014.3437500000,147810.9062500000,,,
0.9839999985,7,177665.3593750000,184125.6562500000,163712.2500000000,161160.7656250000,130626.4687500000,118274.2187500000,130985.8046875000,146114.4062500000,,,
0.9879999985,7,177639.2656250000,189698.3437500000,163231.3750000000,160396.6875000000,129865.9296875000,117579.0234375000,130192.9921875000,148679.7812500000,,,
0.9919999985,7,177788.8750000000,204050.2343750000,163120.4218750000,160121.3593750000,129595.6640625000,117336.1484375000,129887.7031250000,151498.3281250000,,,
0.9959999984,7,177883.2968750000,207083.9687500000,163437.1875000000,160567.1718750000,130048.0781250000,117755.9375000000,130357.3359375000,150826.9687500000,,,
0.9999999984,7,177827.9687500000,196094.2343750000,163790.6250000000,161165.4531250000,130653.2109375000,118314.4531250000,131003.1015625000,147810.0625000000,,,
1.0039999983,7,177656.9687500000,184133.2968750000,163710.2812500000,161150.4687500000,130635.6953125000,118290.2109375000,130999.3515625000,146112.1562500000,,,
1.0079999985,7,177648.3906250000,189560.2343750000,163244.9687500000,160423.5000000000,129899.1875000000,117605.7890625000,130224.5078125000,148672.4218750000,,,
1.0119999985,7,177805.1406250000,203943.6093750000,163134.7343750000,160137.1875000000,129629.0625000000,117355.6718750000,129915.9531250000,151519.7500000000,,,
1.0159999984,7,177906.6250000000,207085.7187500000,163454.0781250000,160570.7343750000,130077.1796875000,117768.3828125000,130375.1406250000,150871.7812500000,,,
1.0199999984,7,177845.3750000000,196166.1406250000,163801.1875000000,161163.8437500000,130669.4375000000,118315.5000000000,131005.6484375000,147848.5781250000,,,
1.0239999983,8,177666.5937500000,184143.2187500000,163717.8750000000,161149.1718750000,130645.0781250000,118287.2343750000,130996.3437500000,146115.1875000000,,,
1.0279999983,8,177645.6718750000,189431.4062500000,163243.9062500000,160419.8125000000,129895.0312500000,117593.7187500000,130211.3984375000,148635.9687500000,,,
1.0319999983,8,177792.8437500000,203855.1250000000,163124.2968750000,160133.1562500000,129607.8437500000,117334.2968750000,129891.6484375000,151492.6406250000,,,
1.0359999982,8,177887.8750000000,207112.6718750000,163441.5781250000,160574.1718750000,130050.0859375000,117745.7187500000,130354.7343750000,150860.9218750000,,,
1.0399999982,8,177828.2343750000,196279.6093750000,163795.7968750000,161175.8906250000,130648.2734375000,118299.0859375000,130999.6718750000,147841.2656250000,,,
1.0439999981,8,177646.1562500000,184176.2656250000,163713.9531250000,161159.3125000000,130628.4531250000,118280.1796875000,130995.5937500000,146075.1406250000,,,
1.0479999983,8,177622.0937500000,189331.6406250000,163238.1093750000,160428.9843750000,129879.4218750000,117583.4765625000,130206.0546875000,148572.7343750000,,,
1.0519999983,8,177776.9531250000,203785.6250000000,163118.0781250000,160123.6406250000,129596.4687500000,117318.3906250000,129887.4921875000,151460.9531250000,,,
1.0559999982,8,177884.7500000000,207172.5312500000,163437.5781250000,160551.5000000000,130047.2187500000,117735.0468750000,130348.7812500000,150877.5468750000,,,
1.0599999982,8,177849.5000000000,196451.6718750000,163808.0000000000,161163.1250000000,130668.0156250000,118309.0625000000,131001.4687500000,147897.1093750000,,,
1.0639999982,8,177684.8437500000,184256.5000000000,163743.6718750000,161181.7187500000,130671.4453125000,118298.7890625000,131015.5468750000,146111.7812500000,,,
1.0679999983,8,177654.3125000000,189250.2812500000,163260.2656250000,160439.5468750000,129918.3906250000,117602.2500000000,130223.2812500000,148581.6875000000,,,
1.0719999983,8,177797.4375000000,203727.9062500000,163126.7656250000,160115.4218750000,129616.0546875000,117327.8593750000,129889.7187500000,151483.5156250000,,,
1.0759999983,8,177893.6718750000,207306.3593750000,163432.9531250000,160531.6875000000,130043.4609375000,117728.3125000000,130337.0312500000,150934.3906250000,,,
1.0799999982,8,177838.8437500000,196786.9375000000,163792.1718750000,161136.5156250000,130649.1562500000,118292.1093750000,130986.3359375000,147956.0000000000,,,
1.0839999982,8,177652.2968750000,184315.1562500000,163724.1562500000,161157.3125000000,130652.5390625000,118290.4218750000,131012.0625000000,146080.2656250000,,,
1.0879999981,8,177628.7343750000,189114.8593750000,163250.5000000000,160429.8125000000,129904.9765625000,117608.2578125000,130234.5703125000,148531.9375000000,,,
1.0919999983,8,177780.1718750000,203619.1718750000,163117.0312500000,160123.3125000000,129598.6406250000,117334.9921875000,129895.7265625000,151462.1093750000,,,
1.0959999983,8,177880.4843750000,207243.1406250000,163422.4062500000,160550.5625000000,130025.8906250000,117733.7265625000,130337.5156250000,150919.6406250000,,,
1.0999999982,8,177835.0625000000,196659.1562500000,163786.7500000000,161164.2812500000,130636.3125000000,118299.4921875000,130987.5468750000,147930.3125000000,,,
1.1039999982,8,177656.2187500000,184264.1406250000,163721.2500000000,161173.1562500000,130640.6328125000,118295.5703125000,131005.7031250000,146073.2343750000,,,
1.1079999981,8,177631.2187500000,188960.8125000000,163248.8906250000,160448.5625000000,129897.7343750000,117605.4375000000,130224.4296875000,148499.4843750000,33029,1.1096853160,0.0000000000
1.1119999983,8,177781.2343750000,203508.2187500000,163113.5000000000,160122.9375000000,129589.3671875000,117319.5937500000,129876.7109375000,151448.2656250000,,,
1.1159999983,8,177883.8281250000,207185.5000000000,163425.4687500000,160532.7187500000,130027.3437500000,117722.3828125000,130328.5234375000,150915.1250000000,,,
1.1199999982,8,177831.2656250000,196547.1562500000,163783.3750000000,161134.6875000000,130635.2890625000,118279.4765625000,130976.8671875000,147905.3125000000,,,
1.1239999982,8,177651.6093750000,184246.9375000000,163716.9375000000,161142.5781250000,130639.6640625000,118276.9609375000,131000.2343750000,146062.6562500000,,,
1.1279999982,8,177621.7812500000,188845.2968750000,163246.7968750000,160428.2500000000,129902.1328125000,117601.0390625000,130229.9296875000,148460.2343750000,,,
1.1319999981,8,177769.2812500000,203423.7500000000,163104.4531250000,160116.1718750000,129580.6718750000,117316.1640625000,129872.3359375000,151426.5156250000,,,
1.1359999983,8,177869.8906250000,207218.2187500000,163407.6250000000,160543.8593750000,130004.7578125000,117715.5468750000,130312.0312500000,150916.6093750000,,,
1.1399999983,8,177818.1406250000,196689.9062500000,163765.5468750000,161137.9375000000,130611.3359375000,118281.1718750000,130965.0156250000,147924.6718750000,,,
1.1439999982,8,177640.1718750000,184330.8437500000,163700.6875000000,161153.6562500000,130622.4140625000,118287.8515625000,130994.7343750000,146061.7500000000,,,
1.1479999982,8,177605.7656250000,188786.6093750000,163221.3750000000,160427.3750000000,129880.1953125000,117604.8203125000,130216.9218750000,148430.1718750000,,,
1.1519999981,9,177763.4531250000,203390.7343750000,163081.5781250000,160106.8437500000,129561.2031250000,117319.5703125000,129863.5390625000,151424.0000000000,,,
1.1559999981,9,177873.3125000000,207372.0625000000,163389.8125000000,160524.9531250000,129985.4453125000,117713.7187500000,130301.7031250000,150965.3125000000,,,
1.1599999981,9,177832.6250000000,197071.0937500000,163763.1250000000,161142.0781250000,130604.0937500000,118276.3984375000,130958.7109375000,148003.1093750000,,,
1.1639999980,9,177659.5937500000,184468.2187500000,163720.5625000000,161173.5000000000,130640.3359375000,118295.1718750000,131010.2109375000,146067.1718750000,,,
1.1679999980,9,177635.3750000000,188723.9843750000,163257.0156250000,160457.2187500000,129913.2421875000,117619.3593750000,130244.1718750000,148415.7656250000,,,
1.1719999979,9,177797.1718750000,203328.9062500000,163117.7656250000,160139.5468750000,129595.0000000000,117330.1093750000,129883.9765625000,151433.3593750000,,,
1.1759999981,9,177904.7500000000,207406.0312500000,163424.0468750000,160546.2500000000,130019.0234375000,117718.7890625000,130318.6015625000,150999.2968750000,,,
1.1799999981,9,177856.2656250000,197182.8593750000,163788.6093750000,161132.6250000000,130631.9140625000,118284.3593750000,130973.0625000000,148044.3593750000,,,
1.1839999980,9,177673.5468750000,184527.3125000000,163737.2968750000,161168.7812500000,130661.4453125000,118308.7421875000,131023.2968750000,146080.6093750000,,,
1.1879999980,9,177638.7812500000,188623.3125000000,163267.0781250000,160455.3125000000,129927.7265625000,117629.7968750000,130258.9218750000,148389.3750000000,,,
1.1919999979,9,177790.3906250000,203240.5000000000,163116.7656250000,160122.0781250000,129595.0781250000,117323.3281250000,129889.2343750000,151413.4843750000,,,
1.1959999981,9,177896.1093750000,207385.9843750000,163421.4375000000,160535.3750000000,130015.8906250000,117713.9609375000,130322.3593750000,150993.0468750000,,,
1.1999999981,9,177856.9843750000,197164.1718750000,163796.5781250000,161156.7500000000,130639.3671875000,118291.8203125000,130989.6640625000,148042.4218750000,,,
1.2039999980,9,177684.1093750000,184531.4687500000,163755.8281250000,161204.5625000000,130679.6796875000,118324.1093750000,131050.3359375000,146088.0937500000,,,
1.2079999980,9,177639.7187500000,188507.4531250000,163276.5468750000,160471.5937500000,129939.1796875000,117645.1093750000,130277.2187500000,148367.4375000000,,,
1.2119999980,9,177788.5312500000,203136.5625000000,163117.7656250000,160116.6562500000,129594.9140625000,117331.7500000000,129896.2656250000,151405.4375000000,,,
1.2159999979,9,177893.5937500000,207369.4687500000,163415.6406250000,160520.6093750000,130007.2500000000,117715.3593750000,130320.7500000000,150997.1250000000,,,
1.2199999981,9,177856.5000000000,197179.3750000000,163791.3437500000,161143.0937500000,130630.3593750000,118292.1640625000,130984.9140625000,148043.5781250000,,,
1.2239999981,9,177688.5468750000,184555.5312500000,163754.9375000000,161197.2656250000,130676.8671875000,118329.2109375000,131048.4843750000,146083.8281250000,,,
1.2279999980,9,177649.4531250000,188411.7656250000,163285.4531250000,160487.4531250000,129948.6484375000,117658.9531250000,130288.3515625000,148338.7812500000,,,
1.2319999980,9,177801.1718750000,203072.8281250000,163127.3125000000,160149.8125000000,129603.5234375000,117343.7343750000,129901.6015625000,151398.3750000000,,,
1.2359999979,9,177911.0000000000,207412.4687500000,163428.1250000000,160535.3593750000,130019.5078125000,117727.0234375000,130326.3515625000,151017.9375000000,,,
1.2399999981,9,177860.2031250000,197306.2500000000,163789.3281250000,161129.0625000000,130631.6171875000,118291.8437500000,130980.4140625000,148062.7343750000,,,
1.2439999981,9,177673.2031250000,184621.0781250000,163741.3750000000,161167.4218750000,130670.3750000000,118325.3203125000,131039.9843750000,146066.5781250000,,,
1.2479999980,9,177627.4687500000,188316.8281250000,163270.8593750000,160459.9843750000,129940.9218750000,117654.4140625000,130279.1718750000,148287.7968750000,,,
1.2519999980,9,177780.1875000000,202981.3750000000,163108.7500000000,160113.5000000000,129586.5234375000,117337.4375000000,129883.7343750000,151366.9687500000,,,
1.2559999980,9,177891.4687500000,207450.0156250000,163404.7812500000,160516.3906250000,129992.5546875000,117724.6093750000,130301.0312500000,151021.2656250000,,,
1.2599999979,9,177854.1875000000,197444.6406250000,163777.7187500000,161129.5468750000,130612.6562500000,118301.8203125000,130961.0468750000,148088.8281250000,,,
1.2639999981,9,177682.6406250000,184683.1562500000,163745.9375000000,161190.9062500000,130668.0703125000,118346.9609375000,131033.6250000000,146077.1250000000,,,
1.2679999981,9,177639.3437500000,188241.4218750000,163277.4531250000,160489.0937500000,129944.3046875000,117676.0625000000,130277.2421875000,148277.9218750000,,,
1.2719999980,9,177788.7187500000,202911.3906250000,163110.2968750000,160119.3437500000,129586.3906250000,117349.1015625000,129879.1250000000,151373.2031250000,,,
1.2759999980,9,177900.3750000000,207475.2500000000,163406.9218750000,160520.4687500000,129992.8750000000,117726.5937500000,130294.0312500000,151050.2812500000,,,
1.2799999979,10,177868.0312500000,197573.2343750000,163787.5625000000,161144.1406250000,130620.8906250000,118307.1875000000,130963.1093750000,148132.1406250000,,,
1.2839999979,10,177701.5468750000,184733.6562500000,163764.5937500000,161208.7968750000,130690.3828125000,118364.6953125000,131050.7890625000,146093.0468750000,,,
1.2879999978,10,177657.4531250000,188128.3750000000,163294.7343750000,160495.7343750000,129969.1640625000,117699.1796875000,130294.4921875000,148261.9375000000,,,
1.2919999978,10,177798.0468750000,202811.5625000000,163114.4531250000,160109.4531250000,129595.2343750000,117361.7578125000,129880.3281250000,151363.7343750000,,,
1.2959999978,10,177903.2187500000,207492.4218750000,163404.2656250000,160491.4218750000,129992.1796875000,117730.1875000000,130286.6328125000,151057.8750000000,,,
1.2999999977,10,177863.0468750000,197676.8437500000,163778.3906250000,161111.6875000000,130612.1718750000,118306.2187500000,130947.9062500000,148142.6406250000,,,
1.3039999979,10,177686.1562500000,184790.5937500000,163752.7500000000,161188.4687500000,130680.5703125000,118364.5625000000,131037.8906250000,146075.1406250000,,,
1.3079999979,10,177645.5468750000,188042.1406250000,163294.3281250000,160502.5781250000,129971.4453125000,117706.5078125000,130296.5312500000,148222.1875000000,,,
1.3119999978,10,177789.5468750000,202731.4687500000,163116.5312500000,160124.4375000000,129598.0000000000,117364.0937500000,129882.6640625000,151346.2343750000,,,
1.3159999978,10,177898.7656250000,207519.5625000000,163406.1250000000,160508.7187500000,129993.0625000000,117726.2187500000,130286.1250000000,151071.2812500000,,,
1.3199999977,10,177866.5000000000,197789.0468750000,163784.6406250000,161127.1875000000,130617.0000000000,118295.9765625000,130946.7734375000,148167.2031250000,,,
1.3239999979,10,177688.6718750000,184871.0156250000,163758.7500000000,161195.3906250000,130685.9062500000,118359.9687500000,131032.0468750000,146077.1406250000,,,
1.3279999979,10,177639.9843750000,187964.9218750000,163291.7500000000,160492.2500000000,129969.4843750000,117710.6640625000,130283.3046875000,148182.5000000000,,,
1.3319999978,10,177786.8437500000,202645.4531250000,163106.5000000000,160113.8125000000,129585.5859375000,117367.6328125000,129860.8046875000,151321.9687500000,,,
1.3359999978,10,177893.5468750000,207524.7187500000,163384.9531250000,160495.1250000000,129968.4140625000,117727.0781250000,130255.4921875000,151068.2812500000,,,
1.3399999978,10,177860.5781250000,197864.5156250000,163758.4062500000,161119.6718750000,130587.4921875000,118308.3125000000,130920.2734375000,148175.5468750000,,,
1.3439999977,10,177693.5312500000,184898.0468750000,163749.3125000000,161217.3906250000,130674.3984375000,118385.0781250000,131026.0390625000,146077.6250000000,,,
1.3479999979,10,177646.1562500000,187842.8281250000,163293.6875000000,160528.4687500000,129970.2343750000,117731.3671875000,130286.7656250000,148159.8750000000,,,
1.3519999979,10,177792.0781250000,202530.0312500000,163110.1718750000,160138.2500000000,129586.5468750000,117382.3906250000,129859.7812500000,151316.7031250000,,,
1.3559999978,10,177891.3906250000,207523.8281250000,163389.3281250000,160499.1406250000,129968.3046875000,117730.8359375000,130248.2500000000,151085.6093750000,,,
1.3599999978,10,177849.9218750000,197963.6562500000,163762.7187500000,161090.7343750000,130587.2031250000,118304.6640625000,130906.9453125000,148198.8750000000,,,
1.3639999977,10,177682.6093750000,184967.4062500000,163756.5468750000,161195.7656250000,130679.2500000000,118385.5859375000,131016.0078125000,146079.5625000000,,,
1.3679999979,10,177636.5000000000,187779.0625000000,163300.1562500000,160520.8750000000,129975.4140625000,117731.0468750000,130274.1562500000,148130.7187500000,,,
1.3719999979,10,177786.9843750000,202479.3125000000,163115.2343750000,160125.6718750000,129587.9453125000,117374.1796875000,129841.1406250000,151302.3593750000,,,
1.3759999978,10,177900.8593750000,207585.8750000000,163399.4687500000,160504.0468750000,129972.6484375000,117729.8984375000,130230.6015625000,151105.3437500000,,,
1.3799999978,10,177875.7343750000,198127.1406250000,163785.4375000000,161141.0000000000,130603.0234375000,118312.1250000000,130897.4531250000,148239.0312500000,,,
1.3839999977,10,177700.3750000000,185056.3593750000,163774.9531250000,161229.1875000000,130693.1171875000,118395.4062500000,131008.3359375000,146088.7812500000,,,
1.3879999977,10,177641.1406250000,187703.5312500000,163309.0781250000,160516.7968750000,129982.0156250000,117741.5078125000,130267.3203125000,148105.0781250000,,,
1.3919999979,10,177776.8593750000,202379.6406250000,163106.7031250000,160096.5937500000,129575.5468750000,117370.9609375000,129820.9765625000,151279.5937500000,,,
1.3959999979,10,177884.7656250000,207591.5468750000,163381.5000000000,160465.4843750000,129951.7343750000,117720.5312500000,130206.3828125000,151106.2343750000,,,
1.3999999978,10,177866.4531250000,198248.0781250000,163773.4843750000,161106.0781250000,130591.0625000000,118311.3437500000,130884.3046875000,148262.3125000000,,,
1.4039999978,10,177699.5312500000,185100.6093750000,163775.9531250000,161227.7187500000,130697.8437500000,118405.9453125000,131011.9843750000,146089.0312500000,,,
1.4079999977,11,177638.9218750000,187604.5625000000,163310.5000000000,160536.7812500000,129989.4453125000,117751.4843750000,130270.3203125000,148074.8593750000,,,
1.4119999977,11,177782.4218750000,202291.3750000000,163111.7812500000,160123.2812500000,129585.1015625000,117380.1640625000,129823.4687500000,151267.4375000000,,,
1.4159999976,11,177896.6250000000,207596.4062500000,163390.2968750000,160488.8125000000,129959.9140625000,117726.6484375000,130202.5937500000,151114.9531250000,,,
1.4199999976,11,177871.1406250000,198328.9687500000,163774.5312500000,161109.5312500000,130587.0625000000,118300.3437500000,130865.3750000000,148264.7812500000,,,
1.4239999976,11,177697.4687500000,185163.2187500000,163774.7187500000,161221.0156250000,130693.5781250000,118388.5937500000,130990.3906250000,146066.4218750000,,,
1.4279999975,11,177638.4687500000,187522.7031250000,163318.2343750000,160544.4531250000,129997.9687500000,117741.3515625000,130259.6250000000,148026.5156250000,,,
1.4319999977,11,177785.8281250000,202216.7500000000,163123.6406250000,160137.5000000000,129595.9062500000,117369.1406250000,129811.6953125000,151246.0625000000,,,
1.4359999977,11,177894.6718750000,207626.3125000000,163396.9531250000,160492.8437500000,129966.0000000000,117711.9765625000,130188.6484375000,151123.1093750000,,,
1.4399999976,11,177861.9375000000,198437.0625000000,163773.5937500000,161106.8593750000,130588.1406250000,118290.4765625000,130853.7812500000,148283.1562500000,,,
1.4439999976,11,177693.1562500000,185222.5468750000,163778.4687500000,161226.5937500000,130703.5546875000,118398.0078125000,130994.1718750000,146071.6718750000,,,
1.4479999975,11,177636.0468750000,187430.0000000000,163321.2812500000,160546.9218750000,130009.3750000000,117759.2109375000,130270.2968750000,148006.0625000000,,,
1.4519999977,11,177770.9843750000,202112.4375000000,163102.4687500000,160120.6093750000,129581.5625000000,117374.2343750000,129801.9296875000,151227.5468750000,,,
1.4559999977,11,177884.3750000000,207616.2500000000,163373.4062500000,160474.9531250000,129945.8046875000,117715.1406250000,130173.1718750000,151126.0312500000,,,
1.4599999976,11,177863.0937500000,198474.8906250000,163762.1406250000,161104.2500000000,130576.6328125000,118304.3203125000,130841.0156250000,148295.1406250000,,,
1.4639999976,11,177691.5781250000,185245.7968750000,163769.2968750000,161227.8281250000,130689.9531250000,118408.3046875000,130976.2031250000,146067.3281250000,,,
1.4679999975,11,177631.8125000000,187326.3906250000,163316.8593750000,160567.0625000000,129997.4609375000,117765.4375000000,130251.3906250000,147967.0000000000,,,
1.4719999975,11,177782.0625000000,202021.2187500000,163114.4375000000,160149.0937500000,129579.4140625000,117379.0859375000,129788.5156250000,151210.4062500000,,,
1.4759999977,11,177895.9843750000,207637.0937500000,163385.5312500000,160498.1718750000,129941.7812500000,117711.5234375000,130151.3437500000,151133.2656250000,,,
1.4799999977,11,177876.4218750000,198573.7031250000,163776.5312500000,161109.8593750000,130576.2031250000,118293.5312500000,130820.8984375000,148310.3750000000,,,
1.4839999976,11,177705.2500000000,185310.3125000000,163785.3281250000,161229.7187500000,130698.4296875000,118399.6406250000,130965.2812500000,146066.4375000000,,,
1.4879999976,11,177640.9531250000,187233.0781250000,163330.0000000000,160555.4687500000,130011.8359375000,117762.5625000000,130246.2109375000,147939.3750000000,,,
1.4919999975,11,177783.2187500000,201932.1718750000,163116.8750000000,160126.9375000000,129589.3125000000,117372.0859375000,129778.5156250000,151201.7187500000,,,
1.4959999977,11,177897.5156250000,207658.5312500000,163387.4062500000,160471.3906250000,129952.1093750000,117708.8125000000,130148.3906250000,151153.6093750000,,,
1.4999999977,11,177875.7343750000,198712.5781250000,163774.4687500000,161088.7500000000,130582.9375000000,118298.5781250000,130817.2812500000,148346.8593750000,,,
1.5039999976,11,177702.1875000000,185377.1718750000,163785.3593750000,161227.9218750000,130705.4296875000,118417.1562500000,130962.0390625000,146073.9531250000,,,
1.5079999976,11,177632.3281250000,187152.6093750000,163328.0937500000,160567.1875000000,130010.7421875000,117780.0546875000,130236.9843750000,147912.5625000000,,,
1.5119999975,11,177775.2500000000,201839.5781250000,163112.8437500000,160133.0468750000,129574.9375000000,117381.8750000000,129757.7500000000,151179.8906250000,,,
1.5159999975,11,177886.1093750000,207663.6562500000,163374.8750000000,160457.3593750000,129924.6953125000,117702.8828125000,130113.1171875000,151146.8750000000,,,
1.5199999977,11,177863.3125000000,198810.6718750000,163759.9531250000,161076.6718750000,130552.5703125000,118278.1640625000,130777.0468750000,148341.5000000000,,,
1.5239999976,11,177693.0156250000,185423.1250000000,163776.5937500000,161224.5468750000,130688.2890625000,118398.1406250000,130933.3359375000,146042.9218750000,,,
1.5279999976,11,177633.5468750000,187034.3281250000,163329.6562500000,160570.5156250000,130012.2968750000,117772.8359375000,130226.7343750000,147858.2968750000,,,
1.5319999976,11,177783.4375000000,201723.5156250000,163113.4375000000,160135.2812500000,129577.5625000000,117376.7812500000,129745.0625000000,151154.6250000000,,,
1.5359999975,12,177904.8281250000,207673.7031250000,163382.5781250000,160477.5468750000,129935.2656250000,117711.1484375000,130102.6015625000,151168.0312500000,,,
1.5399999975,12,177882.4687500000,198917.3125000000,163769.6718750000,161097.6562500000,130567.7031250000,118291.9218750000,130770.7968750000,148382.6875000000,,,
1.5439999974,12,177712.6250000000,185488.4843750000,163794.5312500000,161243.1562500000,130711.9453125000,118418.2265625000,130938.6250000000,146069.0468750000,,,
1.5479999974,12,177645.9687500000,186959.8593750000,163348.6718750000,160590.9375000000,130036.7031250000,117790.7812500000,130236.0468750000,147853.5000000000,,,
1.5519999973,12,177781.8281250000,201642.8125000000,163118.7812500000,160125.0000000000,129585.5859375000,117378.8437500000,129741.0468750000,151147.3750000000,,,
1.5559999973,12,177895.5000000000,207706.9218750000,163376.1093750000,160459.4531250000,129926.4609375000,117698.6718750000,130085.3828125000,151175.6718750000,,,
1.5599999975,12,177882.2500000000,199080.9062500000,163766.5625000000,161090.1718750000,130559.1171875000,118286.1328125000,130754.2500000000,148408.7656250000,,,
1.5639999975,12,177712.0937500000,185568.0156250000,163792.8437500000,161241.7968750000,130706.4218750000,118416.0546875000,130922.7421875000,146058.0468750000,,,
1.5679999974,12,177647.8437500000,186874.2968750000,163353.5468750000,160589.3281250000,130038.6640625000,117796.4140625000,130228.4531250000,147812.7187500000,,,
1.5719999974,12,177798.5312500000,201552.4218750000,163135.4843750000,160145.3906250000,129597.2265625000,117390.3281250000,129742.9765625000,151134.5937500000,,,
1.5759999973,12,177917.8906250000,207737.8750000000,163391.7812500000,160468.3281250000,129939.1250000000,117705.1093750000,130085.4687500000,151199.6250000000,,,
1.5799999975,12,177899.7031250000,199236.6875000000,163776.8593750000,161083.3281250000,130568.3203125000,118289.2968750000,130754.7031250000,148450.5781250000,,,
1.5839999975,12,177731.4531250000,185645.4218750000,163817.4375000000,161260.2187500000,130734.3750000000,118436.6875000000,130947.2890625000,146074.4062500000,,,
1.5879999974,12,177657.0468750000,186778.9218750000,163371.6093750000,160610.9375000000,130060.5468750000,117810.2031250000,130244.3593750000,147789.0156250000,,,
1.5919999974,12,177795.6718750000,201454.3437500000,163136.6406250000,160150.3750000000,129597.4921875000,117391.4531250000,129736.6953125000,151118.5000000000,,,
1.5959999973,12,177911.6406250000,207741.8437500000,163389.0625000000,160464.6718750000,129930.9687500000,117702.7812500000,130072.4843750000,151205.9531250000,,,
1.5999999973,12,177895.0625000000,199331.5781250000,163779.2656250000,161084.1875000000,130563.8671875000,118285.1093750000,130742.1250000000,148466.1406250000,,,
1.6039999975,12,177721.7968750000,185711.5625000000,163813.6093750000,161245.7343750000,130726.8046875000,118432.8203125000,130927.3593750000,146066.7968750000,,,
1.6079999974,12,177642.5468750000,186697.0937500000,163362.7187500000,160588.4062500000,130052.4453125000,117812.6171875000,130224.5937500000,147749.5781250000,,,
1.6119999974,12,177786.3281250000,201352.8125000000,163131.8437500000,160137.7968750000,129591.3750000000,117389.0703125000,129718.8359375000,151093.0156250000,,,
1.6159999974,12,177908.4531250000,207722.1250000000,163385.9062500000,160460.1250000000,129924.1875000000,117701.3046875000,130054.6484375000,151203.2031250000,,,
1.6199999973,12,177890.0781250000,199341.7187500000,163771.4687500000,161078.3750000000,130552.8906250000,118284.9531250000,130724.1250000000,148459.8281250000,,,
1.6239999975,12,177719.3593750000,185735.3281250000,163808.5156250000,161249.7343750000,130718.5468750000,118434.7265625000,130914.0234375000,146058.1875000000,,,
1.6279999975,12,177645.2187500000,186601.0156250000,163368.0625000000,160603.8125000000,130057.1953125000,117822.7031250000,130225.1015625000,147720.1875000000,,,
1.6319999974,12,177788.9375000000,201260.7031250000,163130.7187500000,160133.6093750000,129590.2187500000,117393.7343750000,129713.4687500000,151079.9218750000,,,
1.6359999974,12,177908.4531250000,207731.1562500000,163378.3125000000,160453.5000000000,129917.5078125000,117699.0781250000,130042.7343750000,151213.9218750000,,,
1.6399999973,12,177891.2656250000,199407.4062500000,163763.9062500000,161072.3281250000,130547.7968750000,118280.8437500000,130711.9218750000,148479.1406250000,,,
1.6439999973,12,177718.2812500000,185796.0781250000,163801.3750000000,161243.1093750000,130712.7812500000,118424.4765625000,130899.8125000000,146063.4687500000,,,
1.6479999975,12,177635.4375000000,186525.2343750000,163355.1093750000,160607.9843750000,130045.7421875000,117808.5625000000,130202.5937500000,147683.5781250000,,,
1.6519999974,12,177765.6562500000,201162.1875000000,163103.7031250000,160128.2031250000,129561.0703125000,117363.6406250000,129671.9765625000,151035.9687500000,,,
1.6559999974,12,177888.3593750000,207737.3906250000,163357.2343750000,160441.0000000000,129887.1171875000,117665.4140625000,130000.6250000000,151192.4687500000,,,
1.6599999974,12,177889.6250000000,199522.6406250000,163763.1250000000,161079.3125000000,130532.3203125000,118262.1015625000,130684.7812500000,148483.5937500000,,,
1.6639999973,13,177731.8593750000,185878.3906250000,163817.4062500000,161265.0000000000,130717.1796875000,118428.3984375000,130893.2421875000,146062.0468750000,,,
1.6679999973,13,177657.1250000000,186451.3125000000,163383.1093750000,160634.3281250000,130067.2812500000,117829.7812500000,130215.7968750000,147660.8906250000,,,
1.6719999972,13,177801.2187500000,201084.1718750000,163142.8906250000,160160.2968750000,129595.0781250000,117398.3437500000,129699.3906250000,151047.6562500000,,,
1.6759999972,13,177919.1562500000,207756.1406250000,163389.1406250000,160471.7656250000,129918.2265625000,117698.5156250000,130027.0703125000,151233.2656250000,,,
1.6799999971,13,177899.2500000000,199626.8125000000,163773.2031250000,161079.8906250000,130545.5156250000,118279.7500000000,130695.1562500000,148523.5937500000,,,
1.6839999971,13,177725.3125000000,185934.7500000000,163815.5625000000,161247.4218750000,130722.7890625000,118439.6093750000,130899.8125000000,146065.8281250000,,,
1.6879999973,13,177643.4218750000,186359.6875000000,163376.0781250000,160613.7031250000,130069.5078125000,117835.6562500000,130221.4765625000,147628.1406250000,,,
1.6919999972,13,177779.0625000000,200983.7500000000,163123.6406250000,160128.6250000000,129580.9687500000,117391.1562500000,129689.3281250000,151020.5625000000,,,
1.6959999972,13,177897.1093750000,207777.7812500000,163367.1718750000,160436.6718750000,129895.2187500000,117683.6250000000,130006.3906250000,151232.2968750000,,,
1.6999999972,13,177890.4375000000,199752.0156250000,163763.1562500000,161064.2343750000,130531.5156250000,118272.4218750000,130680.3515625000,148540.7031250000,,,
1.7039999971,13,177719.8750000000,186002.5625000000,163814.7656250000,161252.4375000000,130717.6875000000,118440.7890625000,130889.7812500000,146060.6718750000,,,
1.7079999973,13,177635.8281250000,186253.1562500000,163377.3906250000,160621.7812500000,130066.7968750000,117836.9140625000,130210.8281250000,147585.5937500000,,,
1.7119999973,13,177773.0000000000,200861.2968750000,163120.3593750000,160133.0000000000,129571.4765625000,117382.5468750000,129669.4843750000,150987.8437500000,,,
1.7159999972,13,177902.6406250000,207762.6718750000,163369.0312500000,160433.9062500000,129893.0937500000,117679.0937500000,129993.3046875000,151230.5000000000,,,
1.7199999972,13,177898.2343750000,199828.6250000000,163762.6093750000,161057.6562500000,130528.9453125000,118265.4765625000,130668.0937500000,148553.4375000000,,,
1.7239999971,13,177732.9375000000,186063.9843750000,163817.8125000000,161256.6562500000,130722.7578125000,118439.7656250000,130887.5000000000,146067.8437500000,,,
1.7279999971,13,177657.1250000000,186179.9375000000,163394.5312500000,160636.5468750000,130090.0781250000,117851.1328125000,130227.8671875000,147574.4375000000,,,
1.7319999973,13,177795.5625000000,200776.8125000000,163138.2500000000,160143.2500000000,129594.3281250000,117391.3984375000,129686.5937500000,150988.6406250000,,,
1.7359999972,13,177915.4843750000,207783.6250000000,163376.8281250000,160436.3750000000,129901.2500000000,117675.7421875000,129996.8437500000,151249.7031250000,,,
1.7399999972,13,177908.1093750000,199959.1406250000,163770.6875000000,161064.7656250000,130534.3593750000,118261.9140625000,130669.0859375000,148581.3125000000,,,
1.7439999972,13,177741.5937500000,186155.9062500000,163832.1093750000,161268.3281250000,130735.2812500000,118438.5312500000,130895.1171875000,146067.5781250000,,,
1.7479999971,13,177656.5156250000,186110.0937500000,163403.3593750000,160651.2187500000,130098.1562500000,117845.7109375000,130231.9921875000,147531.4062500000,,,
1.7519999973,13,177790.3593750000,200674.7031250000,163145.0156250000,160161.2656250000,129596.8750000000,117382.0156250000,129684.2343750000,150953.7031250000,,,
1.7559999973,13,177911.9375000000,207794.3281250000,163379.8593750000,160455.9843750000,129898.1640625000,117661.5781250000,129982.1484375000,151246.8593750000,,,
1.7599999972,13,177905.7656250000,200087.5625000000,163770.0937500000,161063.4062500000,130529.5625000000,118249.7343750000,130651.1171875000,148599.4218750000,,,
1.7639999972,13,177739.2031250000,186250.2343750000,163832.1093750000,161263.3281250000,130735.7968750000,118438.0781250000,130880.7656250000,146069.6093750000,,,
1.7679999971,13,177656.1093750000,186057.5156250000,163405.9375000000,160651.6875000000,130102.0390625000,117850.3281250000,130217.2656250000,147505.5781250000,,,
1.7719999971,13,177791.7031250000,200602.9531250000,163139.1875000000,160133.6875000000,129589.8203125000,117381.8750000000,129657.9765625000,150937.2500000000,,,
1.7759999973,13,177918.1406250000,207814.7656250000,163374.4218750000,160420.6093750000,129890.2265625000,117663.7500000000,129961.8671875000,151259.6093750000,,,
1.7799999972,13,177914.8593750000,200198.2031250000,163769.4218750000,161055.1093750000,130524.8906250000,118249.6015625000,130639.9296875000,148626.8281250000,,,
1.7839999972,13,177752.2656250000,186335.5781250000,163843.4375000000,161280.5468750000,130742.6640625000,118444.9687500000,130888.0625000000,146084.8906250000,,,
1.7879999971,13,177654.9062500000,185986.7812500000,163405.6406250000,160660.4843750000,130104.2968750000,117856.1718750000,130226.3359375000,147482.7656250000,,,
1.7919999971,14,177777.4531250000,200507.0312500000,163123.0156250000,160134.5781250000,129578.1562500000,117377.6171875000,129657.3828125000,150919.1562500000,,,
1.7959999971,14,177897.9375000000,207812.5625000000,163352.6718750000,160411.3593750000,129872.1484375000,117653.0468750000,129952.3203125000,151260.6718750000,,,
1.7999999970,14,177900.1093750000,200237.9531250000,163752.6093750000,161048.1093750000,130511.0234375000,118247.2421875000,130627.1640625000,148632.8593750000,,,
1.8039999970,14,177740.0937500000,186356.4531250000,163825.0781250000,161271.1718750000,130727.4218750000,118445.5078125000,130870.4375000000,146079.3125000000,,,
1.8079999969,14,177648.1250000000,185866.2500000000,163398.1875000000,160659.8437500000,130097.5859375000,117859.6875000000,130216.1953125000,147444.3750000000,,,
1.8119999969,14,177778.3593750000,200363.0000000000,163124.1718750000,160135.8125000000,129573.8046875000,117376.6484375000,129643.4609375000,150893.8906250000,,,
1.8159999971,14,177903.6250000000,207811.7031250000,163351.8593750000,160409.1875000000,129860.5625000000,117645.0312500000,129927.0000000000,151272.5625000000,,,
1.8199999970,14,177899.5781250000,200523.0781250000,163741.9375000000,161024.6093750000,130486.5390625000,118223.3437500000,130591.2265625000,148683.3750000000,,,
1.8239999970,14,177739.1250000000,186511.3437500000,163831.5468750000,161269.6093750000,130725.2031250000,118433.7343750000,130856.2265625000,146069.1250000000,,,
1.8279999970,14,177648.5156250000,185805.8750000000,163413.4531250000,160659.8125000000,130104.9375000000,117853.6796875000,130212.7109375000,147399.2031250000,,,
1.8319999969,14,177774.7187500000,200273.3125000000,163132.3281250000,160123.9843750000,129573.2968750000,117361.0078125000,129636.8359375000,150857.9375000000,,,
1.8359999971,14,177896.9531250000,207826.7812500000,163355.0312500000,160393.1718750000,129854.3125000000,117617.7812500000,129921.2890625000,151263.2031250000,,,
1.8399999971,14,177897.8125000000,200660.1406250000,163748.1875000000,161022.0468750000,130484.2578125000,118199.4140625000,130591.9765625000,148698.8437500000,,,
1.8439999970,14,177735.9062500000,186605.3281250000,163837.6093750000,161266.7656250000,130729.7890625000,118419.6796875000,130865.1562500000,146063.5156250000,,,
1.8479999970,14,177642.0781250000,185732.3593750000,163414.3906250000,160665.7031250000,130111.7812500000,117842.0078125000,130222.0468750000,147358.9531250000,,,
1.8519999969,14,177773.4375000000,200175.6718750000,163130.1562500000,160136.3281250000,129575.5234375000,117343.6796875000,129638.0468750000,150835.3281250000,,,
1.8559999969,14,177903.5468750000,207830.4375000000,163357.2812500000,160407.1718750000,129857.0781250000,117598.4687500000,129917.6640625000,151273.6875000000,,,
1.8599999971,14,177914.4062500000,200686.2343750000,163764.1250000000,161043.7968750000,130498.3906250000,118188.5546875000,130600.0468750000,148720.4062500000,,,
1.8639999970,14,177747.4375000000,186677.8593750000,163847.9843750000,161292.0000000000,130735.9531250000,118400.5312500000,130869.1015625000,146087.2343750000,,,
1.8679999970,14,177643.8750000000,185691.4687500000,163418.7812500000,160690.8906250000,130113.3906250000,117823.3125000000,130225.3984375000,147344.5781250000,,,
1.8719999969,14,177767.4218750000,200090.4062500000,163125.4062500000,160140.0468750000,129567.9062500000,117324.7734375000,129636.4062500000,150816.1250000000,,,
1.8759999969,14,177897.0312500000,207806.1562500000,163345.2343750000,160401.1093750000,129843.6093750000,117585.1093750000,129911.0156250000,151272.0156250000,,,
1.8799999971,14,177898.9531250000,200637.6250000000,163742.9531250000,161031.1562500000,130477.9296875000,118173.4531250000,130583.0937500000,148702.7343750000,,,
1.8839999971,14,177733.9687500000,186686.7656250000,163827.6250000000,161270.0937500000,130714.4687500000,118387.4140625000,130846.5703125000,146083.6875000000,,,
1.8879999970,14,177638.5625000000,185613.1250000000,163412.6875000000,160685.1562500000,130107.5703125000,117823.9296875000,130217.5390625000,147321.1562500000,,,
1.8919999970,14,177770.6718750000,199982.2031250000,163125.2187500000,160145.8437500000,129565.2265625000,117330.2421875000,129631.0703125000,150805.4531250000,,,
1.8959999969,14,177891.5000000000,207787.3750000000,163337.1406250000,160395.9843750000,129831.1093750000,117580.2265625000,129899.3984375000,151276.2343750000,,,
1.8999999969,14,177893.0625000000,200708.2031250000,163734.6875000000,161028.8593750000,130465.0000000000,118162.9375000000,130572.3125000000,148715.7500000000,,,
1.9039999971,14,177737.0937500000,186759.2031250000,163829.5156250000,161272.5000000000,130714.8750000000,118383.0156250000,130850.4296875000,146090.1093750000,,,
1.9079999970,14,177646.1093750000,185534.7500000000,163426.1875000000,160682.2812500000,130124.1718750000,117826.2968750000,130234.5703125000,147298.7031250000,,,
1.9119999970,14,177777.0000000000,199880.7187500000,163132.8125000000,160137.1875000000,129575.1484375000,117318.8203125000,129635.2812500000,150791.2343750000,,,
1.9159999969,14,177906.6875000000,207797.8437500000,163349.2343750000,160400.9687500000,129842.0546875000,117565.6875000000,129899.8828125000,151293.4531250000,,,
1.9199999969,15,177909.6875000000,200853.4687500000,163745.6718750000,161028.4062500000,130472.2968750000,118148.2656250000,130569.1250000000,148752.6718750000,,,
1.9239999969,15,177746.0468750000,186858.9062500000,163838.0625000000,161273.2500000000,130721.0390625000,118374.9921875000,130846.4609375000,146098.4375000000,,,
1.9279999968,15,177642.5468750000,185478.1093750000,163422.8593750000,160690.0937500000,130119.6406250000,117820.7968750000,130225.4765625000,147265.4531250000,,,
1.9319999968,15,177764.5000000000,199777.5468750000,163122.2656250000,160139.9218750000,129560.6093750000,117310.9375000000,129624.6640625000,150755.8906250000,,,
1.9359999967,15,177890.7812500000,207798.2968750000,163336.3906250000,160402.7500000000,129823.1718750000,117553.1406250000,129884.3828125000,151285.0000000000,,,
1.9399999967,15,177902.2656250000,201005.2500000000,163738.7656250000,161032.6875000000,130460.8906250000,118139.8203125000,130559.1718750000,148779.6406250000,,,
1.9439999969,15,177745.7812500000,186977.4531250000,163841.6406250000,161292.1406250000,130725.7109375000,118374.9140625000,130853.9453125000,146108.9062500000,,,
1.9479999968,15,177645.6562500000,185415.6562500000,163434.2812500000,160701.2968750000,130136.4296875000,117819.7734375000,130242.2656250000,147237.8437500000,,,
1.9519999968,15,177775.1250000000,199666.1406250000,163136.1093750000,160143.1406250000,129579.7890625000,117303.4218750000,129639.0625000000,150739.1250000000,,,
1.9559999967,15,177906.2031250000,207781.4062500000,163346.9843750000,160386.2187500000,129835.0000000000,117537.0703125000,129894.3828125000,151299.5937500000,,,
1.9599999967,15,177912.9375000000,201121.7500000000,163742.5781250000,161008.9218750000,130462.3671875000,118117.7656250000,130562.7109375000,148816.3281250000,,,
1.9639999969,15,177753.9531250000,187062.8593750000,163849.4375000000,161284.2343750000,130731.4453125000,118366.3828125000,130866.8203125000,146127.0156250000,,,
1.9679999969,15,177646.6718750000,185354.3750000000,163439.1093750000,160715.2812500000,130139.1640625000,117820.8984375000,130257.7968750000,147226.0156250000,,,
1.9719999968,15,177765.2812500000,199577.0781250000,163128.8437500000,160149.0937500000,129566.1640625000,117299.0781250000,129641.5859375000,150732.4687500000,,,
1.9759999968,15,177896.0312500000,207789.8750000000,163338.1093750000,160389.1406250000,129818.4531250000,117534.3593750000,129891.1640625000,151318.1562500000,,,
1.9799999967,15,177910.5937500000,201197.7500000000,163742.4218750000,161018.0781250000,130455.5312500000,118118.6562500000,130562.7343750000,148840.7812500000,,,
1.9839999967,15,177758.1718750000,187141.8593750000,163854.7968750000,161295.7343750000,130732.4140625000,118363.6484375000,130864.4609375000,146139.6093750000,,,
1.9879999969,15,177659.7031250000,185304.5468750000,163456.1718750000,160722.8906250000,130154.8515625000,117818.3281250000,130259.8906250000,147208.0468750000,,,
1.9919999968,15,177784.3750000000,199484.8437500000,163148.6250000000,160151.2968750000,129584.8593750000,117289.1562500000,129640.6718750000,150716.2656250000,,,
1.9959999968,15,177917.9531250000,207792.9375000000,163356.7968750000,160387.8906250000,129835.4296875000,117519.1562500000,129890.1718750000,151329.6875000000,,,
1.9999999967,15,177931.4687500000,201282.6406250000,163760.0937500000,161020.4531250000,130469.0468750000,118105.7500000000,130562.0156250000,148863.6875000000,,,
2.0039999967,15,177778.9375000000,187239.2187500000,163877.6875000000,161304.1562500000,130747.5937500000,118363.0546875000,130873.1250000000,146158.9843750000,,,
2.0079999969,15,177669.9843750000,185281.9062500000,163473.9843750000,160745.0156250000,130165.7734375000,117828.0390625000,130275.6093750000,147197.7187500000,,,
2.0119999968,15,177784.2968750000,199410.4687500000,163153.6406250000,160170.5781250000,129582.3359375000,117298.1953125000,129650.6562500000,150707.6093750000,,,
2.0159999968,15,177910.3125000000,207787.3281250000,163347.3906250000,160399.2812500000,129819.2265625000,117527.1484375000,129885.0781250000,151338.6562500000,,,
2.0199999968,15,177923.2656250000,201378.8125000000,163743.0312500000,161019.8750000000,130447.8046875000,118115.1953125000,130546.1875000000,148892.8437500000,,,
2.0239999967,15,177771.0156250000,187337.5781250000,163860.1875000000,161299.1406250000,130730.3750000000,118370.5390625000,130853.2500000000,146175.3437500000,,,
2.0279999967,15,177665.8750000000,185228.2343750000,163464.0000000000,160735.5781250000,130162.3125000000,117837.1328125000,130265.0156250000,147177.2343750000,,,
2.0319999969,15,177790.7656250000,199292.1562500000,163154.6718750000,160161.8281250000,129589.8984375000,117302.2187500000,129653.0937500000,150688.8281250000,,,
2.0359999968,15,177925.5156250000,207754.5468750000,163358.7343750000,160385.9531250000,129833.1484375000,117520.8203125000,129895.4062500000,151346.9062500000,,,
2.0399999968,15,177935.2812500000,201451.6562500000,163753.6875000000,161013.3750000000,130458.6718750000,118099.0468750000,130556.0859375000,148915.0000000000,,,
2.0439999967,15,177770.2656250000,187407.5000000000,163867.0000000000,161302.5156250000,130738.0234375000,118354.5546875000,130867.4609375000,146178.6406250000,,,
2.0479999967,16,177651.6875000000,185148.9218750000,163465.2656250000,160743.5781250000,130164.5078125000,117828.3593750000,130279.7109375000,147139.3593750000,,,
2.0519999966,16,177771.0468750000,199160.7500000000,163146.7812500000,160155.9062500000,129581.3984375000,117294.4375000000,129650.2734375000,150653.1250000000,,,
2.0559999966,16,177902.8281250000,207716.0312500000,163342.3750000000,160381.7968750000,129817.0000000000,117510.6796875000,129879.9531250000,151340.6562500000,,,
2.0599999966,16,177914.0625000000,201526.8125000000,163736.5156250000,160997.7656250000,130440.7812500000,118088.8515625000,130540.4765625000,148930.8281250000,,,
2.0639999965,16,177757.6875000000,187461.7812500000,163855.9375000000,161292.0937500000,130727.6640625000,118352.5937500000,130858.3984375000,146180.6875000000,,,
2.0679999965,16,177648.3593750000,185074.7812500000,163459.0781250000,160741.6093750000,130159.7343750000,117823.2656250000,130269.8125000000,147115.0468750000,,,
2.0719999967,16,177775.7968750000,199058.2656250000,163141.3281250000,160157.5937500000,129572.5234375000,117281.3203125000,129633.2187500000,150636.8437500000,,,
2.0759999966,16,177912.4531250000,207707.1875000000,163337.8125000000,160376.7812500000,129801.9531250000,117488.3359375000,129858.2578125000,151347.3593750000,,,
2.0799999966,16,177929.6406250000,201616.9531250000,163738.3125000000,160996.8593750000,130431.7421875000,118067.3984375000,130526.5000000000,148954.4375000000,,,
2.0839999965,16,177774.1562500000,187561.1875000000,163865.1875000000,161283.2812500000,130731.5000000000,118339.0234375000,130855.1484375000,146197.9218750000,,,
2.0879999965,16,177665.7187500000,185037.9218750000,163481.1406250000,160746.9062500000,130181.0625000000,117823.6953125000,130282.7187500000,147105.1250000000,,,
2.0919999967,16,177787.1406250000,198960.6093750000,163163.6562500000,160176.5312500000,129593.8437500000,117283.5781250000,129648.0546875000,150626.5468750000,,,
2.0959999966,16,177916.4531250000,207691.5468750000,163354.0625000000,160397.5937500000,129818.5078125000,117490.8828125000,129868.8515625000,151356.5625000000,,,
2.0999999966,16,177930.5312500000,201682.2187500000,163752.0156250000,161006.9687500000,130446.1406250000,118070.3984375000,130533.0156250000,148973.5625000000,,,
2.1039999966,16,177776.6718750000,187638.0937500000,163880.7187500000,161302.9218750000,130745.8828125000,118340.4218750000,130863.7109375000,146212.2500000000,,,
2.1079999965,16,177661.0468750000,184970.6875000000,163489.4062500000,160764.6093750000,130188.5937500000,117821.8125000000,130291.3515625000,147078.6250000000,,,
2.1119999965,16,177774.0000000000,198845.5625000000,163153.9375000000,160174.4687500000,129580.3750000000,117262.2500000000,129637.9921875000,150595.9687500000,,,
2.1159999967,16,177909.3593750000,207657.2968750000,163339.6093750000,160386.2812500000,129796.7500000000,117467.3906250000,129850.1796875000,151357.2343750000,,,
2.1199999966,16,177926.7500000000,201721.7500000000,163737.4375000000,161002.5625000000,130421.4375000000,118050.0937500000,130511.9609375000,148992.4062500000,,,
2.1239999966,16,177772.8906250000,187676.9062500000,163866.1718750000,161301.7968750000,130720.8515625000,118323.3359375000,130845.2265625000,146221.1875000000,,,
2.1279999965,16,177655.9843750000,184889.2812500000,163478.8125000000,160769.8125000000,130171.5625000000,117809.8750000000,130278.9609375000,147056.0781250000,,,
2.1319999965,16,177768.1406250000,198706.5468750000,163145.9687500000,160177.0625000000,129568.6328125000,117252.0078125000,129629.7343750000,150573.3593750000,,,
2.1359999967,16,177897.3281250000,207626.9843750000,163328.2812500000,160375.6250000000,129782.9140625000,117449.6328125000,129837.2031250000,151356.7812500000,,,
2.1399999966,16,177918.8281250000,201833.8750000000,163730.9062500000,160997.6562500000,130417.3593750000,118034.4296875000,130509.6875000000,149014.1093750000,,,
2.1439999966,16,177767.5781250000,187770.1875000000,163866.1718750000,161312.6093750000,130732.0390625000,118319.9843750000,130855.2890625000,146227.5312500000,,,
2.1479999966,16,177655.7656250000,184822.7812500000,163487.3437500000,160788.3906250000,130195.2187500000,117815.3750000000,130298.2734375000,147034.2656250000,,,
2.1519999965,16,177776.0000000000,198607.5781250000,163157.0312500000,160183.0468750000,129589.6875000000,117256.4062500000,129646.7656250000,150568.9687500000,,,
2.1559999965,16,177913.8750000000,207621.6718750000,163342.7968750000,160377.4843750000,129800.0781250000,117450.0312500000,129850.5078125000,151382.2343750000,,,
2.1599999967,16,177936.5312500000,201941.4843750000,163740.2187500000,161000.7187500000,130422.7812500000,118025.6328125000,130507.4062500000,149054.6718750000,,,
2.1639999966,16,177789.4687500000,187873.6406250000,163880.6875000000,161317.8593750000,130740.4843750000,118315.5781250000,130855.9843750000,146257.2812500000,,,
2.1679999966,16,177667.8906250000,184786.0156250000,163496.3750000000,160784.0468750000,130198.4375000000,117813.1796875000,130297.7343750000,147025.1406250000,,,
2.1719999965,16,177782.9843750000,198521.6875000000,163163.0625000000,160188.2187500000,129587.8359375000,117251.8437500000,129642.8437500000,150557.8906250000,,,
2.1759999965,17,177921.2187500000,207651.0156250000,163347.3906250000,160397.8906250000,129796.3515625000,117446.0078125000,129845.7265625000,151405.5156250000,,,
2.1799999964,17,177944.8593750000,202219.4687500000,163743.9531250000,161006.2968750000,130417.6875000000,118023.6250000000,130502.7890625000,149125.1875000000,,,
2.1839999964,17,177786.1406250000,188078.8750000000,163885.1406250000,161325.4843750000,130742.6875000000,118320.7031250000,130859.3125000000,146272.0625000000,,,
2.1879999964,17,177662.5000000000,184768.9062500000,163504.7187500000,160805.4531250000,130207.5312500000,117819.5078125000,130307.7421875000,146993.7656250000,,,
2.1919999963,17,177776.1406250000,198442.5312500000,163163.4843750000,160182.1093750000,129589.6015625000,117245.0859375000,129642.7656250000,150527.9531250000,,,
2.1959999963,17,177912.5000000000,207642.3593750000,163338.6093750000,160369.5468750000,129787.6875000000,117428.4375000000,129834.2734375000,151396.0000000000,,,
2.1999999965,17,177939.1718750000,202221.4218750000,163736.0312500000,160985.7812500000,130409.3984375000,118005.3281250000,130491.2578125000,149120.0312500000,,,
2.2039999964,17,177780.5468750000,188127.7031250000,163875.0468750000,161306.8437500000,130733.0546875000,118301.3671875000,130850.1875000000,146281.6093750000,,,
2.2079999964,17,177657.7500000000,184726.2812500000,163498.4687500000,160798.4218750000,130206.0546875000,117813.5546875000,130308.7890625000,146980.9375000000,,,
2.2119999963,17,177775.9218750000,198332.5156250000,163160.6250000000,160188.5781250000,129589.3671875000,117246.0234375000,129645.8281250000,150516.2343750000,,,
2.2159999963,17,177911.9687500000,207598.5312500000,163338.0156250000,160368.7968750000,129786.0781250000,117426.6171875000,129836.5546875000,151400.5781250000,,,
2.2199999965,17,177927.1562500000,202167.3437500000,163733.0781250000,160979.8281250000,130404.9453125000,117999.3203125000,130491.0937500000,149105.1718750000,,,
2.2239999964,17,177770.4531250000,188113.5937500000,163873.4375000000,161309.3281250000,130726.5156250000,118299.3281250000,130847.0234375000,146274.3125000000,,,
2.2279999964,17,177639.3437500000,184637.8750000000,163495.3906250000,160789.9531250000,130198.8671875000,117810.1484375000,130306.8828125000,146945.9375000000,,,
2.2319999964,17,177750.1562500000,198194.1093750000,163149.3750000000,160169.9375000000,129575.5000000000,117233.2031250000,129638.0156250000,150476.3750000000,,,
2.2359999963,17,177889.2031250000,207552.5312500000,163321.3593750000,160357.7343750000,129767.7578125000,117412.3750000000,129820.3281250000,151392.4531250000,,,
2.2399999963,17,177916.5312500000,202204.2500000000,163718.7343750000,160979.6562500000,130389.7343750000,117988.9140625000,130473.3671875000,149118.2031250000,,,
2.2439999965,17,177776.4687500000,188170.0468750000,163873.8281250000,161313.2812500000,130726.5703125000,118294.1250000000,130840.2656250000,146291.8906250000,,,
2.2479999964,17,177655.9531250000,184580.6875000000,163508.2343750000,160809.0000000000,130211.5546875000,117811.1640625000,130310.6093750000,146937.8906250000,,,
2.2519999964,17,177774.0156250000,198094.0312500000,163166.2031250000,160197.2656250000,129588.6640625000,117235.2656250000,129641.0000000000,150473.6406250000,,,
2.2559999963,17,177907.6562500000,207557.3750000000,163330.7343750000,160373.8125000000,129768.3203125000,117402.4765625000,129811.7968750000,151411.2812500000,,,
2.2599999963,17,177927.8750000000,202356.3125000000,163724.0937500000,160982.0781250000,130384.7187500000,117974.4296875000,130464.3828125000,149155.5156250000,,,
2.2639999965,17,177776.4843750000,188301.1250000000,163876.3750000000,161315.6562500000,130722.4375000000,118282.2421875000,130836.3203125000,146299.2812500000,,,
2.2679999964,17,177653.1093750000,184533.5312500000,163514.7500000000,160831.9218750000,130215.3359375000,117808.1093750000,130315.8671875000,146904.5781250000,,,
2.2719999964,17,177762.3750000000,197982.9062500000,163160.6406250000,160209.7812500000,129579.4921875000,117223.3593750000,129630.7812500000,150440.9375000000,,,
2.2759999963,17,177901.5312500000,207542.0156250000,163322.0312500000,160377.9062500000,129758.1562500000,117390.6250000000,129795.8125000000,151411.5312500000,,,
2.2799999963,17,177933.6093750000,202475.5312500000,163719.1875000000,160981.4843750000,130380.6171875000,117967.1328125000,130449.7656250000,149188.6718750000,,,
2.2839999963,17,177790.5781250000,188414.2968750000,163878.4531250000,161311.9375000000,130729.9218750000,118286.2656250000,130831.8984375000,146323.7187500000,,,
2.2879999964,17,177671.7968750000,184498.0312500000,163520.5156250000,160828.7656250000,130229.2578125000,117819.3437500000,130313.7734375000,146900.4843750000,,,
2.2919999964,17,177780.6250000000,197885.9218750000,163166.3281250000,160198.9218750000,129591.1640625000,117227.8125000000,129628.2578125000,150434.6093750000,,,
2.2959999964,17,177912.1875000000,207518.4843750000,163323.6718750000,160355.6406250000,129761.3750000000,117385.5000000000,129792.4609375000,151421.8750000000,,,
2.2999999963,17,177936.7500000000,202556.1093750000,163715.6250000000,160966.5781250000,130375.7343750000,117958.6093750000,130442.5781250000,149215.1406250000,,,
2.3039999963,18,177786.0625000000,188497.4687500000,163874.7031250000,161313.4843750000,130722.2734375000,118279.2109375000,130822.8593750000,146334.5625000000,,,
2.3079999962,18,177649.2656250000,184440.8750000000,163510.4687500000,160812.2187500000,130218.8750000000,117810.0937500000,130304.4375000000,146868.7812500000,,,
2.3119999962,18,177759.2500000000,197758.3593750000,163158.3750000000,160180.4218750000,129582.8750000000,117222.1015625000,129622.2734375000,150406.3125000000,,,
2.3159999961,18,177908.8593750000,207486.9531250000,163329.0625000000,160352.1093750000,129764.5625000000,117387.1875000000,129792.2734375000,151435.0156250000,,,
2.3199999961,18,177945.1718750000,202631.6718750000,163730.1093750000,160972.0937500000,130388.7187500000,117960.7500000000,130447.5078125000,149249.8593750000,,,
2.3239999961,18,177802.2187500000,188588.0937500000,163895.7656250000,161325.4843750000,130746.2812500000,118283.9296875000,130838.1171875000,146361.9687500000,,,
2.3279999963,18,177673.6562500000,184406.2187500000,163539.2968750000,160838.8125000000,130252.4062500000,117822.4843750000,130331.3984375000,146867.5468750000,,,
2.3319999962,18,177781.2968750000,197666.5781250000,163179.8593750000,160197.2031250000,129606.6640625000,117227.5937500000,129641.9375000000,150402.9062500000,,,
2.3359999962,18,177916.3437500000,207477.8281250000,163333.3281250000,160346.0468750000,129767.0625000000,117374.4453125000,129795.4140625000,151445.0000000000,,,
2.3399999961,18,177942.8125000000,202707.0312500000,163723.0468750000,160956.1875000000,130376.9140625000,117941.1171875000,130442.4687500000,149263.3906250000,,,
2.3439999961,18,177790.0312500000,188669.8281250000,163880.9062500000,161310.6406250000,130725.5468750000,118267.4375000000,130829.5625000000,146360.7343750000,,,
2.3479999963,18,177655.4375000000,184366.5156250000,163523.6875000000,160836.2500000000,130233.3125000000,117806.6562500000,130324.6640625000,146832.6718750000,,,
2.3519999962,18,177763.7187500000,197584.5312500000,163164.4531250000,160197.3750000000,129585.5546875000,117210.4609375000,129625.4375000000,150373.9375000000,,,
2.3559999962,18,177904.0781250000,207480.7187500000,163320.0312500000,160349.6718750000,129746.7031250000,117366.6718750000,129774.3046875000,151444.4687500000,,,
2.3599999961,18,177934.2500000000,202812.0156250000,163715.8593750000,160958.2031250000,130362.4062500000,117938.4921875000,130423.9609375000,149282.3906250000,,,
2.3639999961,18,177794.0000000000,188767.6250000000,163889.8593750000,161322.4531250000,130732.0156250000,118273.7109375000,130827.0156250000,146377.8437500000,,,
2.3679999961,18,177664.7812500000,184311.1093750000,163538.6562500000,160856.6093750000,130252.0000000000,117821.9765625000,130330.8593750000,146819.8750000000,,,
2.3719999962,18,177768.6250000000,197457.7343750000,163171.2500000000,160205.6250000000,129596.7421875000,117217.2734375000,129630.6718750000,150356.0468750000,,,
2.3759999962,18,177913.0156250000,207449.6093750000,163324.2656250000,160346.7968750000,129753.6250000000,117362.3750000000,129777.4375000000,151454.8750000000,,,
2.3799999962,18,177943.3437500000,202882.7812500000,163714.1250000000,160950.8750000000,130362.1875000000,117929.5859375000,130420.3125000000,149308.8906250000,,,
2.3839999961,18,177795.1562500000,188843.7656250000,163881.3281250000,161311.1250000000,130723.9687500000,118267.6250000000,130818.6484375000,146387.5625000000,,,
2.3879999961,18,177653.3750000000,184256.4062500000,163522.5781250000,160838.3906250000,130233.7656250000,117812.8046875000,130316.9921875000,146790.4062500000,,,
2.3919999963,18,177747.6093750000,197338.4843750000,163148.3125000000,160186.9062500000,129566.6484375000,117197.0703125000,129603.9843750000,150315.2812500000,,,
2.3959999962,18,177874.8125000000,207404.2031250000,163288.2968750000,160323.4531250000,129708.3750000000,117330.7265625000,129739.1640625000,151425.9062500000,,,
2.3999999962,18,177896.6250000000,202938.5312500000,163674.7968750000,160935.3750000000,130313.9375000000,117888.8125000000,130377.0468750000,149290.2500000000,,,
2.4039999961,18,177751.7656250000,188898.1875000000,163849.9687500000,161301.0468750000,130686.8203125000,118228.2500000000,130782.6484375000,146354.6406250000,,,
2.4079999961,18,177626.3437500000,184177.5000000000,163513.3593750000,160844.2187500000,130224.8046875000,117788.1015625000,130302.9375000000,146736.6250000000,,,
2.4119999961,18,177745.0312500000,197201.4218750000,163158.2343750000,160206.5156250000,129579.8984375000,117183.4453125000,129608.0312500000,150283.2500000000,,,
2.4159999962,18,177894.7968750000,207385.3750000000,163310.3125000000,160343.9218750000,129732.5703125000,117322.2265625000,129749.2812500000,151443.2812500000,,,
2.4199999962,18,177943.4375000000,203036.6250000000,163716.8593750000,160958.1562500000,130357.6562500000,117899.2187500000,130407.3281250000,149344.2343750000,,,
2.4239999962,18,177805.8281250000,189011.0781250000,163895.7343750000,161325.0781250000,130736.1406250000,118248.7968750000,130823.5546875000,146410.8125000000,,,
2.4279999961,18,177666.4843750000,184159.2343750000,163547.1562500000,160865.2968750000,130261.0156250000,117812.5078125000,130341.3203125000,146756.5781250000,,,
2.4319999961,19,177772.7343750000,197113.0000000000,163178.2187500000,160212.1562500000,129595.3437500000,117202.3046875000,129631.6875000000,150292.0781250000,,,
2.4359999960,19,177923.5781250000,207379.0156250000,163326.9375000000,160349.0156250000,129737.4765625000,117333.0859375000,129761.8828125000,151471.4218750000,,,
2.4399999960,19,177959.8125000000,203129.5937500000,163722.0000000000,160954.9062500000,130349.3125000000,117899.5468750000,130403.5234375000,149381.0625000000,,,
2.4439999959,19,177814.7656250000,189128.6406250000,163902.0937500000,161315.5312500000,130734.5078125000,118248.9296875000,130819.9062500000,146434.1250000000,,,
2.4479999959,19,177674.0781250000,184147.4062500000,163561.0468750000,160858.6875000000,130276.0390625000,117816.7734375000,130346.9531250000,146744.2968750000,,,
2.4519999959,19,177773.0625000000,197021.2343750000,163181.8437500000,160195.4687500000,129607.2578125000,117198.5234375000,129631.5546875000,150272.3593750000,,,
2.4559999960,19,177922.4843750000,207356.8593750000,163325.7968750000,160324.5937500000,129745.8203125000,117324.7968750000,129758.7421875000,151475.7343750000,,,
2.4599999960,19,177963.3281250000,203215.4218750000,163723.3437500000,160928.7343750000,130357.8984375000,117892.7031250000,130404.5156250000,149406.7343750000,,,
2.4639999960,19,177823.6718750000,189210.0468750000,163909.9843750000,161318.3750000000,130744.7265625000,118249.8125000000,130823.7187500000,146450.5625000000,,,
2.4679999959,19,177686.6406250000,184092.5312500000,163575.8281250000,160878.8906250000,130289.3906250000,117823.7968750000,130356.7968750000,146730.0000000000,,,
2.4719999959,19,177779.2187500000,196911.5312500000,163196.0468750000,160218.0468750000,129611.7578125000,117196.0546875000,129636.9218750000,150254.1250000000,,,
2.4759999961,19,177915.3281250000,207333.5312500000,163327.7968750000,160328.7500000000,129733.2656250000,117309.7265625000,129749.2500000000,151472.3593750000,,,
2.4799999960,19,177942.6562500000,203282.9375000000,163711.5156250000,160926.0937500000,130329.4375000000,117866.8984375000,130378.6562500000,149403.5625000000,,,
2.4839999960,19,177799.2031250000,189302.1250000000,163894.5312500000,161308.8281250000,130714.7421875000,118226.8515625000,130801.2656250000,146438.7031250000,,,
2.4879999959,19,177660.9062500000,184068.1718750000,163560.3281250000,160872.9062500000,130266.2968750000,117808.7500000000,130343.0078125000,146686.4375000000,,,
2.4919999959,19,177769.0312500000,196805.2031250000,163190.7968750000,160215.0937500000,129603.4218750000,117192.7812500000,129629.4921875000,150214.7187500000,,,
2.4959999959,19,177920.9062500000,207309.7343750000,163332.8750000000,160331.0468750000,129737.2343750000,117314.4218750000,129748.8515625000,151475.4375000000,,,
2.4999999960,19,177959.9062500000,203388.3125000000,163719.9218750000,160921.2500000000,130339.5234375000,117871.9140625000,130380.0000000000,149445.0312500000,,,
2.5039999960,19,177821.3906250000,189439.6406250000,163906.5156250000,161311.8593750000,130732.6796875000,118234.3359375000,130805.3984375000,146480.1718750000,,,
2.5079999960,19,177684.6562500000,184064.4218750000,163580.8750000000,160889.2656250000,130294.0312500000,117825.0078125000,130357.5468750000,146698.3125000000,,,
2.5119999959,19,177777.0468750000,196721.0625000000,163195.4375000000,160213.9531250000,129611.2500000000,117195.8906250000,129630.1328125000,150216.5156250000,,,
2.5159999959,19,177912.6875000000,207304.8281250000,163319.7500000000,160314.5312500000,129721.9687500000,117299.1875000000,129732.8593750000,151488.3437500000,,,
2.5199999961,19,177944.8750000000,203480.5312500000,163705.1406250000,160910.3750000000,130319.8671875000,117855.9062500000,130363.9062500000,149467.2968750000,,,
2.5239999960,19,177812.7187500000,189547.7187500000,163902.6250000000,161315.7968750000,130723.0234375000,118227.1250000000,130803.7343750000,146496.0781250000,,,
2.5279999960,19,177669.1718750000,184038.8906250000,163573.0156250000,160890.2187500000,130284.9921875000,117819.9062500000,130359.0546875000,146674.0156250000,,,
2.5319999959,19,177756.1562500000,196603.7500000000,163178.7187500000,160211.1250000000,129592.3984375000,117181.3828125000,129621.5000000000,150176.8437500000,,,
2.5359999959,19,177901.9375000000,207260.2968750000,163306.4218750000,160311.5781250000,129703.9218750000,117280.9218750000,129719.5859375000,151472.8906250000,,,
2.5399999958,19,177945.4375000000,203508.2343750000,163699.3437500000,160903.1875000000,130308.4609375000,117838.1718750000,130354.1953125000,149464.0781250000,,,
2.5439999960,19,177812.9687500000,189585.9375000000,163899.6562500000,161310.9687500000,130716.7265625000,118208.5625000000,130794.6953125000,146482.6093750000,,,
2.5479999960,19,177674.6250000000,183954.3906250000,163582.6093750000,160904.9687500000,130293.6562500000,117806.0937500000,130359.1328125000,146632.5000000000,,,
2.5519999960,19,177762.9687500000,196442.3125000000,163189.4218750000,160222.9375000000,129603.4687500000,117166.9765625000,129619.0000000000,150138.5468750000,,,
2.5559999959,19,177902.5781250000,207192.8750000000,163308.0156250000,160308.6562500000,129707.1093750000,117264.7734375000,129709.7109375000,151468.6093750000,,,
2.5599999959,20,177946.1093750000,203597.5000000000,163698.8906250000,160900.1093750000,130309.0781250000,117823.3984375000,130344.9453125000,149494.6093750000,,,
2.5639999958,20,177814.5156250000,189698.8281250000,163901.8437500000,161315.2343750000,130720.0468750000,118199.8984375000,130790.3203125000,146504.3750000000,,,
2.5679999958,20,177675.9531250000,183917.0625000000,163588.7812500000,160910.0625000000,130302.0781250000,117805.9609375000,130364.3593750000,146616.8125000000,,,
2.5719999957,20,177765.5156250000,196324.0000000000,163195.8593750000,160225.7812500000,129607.4687500000,117165.4218750000,129623.5625000000,150117.5156250000,,,
2.5759999957,20,177904.5937500000,207161.0000000000,163307.5000000000,160303.2968750000,129697.9921875000,117255.4375000000,129702.5000000000,151473.2968750000,,,
2.5799999957,20,177939.9687500000,203683.5781250000,163685.1562500000,160886.9687500000,130284.5937500000,117807.3046875000,130322.1953125000,149512.4375000000,,,
2.5839999958,20,177802.2968750000,189822.0468750000,163883.8281250000,161294.0468750000,130690.8125000000,118185.7656250000,130763.9843750000,146511.3125000000,,,
2.5879999958,20,177660.5937500000,183921.2656250000,163573.7031250000,160902.8906250000,130278.2109375000,117800.6796875000,130343.9218750000,146585.6718750000,,,
2.5919999958,20,177758.3593750000,196236.9062500000,163191.2031250000,160238.4687500000,129595.8828125000,117167.7031250000,129614.7656250000,150084.8750000000,,,
2.5959999957,20,177909.6093750000,207149.2031250000,163312.1875000000,160324.0468750000,129698.1015625000,117259.3828125000,129701.4296875000,151477.6718750000,,,
2.5999999957,20,177948.7968750000,203750.8437500000,163691.8906250000,160890.5312500000,130291.0000000000,117807.2265625000,130323.4062500000,149538.2968750000,,,
2.6039999959,20,177810.8437500000,189914.3125000000,163889.9062500000,161288.7812500000,130700.6015625000,118180.2890625000,130766.8281250000,146538.7343750000,,,
2.6079999958,20,177655.3125000000,183905.1250000000,163570.1875000000,160884.9531250000,130284.1093750000,117786.3046875000,130341.6718750000,146574.7500000000,,,
2.6119999958,20,177742.8281250000,196125.2656250000,163178.1875000000,160213.4375000000,129593.8437500000,117147.1875000000,129605.9921875000,150059.5000000000,,,
2.6159999957,20,177888.5468750000,207114.1250000000,163290.5937500000,160295.9687500000,129681.7109375000,117230.7890625000,129680.0781250000,151474.7656250000,,,
2.6199999957,20,177932.3750000000,203836.2968750000,163675.5000000000,160876.2031250000,130271.8515625000,117777.1015625000,130303.2890625000,149554.8125000000,,,
2.6239999956,20,177790.9687500000,190016.7500000000,163875.4375000000,161277.2031250000,130681.3437500000,118156.9296875000,130752.2890625000,146538.3593750000,,,
2.6279999958,20,177634.3593750000,183866.0781250000,163558.0156250000,160883.6093750000,130266.9140625000,117765.2968750000,130333.4921875000,146534.3281250000,,,
2.6319999958,20,177719.2500000000,195992.4531250000,163160.1718750000,160201.6406250000,129566.9140625000,117111.5937500000,129590.9765625000,150005.0781250000,,,
2.6359999957,20,177867.7968750000,207057.3437500000,163272.0625000000,160280.9218750000,129652.1796875000,117190.0703125000,129663.8750000000,151441.7031250000,,,
2.6399999957,20,177920.2812500000,203912.7968750000,163660.7968750000,160870.9531250000,130248.4375000000,117744.8046875000,130288.3203125000,149553.6718750000,,,
2.6439999957,20,177794.7500000000,190127.1718750000,163877.0468750000,161291.8437500000,130678.9609375000,118141.8515625000,130753.6328125000,146545.6718750000,,,
2.6479999959,20,177655.0156250000,183822.4062500000,163580.7343750000,160917.1718750000,130288.8593750000,117776.6718750000,130356.9062500000,146524.4531250000,,,
2.6519999958,20,177740.6562500000,195859.8593750000,163179.5625000000,160232.7968750000,129586.3906250000,117125.4296875000,129608.1406250000,149997.1718750000,,,
2.6559999958,20,177885.9218750000,207008.2031250000,163283.1406250000,160290.4218750000,129663.0468750000,117195.7031250000,129666.5312500000,151462.3593750000,,,
2.6599999957,20,177933.8281250000,203973.2812500000,163667.1093750000,160868.9687500000,130253.1875000000,117745.7734375000,130283.3593750000,149591.5937500000,,,
2.6639999957,20,177811.7343750000,190217.8593750000,163887.7656250000,161303.2968750000,130688.5625000000,118143.7890625000,130756.2578125000,146579.7343750000,,,
2.6679999956,20,177670.4687500000,183803.6875000000,163594.0156250000,160934.6562500000,130304.7343750000,117781.5000000000,130369.3515625000,146524.4843750000,,,
2.6719999958,20,177755.8125000000,195755.4687500000,163192.6406250000,160243.8750000000,129600.3046875000,117130.8750000000,129618.8671875000,149987.0000000000,,,
2.6759999958,20,177908.2968750000,206982.5625000000,163299.3750000000,160304.7968750000,129673.5312500000,117203.6718750000,129671.4375000000,151483.3593750000,,,
2.6799999957,20,177955.1718750000,204037.7656250000,163681.1250000000,160874.7812500000,130258.8984375000,117753.7968750000,130284.3281250000,149625.2031250000,,,
2.6839999957,20,177826.6250000000,190319.3593750000,163900.1093750000,161300.0468750000,130693.8671875000,118153.1484375000,130755.9140625000,146608.2968750000,,,
2.6879999957,21,177673.5000000000,183806.4687500000,163600.6406250000,160933.8437500000,130310.3437500000,117788.2890625000,130368.9453125000,146517.3437500000,,,
2.6919999956,21,177752.1093750000,195664.2187500000,163195.0937500000,160234.2031250000,129604.5156250000,117132.0312500000,129618.7890625000,149966.7500000000,,,
2.6959999956,21,177898.6875000000,206958.2812500000,163294.2812500000,160282.5000000000,129672.7031250000,117194.0156250000,129670.9843750000,151484.9062500000,,,
2.6999999955,21,177946.3750000000,204104.9531250000,163676.2968750000,160857.5468750000,130260.3750000000,117739.2578125000,130286.6875000000,149647.2187500000,,,
2.7039999955,21,177818.3125000000,190413.3750000000,163896.4531250000,161297.4843750000,130695.1875000000,118141.0781250000,130756.4453125000,146627.2968750000,,,
2.7079999954,21,177664.9062500000,183797.4531250000,163603.7187500000,160937.6562500000,130317.1250000000,117787.4531250000,130374.9843750000,146506.3593750000,,,
2.7119999956,21,177740.2031250000,195560.0468750000,163193.2031250000,160237.0156250000,129603.4453125000,117131.1953125000,129618.9453125000,149943.2343750000,,,
2.7159999956,21,177896.5781250000,206922.0937500000,163296.1250000000,160293.2656250000,129670.3671875000,117193.2656250000,129672.3750000000,151485.7187500000,,,
2.7199999955,21,177944.3125000000,204170.7968750000,163671.9531250000,160866.6093750000,130248.7031250000,117731.7734375000,130281.9375000000,149661.0937500000,,,
2.7239999955,21,177809.9375000000,190507.3593750000,163883.5000000000,161297.8593750000,130675.8750000000,118131.3437500000,130746.6562500000,146628.6093750000,,,
2.7279999955,21,177650.5937500000,183753.2812500000,163587.0625000000,160934.8125000000,130298.2421875000,117779.3281250000,130363.7968750000,146467.2812500000,,,
2.7319999957,21,177730.1875000000,195411.7968750000,163179.2968750000,160237.6875000000,129590.4062500000,117119.2109375000,129607.7343750000,149898.8906250000,,,
2.7359999956,21,177880.0000000000,206862.0781250000,163273.1406250000,160279.4687500000,129648.6406250000,117169.8750000000,129646.1171875000,151472.7031250000,,,
2.7399999956,21,177929.1406250000,204234.2343750000,163651.9531250000,160849.3125000000,130231.0859375000,117713.1328125000,130255.8906250000,149676.3437500000,,,
2.7439999955,21,177804.2812500000,190607.8593750000,163876.5312500000,161292.5937500000,130670.7734375000,118121.5781250000,130732.2500000000,146645.6875000000,,,
2.7479999955,21,177652.0156250000,183724.5312500000,163591.6250000000,160940.1875000000,130305.2968750000,117779.7265625000,130363.7734375000,146455.6875000000,,,
2.7519999954,21,177724.5625000000,195301.2656250000,163175.1875000000,160230.3593750000,129586.4375000000,117114.0078125000,129600.7109375000,149879.0468750000,,,
2.7559999956,21,177878.7656250000,206834.3906250000,163270.0312500000,160274.5937500000,129640.7265625000,117163.7578125000,129638.3671875000,151479.0312500000,,,
2.7599999956,21,177940.8281250000,204349.4062500000,163659.2187500000,160855.1562500000,130227.6796875000,117709.6406250000,130254.8750000000,149713.3125000000,,,
2.7639999955,21,177823.7187500000,190768.4687500000,163893.1562500000,161308.4218750000,130678.9609375000,118128.2265625000,130742.4453125000,146681.7656250000,,,
2.7679999955,21,177673.5156250000,183745.0468750000,163614.7968750000,160969.0625000000,130324.3125000000,117795.9843750000,130380.5390625000,146457.7031250000,,,
2.7719999955,21,177742.4062500000,195205.4531250000,163196.2968750000,160253.6406250000,129604.9218750000,117128.4609375000,129614.5781250000,149868.9375000000,,,
2.7759999956,21,177889.8593750000,206800.8593750000,163281.1250000000,160281.9375000000,129649.9843750000,117166.3906250000,129640.0078125000,151489.9531250000,,,
2.7799999956,21,177944.4531250000,204426.2812500000,163660.7187500000,160841.5312500000,130230.4140625000,117705.6171875000,130248.8359375000,149742.3593750000,,,
2.7839999956,21,177822.5156250000,190874.8437500000,163893.1562500000,161292.0312500000,130685.3671875000,118124.3906250000,130741.5625000000,146702.8750000000,,,
2.7879999955,21,177670.0000000000,183734.9062500000,163619.3593750000,160960.4375000000,130339.1250000000,117792.7890625000,130389.5781250000,146442.4375000000,,,
2.7919999955,21,177745.9375000000,195094.5468750000,163206.2500000000,160252.2187500000,129620.5312500000,117125.2968750000,129624.6093750000,149841.3281250000,,,
2.7959999954,21,177896.8437500000,206756.4687500000,163288.0312500000,160273.7031250000,129655.4531250000,117159.4140625000,129644.8828125000,151488.6718750000,,,
2.7999999956,21,177951.6875000000,204500.6093750000,163663.7500000000,160847.7500000000,130226.7109375000,117695.5390625000,130246.4218750000,149762.7968750000,,,
2.8039999956,21,177826.7500000000,190973.6093750000,163890.0468750000,161304.0781250000,130677.2109375000,118114.7343750000,130733.7265625000,146712.5156250000,,,
2.8079999955,21,177657.1562500000,183692.6718750000,163603.9843750000,160958.2343750000,130322.2265625000,117786.9218750000,130377.1328125000,146412.1250000000,,,
2.8119999955,21,177723.8125000000,194951.3437500000,163183.2656250000,160249.7812500000,129597.7031250000,117121.2187500000,129609.4296875000,149805.8437500000,,,
2.8159999955,22,177878.9218750000,206696.2343750000,163267.9843750000,160273.2187500000,129634.8281250000,117158.5000000000,129626.8593750000,151488.5312500000,,,
2.8199999954,22,177944.0468750000,204672.9062500000,163647.9218750000,160837.3750000000,130208.2812500000,117690.6562500000,130225.7968750000,149813.9531250000,,,
2.8239999954,22,177821.0937500000,191182.4375000000,163885.8437500000,161295.9531250000,130672.5781250000,118118.4375000000,130724.3984375000,146741.6875000000,,,
2.8279999953,22,177660.4375000000,183651.6562500000,163613.0625000000,160962.5468750000,130335.4218750000,117803.4921875000,130382.3046875000,146389.5468750000,,,
2.8319999953,22,177732.4687500000,194809.5312500000,163194.3593750000,160250.5625000000,129610.4453125000,117132.8593750000,129612.9687500000,149782.7812500000,,,
2.8359999952,22,177885.7968750000,206646.6875000000,163270.8281250000,160261.2343750000,129634.3437500000,117154.7734375000,129617.4765625000,151489.3281250000,,,
2.8399999954,22,177947.2968750000,204822.9843750000,163644.5156250000,160824.0156250000,130197.2343750000,117677.0000000000,130208.1484375000,149855.5468750000,,,
2.8439999954,22,177819.7031250000,191372.3437500000,163881.6718750000,161292.3281250000,130666.1406250000,118111.0390625000,130715.8906250000,146766.4531250000,,,
2.8479999953,22,177656.9218750000,183648.0312500000,163609.4375000000,160968.5625000000,130332.9296875000,117802.6640625000,130380.4843750000,146366.5625000000,,,
2.8519999953,22,177729.7343750000,194713.0625000000,163190.2031250000,160258.3125000000,129606.7734375000,117131.9765625000,129610.6328125000,149757.3281250000,,,
2.8559999953,22,177884.7968750000,206605.5000000000,163267.2343750000,160276.7968750000,129629.7343750000,117148.4218750000,129615.9140625000,151490.3593750000,,,
2.8599999954,22,177944.9843750000,204788.6406250000,163640.7343750000,160824.7187500000,130193.6953125000,117668.6093750000,130207.2109375000,149850.3125000000,,,
2.8639999954,22,177826.7500000000,191360.6406250000,163888.2968750000,161285.5625000000,130670.3984375000,118106.9609375000,130721.9843750000,146776.1093750000,,,
2.8679999954,22,177660.7500000000,183617.8593750000,163618.4687500000,160974.5625000000,130340.0312500000,117797.1640625000,130389.6562500000,146361.5468750000,,,
2.8719999953,22,177722.8750000000,194592.5156250000,163188.9218750000,160253.0312500000,129603.1796875000,117116.7421875000,129606.7734375000,149729.8906250000,,,
2.8759999953,22,177874.6250000000,206547.3750000000,163257.0156250000,160251.0156250000,129616.8281250000,117131.9765625000,129599.9609375000,151479.0625000000,,,
2.8799999952,22,177934.9218750000,204656.5781250000,163632.9843750000,160814.8906250000,130189.2421875000,117664.3984375000,130201.7890625000,149817.2656250000,,,
2.8839999954,22,177820.6875000000,191256.1406250000,163875.7500000000,161285.1093750000,130659.5625000000,118102.8828125000,130712.4062500000,146763.5000000000,,,
2.8879999954,22,177661.6718750000,183585.3437500000,163611.4531250000,160975.2031250000,130336.8437500000,117801.3750000000,130388.4453125000,146357.7656250000,,,
2.8919999953,22,177722.9062500000,194487.5937500000,163184.5000000000,160264.5625000000,129603.5781250000,117121.9687500000,129612.5937500000,149710.4062500000,,,
2.8959999953,22,177874.2343750000,206513.2187500000,163253.4218750000,160261.1718750000,129615.3828125000,117131.5234375000,129602.6953125000,151481.2343750000,,,
2.8999999953,22,177926.8593750000,204699.6718750000,163624.4531250000,160806.3125000000,130180.3359375000,117655.0625000000,130191.4687500000,149824.4062500000,,,
2.9039999954,22,177811.5468750000,191331.0937500000,163870.5468750000,161270.9218750000,130649.4296875000,118088.6406250000,130699.9296875000,146765.6406250000,,,
2.9079999954,22,177650.6406250000,183574.6406250000,163610.9062500000,160958.2031250000,130332.5234375000,117788.0468750000,130384.1328125000,146333.5312500000,,,
2.9119999954,22,177717.5312500000,194389.3906250000,163188.1093750000,160244.4687500000,129603.3671875000,117107.5937500000,129611.9218750000,149680.2187500000,,,
2.9159999953,22,177876.5625000000,206494.9375000000,163259.8593750000,160250.5000000000,129614.1484375000,117117.3281250000,129604.4687500000,151481.7187500000,,,
2.9199999953,22,177939.0625000000,204839.6562500000,163634.4375000000,160811.3593750000,130181.1640625000,117647.2265625000,130197.4453125000,149864.0312500000,,,
2.9239999952,22,177820.9375000000,191506.8750000000,163877.9218750000,161282.4843750000,130654.0703125000,118086.3046875000,130706.4218750000,146796.1093750000,,,
2.9279999954,22,177657.8593750000,183581.6562500000,163619.2187500000,160974.7812500000,130343.3906250000,117797.2421875000,130394.4843750000,146326.7031250000,,,
2.9319999954,22,177724.4218750000,194294.6406250000,163193.7187500000,160256.9218750000,129611.7031250000,117119.7734375000,129616.9921875000,149667.7187500000,,,
2.9359999953,22,177882.8906250000,206467.4375000000,163258.7031250000,160251.1250000000,129614.3593750000,117120.8437500000,129600.0156250000,151492.7343750000,,,
2.9399999953,22,177946.7343750000,204954.9687500000,163631.1562500000,160808.4843750000,130176.4453125000,117645.0859375000,130189.0000000000,149905.0312500000,,,
2.9439999952,23,177833.7343750000,191642.8750000000,163884.8125000000,161292.6718750000,130659.7500000000,118092.3984375000,130706.9062500000,146827.7968750000,,,
