Time:250Hz,Epoch,Channel 1,Channel 2,Channel 3,Channel 4,Channel 5,Channel 6,Channel 7,Channel 8,Event Id,Event Date,Event Duration
0.0000000000,0,143711.2500000000,123717.4687500000,156968.3437500000,132325.0625000000,117579.8281250000,120046.7890625000,114924.7578125000,132201.6250000000,,,
0.0040000000,0,143702.1250000000,123709.5859375000,156960.1562500000,132319.3750000000,117570.1171875000,120037.4765625000,114916.5000000000,132193.1718750000,,,
0.0079999999,0,143710.7656250000,123719.4062500000,156971.8281250000,132341.5312500000,117579.2109375000,120047.7500000000,114922.2656250000,132202.7500000000,,,
0.0119999999,0,143724.4531250000,123733.1640625000,156987.5156250000,132367.9687500000,117592.9687500000,120061.8359375000,114932.8359375000,132217.1718750000,,,
0.0159999998,0,143720.6875000000,123728.6562500000,156985.0781250000,132368.4062500000,117589.4843750000,120055.7187500000,114927.7656250000,132213.5000000000,,,
0.0199999998,0,143717.5312500000,123722.8359375000,156980.0312500000,132361.0312500000,117586.9843750000,120047.0000000000,114926.9062500000,132207.8906250000,,,
0.0240000000,0,143712.4375000000,123715.5156250000,156972.6250000000,132336.4843750000,117580.9218750000,120038.3906250000,114923.5546875000,132201.8125000000,,,
0.0279999999,0,143702.6093750000,123707.0625000000,156962.2500000000,132309.0468750000,117568.6953125000,120037.2656250000,114915.7187500000,132193.8437500000,,,
0.0319999999,0,143711.1093750000,123715.2421875000,156970.2968750000,132330.9062500000,117577.8125000000,120048.4218750000,114925.1875000000,132202.1875000000,,,
0.0359999998,0,143721.3281250000,123724.5234375000,156980.5625000000,132357.6406250000,117589.5078125000,120054.8906250000,114934.9765625000,132212.4062500000,,,
0.0399999998,0,143726.1406250000,123727.2890625000,156985.3125000000,132369.1562500000,117595.1640625000,120053.7890625000,114938.7890625000,132215.5937500000,,,
0.0440000000,0,143711.0312500000,123712.2656250000,156968.0937500000,132333.1562500000,117579.3125000000,120040.4843750000,114926.1250000000,132200.5000000000,,,
0.0480000000,0,143711.7031250000,123713.4218750000,156966.3281250000,132324.9687500000,117576.6562500000,120048.3437500000,114927.8750000000,132201.7812500000,,,
0.0519999999,0,143718.3593750000,123720.3437500000,156974.6718750000,132330.1875000000,117582.3203125000,120061.0312500000,114931.9453125000,132208.4843750000,,,
0.0559999999,0,143724.4218750000,123724.9531250000,156984.4062500000,132348.0625000000,117591.1406250000,120062.2109375000,114936.5312500000,132214.2812500000,,,
0.0599999998,0,143726.8125000000,123726.1875000000,156987.6250000000,132358.6718750000,117595.5390625000,120059.6875000000,114939.7265625000,132215.8125000000,,,
0.0639999998,0,143713.1250000000,123706.5312500000,156970.3437500000,132347.3750000000,117583.1484375000,120041.3125000000,114924.8671875000,132196.3906250000,,,
0.0680000000,0,143715.0781250000,123703.9765625000,156970.7812500000,132363.7812500000,117583.9843750000,120037.1875000000,114922.9921875000,132194.1875000000,,,
0.0719999999,0,143716.5937500000,123707.7578125000,156974.3750000000,132368.5937500000,117582.7734375000,120043.4062500000,114921.8359375000,132197.7656250000,,,
0.0759999999,0,143708.5625000000,123702.7968750000,156967.0312500000,132350.0781250000,117574.7578125000,120038.1484375000,114914.8125000000,132193.0625000000,,,
0.0799999998,0,143692.2812500000,123689.3359375000,156951.9218750000,132316.1250000000,117559.3046875000,120020.5312500000,114897.8281250000,132180.1406250000,,,
0.0839999998,0,143694.7343750000,123691.9609375000,156953.7500000000,132318.6406250000,117561.2109375000,120019.3750000000,114898.9843750000,132182.9218750000,,,
0.0880000000,0,143710.2500000000,123705.4531250000,156968.0156250000,132342.7031250000,117575.8281250000,120034.0234375000,114912.0156250000,132196.9531250000,,,
0.0919999999,0,143719.3437500000,123715.1406250000,156977.4531250000,132349.6250000000,117584.2812500000,120045.5234375000,114920.7109375000,132206.6562500000,,,
0.0959999999,0,143718.5937500000,123715.4609375000,156978.4218750000,132351.8593750000,117584.3281250000,120044.1562500000,114921.7812500000,132207.0156250000,,,
0.0999999999,0,143711.3281250000,123710.2265625000,156972.9218750000,132353.0312500000,117578.1093750000,120037.5625000000,114915.5859375000,132202.0468750000,,,
0.1039999998,0,143706.5000000000,123704.5468750000,156967.8281250000,132362.9843750000,117574.3515625000,120031.0937500000,114911.0546875000,132196.3437500000,,,
0.1079999998,0,143704.7343750000,123699.5781250000,156961.7187500000,132344.5000000000,117570.4140625000,120033.9375000000,114907.2968750000,132191.2968750000,,,
0.1120000000,0,143715.4062500000,123707.4921875000,156968.9531250000,132331.5468750000,117578.2421875000,120047.5078125000,114918.2421875000,132199.9062500000,,,
0.1159999999,0,143722.5625000000,123713.7968750000,156974.2656250000,132339.2500000000,117583.4765625000,120051.9921875000,114927.4921875000,132206.3125000000,,,
0.1199999999,0,143724.2812500000,123717.4140625000,156975.5781250000,132348.6093750000,117584.1406250000,120050.8125000000,114929.2109375000,132209.5625000000,,,
0.1239999998,0,143729.7500000000,123725.4609375000,156981.0312500000,132349.5781250000,117587.0156250000,120059.5546875000,114936.4531250000,132217.6562500000,,,
0.1279999998,1,143726.8281250000,123722.7265625000,156978.4843750000,132339.5156250000,117582.5625000000,120058.7265625000,114930.4453125000,132215.1718750000,,,
0.1319999998,1,143736.6718750000,123730.3984375000,156987.1093750000,132355.0781250000,117591.6250000000,120069.4765625000,114940.9609375000,132223.7500000000,,,
0.1359999997,1,143749.2812500000,123743.8125000000,156998.1406250000,132356.1718750000,117602.4375000000,120085.6796875000,114960.1406250000,132236.9218750000,,,
0.1399999997,1,143742.2343750000,123740.1875000000,156993.3593750000,132350.1093750000,117595.7812500000,120077.6562500000,114950.8046875000,132233.6250000000,,,
0.1439999996,1,143730.7812500000,123730.0781250000,156981.9687500000,132336.2656250000,117584.4140625000,120074.3359375000,114942.6796875000,132223.7812500000,,,
0.1479999996,1,143736.9531250000,123735.8984375000,156986.3281250000,132334.7968750000,117590.8515625000,120095.2031250000,114955.3125000000,132229.5937500000,,,
0.1519999998,1,143754.0000000000,123751.1328125000,157001.0000000000,132362.9843750000,117607.7734375000,120117.5703125000,114975.2890625000,132245.1875000000,,,
0.1559999997,1,143759.5312500000,123752.3906250000,157005.4843750000,132374.9687500000,117612.8671875000,120119.5000000000,114986.1250000000,132246.9218750000,,,
0.1599999997,1,143751.9062500000,123743.6484375000,156997.6875000000,132348.0156250000,117605.1718750000,120110.5937500000,114980.4921875000,132238.7656250000,,,
0.1639999996,1,143747.3593750000,123737.5859375000,156989.8281250000,132335.8906250000,117598.6015625000,120112.3437500000,114980.3593750000,132232.4062500000,,,
0.1679999996,1,143750.8437500000,123740.9921875000,156988.6718750000,132336.8125000000,117598.8671875000,120136.6406250000,114994.5781250000,132235.0625000000,,,
0.1719999998,1,143768.4375000000,123756.4140625000,157004.8906250000,132346.3593750000,117614.3984375000,120159.5234375000,115013.7812500000,132250.5781250000,,,
0.1759999997,1,143779.4843750000,123766.6328125000,157017.9062500000,132361.3437500000,117625.8515625000,120168.7500000000,115020.9453125000,132261.9687500000,,,
0.1799999997,1,143771.6250000000,123759.8515625000,157008.5156250000,132359.4375000000,117617.3203125000,120164.5625000000,115019.6562500000,132255.3750000000,,,
0.1839999997,1,143764.1718750000,123755.4531250000,157000.0625000000,132357.8281250000,117609.3828125000,120168.8281250000,115021.5625000000,132251.1875000000,,,
0.1879999996,1,143767.2500000000,123760.3359375000,157002.9375000000,132359.0468750000,117612.2812500000,120179.9843750000,115026.2578125000,132255.8750000000,,,
0.1919999996,1,143781.1250000000,123772.9140625000,157015.7812500000,132361.4843750000,117625.1796875000,120198.4687500000,115040.1484375000,132268.2187500000,,,
0.1959999998,1,143789.5937500000,123779.7500000000,157024.3125000000,132371.9218750000,117634.2734375000,120209.8671875000,115052.2187500000,132275.6718750000,,,
0.1999999997,1,143784.5000000000,123771.0078125000,157017.2812500000,132368.8281250000,117631.1640625000,120200.4765625000,115049.2656250000,132267.1250000000,,,
0.2039999997,1,143782.8906250000,123768.6484375000,157013.4062500000,132371.4375000000,117629.7968750000,120196.7500000000,115045.2734375000,132264.9218750000,,,
0.2079999996,1,143783.3281250000,123765.9687500000,157009.0000000000,132372.7500000000,117628.6406250000,120199.9140625000,115046.0468750000,132262.6718750000,,,
0.2119999996,1,143788.4218750000,123765.5625000000,157009.3750000000,132365.3750000000,117633.5468750000,120200.1562500000,115054.3125000000,132262.7812500000,,,
0.2159999998,1,143792.1718750000,123768.8359375000,157014.5468750000,132376.3125000000,117640.6562500000,120196.5859375000,115055.0859375000,132266.3437500000,,,
0.2199999997,1,143779.3750000000,123761.5703125000,157006.8281250000,132364.0000000000,117630.6250000000,120185.2187500000,115040.7421875000,132259.0937500000,,,
0.2239999997,1,143767.6562500000,123755.3984375000,156998.5468750000,132361.4062500000,117619.8203125000,120176.9531250000,115025.2343750000,132253.0625000000,,,
0.2279999997,1,143775.4062500000,123765.4531250000,157010.7187500000,132375.2343750000,117626.6562500000,120178.8359375000,115023.2500000000,132263.0781250000,,,
0.2319999996,1,143771.2187500000,123762.6640625000,157010.5625000000,132375.8593750000,117622.0937500000,120169.0390625000,115009.7343750000,132260.0937500000,,,
0.2359999996,1,143762.3437500000,123751.9375000000,156998.8593750000,132358.9062500000,117611.6328125000,120159.1953125000,115005.8437500000,132249.6093750000,,,
0.2399999998,1,143745.8437500000,123735.9765625000,156983.2187500000,132354.1093750000,117595.0312500000,120137.0937500000,114995.2500000000,132233.4375000000,,,
0.2439999997,1,143741.6406250000,123734.6640625000,156983.0156250000,132364.9687500000,117592.7812500000,120128.0078125000,114986.8828125000,132232.3281250000,,,
0.2479999997,1,143751.3437500000,123742.5468750000,156990.9531250000,132362.0468750000,117600.0781250000,120136.5859375000,114986.3437500000,132241.1562500000,,,
0.2519999996,1,143760.4687500000,123749.2265625000,156999.0156250000,132389.8906250000,117609.6796875000,120142.8359375000,114988.6250000000,132247.9218750000,,,
0.2559999996,2,143756.9843750000,123745.0703125000,156995.3750000000,132378.1875000000,117608.2031250000,120134.5781250000,114984.6796875000,132244.1875000000,,,
0.2599999995,2,143742.2031250000,123727.7968750000,156981.5625000000,132361.1250000000,117597.0468750000,120111.4843750000,114966.3906250000,132227.4531250000,,,
0.2639999995,2,143737.7500000000,123721.2812500000,156979.2500000000,132366.6562500000,117596.2109375000,120098.1250000000,114957.6406250000,132220.9375000000,,,
0.2679999995,2,143744.7968750000,123728.3906250000,156988.0781250000,132371.8125000000,117602.9687500000,120104.8828125000,114959.5234375000,132228.7968750000,,,
0.2719999994,2,143748.2656250000,123732.4609375000,156992.4843750000,132362.7656250000,117604.6640625000,120106.3593750000,114961.5859375000,132233.7500000000,,,
0.2759999994,2,143744.2187500000,123727.7968750000,156989.5312500000,132354.1250000000,117600.7187500000,120100.1093750000,114957.9921875000,132229.2500000000,,,
0.2799999996,2,143731.3437500000,123718.2187500000,156979.1406250000,132341.5781250000,117587.5000000000,120091.3125000000,114943.5625000000,132219.1875000000,,,
0.2839999995,2,143722.4687500000,123713.4765625000,156969.4375000000,132343.4062500000,117577.3593750000,120087.2656250000,114934.6562500000,132214.2343750000,,,
0.2879999995,2,143722.7031250000,123718.5703125000,156969.2031250000,132350.3437500000,117576.8750000000,120095.7343750000,114936.3750000000,132219.8593750000,,,
0.2919999994,2,143726.0312500000,123724.0937500000,156973.7343750000,132358.7968750000,117582.3750000000,120102.8750000000,114940.0781250000,132226.0781250000,,,
0.2959999994,2,143730.1406250000,123725.0625000000,156978.9375000000,132374.5625000000,117589.8828125000,120099.8125000000,114945.0078125000,132227.5312500000,,,
0.2999999996,2,143719.1875000000,123713.7968750000,156969.4062500000,132354.5937500000,117581.1093750000,120087.5859375000,114934.9218750000,132216.2656250000,,,
0.3039999995,2,143710.2812500000,123705.8828125000,156962.5156250000,132350.0000000000,117573.1718750000,120081.6015625000,114923.5234375000,132209.0468750000,,,
0.3079999995,2,143715.5625000000,123709.2109375000,156966.8593750000,132358.7500000000,117577.2265625000,120085.4140625000,114924.3046875000,132212.7812500000,,,
0.3119999995,2,143722.1406250000,123715.0000000000,156972.3281250000,132352.2812500000,117581.8359375000,120094.6093750000,114929.7734375000,132218.7343750000,,,
0.3159999994,2,143720.1250000000,123712.8593750000,156971.7968750000,132338.2812500000,117579.6875000000,120095.4453125000,114926.1015625000,132216.7187500000,,,
0.3199999994,2,143712.7812500000,123703.6875000000,156966.5468750000,132339.7500000000,117575.2656250000,120082.1406250000,114919.2343750000,132208.1718750000,,,
0.3239999996,2,143704.0937500000,123696.2031250000,156959.5156250000,132339.3593750000,117568.3203125000,120072.5390625000,114911.8828125000,132200.8437500000,,,
0.3279999995,2,143707.5468750000,123701.2968750000,156962.3281250000,132348.6875000000,117571.4296875000,120082.2187500000,114915.2109375000,132205.7031250000,,,
0.3319999995,2,143715.1718750000,123711.5156250000,156969.4375000000,132356.5937500000,117578.5078125000,120097.5078125000,114922.7500000000,132216.0468750000,,,
0.3359999994,2,143714.3281250000,123713.4453125000,156971.8593750000,132360.6718750000,117579.4531250000,120096.4062500000,114922.5312500000,132218.6875000000,,,
0.3399999994,2,143706.6875000000,123706.9843750000,156967.5312500000,132367.6250000000,117575.1328125000,120080.6875000000,114916.6875000000,132211.8437500000,,,
0.3439999996,2,143701.8593750000,123704.4062500000,156963.2343750000,132359.9062500000,117570.0625000000,120075.9687500000,114910.4921875000,132208.5468750000,,,
0.3479999995,2,143703.5468750000,123706.9296875000,156963.5937500000,132347.0468750000,117570.0312500000,120087.1796875000,114911.4531250000,132210.9062500000,,,
0.3519999995,2,143715.3750000000,123717.8750000000,156974.0781250000,132370.7343750000,117580.0156250000,120100.2187500000,114925.3750000000,132222.1718750000,,,
0.3559999994,2,143713.8750000000,123717.7656250000,156969.8125000000,132371.9375000000,117577.2265625000,120099.8671875000,114927.9531250000,132222.4843750000,,,
0.3599999994,2,143699.4531250000,123705.1328125000,156953.6718750000,132343.7812500000,117565.2343750000,120084.2812500000,114919.5546875000,132210.2031250000,,,
0.3639999994,2,143693.2812500000,123700.3828125000,156948.5781250000,132345.8437500000,117560.3828125000,120074.2265625000,114914.0859375000,132205.9062500000,,,
0.3679999996,2,143696.8125000000,123703.4453125000,156952.3281250000,132341.7187500000,117563.5468750000,120079.6406250000,114915.2109375000,132209.1562500000,,,
0.3719999995,2,143706.1562500000,123711.1406250000,156961.1250000000,132343.8593750000,117571.2187500000,120093.8046875000,114922.3203125000,132216.5625000000,,,
0.3759999995,2,143715.3593750000,123719.2656250000,156972.7968750000,132377.2031250000,117582.1875000000,120098.6875000000,114929.8281250000,132225.1718750000,,,
0.3799999994,2,143704.5156250000,123709.1562500000,156963.2187500000,132368.9375000000,117572.2109375000,120084.2812500000,114919.8281250000,132216.0000000000,,,
0.3839999994,3,143695.6875000000,123702.4531250000,156955.0937500000,132372.5000000000,117563.3281250000,120075.4296875000,114909.8984375000,132208.2500000000,,,
0.3879999993,3,143699.6406250000,123706.5312500000,156955.9687500000,132366.1250000000,117563.5703125000,120085.8125000000,114909.9843750000,132211.7031250000,,,
0.3919999993,3,143699.0156250000,123704.0312500000,156950.8437500000,132341.1718750000,117560.3828125000,120094.4531250000,114912.9062500000,132208.9375000000,,,
0.3959999993,3,143694.2968750000,123697.7031250000,156945.7343750000,132337.7187500000,117556.2187500000,120090.2656250000,114915.8046875000,132202.8281250000,,,
0.3999999992,3,143684.4843750000,123690.8359375000,156939.7968750000,132346.7343750000,117551.0703125000,120079.9687500000,114910.9453125000,132195.7812500000,,,
0.4039999992,3,143680.0312500000,123688.7734375000,156937.7343750000,132360.0000000000,117549.2500000000,120077.0937500000,114906.0078125000,132193.7968750000,,,
0.4079999994,3,143685.3125000000,123692.7421875000,156939.9375000000,132331.0625000000,117551.7968750000,120085.7890625000,114909.1796875000,132197.0156250000,,,
0.4119999993,3,143695.1093750000,123697.8125000000,156945.6250000000,132336.8125000000,117559.8671875000,120090.0234375000,114916.8203125000,132202.0781250000,,,
0.4159999993,3,143700.8125000000,123698.1328125000,156946.6875000000,132345.2500000000,117565.6875000000,120087.5312500000,114921.0546875000,132202.7187500000,,,
0.4199999992,3,143697.7343750000,123691.3984375000,156940.7187500000,132334.5312500000,117563.3593750000,120075.4843750000,114916.1484375000,132195.9687500000,,,
0.4239999992,3,143696.9218750000,123689.9218750000,156940.3125000000,132332.8593750000,117562.8984375000,120070.6562500000,114912.3984375000,132194.4062500000,,,
0.4279999994,3,143706.3125000000,123698.0234375000,156949.2968750000,132341.2500000000,117570.2500000000,120082.5390625000,114919.3671875000,132202.3125000000,,,
0.4319999993,3,143717.7343750000,123708.4062500000,156961.4687500000,132352.9218750000,117579.9609375000,120095.5234375000,114927.8750000000,132213.1562500000,,,
0.4359999993,3,143717.8281250000,123711.3046875000,156963.9375000000,132351.3125000000,117581.1953125000,120093.4062500000,114927.6562500000,132216.3750000000,,,
0.4399999992,3,143702.2656250000,123701.5937500000,156952.6718750000,132331.3281250000,117567.1640625000,120074.2265625000,114914.8593750000,132207.3593750000,,,
0.4439999992,3,143694.0312500000,123697.1953125000,156947.6250000000,132336.2968750000,117559.9218750000,120065.6406250000,114910.5703125000,132203.1718750000,,,
0.4479999992,3,143703.8750000000,123709.1015625000,156957.3906250000,132371.5625000000,117568.9375000000,120080.7187500000,114919.2578125000,132214.2343750000,,,
0.4519999993,3,143720.7968750000,123725.7031250000,156974.1250000000,132396.0312500000,117586.1250000000,120100.3750000000,114932.2968750000,132229.8906250000,,,
0.4559999993,3,143721.2812500000,123725.4921875000,156972.2031250000,132366.6875000000,117585.4062500000,120096.3046875000,114937.0156250000,132229.8437500000,,,
0.4599999993,3,143707.1250000000,123711.3593750000,156957.6093750000,132353.2500000000,117572.5859375000,120078.4375000000,114925.8593750000,132216.0781250000,,,
0.4639999992,3,143703.1718750000,123705.1875000000,156950.3750000000,132349.9687500000,117569.8984375000,120076.1562500000,114923.0937500000,132209.5937500000,,,
0.4679999992,3,143709.1562500000,123709.5625000000,156954.2031250000,132352.1406250000,117575.3437500000,120083.8828125000,114926.1250000000,132214.1250000000,,,
0.4719999994,3,143722.9375000000,123722.5156250000,156968.6406250000,132385.1718750000,117588.4062500000,120096.6796875000,114935.7031250000,132227.3750000000,,,
0.4759999993,3,143728.7187500000,123728.2812500000,156974.8906250000,132376.0937500000,117593.2343750000,120100.0312500000,114939.7500000000,132232.9218750000,,,
0.4799999993,3,143712.8906250000,123714.8125000000,156958.4062500000,132339.0781250000,117577.1406250000,120082.8906250000,114926.6406250000,132219.5156250000,,,
0.4839999992,3,143707.0937500000,123712.0234375000,156951.9218750000,132332.9218750000,117570.8671875000,120079.8359375000,114923.3125000000,132216.5312500000,,,
0.4879999992,3,143708.0781250000,123714.3593750000,156951.6875000000,132335.7343750000,117569.5781250000,120087.7187500000,114923.6562500000,132217.5781250000,,,
0.4919999992,3,143720.0937500000,123726.1093750000,156963.8125000000,132364.5625000000,117580.4140625000,120103.4609375000,114934.6328125000,132229.7812500000,,,
0.4959999993,3,143733.8281250000,123741.1562500000,156980.8906250000,132400.7187500000,117595.3281250000,120116.9531250000,114950.3515625000,132245.6093750000,,,
0.4999999993,3,143720.5625000000,123728.5468750000,156969.8593750000,132381.2187500000,117585.2968750000,120098.5781250000,114939.1875000000,132232.3281250000,,,
0.5039999993,3,143705.5625000000,123711.8671875000,156953.3906250000,132350.3437500000,117571.0546875000,120083.5625000000,114924.9453125000,132215.4062500000,,,
0.5079999992,3,143708.3750000000,123713.7187500000,156953.9843750000,132349.2968750000,117572.2578125000,120091.3125000000,114928.2187500000,132217.3125000000,,,
0.5119999992,4,143710.6562500000,123716.0468750000,156955.6250000000,132353.4062500000,117573.2500000000,120095.1484375000,114927.9531250000,132220.5312500000,,,
0.5159999991,4,143714.5468750000,123719.4531250000,156961.5312500000,132364.0312500000,117579.8281250000,120093.0312500000,114931.3593750000,132224.5312500000,,,
0.5199999991,4,143707.9843750000,123712.8281250000,156955.9218750000,132363.4687500000,117576.3671875000,120078.6484375000,114925.5937500000,132218.0156250000,,,
0.5239999990,4,143702.1250000000,123707.2812500000,156951.2500000000,132371.2968750000,117571.3203125000,120072.6406250000,114922.4531250000,132212.2187500000,,,
0.5279999990,4,143711.7031250000,123716.3203125000,156961.3125000000,132391.5156250000,117579.7734375000,120083.2890625000,114928.7578125000,132220.9375000000,,,
0.5319999990,4,143719.3437500000,123722.2968750000,156966.2187500000,132365.7500000000,117584.7343750000,120097.7500000000,114934.8203125000,132226.6718750000,,,
0.5359999991,4,143708.9375000000,123711.5156250000,156955.9531250000,132336.7500000000,117574.2187500000,120090.1562500000,114928.1093750000,132215.9687500000,,,
0.5399999991,4,143701.8125000000,123704.5156250000,156951.9843750000,132337.5625000000,117569.0390625000,120075.1953125000,114921.7031250000,132209.1562500000,,,
0.5439999991,4,143695.6093750000,123698.0781250000,156947.6562500000,132335.6562500000,117564.7812500000,120066.4453125000,114916.4218750000,132202.7187500000,,,
0.5479999990,4,143701.3281250000,123701.5390625000,156951.8437500000,132363.3906250000,117570.2265625000,120074.7109375000,114917.1718750000,132206.4218750000,,,
0.5519999990,4,143723.7968750000,123720.3437500000,156972.0468750000,132398.7656250000,117590.8515625000,120092.7031250000,114934.6562500000,132225.6250000000,,,
0.5559999992,4,143717.4218750000,123715.1875000000,156963.5625000000,132342.9687500000,117581.8671875000,120085.0859375000,114932.2421875000,132220.1562500000,,,
0.5599999991,4,143709.7812500000,123708.0859375000,156955.9687500000,132331.2187500000,117574.4609375000,120072.9687500000,114926.6406250000,132213.4218750000,,,
0.5639999991,4,143700.9218750000,123697.5937500000,156945.7812500000,132321.1875000000,117565.3437500000,120064.2187500000,114919.0703125000,132202.7187500000,,,
0.5679999990,4,143700.9843750000,123696.4453125000,156942.7500000000,132322.6093750000,117563.8359375000,120066.7421875000,114916.6562500000,132201.5156250000,,,
0.5719999990,4,143708.5937500000,123707.3593750000,156951.8750000000,132349.3281250000,117570.3046875000,120081.7343750000,114921.4843750000,132212.6406250000,,,
0.5759999990,4,143723.2968750000,123725.3593750000,156969.7656250000,132375.1875000000,117583.6093750000,120095.2265625000,114939.7265625000,132230.7968750000,,,
0.5799999991,4,143725.9218750000,123729.8125000000,156975.3125000000,132364.9375000000,117588.8359375000,120092.5468750000,114945.3593750000,132235.2812500000,,,
0.5839999991,4,143706.3750000000,123710.7656250000,156957.3125000000,132339.0781250000,117573.1718750000,120071.2734375000,114926.3437500000,132215.5937500000,,,
0.5879999991,4,143709.5312500000,123713.0468750000,156959.8906250000,132351.6406250000,117576.6562500000,120078.9765625000,114927.1484375000,132218.1718750000,,,
0.5919999990,4,143717.9843750000,123719.0234375000,156965.5781250000,132363.3906250000,117583.7968750000,120093.8593750000,114935.1093750000,132223.7968750000,,,
0.5959999990,4,143723.4062500000,123721.3593750000,156969.2812500000,132376.0937500000,117590.2343750000,120096.2187500000,114941.8750000000,132227.1875000000,,,
0.5999999992,4,143725.1406250000,123722.0312500000,156970.4375000000,132377.7812500000,117593.4765625000,120088.8437500000,114942.1406250000,132227.7500000000,,,
0.6039999991,4,143718.4687500000,123717.5546875000,156964.2343750000,132366.3906250000,117586.5546875000,120080.6406250000,114929.8281250000,132222.9375000000,,,
0.6079999991,4,143708.5937500000,123710.3671875000,156952.5937500000,132348.8437500000,117573.2812500000,120077.7968750000,114919.2343750000,132215.5937500000,,,
0.6119999990,4,143719.9062500000,123720.0156250000,156961.0625000000,132346.0000000000,117582.7734375000,120089.2968750000,114934.0937500000,132225.7343750000,,,
0.6159999990,4,143735.9843750000,123737.1562500000,156978.3125000000,132360.5156250000,117600.1796875000,120104.7500000000,114949.2734375000,132242.7343750000,,,
0.6199999989,4,143736.9687500000,123739.8671875000,156983.0156250000,132385.5937500000,117603.9140625000,120100.1093750000,114949.2500000000,132245.8281250000,,,
0.6239999991,4,143715.4062500000,123719.1328125000,156963.2968750000,132367.3593750000,117584.0937500000,120074.6250000000,114930.1250000000,132224.9531250000,,,
0.6279999991,4,143700.0625000000,123703.7109375000,156944.1406250000,132324.3906250000,117565.6328125000,120071.2187500000,114921.5390625000,132209.0000000000,,,
0.6319999991,4,143712.4843750000,123713.2343750000,156955.5937500000,132353.7812500000,117576.3359375000,120087.8750000000,114931.1406250000,132219.0625000000,,,
0.6359999990,4,143724.7343750000,123725.8125000000,156971.8281250000,132397.7968750000,117590.3906250000,120093.5937500000,114938.8437500000,132232.4687500000,,,
0.6399999990,5,143716.6875000000,123720.9062500000,156964.0937500000,132362.7343750000,117583.2578125000,120085.9765625000,114936.4843750000,132227.2656250000,,,
0.6439999989,5,143701.3281250000,123704.8906250000,156942.7500000000,132311.2968750000,117568.2343750000,120076.1015625000,114926.2109375000,132210.0937500000,,,
0.6479999989,5,143709.1093750000,123708.8359375000,156947.0156250000,132345.9218750000,117575.6953125000,120085.4140625000,114927.7343750000,132214.3906250000,,,
0.6519999988,5,143732.7343750000,123732.0859375000,156971.4531250000,132401.5000000000,117598.8984375000,120109.7656250000,114945.8984375000,132237.7187500000,,,
0.6559999988,5,143731.3125000000,123732.5468750000,156972.3906250000,132389.2343750000,117597.8750000000,120110.1640625000,114944.6093750000,132238.2343750000,,,
0.6599999988,5,143708.1718750000,123711.1718750000,156950.7968750000,132324.2812500000,117574.1953125000,120085.4921875000,114928.0859375000,132217.2031250000,,,
0.6639999989,5,143693.0625000000,123698.6406250000,156937.0312500000,132300.7812500000,117559.8437500000,120074.0937500000,114916.7968750000,132204.4375000000,,,
0.6679999989,5,143690.7343750000,123698.2656250000,156935.5312500000,132309.9218750000,117556.4921875000,120083.1562500000,114913.4375000000,132203.7187500000,,,
0.6719999989,5,143701.8906250000,123709.6953125000,156945.8906250000,132328.0000000000,117566.8984375000,120098.0156250000,114923.8984375000,132215.0625000000,,,
0.6759999988,5,143709.6406250000,123715.5390625000,156953.2031250000,132339.9687500000,117575.1328125000,120099.7578125000,114929.8281250000,132221.2031250000,,,
0.6799999988,5,143701.5937500000,123709.2109375000,156948.2500000000,132343.8125000000,117569.5546875000,120086.9140625000,114921.0859375000,132216.0000000000,,,
0.6839999990,5,143688.4531250000,123700.4140625000,156939.2656250000,132338.9843750000,117557.1640625000,120074.2500000000,114909.6328125000,132207.8437500000,,,
0.6879999989,5,143690.6718750000,123704.1171875000,156942.0000000000,132342.8593750000,117557.5625000000,120082.0078125000,114911.9687500000,132211.1406250000,,,
0.6919999989,5,143705.4375000000,123714.3359375000,156953.0000000000,132359.4375000000,117570.5156250000,120097.6406250000,114923.5234375000,132221.2031250000,,,
0.6959999988,5,143714.5000000000,123717.2031250000,156957.5000000000,132361.3750000000,117579.2890625000,120100.2421875000,114931.3828125000,132224.6875000000,,,
0.6999999988,5,143702.6093750000,123704.4062500000,156946.0781250000,132341.8437500000,117568.9921875000,120079.9687500000,114921.0859375000,132212.1093750000,,,
0.7039999987,5,143700.6875000000,123703.5000000000,156946.0468750000,132341.3593750000,117567.6718750000,120071.8125000000,114918.1328125000,132210.8750000000,,,
0.7079999989,5,143711.8593750000,123713.1562500000,156957.4687500000,132353.3593750000,117576.2578125000,120083.5078125000,114926.5546875000,132220.5000000000,,,
0.7119999989,5,143723.1093750000,123722.3281250000,156967.4531250000,132391.9531250000,117585.0859375000,120093.2421875000,114934.3593750000,132229.8906250000,,,
0.7159999989,5,143732.5156250000,123734.5546875000,156977.5312500000,132414.4062500000,117594.1718750000,120099.8671875000,114943.0781250000,132242.2031250000,,,
0.7199999988,5,143719.1875000000,123725.3281250000,156961.1718750000,132340.2968750000,117579.4531250000,120089.8125000000,114938.8671875000,132232.8906250000,,,
0.7239999988,5,143701.5468750000,123710.6328125000,156941.5156250000,132310.0937500000,117561.8515625000,120078.1953125000,114924.9218750000,132218.0625000000,,,
0.7279999990,5,143695.4843750000,123703.0937500000,156933.6875000000,132309.9218750000,117554.4218750000,120074.9218750000,114917.4921875000,132209.8593750000,,,
0.7319999989,5,143702.6718750000,123707.2500000000,156941.1406250000,132337.5312500000,117561.0781250000,120081.0156250000,114924.4375000000,132215.0625000000,,,
0.7359999989,5,143714.2343750000,123717.3906250000,156953.5937500000,132364.9687500000,117573.1171875000,120086.8828125000,114936.8828125000,132225.4687500000,,,
0.7399999988,5,143710.4687500000,123712.6718750000,156950.0937500000,132338.0156250000,117569.8203125000,120077.0156250000,114933.7421875000,132220.3906250000,,,
0.7439999988,5,143702.2187500000,123702.1796875000,156940.5312500000,132323.3593750000,117561.5312500000,120062.9609375000,114918.6953125000,132209.4531250000,,,
0.7479999987,5,143707.5781250000,123703.8437500000,156941.2187500000,132331.6562500000,117565.9296875000,120070.3906250000,114929.2890625000,132210.9062500000,,,
0.7519999989,5,143714.6875000000,123709.2343750000,156945.1562500000,132339.3281250000,117572.8750000000,120080.7187500000,114947.0468750000,132216.1875000000,,,
0.7559999989,5,143719.2500000000,123715.8593750000,156954.5312500000,132344.7968750000,117579.9609375000,120076.8515625000,114948.7890625000,132223.0312500000,,,
0.7599999988,5,143716.4843750000,123714.2500000000,156955.2500000000,132339.5625000000,117577.7578125000,120070.9531250000,114940.6093750000,132221.8125000000,,,
0.7639999988,5,143713.8593750000,123711.9453125000,156952.4843750000,132345.4375000000,117575.2109375000,120069.2109375000,114938.5468750000,132219.0000000000,,,
0.7679999988,6,143713.5312500000,123713.0468750000,156952.0000000000,132352.4687500000,117574.9140625000,120077.0390625000,114938.9453125000,132219.4531250000,,,
0.7719999987,6,143710.4687500000,123709.7500000000,156949.5156250000,132346.0000000000,117571.1875000000,120079.5625000000,114935.3515625000,132216.2968750000,,,
0.7759999987,6,143712.6250000000,123710.5546875000,156953.4218750000,132337.8437500000,117573.6796875000,120076.8515625000,114936.8593750000,132216.7187500000,,,
0.7799999986,6,143707.0312500000,123704.9687500000,156950.0468750000,132327.8125000000,117570.6484375000,120063.4687500000,114932.5078125000,132211.2500000000,,,
0.7839999986,6,143699.7500000000,123698.1562500000,156940.5468750000,132329.8593750000,117564.1875000000,120054.9140625000,114926.6875000000,132204.3593750000,,,
0.7879999985,6,143706.7187500000,123700.6796875000,156940.0468750000,132355.4687500000,117569.8984375000,120062.8828125000,114937.0703125000,132206.7968750000,,,
0.7919999987,6,143719.2500000000,123710.1250000000,156946.0781250000,132374.9687500000,117580.4687500000,120077.7109375000,114946.7031250000,132216.2187500000,,,
0.7959999987,6,143721.3906250000,123711.3281250000,156945.0312500000,132357.3437500000,117580.9765625000,120080.8515625000,114946.1640625000,132217.7656250000,,,
0.7999999986,6,143708.8906250000,123699.7421875000,156934.9218750000,132337.7500000000,117569.9296875000,120062.5625000000,114934.9218750000,132206.5000000000,,,
0.8039999986,6,143705.5312500000,123699.0468750000,156935.5625000000,132329.8593750000,117567.7031250000,120054.2734375000,114930.7109375000,132205.1875000000,,,
0.8079999986,6,143711.2187500000,123706.4765625000,156943.9531250000,132338.0312500000,117573.7656250000,120064.1171875000,114935.8125000000,132213.3125000000,,,
0.8119999988,6,143731.4531250000,123725.2500000000,156964.6562500000,132368.6406250000,117592.4843750000,120085.2500000000,114955.8437500000,132232.9687500000,,,
0.8159999987,6,143736.5468750000,123730.3437500000,156971.7500000000,132376.5781250000,117597.9531250000,120084.6093750000,114963.7343750000,132237.9687500000,,,
0.8199999987,6,143720.9843750000,123717.7421875000,156958.0937500000,132339.6250000000,117584.0078125000,120066.8515625000,114953.5390625000,132225.0312500000,,,
0.8239999986,6,143705.7812500000,123703.3593750000,156945.4843750000,132322.9843750000,117568.8515625000,120051.6171875000,114937.4765625000,132210.8437500000,,,
0.8279999986,6,143706.6562500000,123704.0859375000,156946.9687500000,132327.5781250000,117566.8203125000,120058.5078125000,114935.9453125000,132211.4375000000,,,
0.8319999985,6,143717.9843750000,123714.0625000000,156958.1406250000,132354.9062500000,117575.7734375000,120074.7656250000,114944.6328125000,132222.2500000000,,,
0.8359999987,6,143727.6718750000,123722.4843750000,156967.1875000000,132365.0156250000,117585.4296875000,120081.2031250000,114949.8671875000,132230.9843750000,,,
0.8399999987,6,143721.1406250000,123717.6015625000,156960.0156250000,132347.7187500000,117581.4375000000,120070.9296875000,114947.6093750000,132226.5937500000,,,
0.8439999986,6,143709.5312500000,123708.4062500000,156945.8125000000,132327.3125000000,117571.5625000000,120060.7343750000,114935.9453125000,132216.7968750000,,,
0.8479999986,6,143709.9843750000,123711.6484375000,156943.2343750000,132333.4531250000,117570.8359375000,120069.6093750000,114937.3906250000,132219.7187500000,,,
0.8519999986,6,143709.1562500000,123713.1015625000,156942.6718750000,132343.9375000000,117568.5078125000,120077.8984375000,114936.9062500000,132221.6562500000,,,
0.8559999987,6,143704.8125000000,123714.7109375000,156943.6406250000,132351.7968750000,117565.7734375000,120073.8515625000,114931.0390625000,132223.3281250000,,,
0.8599999987,6,143689.6250000000,123702.7968750000,156933.4375000000,132344.5312500000,117554.0234375000,120056.4453125000,114914.4843750000,132212.1093750000,,,
0.8639999987,6,143682.7968750000,123692.0703125000,156927.9218750000,132342.1093750000,117548.6015625000,120047.1093750000,114905.7968750000,132201.4531250000,,,
0.8679999986,6,143695.2968750000,123700.1718750000,156940.3437500000,132363.3906250000,117560.1093750000,120059.5546875000,114911.6718750000,132209.0468750000,,,
0.8719999986,6,143709.8281250000,123713.0703125000,156952.1875000000,132375.1562500000,117573.2500000000,120074.3046875000,114928.0625000000,132222.4062500000,,,
0.8759999985,6,143719.1406250000,123721.7656250000,156959.5156250000,132365.6875000000,117580.8984375000,120078.9765625000,114943.1328125000,132231.1562500000,,,
0.8799999987,6,143711.5468750000,123715.8046875000,156953.6718750000,132353.2812500000,117574.6718750000,120068.0546875000,114938.1171875000,132225.0156250000,,,
0.8839999987,6,143694.0781250000,123702.2343750000,156939.7968750000,132338.4218750000,117557.9375000000,120053.0625000000,114921.1640625000,132211.3281250000,,,
0.8879999986,6,143696.5781250000,123704.3281250000,156942.7187500000,132345.2812500000,117558.7734375000,120057.8359375000,114920.8437500000,132213.2812500000,,,
0.8919999986,6,143710.1250000000,123712.2421875000,156952.3750000000,132371.0000000000,117570.7890625000,120066.8750000000,114932.5078125000,132221.4687500000,,,
0.8959999986,7,143724.0937500000,123722.7578125000,156966.1093750000,132401.4531250000,117587.1171875000,120068.1093750000,114943.8046875000,132232.0625000000,,,
0.8999999985,7,143726.4062500000,123725.3046875000,156969.0625000000,132388.7812500000,117589.3203125000,120062.5078125000,114942.6250000000,132234.5625000000,,,
0.9039999985,7,143717.0937500000,123712.8281250000,156954.7968750000,132319.0781250000,117576.3671875000,120053.3046875000,114937.1250000000,132221.8437500000,,,
0.9079999984,7,143711.1718750000,123706.6093750000,156948.0312500000,132302.8281250000,117569.1796875000,120052.9531250000,114929.7500000000,132215.7343750000,,,
0.9119999984,7,143727.1562500000,123725.8359375000,156966.6250000000,132335.9218750000,117585.9687500000,120075.3828125000,114941.1484375000,132234.3906250000,,,
0.9159999983,7,143739.5937500000,123740.8906250000,156980.8906250000,132371.6718750000,117600.3437500000,120088.6562500000,114953.0859375000,132249.9843750000,,,
0.9199999985,7,143743.1718750000,123745.3671875000,156985.9843750000,132395.1718750000,117605.3828125000,120082.8906250000,114954.8828125000,132254.2968750000,,,
0.9239999985,7,143739.0937500000,123742.4687500000,156980.6250000000,132360.7500000000,117599.4609375000,120080.9609375000,114952.1171875000,132250.7343750000,,,
0.9279999984,7,143737.2656250000,123739.6562500000,156977.8593750000,132353.7500000000,117596.1328125000,120086.2421875000,114950.0781250000,132247.8906250000,,,
0.9319999984,7,143737.8281250000,123738.6640625000,156976.7343750000,132348.8281250000,117594.7343750000,120088.3046875000,114948.8984375000,132247.1093750000,,,
0.9359999984,7,143736.1406250000,123737.9609375000,156975.5468750000,132350.9687500000,117592.3281250000,120082.4609375000,114950.3984375000,132246.9843750000,,,
0.9399999985,7,143721.3125000000,123721.7656250000,156960.5625000000,132337.4687500000,117578.4296875000,120061.9453125000,114939.0859375000,132231.1562500000,,,
0.9439999985,7,143713.6093750000,123713.8203125000,156952.3281250000,132332.1875000000,117571.4296875000,120052.2890625000,114929.4765625000,132223.7187500000,,,
0.9479999985,7,143716.2187500000,123717.2031250000,156955.2812500000,132341.6093750000,117575.8593750000,120060.7578125000,114931.0078125000,132227.0000000000,,,
0.9519999984,7,143720.0937500000,123720.4765625000,156956.2968750000,132339.6406250000,117578.0546875000,120073.3671875000,114937.9531250000,132230.2187500000,,,
0.9559999984,7,143725.3125000000,123728.0156250000,156960.8593750000,132347.1250000000,117581.1093750000,120082.7812500000,114942.4921875000,132237.7812500000,,,
0.9599999983,7,143713.5312500000,123718.0625000000,156950.6406250000,132343.0468750000,117569.7656250000,120068.4609375000,114931.8437500000,132228.5468750000,,,
0.9639999985,7,143702.1250000000,123708.4843750000,156941.7812500000,132337.2812500000,117560.2968750000,120060.4921875000,114924.6015625000,132219.2656250000,,,
0.9679999985,7,143699.3906250000,123706.5546875000,156939.8281250000,132339.3750000000,117558.2343750000,120066.5781250000,114920.3593750000,132216.7812500000,,,
0.9719999984,7,143709.9375000000,123716.5312500000,156950.1562500000,132353.8593750000,117566.1718750000,120078.7578125000,114927.6562500000,132226.5625000000,,,
0.9759999984,7,143713.2031250000,123716.5859375000,156953.0156250000,132356.2812500000,117567.4296875000,120077.9296875000,114929.5625000000,132226.4843750000,,,
0.9799999984,7,143708.2500000000,123707.2812500000,156947.5468750000,132346.4531250000,117563.3281250000,120066.0468750000,114927.1171875000,132217.8437500000,,,
0.9839999985,7,143705.2187500000,123698.3750000000,156942.7500000000,132346.3750000000,117564.0546875000,120052.6328125000,114925.6718750000,132209.5312500000,,,
0.9879999985,7,143705.9375000000,123697.4921875000,156941.3750000000,132346.0000000000,117566.1718750000,120054.7500000000,114924.1953125000,132208.0000000000,,,
0.9919999985,7,143709.1250000000,123702.5859375000,156944.0625000000,132346.7343750000,117568.5078125000,120063.5781250000,114926.8515625000,132212.7500000000,,,
0.9959999984,7,143710.8281250000,123707.3359375000,156945.6718750000,132342.7031250000,117569.2031250000,120065.4296875000,114930.3906250000,132217.8281250000,,,
0.9999999984,7,143706.1562500000,123705.7265625000,156943.0937500000,132333.3437500000,117566.0156250000,120059.6875000000,114925.8046875000,132216.3125000000,,,
1.0039999983,7,143699.0156250000,123699.1015625000,156936.3125000000,132319.1250000000,117560.5156250000,120050.2734375000,114917.2734375000,132209.2343750000,,,
1.0079999985,7,143704.5781250000,123705.4843750000,156940.9843750000,132329.7812500000,117563.0859375000,120059.6093750000,114921.4609375000,132216.1093750000,,,
1.0119999985,7,143714.4218750000,123720.0468750000,156954.9062500000,132354.7968750000,117572.3671875000,120075.7031250000,114929.9062500000,132231.3906250000,,,
1.0159999984,7,143727.4218750000,123735.4921875000,156972.8906250000,132369.9531250000,117586.2109375000,120085.8906250000,114939.9687500000,132246.9843750000,,,
1.0199999984,7,143728.5781250000,123731.9296875000,156975.2656250000,132374.8437500000,117590.1015625000,120077.5781250000,114940.5546875000,132243.3593750000,,,
1.0239999983,8,143727.7656250000,123723.0000000000,156971.2812500000,132374.0312500000,117594.7343750000,120069.5078125000,114941.0937500000,132234.3750000000,,,
1.0279999983,8,143724.8750000000,123714.7890625000,156961.9062500000,132351.8281250000,117590.6328125000,120072.2421875000,114939.2734375000,132226.1093750000,,,
1.0319999983,8,143730.6406250000,123719.1640625000,156963.3281250000,132349.7656250000,117591.2500000000,120081.3906250000,114944.8203125000,132230.2187500000,,,
1.0359999982,8,143728.3281250000,123718.3281250000,156959.2500000000,132334.6093750000,117585.8593750000,120081.9531250000,114942.5156250000,132230.2187500000,,,
1.0399999982,8,143709.8593750000,123704.8906250000,156942.2187500000,132302.3125000000,117568.9375000000,120071.9765625000,114924.2500000000,132216.5000000000,,,
1.0439999981,8,143696.5000000000,123695.0468750000,156931.6718750000,132299.8906250000,117559.4375000000,120063.5781250000,114912.9062500000,132206.4218750000,,,
1.0479999983,8,143702.3125000000,123699.2578125000,156936.9843750000,132326.1250000000,117564.8046875000,120069.6640625000,114918.1875000000,132209.6875000000,,,
1.0519999983,8,143714.8125000000,123709.5625000000,156946.6875000000,132328.3750000000,117574.1406250000,120084.4218750000,114933.3671875000,132220.0781250000,,,
1.0559999982,8,143713.1250000000,123705.4296875000,156942.1093750000,132313.5000000000,117570.3046875000,120083.1562500000,114938.5156250000,132215.9218750000,,,
1.0599999982,8,143705.0312500000,123694.8906250000,156936.7656250000,132310.3281250000,117564.3515625000,120067.6796875000,114933.9843750000,132205.8281250000,,,
1.0639999982,8,143699.4531250000,123692.3125000000,156933.1718750000,132317.6875000000,117561.1015625000,120061.3750000000,114926.7734375000,132203.7343750000,,,
1.0679999983,8,143700.1406250000,123695.9296875000,156931.8906250000,132325.7343750000,117562.4453125000,120074.9218750000,114923.9296875000,132206.7187500000,,,
1.0719999983,8,143707.0156250000,123700.8125000000,156934.8125000000,132334.8125000000,117569.8203125000,120091.3359375000,114928.7031250000,132210.8750000000,,,
1.0759999983,8,143704.6562500000,123699.0468750000,156932.3750000000,132350.6250000000,117569.2031250000,120093.0546875000,114926.9062500000,132209.6875000000,,,
1.0799999982,8,143692.2031250000,123691.7734375000,156923.7343750000,132346.2500000000,117556.7031250000,120078.4375000000,114915.8046875000,132203.0468750000,,,
1.0839999982,8,143672.5000000000,123679.3828125000,156907.6718750000,132309.2031250000,117533.6875000000,120061.6484375000,114898.3125000000,132189.8750000000,,,
1.0879999981,8,143673.0312500000,123682.1484375000,156908.4218750000,132295.2343750000,117528.5390625000,120074.5234375000,114901.7187500000,132191.9687500000,,,
1.0919999983,8,143689.6562500000,123694.7265625000,156923.6718750000,132310.1406250000,117539.8359375000,120092.9218750000,114914.2734375000,132204.2500000000,,,
1.0959999983,8,143704.2031250000,123703.8750000000,156938.0000000000,132330.6406250000,117553.6171875000,120098.5000000000,114926.3437500000,132213.8281250000,,,
1.0999999982,8,143705.1562500000,123701.0546875000,156940.0937500000,132343.2343750000,117558.3125000000,120086.0781250000,114926.7421875000,132211.0937500000,,,
1.1039999982,8,143701.4062500000,123696.2812500000,156938.7812500000,132361.8906250000,117559.0078125000,120070.1484375000,114920.6015625000,132205.9062500000,,,
1.1079999981,8,143702.9843750000,123698.3437500000,156939.5312500000,132356.2812500000,117561.2109375000,120076.9921875000,114920.0937500000,132208.3750000000,,,
1.1119999983,8,143705.8906250000,123701.3750000000,156941.5937500000,132335.4375000000,117563.6015625000,120086.8828125000,114920.8984375000,132211.7656250000,,,
1.1159999983,8,143697.2187500000,123694.1328125000,156933.5000000000,132307.7812500000,117555.9296875000,120082.3515625000,114913.3906250000,132204.3906250000,,,
1.1199999982,8,143688.5781250000,123688.7421875000,156924.6406250000,132303.2812500000,117550.8281250000,120075.9453125000,114911.2656250000,132198.9375000000,,,
1.1239999982,8,143690.5937500000,123691.4531250000,156922.9062500000,132313.2343750000,117556.0859375000,120079.3203125000,114917.1406250000,132201.5937500000,,,
1.1279999982,8,143695.6093750000,123697.1406250000,156923.7343750000,132324.8437500000,117561.5859375000,120091.7109375000,114921.7578125000,132206.8750000000,,,
1.1319999981,8,143706.0468750000,123709.1015625000,156933.3125000000,132342.6562500000,117569.0937500000,120108.0468750000,114932.0312500000,132218.9531250000,,,
1.1359999983,8,143715.8125000000,123719.7500000000,156946.8281250000,132359.1406250000,117576.0703125000,120115.0468750000,114939.7265625000,132230.7187500000,,,
1.1399999983,8,143714.3281250000,123717.7968750000,156949.0000000000,132351.5781250000,117571.3515625000,120105.4218750000,114939.7812500000,132229.0625000000,,,
1.1439999982,8,143710.9218750000,123713.4218750000,156946.5312500000,132342.7812500000,117564.6953125000,120096.8906250000,114936.5078125000,132224.5781250000,,,
1.1479999982,8,143712.5312500000,123711.9218750000,156947.9531250000,132349.1718750000,117564.7265625000,120098.7421875000,114933.0781250000,132222.8593750000,,,
1.1519999981,9,143710.6562500000,123708.0312500000,156944.8437500000,132341.3906250000,117564.1328125000,120106.8671875000,114930.0156250000,132219.1093750000,,,
1.1559999981,9,143705.0000000000,123702.8281250000,156939.8593750000,132334.4218750000,117560.9453125000,120105.6093750000,114925.6484375000,132215.1406250000,,,
1.1599999981,9,143698.6718750000,123700.7578125000,156937.7812500000,132346.5468750000,117558.1015625000,120095.2812500000,114921.5703125000,132213.4531250000,,,
1.1639999980,9,143687.7500000000,123693.5703125000,156929.4531250000,132346.7500000000,117549.4062500000,120086.1640625000,114914.0859375000,132205.9062500000,,,
1.1679999980,9,143683.3281250000,123692.0703125000,156925.0468750000,132340.1250000000,117546.9687500000,120090.0234375000,114912.1250000000,132204.2500000000,,,
1.1719999979,9,143686.3125000000,123694.2187500000,156923.8437500000,132332.7343750000,117550.5859375000,120103.0625000000,114918.4296875000,132206.6406250000,,,
1.1759999981,9,143689.2812500000,123695.8515625000,156925.5781250000,132336.9062500000,117554.3671875000,120110.7031250000,114921.3515625000,132208.8437500000,,,
1.1799999981,9,143695.0468750000,123699.7968750000,156932.6093750000,132337.4531250000,117561.8515625000,120111.0234375000,114926.1796875000,132213.0468750000,,,
1.1839999980,9,143690.9687500000,123694.0000000000,156928.9062500000,132332.5468750000,117556.8906250000,120100.5937500000,114924.1171875000,132207.2343750000,,,
1.1879999980,9,143688.7500000000,123694.2734375000,156927.8593750000,132330.2656250000,117551.9296875000,120103.2734375000,114921.3281250000,132207.4218750000,,,
1.1919999979,9,143698.3750000000,123711.3046875000,156942.1406250000,132340.8750000000,117558.9062500000,120123.9843750000,114930.6328125000,132224.2812500000,,,
1.1959999981,9,143697.6562500000,123723.1562500000,156950.9062500000,132360.2187500000,117558.2343750000,120132.5078125000,114933.3437500000,132236.7656250000,,,
1.1999999981,9,143685.9843750000,123723.4218750000,156949.9843750000,132369.1250000000,117549.8906250000,120122.4531250000,114924.0078125000,132237.6406250000,,,
1.2039999980,9,143672.0156250000,123708.4062500000,156937.1250000000,132333.4531250000,117535.4375000000,120106.3828125000,114915.9375000000,132222.8437500000,,,
1.2079999980,9,143678.5781250000,123705.0781250000,156939.3906250000,132318.8906250000,117540.7968750000,120110.1953125000,114920.9218750000,132219.5625000000,,,
1.2119999980,9,143696.5781250000,123711.8359375000,156950.2031250000,132332.1875000000,117559.7343750000,120121.2968750000,114933.3125000000,132226.4531250000,,,
1.2159999979,9,143711.6562500000,123721.9765625000,156961.5781250000,132358.2031250000,117578.3515625000,120126.6328125000,114947.2109375000,132236.9687500000,,,
1.2199999981,9,143703.3906250000,123711.3046875000,156951.1250000000,132358.6875000000,117571.1328125000,120108.4218750000,114940.3437500000,132226.5156250000,,,
1.2239999981,9,143702.5625000000,123708.3750000000,156948.4375000000,132361.0468750000,117571.2968750000,120099.6015625000,114936.0546875000,132223.5625000000,,,
1.2279999980,9,143710.2343750000,123710.9531250000,156950.0937500000,132345.1406250000,117574.9140625000,120104.6718750000,114940.0234375000,132225.7031250000,,,
1.2319999980,9,143715.4062500000,123713.9062500000,156951.6562500000,132342.7031250000,117576.8750000000,120113.4140625000,114941.4140625000,132228.4375000000,,,
1.2359999979,9,143721.7968750000,123720.4765625000,156959.1093750000,132353.3281250000,117584.4140625000,120120.1171875000,114942.9687500000,132235.3906250000,,,
1.2399999981,9,143717.9062500000,123718.5468750000,156957.6093750000,132344.7656250000,117582.8046875000,120115.0468750000,114938.5468750000,132233.7031250000,,,
1.2439999981,9,143714.0468750000,123717.2578125000,156956.7812500000,132354.1250000000,117581.3281250000,120109.3125000000,114932.2421875000,132232.5156250000,,,
1.2479999980,9,143713.8750000000,123719.8828125000,156957.6562500000,132371.9218750000,117581.5703125000,120114.0546875000,114929.6171875000,132235.5000000000,,,
1.2519999980,9,143728.2812500000,123734.5000000000,156969.5468750000,132386.0156250000,117593.9843750000,120134.7343750000,114942.4921875000,132249.9062500000,,,
1.2559999980,9,143738.2031250000,123734.5859375000,156974.8281250000,132382.6093750000,117601.5000000000,120137.0703125000,114952.1484375000,132249.2500000000,33029,1.2568045175,0.0000000000
1.2599999979,9,143726.0781250000,123715.6484375000,156961.7656250000,132346.1093750000,117589.4843750000,120118.8828125000,114946.5156250000,132229.7343750000,,,
1.2639999981,9,143719.0781250000,123707.8984375000,156957.2812500000,132331.7031250000,117583.1484375000,120108.4765625000,114945.8437500000,132222.5625000000,,,
1.2679999981,9,143724.4687500000,123716.1875000000,156964.9843750000,132332.7812500000,117588.0859375000,120116.0156250000,114950.8593750000,132231.0781250000,,,
1.2719999980,9,143737.2343750000,123732.0625000000,156976.8125000000,132351.9843750000,117597.6328125000,120132.4531250000,114957.9687500000,132246.5156250000,,,
1.2759999980,9,143736.4843750000,123730.3437500000,156974.6718750000,132355.2031250000,117595.5156250000,120128.7578125000,114954.3437500000,132245.1562500000,,,
1.2799999979,10,143734.7187500000,123727.0703125000,156974.6093750000,132358.3906250000,117595.6484375000,120118.1328125000,114954.4765625000,132242.3906250000,,,
1.2839999979,10,143722.1718750000,123713.9843750000,156963.0000000000,132346.4062500000,117586.3125000000,120101.3671875000,114944.6875000000,132229.9218750000,,,
1.2879999978,10,143710.0625000000,123706.1015625000,156949.1875000000,132345.0468750000,117575.3984375000,120097.7734375000,114933.9843750000,132221.8437500000,,,
1.2919999978,10,143713.5625000000,123715.9453125000,156952.3593750000,132359.7656250000,117579.5000000000,120115.7968750000,114938.5468750000,132231.7968750000,,,
1.2959999978,10,143714.2343750000,123721.7656250000,156951.8906250000,132367.3750000000,117578.8593750000,120126.1015625000,114943.6406250000,132238.3125000000,,,
1.2999999977,10,143711.8593750000,123721.0156250000,156947.9531250000,132364.2187500000,117576.5546875000,120123.9296875000,114945.5234375000,132237.9062500000,,,
1.3039999979,10,143706.9375000000,123714.0078125000,156943.6875000000,132361.0781250000,117572.2578125000,120114.3281250000,114941.3359375000,132231.2656250000,,,
1.3079999979,10,143712.7500000000,123715.9921875000,156952.0781250000,132350.3437500000,117575.9062500000,120120.4687500000,114943.9609375000,132232.5781250000,,,
1.3119999978,10,143726.7031250000,123721.7343750000,156966.2656250000,132357.5937500000,117587.2031250000,120130.7109375000,114952.1953125000,132238.1875000000,,,
1.3159999978,10,143742.6875000000,123731.2031250000,156982.5781250000,132380.2031250000,117600.2109375000,120135.7578125000,114961.8828125000,132247.2500000000,,,
1.3199999977,10,143747.5468750000,123736.7265625000,156990.8906250000,132382.3281250000,117603.4296875000,120128.0546875000,114963.1718750000,132251.7187500000,,,
1.3239999979,10,143736.5468750000,123729.2734375000,156982.8437500000,132356.2968750000,117594.2578125000,120112.1562500000,114955.4140625000,132244.6406250000,,,
1.3279999979,10,143725.0312500000,123724.3906250000,156972.0937500000,132350.0625000000,117585.0859375000,120110.8359375000,114941.7890625000,132240.1093750000,,,
1.3319999978,10,143731.5312500000,123738.4765625000,156978.7500000000,132370.5468750000,117594.0390625000,120131.0625000000,114947.9062500000,132254.4062500000,,,
1.3359999978,10,143733.0312500000,123741.9296875000,156978.7656250000,132378.9375000000,117597.1250000000,120138.3828125000,114952.1484375000,132258.2968750000,,,
1.3399999978,10,143720.3750000000,123728.8437500000,156963.9062500000,132359.6093750000,117584.6250000000,120122.1562500000,114942.8906250000,132245.7500000000,,,
1.3439999977,10,143707.4375000000,123720.6093750000,156952.7812500000,132338.1406250000,117570.9765625000,120109.7890625000,114933.7734375000,132237.9843750000,,,
1.3479999979,10,143700.8750000000,123717.6015625000,156947.1718750000,132341.1562500000,117561.6640625000,120114.4609375000,114927.8203125000,132234.7812500000,,,
1.3519999979,10,143706.7500000000,123725.5156250000,156953.0156250000,132342.4843750000,117564.5937500000,120128.7265625000,114934.4140625000,132242.8125000000,,,
1.3559999978,10,143711.9218750000,123728.5234375000,156960.8593750000,132352.6250000000,117570.4375000000,120131.0390625000,114941.1484375000,132246.0156250000,,,
1.3599999978,10,143707.3125000000,123719.1640625000,156959.1718750000,132359.5000000000,117569.5781250000,120119.5859375000,114935.4375000000,132236.5468750000,,,
1.3639999977,10,143706.7187500000,123714.9218750000,156961.1718750000,132371.6718750000,117573.0156250000,120107.4062500000,114929.4531250000,132231.4687500000,,,
1.3679999979,10,143708.6718750000,123714.4375000000,156961.9531250000,132343.1875000000,117574.0078125000,120109.1484375000,114926.4531250000,132231.3593750000,,,
1.3719999979,10,143718.2187500000,123722.8593750000,156967.5625000000,132329.2187500000,117581.2968750000,120120.5468750000,114935.0078125000,132239.8750000000,,,
1.3759999978,10,143725.6875000000,123733.7500000000,156974.6875000000,132349.5781250000,117588.6250000000,120121.2421875000,114938.9218750000,132251.4531250000,,,
1.3799999978,10,143720.5781250000,123731.7421875000,156969.6718750000,132339.9218750000,117585.0312500000,120113.4921875000,114931.6796875000,132249.5312500000,,,
1.3839999977,10,143703.7968750000,123717.9296875000,156952.3281250000,132322.8593750000,117569.6562500000,120106.1484375000,114919.6875000000,132235.9218750000,,,
1.3879999977,10,143705.1093750000,123718.2187500000,156950.1718750000,132336.6406250000,117569.4218750000,120115.2656250000,114921.0546875000,132236.5468750000,,,
1.3919999979,10,143723.2187500000,123732.4609375000,156963.8281250000,132361.5156250000,117583.3906250000,120134.5781250000,114939.8359375000,132251.1093750000,,,
1.3959999979,10,143730.0468750000,123740.6171875000,156969.1406250000,132363.7343750000,117586.9296875000,120145.6250000000,114948.6328125000,132259.0000000000,,,
1.3999999978,10,143730.0468750000,123741.0234375000,156972.0468750000,132360.3593750000,117587.1484375000,120137.3671875000,114950.4843750000,132258.7187500000,,,
1.4039999978,10,143722.0625000000,123731.0937500000,156968.9062500000,132359.5468750000,117581.1093750000,120120.2812500000,114945.2265625000,132248.7812500000,,,
1.4079999977,11,143718.7812500000,123726.0000000000,156968.6093750000,132341.3125000000,117577.0390625000,120124.7890625000,114945.8437500000,132244.1875000000,,,
1.4119999977,11,143724.9062500000,123735.1171875000,156983.5781250000,132379.0156250000,117585.1875000000,120136.2109375000,114949.2500000000,132253.3281250000,,,
1.4159999976,11,143726.1562500000,123741.4218750000,156990.2187500000,132392.2187500000,117589.0234375000,120141.3046875000,114951.5546875000,132260.0468750000,,,
1.4199999976,11,143707.7031250000,123725.1171875000,156969.8593750000,132332.4375000000,117572.2343750000,120127.1484375000,114938.1953125000,132243.5468750000,,,
1.4239999976,11,143702.0156250000,123715.1875000000,156962.0625000000,132315.7968750000,117568.7500000000,120112.1562500000,114933.4218750000,132234.6875000000,,,
1.4279999975,11,143706.8281250000,123716.2109375000,156962.5156250000,132319.5781250000,117571.3203125000,120117.0312500000,114933.0468750000,132236.1718750000,,,
1.4319999977,11,143721.6562500000,123728.4921875000,156971.2343750000,132341.4375000000,117582.7187500000,120134.2031250000,114941.7343750000,132248.3125000000,,,
1.4359999977,11,143738.5781250000,123741.2890625000,156982.9062500000,132367.7812500000,117597.4218750000,120147.5312500000,114956.1406250000,132260.1718750000,,,
1.4399999976,11,143743.4843750000,123742.1171875000,156984.8906250000,132377.5937500000,117601.9765625000,120143.3437500000,114959.9531250000,132261.0937500000,,,
1.4439999976,11,143725.5000000000,123721.2812500000,156964.1875000000,132347.4218750000,117584.6250000000,120120.9765625000,114944.7656250000,132240.3281250000,,,
1.4479999975,11,143714.0468750000,123711.9218750000,156951.4062500000,132327.7656250000,117572.9296875000,120115.7968750000,114933.7968750000,132231.0781250000,,,
1.4519999977,11,143716.6875000000,123718.0078125000,156952.5468750000,132331.4687500000,117575.2421875000,120124.6796875000,114938.0078125000,132237.4218750000,,,
1.4559999977,11,143723.9375000000,123727.6093750000,156961.1250000000,132349.9687500000,117584.6562500000,120134.6328125000,114944.8515625000,132247.2500000000,,,
1.4599999976,11,143723.0468750000,123729.6718750000,156963.6718750000,132365.4531250000,117588.1406250000,120131.5468750000,114946.4296875000,132249.9218750000,,,
1.4639999976,11,143704.5781250000,123713.5546875000,156949.9375000000,132352.7031250000,117574.4843750000,120111.5859375000,114931.6562500000,132233.8281250000,,,
1.4679999975,11,143700.2500000000,123707.8125000000,156944.4687500000,132339.1718750000,117568.8046875000,120106.6250000000,114924.5156250000,132227.8750000000,,,
1.4719999975,11,143709.8281250000,123715.7265625000,156950.7968750000,132349.6250000000,117573.8984375000,120117.9453125000,114931.7031250000,132236.2187500000,,,
1.4759999977,11,143721.3906250000,123727.9296875000,156963.4062500000,132355.0468750000,117582.7734375000,120131.9453125000,114939.5390625000,132248.7187500000,,,
1.4799999977,11,143721.0625000000,123728.6015625000,156965.4218750000,132356.9218750000,117583.5234375000,120130.4687500000,114936.2968750000,132249.2031250000,,,
1.4839999976,11,143718.0312500000,123724.4687500000,156964.2812500000,132355.9062500000,117580.3359375000,120124.9218750000,114931.7578125000,132245.3906250000,,,
1.4879999976,11,143713.4218750000,123719.5390625000,156960.9375000000,132357.5312500000,117575.6171875000,120124.0312500000,114926.0468750000,132240.5625000000,,,
1.4919999975,11,143719.1093750000,123726.2656250000,156968.2812500000,132376.0937500000,117581.8906250000,120133.3671875000,114931.4140625000,132248.3125000000,,,
1.4959999977,11,143719.2656250000,123731.6328125000,156969.3593750000,132380.7656250000,117582.6406250000,120137.2578125000,114935.9140625000,132253.6562500000,,,
1.4999999977,11,143713.8750000000,123733.0312500000,156965.5781250000,132399.8906250000,117579.6875000000,120132.6953125000,114932.3750000000,132255.0000000000,,,
1.5039999976,11,143699.6406250000,123723.7187500000,156951.9218750000,132372.4218750000,117567.1640625000,120121.2734375000,114921.6484375000,132245.5312500000,,,
1.5079999976,11,143681.6875000000,123705.2109375000,156930.2500000000,132309.5468750000,117548.7656250000,120104.8593750000,114908.5312500000,132226.8281250000,,,
1.5119999975,11,143688.6406250000,123706.7968750000,156935.0781250000,132320.8750000000,117556.9453125000,120107.7812500000,114912.3125000000,132228.2500000000,,,
1.5159999975,11,143699.4687500000,123712.8828125000,156943.8281250000,132334.3906250000,117569.4453125000,120118.8046875000,114921.9140625000,132234.9062500000,,,
1.5199999977,11,143699.7500000000,123711.4062500000,156943.0156250000,132331.5937500000,117569.1796875000,120116.7421875000,114927.4453125000,132233.8125000000,,,
1.5239999976,11,143694.7031250000,123707.0625000000,156938.2968750000,132330.0781250000,117560.9687500000,120113.3593750000,114925.2968750000,132229.3281250000,,,
1.5279999976,11,143692.4218750000,123705.3203125000,156937.2187500000,132324.1406250000,117552.3593750000,120113.9765625000,114919.2109375000,132227.1875000000,,,
1.5319999976,11,143708.9687500000,123719.2656250000,156953.4531250000,132337.7968750000,117562.7968750000,120127.7109375000,114928.1953125000,132241.1562500000,,,
1.5359999975,12,143712.9687500000,123721.4687500000,156956.5312500000,132340.7968750000,117564.0000000000,120129.8281250000,114928.1640625000,132242.3125000000,,,
1.5399999975,12,143707.5156250000,123714.3593750000,156949.1562500000,132337.5000000000,117560.2421875000,120121.0859375000,114924.8671875000,132235.0468750000,,,
1.5439999974,12,143699.6093750000,123705.2968750000,156937.8125000000,132324.5937500000,117555.1484375000,120108.2109375000,114920.6796875000,132226.5156250000,,,
1.5479999974,12,143700.1406250000,123706.3906250000,156937.5781250000,132327.9062500000,117557.4531250000,120111.4531250000,114921.8125000000,132227.3906250000,,,
1.5519999973,12,143706.9843750000,123716.4531250000,156946.5625000000,132343.7031250000,117565.0703125000,120121.5703125000,114926.7187500000,132237.3437500000,,,
1.5559999973,12,143719.7187500000,123726.6718750000,156958.2031250000,132358.2343750000,117577.5468750000,120133.5546875000,114942.3046875000,132248.1562500000,,,
1.5599999975,12,143717.9531250000,123723.1015625000,156955.8906250000,132345.6093750000,117577.3593750000,120131.3046875000,114940.6093750000,132244.6406250000,,,
1.5639999975,12,143713.5312500000,123716.7968750000,156949.9687500000,132326.2968750000,117573.2812500000,120121.1093750000,114936.7734375000,132237.6093750000,,,
1.5679999974,12,143714.4218750000,123715.9453125000,156947.1718750000,132331.6562500000,117572.8515625000,120126.5859375000,114941.5234375000,132237.4062500000,,,
1.5719999974,12,143727.0781250000,123729.1640625000,156958.5000000000,132355.5781250000,117585.3515625000,120153.8906250000,114963.0859375000,132250.9687500000,,,
1.5759999973,12,143739.8437500000,123742.0703125000,156970.4531250000,132370.2812500000,117597.0156250000,120175.2890625000,114977.9453125000,132263.3906250000,,,
1.5799999975,12,143742.7968750000,123746.2265625000,156974.5312500000,132377.6250000000,117599.7265625000,120183.3906250000,114985.3750000000,132268.4062500000,,,
1.5839999975,12,143739.3593750000,123746.4375000000,156971.4687500000,132363.4375000000,117596.8281250000,120188.4609375000,114990.9843750000,132268.8437500000,,,
1.5879999974,12,143731.8281250000,123741.6640625000,156962.5937500000,132329.0468750000,117586.6640625000,120191.9765625000,114988.7578125000,132263.4687500000,,,
1.5919999974,12,143746.9531250000,123756.9531250000,156976.7343750000,132333.2031250000,117599.2734375000,120215.5234375000,115003.9687500000,132277.9375000000,,,
1.5959999973,12,143758.5156250000,123768.1640625000,156985.1250000000,132333.3437500000,117607.3984375000,120241.0312500000,115017.2421875000,132288.4687500000,,,
1.5999999973,12,143758.6718750000,123765.4296875000,156981.1093750000,132331.5468750000,117605.1171875000,120244.6562500000,115019.8671875000,132285.2500000000,,,
1.6039999975,12,143750.2187500000,123753.3593750000,156968.8281250000,132316.7187500000,117597.8203125000,120236.5546875000,115012.8984375000,132272.9218750000,,,
1.6079999974,12,143749.6875000000,123743.3046875000,156960.9843750000,132306.9843750000,117597.4765625000,120235.3984375000,115015.7656250000,132263.1562500000,,,
1.6119999974,12,143763.2812500000,123748.1328125000,156968.8750000000,132315.0468750000,117609.0312500000,120245.6171875000,115031.4062500000,132267.9843750000,,,
1.6159999974,12,143776.7031250000,123760.8437500000,156982.9062500000,132334.3593750000,117622.0703125000,120261.9843750000,115042.9375000000,132280.6406250000,,,
1.6199999973,12,143774.9531250000,123761.9140625000,156983.5937500000,132335.1406250000,117620.1406250000,120265.8671875000,115045.1406250000,132281.9062500000,,,
1.6239999975,12,143769.3437500000,123761.2421875000,156980.4843750000,132334.7656250000,117614.2656250000,120261.0390625000,115042.9921875000,132280.7500000000,,,
1.6279999975,12,143768.0625000000,123766.5000000000,156983.7812500000,132342.2968750000,117613.6484375000,120266.2187500000,115043.0703125000,132286.2968750000,,,
1.6319999974,12,143774.8125000000,123778.1406250000,156996.5312500000,132362.0156250000,117620.8125000000,120274.1015625000,115047.5000000000,132297.5937500000,,,
1.6359999974,12,143785.0937500000,123793.6171875000,157013.5312500000,132382.7500000000,117632.8281250000,120276.8671875000,115052.5390625000,132313.1406250000,,,
1.6399999973,12,143772.4843750000,123783.7187500000,157003.0781250000,132368.4843750000,117621.4531250000,120261.7421875000,115038.5937500000,132304.0781250000,,,
1.6439999973,12,143754.9687500000,123765.3203125000,156984.8281250000,132353.5156250000,117605.0937500000,120239.3125000000,115018.1250000000,132285.7968750000,,,
1.6479999975,12,143746.8750000000,123754.2968750000,156974.7812500000,132349.3593750000,117598.6250000000,120224.2187500000,115007.4765625000,132275.0000000000,,,
1.6519999974,12,143739.1718750000,123742.0703125000,156964.1562500000,132347.1250000000,117593.1328125000,120209.0078125000,114998.0078125000,132262.8593750000,,,
1.6559999974,12,143748.9843750000,123746.8671875000,156975.1562500000,132381.8906250000,117605.9765625000,120204.6093750000,114996.9609375000,132269.0000000000,,,
1.6599999974,12,143744.7812500000,123740.2187500000,156971.0468750000,132379.2656250000,117603.5625000000,120188.2187500000,114983.9062500000,132262.7968750000,,,
1.6639999973,13,143732.0156250000,123727.4765625000,156956.2968750000,132361.2187500000,117590.7421875000,120170.5468750000,114968.2890625000,132249.0625000000,,,
1.6679999973,13,143732.5937500000,123731.6875000000,156957.0937500000,132360.9687500000,117589.4531250000,120171.1093750000,114963.7578125000,132252.7656250000,,,
1.6719999972,13,143735.2343750000,123738.7421875000,156959.9218750000,132340.5625000000,117589.5625000000,120174.1406250000,114962.2812500000,132259.7187500000,,,
1.6759999972,13,143747.1875000000,123751.6171875000,156974.6406250000,132340.5000000000,117602.3828125000,120182.5078125000,114977.6796875000,132272.8281250000,,,
1.6799999971,13,143748.6093750000,123756.2812500000,156980.4687500000,132328.5156250000,117605.1718750000,120182.2890625000,114983.2578125000,132277.4218750000,,,
1.6839999971,13,143736.3750000000,123746.6250000000,156971.0937500000,132303.9687500000,117592.4609375000,120167.8906250000,114971.9375000000,132268.2500000000,,,
1.6879999973,13,143727.9843750000,123739.6250000000,156964.6875000000,132316.6562500000,117584.7890625000,120159.0078125000,114957.6953125000,132261.4375000000,,,
1.6919999972,13,143728.2031250000,123739.7890625000,156964.2343750000,132336.0781250000,117585.0000000000,120165.3437500000,114954.2343750000,132261.8125000000,,,
1.6959999972,13,143731.2656250000,123739.6015625000,156963.6718750000,132341.4375000000,117587.9531250000,120168.5078125000,114957.9140625000,132262.1093750000,,,
1.6999999972,13,143731.0781250000,123736.9140625000,156962.8593750000,132342.7031250000,117590.1015625000,120159.0937500000,114955.5234375000,132259.8281250000,,,
1.7039999971,13,143724.0156250000,123726.4843750000,156953.6718750000,132331.7343750000,117582.3203125000,120140.3125000000,114946.4843750000,132248.9375000000,,,
1.7079999973,13,143722.7343750000,123721.6250000000,156948.5468750000,132327.5468750000,117578.5390625000,120131.4375000000,114943.7500000000,132243.6718750000,,,
1.7119999973,13,143738.5781250000,123737.5312500000,156964.0156250000,132347.4843750000,117592.5625000000,120145.4921875000,114960.5937500000,132259.6875000000,,,
1.7159999972,13,143747.8125000000,123752.9531250000,156978.8281250000,132354.1250000000,117601.1718750000,120161.3984375000,114970.3046875000,132275.0312500000,,,
1.7199999972,13,143740.3750000000,123758.0234375000,156981.2968750000,132351.6093750000,117595.6250000000,120156.5468750000,114962.1250000000,132280.6093750000,,,
1.7239999971,13,143722.2812500000,123749.9296875000,156968.8281250000,132333.6406250000,117579.8281250000,120140.6093750000,114947.5546875000,132272.5156250000,,,
1.7279999971,13,143717.1718750000,123747.0312500000,156964.2343750000,132332.6406250000,117574.6250000000,120138.0390625000,114943.8281250000,132268.8437500000,,,
1.7319999973,13,143718.8437500000,123744.3203125000,156960.7500000000,132338.0312500000,117575.2656250000,120144.0468750000,114948.0937500000,132266.0156250000,,,
1.7359999972,13,143724.2031250000,123745.1250000000,156963.2343750000,132342.9218750000,117580.0390625000,120150.5312500000,114953.0000000000,132267.4375000000,,,
1.7399999972,13,143721.7968750000,123738.4218750000,156960.5937500000,132343.3750000000,117579.2109375000,120136.8046875000,114948.1250000000,132261.3750000000,,,
1.7439999972,13,143718.1093750000,123732.5468750000,156957.2031250000,132351.9531250000,117578.2187500000,120128.8593750000,114940.6093750000,132255.3437500000,,,
1.7479999971,13,143720.2343750000,123732.4140625000,156957.2812500000,132352.4218750000,117581.1953125000,120128.9453125000,114938.7890625000,132254.7343750000,,,
1.7519999973,13,143720.0468750000,123728.6015625000,156953.0468750000,132319.2343750000,117579.3437500000,120129.4531250000,114940.2656250000,132250.9687500000,,,
1.7559999973,13,143726.1093750000,123733.8359375000,156957.1562500000,132314.1406250000,117583.7656250000,120137.3906250000,114946.5937500000,132256.9531250000,,,
1.7599999972,13,143722.2968750000,123730.4765625000,156950.4531250000,132305.8593750000,117577.2734375000,120130.8984375000,114943.2421875000,132253.4218750000,,,
1.7639999972,13,143715.2968750000,123725.2500000000,156944.0625000000,132304.7812500000,117569.4453125000,120119.1015625000,114941.7656250000,132247.7343750000,,,
1.7679999971,13,143717.3125000000,123728.7109375000,156947.7656250000,132319.1562500000,117570.9218750000,120122.5625000000,114949.5468750000,132250.7343750000,,,
1.7719999971,13,143723.7500000000,123737.8046875000,156958.1718750000,132339.5937500000,117577.5468750000,120136.0781250000,114952.0625000000,132260.5000000000,,,
1.7759999973,13,143723.4843750000,123736.7031250000,156957.8281250000,132329.4218750000,117576.7421875000,120138.3281250000,114949.8125000000,132260.3593750000,,,
1.7799999972,13,143720.4531250000,123729.9453125000,156953.3906250000,132324.0625000000,117573.2500000000,120125.2421875000,114944.4453125000,132253.6093750000,,,
1.7839999972,13,143707.7343750000,123717.5000000000,156941.3593750000,132319.1250000000,117560.4609375000,120106.7578125000,114929.9375000000,132240.6406250000,,,
1.7879999971,13,143704.8125000000,123717.1250000000,156939.0468750000,132322.9375000000,117557.6718750000,120108.8281250000,114927.8750000000,132239.9218750000,,,
1.7919999971,14,143713.2031250000,123727.1015625000,156945.8125000000,132332.2500000000,117564.3750000000,120123.3906250000,114933.7187500000,132250.0312500000,,,
1.7959999971,14,143716.3125000000,123730.2890625000,156946.6093750000,132334.7968750000,117567.4296875000,120128.5937500000,114933.1015625000,132253.7031250000,,,
1.7999999970,14,143715.2968750000,123726.5078125000,156943.6875000000,132325.8593750000,117568.8281250000,120122.4531250000,114934.0703125000,132250.2031250000,,,
1.8039999970,14,143706.9531250000,123713.7734375000,156932.3125000000,132322.9375000000,117561.1562500000,120111.4296875000,114926.6875000000,132237.2343750000,,,
1.8079999969,14,143706.0000000000,123707.8984375000,156927.6562500000,132335.0000000000,117558.7968750000,120111.9921875000,114925.1875000000,132231.1718750000,,,
1.8119999969,14,143717.7343750000,123716.1562500000,156938.0312500000,132343.8125000000,117568.6953125000,120128.0546875000,114936.0234375000,132239.3906250000,,,
1.8159999971,14,143728.6875000000,123729.8125000000,156952.2187500000,132361.0000000000,117580.7109375000,120140.1250000000,114946.0546875000,132252.0937500000,,,
1.8199999970,14,143716.6718750000,123726.1093750000,156944.3281250000,132317.6562500000,117568.9921875000,120130.6328125000,114941.4140625000,132248.1250000000,,,
1.8239999970,14,143695.9062500000,123713.5312500000,156930.4375000000,132285.2031250000,117549.1171875000,120113.4921875000,114926.9062500000,132235.9062500000,,,
1.8279999970,14,143692.6406250000,123718.8125000000,156935.7500000000,132305.6406250000,117548.2031250000,120116.4687500000,114924.3828125000,132240.4531250000,,,
1.8319999969,14,143703.2500000000,123733.6171875000,156950.8281250000,132351.6875000000,117558.3906250000,120130.4687500000,114928.6718750000,132254.8906250000,,,
1.8359999971,14,143718.3593750000,123744.1562500000,156960.8593750000,132349.6250000000,117571.5078125000,120144.1250000000,114940.1250000000,132265.4531250000,,,
1.8399999971,14,143713.7968750000,123734.5312500000,156950.6406250000,132309.5468750000,117567.5390625000,120142.4609375000,114934.8437500000,132255.7812500000,,,
1.8439999970,14,143707.9843750000,123722.0078125000,156940.5781250000,132293.4375000000,117562.2031250000,120132.7812500000,114930.1484375000,132243.5937500000,,,
1.8479999970,14,143709.5937500000,123715.5390625000,156937.5937500000,132295.6562500000,117562.7109375000,120126.9843750000,114932.0000000000,132237.1406250000,,,
1.8519999969,14,143714.7656250000,123714.3046875000,156938.1562500000,132301.9687500000,117566.8203125000,120124.7343750000,114933.5859375000,132236.0937500000,,,
1.8559999969,14,143717.7187500000,123715.7812500000,156937.7031250000,132296.8593750000,117569.3125000000,120124.0625000000,114936.2656250000,132237.7812500000,,,
1.8599999971,14,143707.6562500000,123711.6796875000,156929.4531250000,132294.0312500000,117560.7265625000,120120.7109375000,114929.8281250000,132233.7500000000,,,
1.8639999970,14,143690.8437500000,123700.7578125000,156915.7343750000,132289.6718750000,117546.0859375000,120113.9765625000,114914.8125000000,132221.6562500000,,,
1.8679999970,14,143684.3437500000,123697.0859375000,156911.7656250000,132296.3281250000,117541.6328125000,120114.6484375000,114906.7656250000,132217.5000000000,,,
1.8719999969,14,143691.3281250000,123702.3671875000,156918.3906250000,132302.9062500000,117547.9062500000,120124.3828125000,114910.7890625000,132222.9375000000,,,
1.8759999969,14,143697.8593750000,123709.7500000000,156923.9687500000,132307.2187500000,117552.6250000000,120133.5859375000,114916.8437500000,132230.6406250000,,,
1.8799999971,14,143703.3593750000,123718.7578125000,156932.2031250000,132334.1250000000,117557.3750000000,120140.8515625000,114922.8281250000,132239.3593750000,,,
1.8839999971,14,143701.7031250000,123717.6875000000,156935.3437500000,132358.1250000000,117557.3750000000,120139.0000000000,114920.4140625000,132239.0625000000,,,
1.8879999970,14,143691.4843750000,123705.5078125000,156924.4531250000,132318.2187500000,117546.2968750000,120132.9687500000,114912.8203125000,132226.8593750000,,,
1.8919999970,14,143698.1562500000,123709.2343750000,156929.9531250000,132300.5937500000,117551.8515625000,120141.1171875000,114917.7578125000,132231.0781250000,,,
1.8959999969,14,143701.2500000000,123713.1015625000,156933.3281250000,132295.0468750000,117555.0937500000,120147.1015625000,114920.7343750000,132234.9687500000,,,
1.8999999969,14,143688.5625000000,123699.0156250000,156919.4375000000,132280.4218750000,117544.1484375000,120133.3671875000,114911.1328125000,132221.0625000000,,,
1.9039999971,14,143693.9531250000,123700.5468750000,156920.4062500000,132284.7968750000,117551.9531250000,120134.9531250000,114917.6015625000,132222.4375000000,,,
1.9079999970,14,143693.6875000000,123694.2734375000,156913.4843750000,132289.4843750000,117552.1484375000,120131.7031250000,114912.4765625000,132216.4531250000,,,
1.9119999970,14,143704.6250000000,123703.2031250000,156920.8125000000,132310.1093750000,117562.6562500000,120144.2578125000,114918.5390625000,132225.8437500000,,,
1.9159999969,14,143720.7656250000,123722.8906250000,156937.7031250000,132342.9218750000,117579.2656250000,120164.5625000000,114932.9921875000,132246.3906250000,,,
1.9199999969,15,143718.0937500000,123724.0390625000,156937.7812500000,132344.4687500000,117575.6640625000,120161.0468750000,114932.3750000000,132247.8281250000,,,
1.9239999969,15,143695.3750000000,123702.1562500000,156915.3593750000,132295.2343750000,117551.3437500000,120140.0468750000,114914.1406250000,132225.6562500000,,,
1.9279999968,15,143683.8906250000,123690.4843750000,156903.9843750000,132267.4375000000,117538.3281250000,120132.3515625000,114906.0937500000,132213.7187500000,,,
1.9319999968,15,143695.6875000000,123702.8515625000,156917.6718750000,132281.9062500000,117549.7812500000,120146.7812500000,114919.7421875000,132226.4531250000,,,
1.9359999967,15,143704.5156250000,123713.6640625000,156928.4843750000,132297.1406250000,117558.3671875000,120158.8515625000,114928.7578125000,132237.1406250000,,,
1.9399999967,15,143702.0000000000,123713.3671875000,156926.5781250000,132304.6250000000,117555.0390625000,120156.5703125000,114926.7421875000,132236.9687500000,,,
1.9439999969,15,143699.9375000000,123711.6796875000,156925.3125000000,132307.2812500000,117552.9531250000,120150.2109375000,114924.1406250000,132235.4218750000,,,
1.9479999968,15,143705.3281250000,123716.9375000000,156931.3281250000,132304.5312500000,117557.5859375000,120153.2187500000,114926.4531250000,132241.1250000000,,,
1.9519999968,15,143714.5000000000,123723.2343750000,156939.2968750000,132312.4531250000,117566.2265625000,120158.7656250000,114932.0312500000,132247.3593750000,,,
1.9559999967,15,143732.2031250000,123734.8281250000,156955.7812500000,132329.2656250000,117585.6718750000,120167.7031250000,114948.2031250000,132258.6250000000,,,
1.9599999967,15,143727.8750000000,123727.1250000000,156951.3125000000,132326.7656250000,117582.9921875000,120160.4843750000,114941.9765625000,132250.7343750000,,,
1.9639999969,15,143712.1406250000,123712.9140625000,156933.5781250000,132298.0468750000,117568.0781250000,120148.2578125000,114929.3203125000,132235.9843750000,,,
1.9679999969,15,143706.5781250000,123708.5937500000,156925.1875000000,132287.3750000000,117560.4843750000,120147.8281250000,114925.0000000000,132230.7500000000,,,
1.9719999968,15,143718.7656250000,123721.0390625000,156932.5625000000,132291.7656250000,117568.3750000000,120163.0625000000,114936.3750000000,132242.4687500000,,,
1.9759999968,15,143725.7343750000,123726.1875000000,156934.0625000000,132302.6875000000,117572.4453125000,120171.6718750000,114945.4140625000,132247.0781250000,,,
1.9799999967,15,143725.5156250000,123722.4062500000,156931.2656250000,132305.6718750000,117572.0468750000,120173.8671875000,114948.2031250000,132243.8906250000,,,
1.9839999967,15,143721.0625000000,123714.0390625000,156928.4218750000,132306.9218750000,117569.2031250000,120165.0703125000,114943.3203125000,132235.9062500000,,,
1.9879999969,15,143715.7343750000,123706.6875000000,156924.2187500000,132298.1250000000,117563.8906250000,120162.3359375000,114936.9375000000,132227.7656250000,,,
1.9919999968,15,143720.7656250000,123716.0468750000,156933.2500000000,132293.6250000000,117567.6250000000,120173.0156250000,114939.6484375000,132238.0781250000,,,
1.9959999968,15,143730.0781250000,123733.2656250000,156950.0468750000,132318.7812500000,117577.7031250000,120184.7578125000,114947.5078125000,132256.4218750000,,,
1.9999999967,15,143725.0937500000,123735.5781250000,156949.7500000000,132320.7187500000,117573.8671875000,120182.4296875000,114944.3671875000,132258.8125000000,,,
2.0039999967,15,143715.2187500000,123726.5078125000,156939.3437500000,132304.5625000000,117566.4921875000,120175.0781250000,114941.8984375000,132249.6562500000,,,
2.0079999969,15,143700.4687500000,123709.8828125000,156920.8125000000,132290.2187500000,117551.7421875000,120160.9687500000,114927.9531250000,132232.8125000000,,,
2.0119999968,15,143706.2812500000,123713.6328125000,156924.0625000000,132302.7343750000,117557.5625000000,120163.5937500000,114929.7734375000,132236.1406250000,,,
2.0159999968,15,143713.5625000000,123720.0468750000,156930.6875000000,132313.5468750000,117565.3125000000,120171.5390625000,114937.7656250000,132242.7656250000,,,
2.0199999968,15,143716.4218750000,123722.8906250000,156933.6875000000,132325.0781250000,117569.7968750000,120173.3359375000,114938.7343750000,132245.2812500000,,,
2.0239999967,15,143705.8281250000,123713.5000000000,156923.2812500000,132316.1718750000,117562.1484375000,120160.5390625000,114927.9531250000,132235.5312500000,,,
2.0279999967,15,143700.7968750000,123705.9609375000,156914.8750000000,132312.3906250000,117556.7812500000,120155.8984375000,114924.1171875000,132227.5312500000,,,
2.0319999969,15,143715.9375000000,123717.7968750000,156929.2031250000,132336.5312500000,117569.3906250000,120172.4765625000,114935.9687500000,132239.0312500000,,,
2.0359999968,15,143730.6406250000,123732.3046875000,156944.9531250000,132317.6875000000,117582.3750000000,120188.7578125000,114951.2343750000,132252.8281250000,,,
2.0399999968,15,143730.3437500000,123730.8828125000,156946.8281250000,132300.9687500000,117581.0312500000,120184.0859375000,114955.1250000000,132252.2031250000,,,
2.0439999967,15,143717.6406250000,123718.7343750000,156938.9218750000,132292.4218750000,117569.2031250000,120169.5546875000,114945.2265625000,132239.9531250000,,,
2.0479999967,16,143708.1406250000,123712.5859375000,156934.1718750000,132291.0937500000,117560.4296875000,120158.7656250000,114932.6953125000,132233.7812500000,,,
2.0519999966,16,143716.2968750000,123723.8281250000,156941.8125000000,132310.3906250000,117567.5703125000,120167.6171875000,114940.7734375000,132244.9687500000,,,
2.0559999966,16,143725.5468750000,123732.1718750000,156945.0625000000,132319.7656250000,117575.0781250000,120182.1015625000,114952.3828125000,132253.3906250000,,,
2.0599999966,16,143721.0156250000,123724.6562500000,156936.0156250000,132306.6250000000,117571.3203125000,120178.5078125000,114949.5156250000,132246.0625000000,,,
2.0639999965,16,143717.1562500000,123719.5390625000,156932.0156250000,132307.0781250000,117569.5000000000,120172.7968750000,114943.7265625000,132241.1093750000,,,
2.0679999965,16,143711.8437500000,123712.5625000000,156926.9218750000,132306.8750000000,117563.7578125000,120168.9921875000,114935.2187500000,132233.8125000000,,,
2.0719999967,16,143707.0312500000,123704.5468750000,156919.9218750000,132298.2656250000,117557.9921875000,120164.5937500000,114929.9062500000,132226.4843750000,,,
2.0759999966,16,143712.1875000000,123708.6484375000,156921.7968750000,132289.8906250000,117560.8906250000,120169.3906250000,114935.7812500000,132230.9843750000,,,
2.0799999966,16,143713.2656250000,123709.6640625000,156922.8281250000,132299.4687500000,117562.3906250000,120166.0937500000,114937.0468750000,132231.5000000000,,,
2.0839999965,16,143709.2343750000,123706.0468750000,156919.1250000000,132299.9531250000,117558.8750000000,120157.9609375000,114936.0000000000,132227.8750000000,,,
2.0879999965,16,143704.0312500000,123700.3828125000,156914.6718750000,132281.0468750000,117552.8437500000,120152.7578125000,114931.6796875000,132222.0000000000,,,
2.0919999967,16,143713.6875000000,123708.2734375000,156928.0000000000,132281.5468750000,117561.7968750000,120161.8515625000,114940.7421875000,132229.3750000000,,,
2.0959999966,16,143720.1250000000,123717.0156250000,156943.6875000000,132301.2187500000,117570.9218750000,120169.6562500000,114947.6093750000,132239.1406250000,,,
2.0999999966,16,143718.2968750000,123719.4843750000,156949.1093750000,132312.0156250000,117573.8671875000,120169.3906250000,114947.2890625000,132241.5312500000,,,
2.1039999966,16,143707.5000000000,123715.3281250000,156939.9375000000,132299.7968750000,117564.7500000000,120164.7265625000,114938.5468750000,132236.7031250000,,,
2.1079999965,16,143698.2656250000,123711.3593750000,156928.8906250000,132282.7656250000,117553.0859375000,120161.3437500000,114926.4765625000,132232.4062500000,,,
2.1119999965,16,143707.6875000000,123719.4296875000,156935.3750000000,132291.4218750000,117560.1875000000,120167.9140625000,114928.9687500000,132240.9687500000,,,
2.1159999967,16,143725.2187500000,123734.0234375000,156950.3125000000,132302.1562500000,117577.4140625000,120181.1406250000,114941.2265625000,132255.7500000000,,,
2.1199999966,16,143731.6562500000,123737.7734375000,156954.7343750000,132316.4218750000,117585.9375000000,120180.3593750000,114944.9296875000,132259.6406250000,,,
2.1239999966,16,143718.3281250000,123723.3750000000,156939.2656250000,132311.8125000000,117575.0781250000,120160.7031250000,114934.3906250000,132245.3125000000,,,
2.1279999965,16,143713.2656250000,123717.8750000000,156932.5312500000,132316.4531250000,117570.7890625000,120151.4765625000,114931.9765625000,132239.5156250000,,,
2.1319999965,16,143722.1093750000,123725.8359375000,156938.7031250000,132319.0000000000,117576.4687500000,120161.8515625000,114939.1875000000,132247.2656250000,,,
2.1359999967,16,143726.6250000000,123727.7187500000,156939.7187500000,132294.7812500000,117578.2421875000,120173.1171875000,114942.4062500000,132249.0468750000,,,
2.1399999966,16,143715.4843750000,123715.5390625000,156929.6562500000,132285.7968750000,117567.2734375000,120163.6484375000,114932.9375000000,132237.0312500000,,,
2.1439999966,16,143704.5781250000,123702.6953125000,156919.7656250000,132279.0312500000,117556.9765625000,120148.9218750000,114925.4062500000,132225.0625000000,,,
2.1479999966,16,143697.5156250000,123698.0000000000,156913.7500000000,132275.1406250000,117549.2187500000,120143.7734375000,114919.0468750000,132220.2968750000,,,
2.1519999965,16,143698.3281250000,123702.7187500000,156915.4687500000,132274.0468750000,117547.8515625000,120151.4765625000,114922.8046875000,132224.7187500000,,,
2.1559999965,16,143702.3750000000,123709.1015625000,156920.0312500000,132263.3906250000,117550.0781250000,120160.0859375000,114928.0625000000,132231.5625000000,,,
2.1599999967,16,143705.4062500000,123713.5312500000,156924.7500000000,132269.8281250000,117553.6718750000,120161.6093750000,114930.2812500000,132236.8125000000,,,
2.1639999966,16,143699.0781250000,123707.7109375000,156922.0468750000,132274.7656250000,117549.5703125000,120148.7343750000,114921.8906250000,132231.5312500000,,,
2.1679999966,16,143699.5312500000,123707.6015625000,156922.6406250000,132271.3125000000,117549.6250000000,120148.5000000000,114922.4531250000,132230.6093750000,,,
2.1719999965,16,143716.5625000000,123722.1640625000,156937.0312500000,132280.1093750000,117563.4921875000,120166.8125000000,114938.7578125000,132244.8593750000,,,
2.1759999965,17,143730.5625000000,123732.5156250000,156947.4375000000,132296.9218750000,117574.7812500000,120182.3984375000,114949.8359375000,132255.1250000000,,,
2.1799999964,17,143727.3750000000,123728.3906250000,156942.3437500000,132303.8750000000,117571.2187500000,120180.6562500000,114945.4921875000,132250.6718750000,,,
2.1839999964,17,143720.0000000000,123722.6250000000,156936.3906250000,132293.8281250000,117563.9765625000,120171.4062500000,114939.0312500000,132245.2812500000,,,
2.1879999964,17,143717.8437500000,123720.4453125000,156934.0937500000,132282.3593750000,117562.4140625000,120171.7812500000,114933.7734375000,132242.9531250000,,,
2.1919999963,17,143719.9687500000,123722.2187500000,156934.4843750000,132295.4375000000,117563.8125000000,120179.0234375000,114931.3046875000,132244.8906250000,,,
2.1959999963,17,143728.0156250000,123729.6250000000,156941.0312500000,132312.1250000000,117570.4375000000,120188.9140625000,114938.0625000000,132252.7187500000,,,
2.1999999965,17,143723.3125000000,123725.2500000000,156936.9062500000,132297.9062500000,117566.3359375000,120185.3203125000,114935.4609375000,132248.2968750000,,,
2.2039999964,17,143709.1093750000,123709.4765625000,156923.2968750000,132294.3750000000,117555.1718750000,120171.4296875000,114925.0546875000,132232.5937500000,,,
2.2079999964,17,143711.4062500000,123707.9531250000,156924.1562500000,132308.3750000000,117557.5859375000,120172.5312500000,114931.4375000000,132231.2656250000,,,
2.2119999963,17,143717.0468750000,123708.8906250000,156925.9062500000,132295.2343750000,117563.3281250000,120180.9765625000,114942.3828125000,132232.1718750000,,,
2.2159999963,17,143720.8281250000,123708.1093750000,156926.4687500000,132285.7968750000,117568.3437500000,120188.4062500000,114948.3359375000,132230.9843750000,,,
2.2199999965,17,143713.3125000000,123699.3671875000,156919.4687500000,132273.9843750000,117562.1250000000,120180.6015625000,114941.9296875000,132222.7343750000,,,
2.2239999964,17,143704.4375000000,123693.2500000000,156912.3281250000,132251.6406250000,117555.0390625000,120171.5078125000,114934.2578125000,132216.1093750000,,,
2.2279999964,17,143692.2343750000,123686.8906250000,156904.0156250000,132240.3750000000,117543.9140625000,120163.3828125000,114923.9296875000,132209.5000000000,,,
2.2319999964,17,143698.0468750000,123699.5781250000,156913.4531250000,132256.9218750000,117548.1484375000,120173.2500000000,114926.9296875000,132222.7500000000,,,
2.2359999963,17,143713.1562500000,123718.3281250000,156931.1875000000,132276.3437500000,117562.2578125000,120186.6406250000,114937.3125000000,132241.9375000000,,,
2.2399999963,17,143715.9687500000,123723.4218750000,156935.6093750000,132278.4687500000,117565.7968750000,120182.6953125000,114941.2031250000,132246.5468750000,,,
2.2439999965,17,143710.3125000000,123718.0625000000,156929.6562500000,132274.7187500000,117559.4375000000,120175.3984375000,114934.9218750000,132241.3750000000,,,
2.2479999964,17,143711.3906250000,123717.1484375000,156927.8437500000,132270.7343750000,117558.5000000000,120178.9140625000,114934.0390625000,132240.2656250000,,,
2.2519999964,17,143719.2968750000,123723.8828125000,156932.5312500000,132279.3593750000,117564.4843750000,120189.9062500000,114938.9765625000,132247.0781250000,,,
2.2559999963,17,143730.5937500000,123730.9375000000,156939.0000000000,132292.5000000000,117573.1171875000,120198.8671875000,114949.3828125000,132254.8593750000,,,
2.2599999963,17,143729.6250000000,123725.8671875000,156936.6093750000,132291.3750000000,117572.1250000000,120188.4921875000,114949.4062500000,132250.5781250000,,,
2.2639999965,17,143720.9531250000,123716.3750000000,156931.7187500000,132293.1093750000,117565.3671875000,120171.9375000000,114939.9921875000,132241.0000000000,,,
2.2679999964,17,143712.7031250000,123706.2578125000,156925.2812500000,132292.0312500000,117558.1250000000,120163.5156250000,114931.8437500000,132230.8906250000,,,
2.2719999964,17,143725.0625000000,123717.9296875000,156939.0468750000,132304.6718750000,117570.1953125000,120175.1328125000,114943.1093750000,132241.9375000000,,,
2.2759999963,17,143735.7656250000,123731.6328125000,156951.6562500000,132320.6250000000,117580.5234375000,120187.3359375000,114952.6015625000,132256.0156250000,,,
2.2799999963,17,143721.4687500000,123721.4375000000,156939.0156250000,132282.7031250000,117567.5937500000,120177.6015625000,114942.0078125000,132245.6406250000,,,
2.2839999963,17,143699.1875000000,123704.3828125000,156921.2656250000,132256.2031250000,117548.9765625000,120155.0937500000,114922.9921875000,132228.8750000000,,,
2.2879999964,17,143691.7031250000,123698.9921875000,156917.6406250000,132259.5000000000,117543.7187500000,120149.6484375000,114918.4062500000,132223.3281250000,,,
2.2919999964,17,143695.5000000000,123704.6796875000,156923.8437500000,132267.2812500000,117547.5859375000,120163.8906250000,114926.4765625000,132228.5000000000,,,
2.2959999964,17,143703.7656250000,123711.6796875000,156932.1093750000,132273.1875000000,117555.7109375000,120181.4609375000,114937.4765625000,132235.9843750000,,,
2.2999999963,17,143712.4531250000,123718.2187500000,156942.8593750000,132301.2187500000,117565.7421875000,120186.0234375000,114942.5156250000,132243.1093750000,,,
2.3039999963,18,143712.5937500000,123715.0859375000,156943.0156250000,132302.0156250000,117564.8281250000,120174.2734375000,114939.2187500000,132240.6718750000,,,
2.3079999962,18,143697.2500000000,123696.2031250000,156923.8750000000,132248.5312500000,117546.9687500000,120160.3281250000,114920.7656250000,132221.7343750000,,,
2.3119999962,18,143703.5000000000,123696.5781250000,156926.2812500000,132253.1406250000,117553.3750000000,120167.4843750000,114924.6015625000,132222.4375000000,,,
2.3159999961,18,143719.9062500000,123707.1484375000,156937.8906250000,132272.8593750000,117569.7109375000,120175.3203125000,114940.4218750000,132233.6250000000,,,
2.3199999961,18,143724.1562500000,123708.5625000000,156940.0625000000,132284.6406250000,117576.3125000000,120173.8437500000,114943.9609375000,132235.3125000000,,,
2.3239999961,18,143709.9062500000,123696.8203125000,156925.5000000000,132273.0468750000,117564.0234375000,120157.6406250000,114929.3984375000,132223.9843750000,,,
2.3279999963,18,143697.5781250000,123688.0234375000,156912.7968750000,132261.6250000000,117552.0937500000,120149.2500000000,114919.8750000000,132214.8125000000,,,
2.3319999962,18,143707.2500000000,123701.2968750000,156922.1718750000,132284.0468750000,117559.4687500000,120162.4140625000,114930.1484375000,132227.6718750000,,,
2.3359999962,18,143724.4218750000,123720.5546875000,156940.2500000000,132309.6093750000,117575.2890625000,120180.1171875000,114945.1953125000,132247.3750000000,,,
2.3399999961,18,143725.2187500000,123723.4765625000,156942.0312500000,132292.5000000000,117574.4609375000,120182.6171875000,114950.2109375000,132250.4687500000,,,
2.3439999961,18,143706.2656250000,123707.4140625000,156924.0312500000,132258.7031250000,117554.7734375000,120165.3671875000,114934.9765625000,132234.7812500000,,,
2.3479999963,18,143697.1093750000,123701.3281250000,156917.3750000000,132271.6250000000,117545.7578125000,120157.0781250000,114925.7500000000,132228.0625000000,,,
2.3519999962,18,143704.3593750000,123708.4296875000,156925.2656250000,132298.1875000000,117552.0625000000,120165.1015625000,114932.1875000000,132234.2968750000,,,
2.3559999962,18,143708.7031250000,123712.2421875000,156930.0156250000,132284.8750000000,117554.9843750000,120172.9296875000,114936.8046875000,132238.5781250000,,,
2.3599999961,18,143705.7500000000,123711.5703125000,156928.6406250000,132270.5468750000,117552.8437500000,120173.2812500000,114933.6406250000,132237.5312500000,,,
2.3639999961,18,143702.5312500000,123705.4296875000,156926.2500000000,132250.5937500000,117551.9296875000,120167.4609375000,114933.1796875000,132231.8437500000,,,
2.3679999961,18,143698.6718750000,123696.3906250000,156921.5625000000,132238.6406250000,117548.2578125000,120161.2656250000,114926.0468750000,132223.1093750000,,,
2.3719999962,18,143707.3593750000,123701.2968750000,156926.7656250000,132247.9375000000,117555.2812500000,120168.2890625000,114930.5000000000,132227.6406250000,,,
2.3759999962,18,143717.0468750000,123708.7031250000,156932.0468750000,132259.3750000000,117564.3515625000,120176.1484375000,114939.4843750000,132234.9687500000,,,
2.3799999962,18,143720.0781250000,123711.1718750000,156935.2968750000,132266.7500000000,117568.6640625000,120178.5078125000,114941.9531250000,132237.6406250000,,,
2.3839999961,18,143712.8281250000,123701.4296875000,156929.1562500000,132263.3125000000,117562.7656250000,120165.0468750000,114937.1250000000,132228.1562500000,,,
2.3879999961,18,143707.7656250000,123696.1171875000,156923.9687500000,132261.3281250000,117559.0390625000,120159.4375000000,114934.0937500000,132222.6562500000,,,
2.3919999963,18,143714.8125000000,123705.0000000000,156930.8906250000,132280.2656250000,117566.4140625000,120169.0390625000,114939.1875000000,132231.3906250000,,,
2.3959999962,18,143723.0781250000,123715.3281250000,156938.9687500000,132292.7031250000,117574.1953125000,120177.4140625000,114943.4296875000,132241.9843750000,,,
2.3999999962,18,143720.0468750000,123715.1406250000,156938.3281250000,132295.1250000000,117571.8359375000,120171.3750000000,114940.0468750000,132242.4218750000,,,
2.4039999961,18,143708.7500000000,123709.5625000000,156931.8593750000,132273.8593750000,117562.2578125000,120163.1718750000,114934.1718750000,132236.7343750000,,,
2.4079999961,18,143695.5937500000,123699.6093750000,156920.4531250000,132264.0625000000,117549.7343750000,120154.3984375000,114922.0468750000,132226.5937500000,,,
2.4119999961,18,143698.6718750000,123703.1484375000,156922.1562500000,132289.1406250000,117551.6328125000,120163.8125000000,114922.0781250000,132230.4531250000,,,
2.4159999962,18,143703.8750000000,123708.0312500000,156927.2968750000,132309.7968750000,117556.8359375000,120171.2421875000,114924.1953125000,132236.1093750000,,,
2.4199999962,18,143692.6875000000,123696.8984375000,156915.1718750000,132265.7031250000,117544.5546875000,120160.6171875000,114914.8906250000,132225.2500000000,,,
2.4239999962,18,143680.2500000000,123680.1875000000,156900.9375000000,132237.6093750000,117532.5078125000,120143.6406250000,114906.2812500000,132208.2187500000,,,
2.4279999961,18,143688.6093750000,123683.3515625000,156907.6093750000,132247.7031250000,117539.6171875000,120146.4609375000,114911.6406250000,132211.2031250000,,,
2.4319999961,19,143710.3125000000,123702.0468750000,156925.9843750000,132270.8437500000,117556.6250000000,120167.3515625000,114926.3984375000,132229.5468750000,,,
2.4359999960,19,143730.4531250000,123721.6250000000,156945.8281250000,132290.5625000000,117573.7890625000,120186.5546875000,114942.0859375000,132249.0937500000,,,
2.4399999960,19,143730.2343750000,123719.9921875000,156942.6093750000,132278.4062500000,117571.5625000000,120184.0078125000,114941.8984375000,132247.4843750000,,,
2.4439999959,19,143718.5937500000,123708.9921875000,156929.9843750000,132264.6875000000,117560.8046875000,120167.7578125000,114930.7109375000,132236.3593750000,,,
2.4479999959,19,143709.6718750000,123702.3203125000,156921.7187500000,132256.7343750000,117552.0078125000,120155.6328125000,114921.1406250000,132229.1093750000,,,
2.4519999959,19,143725.2187500000,123719.2968750000,156937.6562500000,132279.9687500000,117566.4140625000,120176.6562500000,114938.8984375000,132244.7500000000,,,
2.4559999960,19,143734.0000000000,123728.4687500000,156947.2343750000,132289.1093750000,117575.3984375000,120189.1562500000,114948.6875000000,132253.8906250000,,,
2.4599999960,19,143725.3281250000,123720.6328125000,156940.4375000000,132274.1250000000,117566.6250000000,120178.6953125000,114939.1093750000,132246.8906250000,,,
2.4639999960,19,143709.5937500000,123707.1484375000,156927.8437500000,132250.8593750000,117551.5546875000,120167.2968750000,114927.0703125000,132233.8125000000,,,
2.4679999959,19,143701.7031250000,123700.5234375000,156922.9062500000,132251.4531250000,117545.1718750000,120164.8593750000,114922.0234375000,132226.2656250000,,,
2.4719999959,19,143710.6562500000,123709.0781250000,156933.6093750000,132270.9062500000,117554.6093750000,120178.4062500000,114931.4687500000,132234.3437500000,,,
2.4759999961,19,143714.0156250000,123711.1171875000,156938.9375000000,132290.1406250000,117558.2578125000,120181.1093750000,114936.2109375000,132236.9218750000,,,
2.4799999960,19,143716.5000000000,123712.8281250000,156941.7812500000,132289.0000000000,117562.0156250000,120180.9218750000,114938.8125000000,132239.7031250000,,,
2.4839999960,19,143708.2187500000,123705.0546875000,156933.6093750000,132270.1250000000,117555.4453125000,120169.2265625000,114929.4765625000,132231.8281250000,,,
2.4879999959,19,143702.2968750000,123697.3046875000,156926.6093750000,132264.1406250000,117549.9453125000,120160.7031250000,114921.0859375000,132223.2968750000,,,
2.4919999959,19,143713.2031250000,123704.6796875000,156935.0000000000,132282.9687500000,117561.0781250000,120167.3515625000,114926.1796875000,132230.7187500000,,,
2.4959999959,19,143728.9843750000,123718.7578125000,156948.2968750000,132308.3125000000,117576.6875000000,120180.1171875000,114942.2500000000,132244.7500000000,,,
2.4999999960,19,143722.8593750000,123713.3671875000,156942.1562500000,132283.5156250000,117572.3671875000,120174.0546875000,114939.0859375000,132239.3906250000,,,
2.5039999960,19,143709.1250000000,123703.7656250000,156930.3593750000,132241.5625000000,117561.0781250000,120158.7421875000,114928.9453125000,132229.5468750000,,,
2.5079999960,19,143700.3281250000,123698.5625000000,156922.6093750000,132230.5937500000,117553.0000000000,120152.4921875000,114923.3359375000,132224.3125000000,,,
2.5119999959,19,143701.8125000000,123702.1015625000,156926.5781250000,132240.7500000000,117554.3203125000,120159.5703125000,114923.1250000000,132228.4687500000,,,
2.5159999959,19,143710.4687500000,123711.4375000000,156936.5468750000,132252.5625000000,117562.4140625000,120172.1562500000,114930.4453125000,132238.1875000000,,,
2.5199999961,19,143714.0937500000,123713.8203125000,156940.3125000000,132263.9062500000,117565.7421875000,120169.5781250000,114933.6093750000,132241.4843750000,,,
2.5239999960,19,143705.5312500000,123704.0078125000,156931.7812500000,132253.7656250000,117556.8906250000,120157.1093750000,114925.1328125000,132230.7500000000,,,
2.5279999960,19,143698.7968750000,123694.0546875000,156922.7343750000,132242.1250000000,117550.4843750000,120151.1250000000,114916.3671875000,132220.3906250000,,,
2.5319999959,19,143709.5312500000,123703.3906250000,156931.3750000000,132258.6406250000,117559.4687500000,120163.2187500000,114922.2890625000,132229.6562500000,,,
2.5359999959,19,143719.5312500000,123715.5390625000,156942.0781250000,132271.3125000000,117568.7734375000,120175.9062500000,114930.8984375000,132241.0156250000,,,
2.5399999958,19,143722.1093750000,123719.4296875000,156945.6250000000,132268.4062500000,117570.0312500000,120178.6484375000,114934.7109375000,132245.4218750000,,,
2.5439999960,19,143716.1562500000,123712.1093750000,156938.7500000000,132262.6406250000,117562.1484375000,120165.2343750000,114929.9609375000,132238.2031250000,,,
2.5479999960,19,143715.3593750000,123709.8281250000,156937.2500000000,132264.5156250000,117558.1796875000,120158.5312500000,114927.7656250000,132235.9062500000,,,
2.5519999960,19,143718.2500000000,123712.8593750000,156940.2500000000,132268.9375000000,117559.7890625000,120163.3593750000,114927.4687500000,132238.6562500000,,,
2.5559999959,19,143723.6406250000,123715.4843750000,156943.1250000000,132273.6093750000,117564.3750000000,120170.2500000000,114935.2734375000,132241.1250000000,,,
2.5599999959,20,143721.1406250000,123713.3906250000,156939.8281250000,132270.9062500000,117562.1484375000,120169.1250000000,114935.8671875000,132239.6562500000,,,
2.5639999958,20,143712.5312500000,123708.7031250000,156934.6718750000,132285.1250000000,117555.5234375000,120161.0468750000,114927.3046875000,132235.1718750000,,,
2.5679999958,20,143712.8593750000,123709.2890625000,156935.7187500000,132318.9375000000,117557.6406250000,120159.4687500000,114926.2656250000,132235.6875000000,,,
2.5719999957,20,143719.6250000000,123716.3203125000,156939.1250000000,132291.3125000000,117561.7734375000,120172.9062500000,114936.7187500000,132242.7187500000,,,
2.5759999957,20,143720.1250000000,123716.7500000000,156940.3906250000,132259.6406250000,117560.7812500000,120179.1796875000,114938.7578125000,132243.2187500000,,,
2.5799999957,20,143723.6093750000,123712.9140625000,156945.2968750000,132258.1562500000,117566.8437500000,120174.2734375000,114943.8828125000,132239.7343750000,,,
2.5839999958,20,143711.6562500000,123696.6328125000,156936.7187500000,132235.6875000000,117558.1796875000,120155.5781250000,114930.5234375000,132224.2343750000,,,
2.5879999958,20,143706.5781250000,123691.6953125000,156937.2500000000,132232.2031250000,117557.2968750000,120149.4375000000,114925.3203125000,132218.9218750000,,,
2.5919999958,20,143714.5000000000,123700.2500000000,156947.3593750000,132253.9218750000,117568.6171875000,120159.6796875000,114935.4921875000,132227.7968750000,,,
2.5959999957,20,143721.5781250000,123707.4921875000,156953.5312500000,132269.2656250000,117575.8828125000,120167.7812500000,114942.3828125000,132235.3593750000,,,
2.5999999957,20,143726.1875000000,123711.0312500000,156956.5937500000,132274.2343750000,117577.8437500000,120167.2968750000,114944.7656250000,132239.0312500000,,,
2.6039999959,20,143717.5781250000,123705.8046875000,156947.7656250000,132263.2031250000,117567.1640625000,120159.8984375000,114935.1093750000,132233.7031250000,,,
2.6079999958,20,143708.0000000000,123701.8593750000,156936.3593750000,132244.6406250000,117555.7656250000,120157.3203125000,114926.6875000000,132229.8125000000,,,
2.6119999958,20,143711.3906250000,123706.6093750000,156935.1875000000,132240.9375000000,117555.8203125000,120168.1015625000,114933.5312500000,132234.5312500000,,,
2.6159999957,20,143718.7812500000,123713.1015625000,156938.3281250000,132258.0625000000,117561.2109375000,120180.6796875000,114943.5078125000,132240.8593750000,,,
2.6199999957,20,143711.6718750000,123705.7734375000,156931.5312500000,132259.8593750000,117556.4375000000,120175.7187500000,114939.7265625000,132233.6718750000,,,
2.6239999956,20,143703.6093750000,123700.0078125000,156926.1250000000,132248.5625000000,117552.4687500000,120168.3203125000,114936.4843750000,132228.3437500000,,,
2.6279999958,20,143694.4375000000,123692.3125000000,156918.0156250000,132242.5781250000,117544.3359375000,120162.7890625000,114926.7187500000,132220.6875000000,,,
2.6319999958,20,143695.2343750000,123692.7968750000,156919.4218750000,132251.4062500000,117541.8437500000,120167.1093750000,114923.8984375000,132221.2031250000,,,
2.6359999957,20,143713.1875000000,123709.1015625000,156938.9687500000,132278.6562500000,117556.9218750000,120184.7578125000,114938.3281250000,132237.2656250000,,,
2.6399999957,20,143720.0156250000,123710.3906250000,156944.2187500000,132287.0000000000,117563.0859375000,120184.3046875000,114941.5234375000,132238.3125000000,,,
2.6439999957,20,143711.3906250000,123699.3359375000,156934.7031250000,132266.5781250000,117554.5078125000,120175.9375000000,114932.2187500000,132226.8125000000,,,
2.6479999959,20,143701.1406250000,123689.4453125000,156924.3281250000,132252.3906250000,117542.6796875000,120166.6250000000,114921.9687500000,132216.4531250000,,,
2.6519999958,20,143705.7031250000,123695.5312500000,156928.6406250000,132255.5937500000,117546.8359375000,120173.1484375000,114923.4453125000,132222.1406250000,,,
2.6559999958,20,143717.3906250000,123707.7109375000,156940.5468750000,132272.5937500000,117560.9687500000,120192.5937500000,114932.1875000000,132234.7500000000,,,
2.6599999957,20,143713.4218750000,123706.1796875000,156936.8281250000,132256.5468750000,117559.3359375000,120195.4609375000,114930.2343750000,132233.0000000000,,,
2.6639999957,20,143708.0781250000,123702.6640625000,156932.7500000000,132252.2656250000,117556.8671875000,120187.4140625000,114929.0781250000,132229.7343750000,,,
2.6679999956,20,143707.6093750000,123703.7421875000,156934.2812500000,132277.4218750000,117558.9296875000,120182.8046875000,114926.3125000000,132231.1250000000,,,
2.6719999958,20,143711.5156250000,123706.9531250000,156934.0000000000,132256.4687500000,117561.2890625000,120191.5468750000,114929.6171875000,132234.2343750000,,,
2.6759999958,20,143715.1718750000,123704.8125000000,156932.7968750000,132220.6875000000,117563.3593750000,120195.1406250000,114936.3750000000,132232.2187500000,,,
2.6799999957,20,143714.5156250000,123702.8281250000,156933.2812500000,132228.3437500000,117562.4140625000,120192.8906250000,114938.6015625000,132230.9062500000,,,
2.6839999957,20,143707.1718750000,123696.7656250000,156930.0312500000,132238.8750000000,117556.7812500000,120181.7812500000,114934.5468750000,132224.8437500000,,,
2.6879999957,21,143702.8750000000,123690.8125000000,156927.0312500000,132236.7031250000,117553.7578125000,120176.1484375000,114932.6953125000,132218.6250000000,,,
2.6919999956,21,143709.0312500000,123694.0000000000,156931.0781250000,132241.5000000000,117558.3125000000,120186.7968750000,114938.9218750000,132221.9218750000,,,
2.6959999956,21,143719.5937500000,123706.5781250000,156940.5468750000,132255.8281250000,117566.8203125000,120208.7656250000,114946.4296875000,132234.9062500000,,,
2.6999999955,21,143720.7500000000,123709.2343750000,156940.2031250000,132258.7812500000,117566.6015625000,120212.8437500000,114949.0078125000,132237.3437500000,,,
2.7039999955,21,143709.2968750000,123700.3281250000,156927.1875000000,132249.0937500000,117555.4687500000,120201.5468750000,114941.2265625000,132228.2031250000,,,
2.7079999954,21,143699.3125000000,123694.0312500000,156917.2656250000,132244.7812500000,117546.1093750000,120194.6562500000,114933.1250000000,132222.0937500000,,,
2.7119999956,21,143705.7031250000,123701.9140625000,156922.5781250000,132255.6718750000,117551.9531250000,120206.0000000000,114940.6093750000,132230.4843750000,,,
2.7159999956,21,143715.7812500000,123715.1406250000,156934.5468750000,132277.2812500000,117562.3906250000,120220.7031250000,114949.8125000000,132243.9218750000,,,
2.7199999955,21,143718.2500000000,123721.4687500000,156941.0000000000,132274.6562500000,117565.0703125000,120221.1328125000,114950.7734375000,132249.7968750000,,,
2.7239999955,21,143705.7500000000,123710.0703125000,156930.7343750000,132251.8125000000,117552.8984375000,120206.3281250000,114940.1796875000,132237.9062500000,,,
2.7279999955,21,143696.5000000000,123700.1171875000,156922.7656250000,132248.3437500000,117545.2500000000,120197.0156250000,114930.2812500000,132227.5781250000,,,
2.7319999957,21,143708.4531250000,123710.8984375000,156935.3750000000,132269.5156250000,117558.5312500000,120209.2734375000,114936.1328125000,132239.5468750000,,,
2.7359999956,21,143718.8906250000,123714.8437500000,156944.7812500000,132270.1718750000,117568.2890625000,120214.9062500000,114947.1015625000,132243.2031250000,,,
2.7399999956,21,143725.8906250000,123716.2109375000,156952.4062500000,132284.4687500000,117576.4687500000,120214.5078125000,114953.6718750000,132245.0468750000,,,
2.7439999955,21,143731.5781250000,123720.0156250000,156957.9375000000,132296.4062500000,117584.8984375000,120216.8906250000,114957.9921875000,132248.9687500000,,,
2.7479999955,21,143727.2656250000,123717.1484375000,156951.7031250000,132272.0781250000,117580.2265625000,120214.7187500000,114955.5546875000,132246.5000000000,,,
2.7519999954,21,143724.3593750000,123719.0781250000,156949.0000000000,132250.4687500000,117576.0937500000,120218.8515625000,114950.5390625000,132248.2656250000,,,
2.7559999956,21,143720.6093750000,123718.3046875000,156945.7500000000,132243.2031250000,117570.6484375000,120221.2343750000,114945.1171875000,132247.4375000000,,,
2.7599999956,21,143720.2343750000,123720.2343750000,156947.6875000000,132255.6875000000,117570.7031250000,120219.9218750000,114946.0312500000,132249.8437500000,,,
2.7639999955,21,143717.8281250000,123720.4218750000,156948.3750000000,132261.3281250000,117569.3125000000,120214.8515625000,114942.9687500000,132250.4843750000,,,
2.7679999955,21,143709.6406250000,123710.9531250000,156939.0781250000,132247.3593750000,117559.7343750000,120207.9375000000,114939.1875000000,132240.8593750000,,,
2.7719999955,21,143708.3750000000,123709.7734375000,156933.6250000000,132227.9375000000,117555.6875000000,120211.0156250000,114940.5546875000,132239.1718750000,,,
2.7759999956,21,143718.3906250000,123719.3515625000,156943.2656250000,132241.4062500000,117565.4453125000,120220.7265625000,114947.9375000000,132249.3593750000,,,
2.7799999956,21,143724.0937500000,123724.1250000000,156950.0468750000,132253.5156250000,117572.5859375000,120219.4140625000,114951.8750000000,132254.3593750000,,,
2.7839999956,21,143719.1875000000,123717.6562500000,156944.8906250000,132248.7187500000,117569.3671875000,120208.9531250000,114948.6562500000,132247.7812500000,,,
2.7879999955,21,143723.0781250000,123717.0156250000,156946.5000000000,132252.0000000000,117573.7343750000,120211.6640625000,114953.4843750000,132246.5000000000,,,
2.7919999955,21,143726.2187500000,123715.4062500000,156945.2656250000,132259.9531250000,117575.7500000000,120217.8046875000,114956.8359375000,132244.7031250000,,,
2.7959999954,21,143731.9531250000,123719.1640625000,156947.4687500000,132265.4843750000,117580.3906250000,120229.5234375000,114961.9609375000,132248.7187500000,,,
2.7999999956,21,143727.1250000000,123713.1796875000,156942.1875000000,132263.2031250000,117576.3671875000,120218.9609375000,114955.3359375000,132242.6093750000,,,
2.8039999956,21,143718.2812500000,123705.9140625000,156935.2187500000,132259.1250000000,117569.8203125000,120202.0625000000,114945.6562500000,132234.9375000000,,,
2.8079999955,21,143715.6562500000,123708.2187500000,156934.1406250000,132264.0156250000,117565.1015625000,120203.7265625000,114943.8046875000,132236.7031250000,,,
2.8119999955,21,143721.6093750000,123718.7343750000,156942.0000000000,132283.1093750000,117567.3828125000,120216.3828125000,114946.5937500000,132247.6718750000,,,
2.8159999955,22,143730.8593750000,123727.1250000000,156950.7656250000,132287.1875000000,117574.7812500000,120224.0312500000,114952.9218750000,132256.2812500000,,,
2.8199999954,22,143735.9531250000,123729.0078125000,156955.6562500000,132269.3437500000,117582.2421875000,120223.6250000000,114959.6562500000,132257.8750000000,,,
2.8239999954,22,143724.3437500000,123715.9140625000,156945.0312500000,132247.5625000000,117573.5781250000,120207.6406250000,114946.6718750000,132244.8125000000,,,
2.8279999953,22,143725.9218750000,123715.7812500000,156946.4218750000,132252.5000000000,117575.8828125000,120203.1328125000,114943.3984375000,132244.4531250000,,,
2.8319999953,22,143734.1250000000,123722.4843750000,156954.1562500000,132273.0468750000,117583.0468750000,120210.7500000000,114947.0234375000,132250.5468750000,,,
2.8359999952,22,143740.5625000000,123728.8671875000,156959.8125000000,132287.2656250000,117588.3046875000,120222.5000000000,114952.4375000000,132257.4687500000,,,
2.8399999954,22,143740.1875000000,123728.0156250000,156957.9531250000,132265.2968750000,117588.1093750000,120221.0781250000,114955.2812500000,132257.5156250000,,,
2.8439999954,22,143726.4843750000,123717.3125000000,156945.8593750000,132250.5156250000,117575.7187500000,120206.7265625000,114947.1562500000,132247.3593750000,,,
2.8479999953,22,143715.1718750000,123709.8281250000,156937.2500000000,132245.7656250000,117564.8593750000,120199.6718750000,114936.2968750000,132240.2656250000,,,
2.8519999953,22,143725.0625000000,123721.7656250000,156947.8437500000,132256.4218750000,117572.6406250000,120213.7031250000,114944.2890625000,132252.6406250000,,,
2.8559999953,22,143738.3437500000,123735.5234375000,156961.3125000000,132268.3593750000,117583.4453125000,120224.9687500000,114954.4218750000,132266.1250000000,,,
2.8599999954,22,143743.2500000000,123742.7890625000,156968.5781250000,132270.6875000000,117588.2734375000,120227.5937500000,114954.5078125000,132273.3125000000,,,
2.8639999954,22,143733.9687500000,123736.9687500000,156965.3125000000,132263.7343750000,117582.5078125000,120217.4062500000,114942.0859375000,132267.0625000000,,,
2.8679999954,22,143717.5468750000,123719.1328125000,156949.1875000000,132252.1250000000,117568.9921875000,120197.6640625000,114928.5937500000,132249.1250000000,,,
2.8719999953,22,143725.8125000000,123720.3125000000,156950.5312500000,132258.3750000000,117576.3906250000,120202.5156250000,114944.5546875000,132250.7343750000,,,
2.8759999953,22,143739.3593750000,123726.9375000000,156958.9218750000,132270.6562500000,117589.2968750000,120211.0156250000,114960.9140625000,132257.5468750000,,,
2.8799999952,22,143742.0937500000,123727.8515625000,156960.2968750000,132269.0312500000,117591.0390625000,120211.1796875000,114965.2109375000,132259.0156250000,,,
2.8839999954,22,143730.1562500000,123714.2265625000,156948.6250000000,132265.2656250000,117579.7187500000,120195.3281250000,114955.7109375000,132245.6093750000,,,
2.8879999954,22,143720.5781250000,123706.2031250000,156938.3750000000,132273.0156250000,117570.7031250000,120191.2265625000,114946.1406250000,132237.4531250000,,,
2.8919999953,22,143725.4062500000,123713.2031250000,156940.7343750000,132279.6718750000,117575.1562500000,120206.9921875000,114950.1093750000,132244.9687500000,,,
2.8959999953,22,143724.2812500000,123715.9921875000,156939.3125000000,132264.2031250000,117574.8593750000,120216.8671875000,114951.8203125000,132247.6718750000,,,
2.8999999953,22,143724.4531250000,123721.4140625000,156943.1562500000,132265.0000000000,117577.4140625000,120216.5156250000,114952.5781250000,132253.6875000000,,,
2.9039999954,22,143722.5156250000,123720.2890625000,156943.2031250000,132280.7500000000,117578.6484375000,120205.4140625000,114948.9765625000,132252.5000000000,,,
2.9079999954,22,143713.6093750000,123710.5546875000,156935.9062500000,132281.8125000000,117570.7343750000,120189.9921875000,114935.0625000000,132241.7500000000,,,
2.9119999954,22,143724.9062500000,123719.1875000000,156946.2343750000,132287.6093750000,117580.8750000000,120201.0390625000,114942.2734375000,132249.7968750000,,,
2.9159999953,22,143739.6875000000,123726.1093750000,156956.5625000000,132287.2968750000,117594.1718750000,120212.4921875000,114952.9531250000,132256.9843750000,,,
2.9199999953,22,143743.5468750000,123724.6093750000,156959.2968750000,132284.2656250000,117597.8203125000,120208.9531250000,114948.5234375000,132255.7812500000,,,
2.9239999952,22,143732.3125000000,123711.3046875000,156947.0937500000,132237.0468750000,117585.8046875000,120199.2734375000,114937.8750000000,132242.9218750000,,,
2.9279999954,22,143729.9687500000,123709.3437500000,156943.1562500000,132233.6406250000,117583.6875000000,120200.1015625000,114940.8281250000,132241.0000000000,,,
2.9319999954,22,143739.2812500000,123719.5078125000,156950.8437500000,132240.2500000000,117591.2500000000,120211.0703125000,114949.5937500000,132250.8593750000,,,
2.9359999953,22,143746.8906250000,123729.1953125000,156961.3593750000,132251.5156250000,117598.8671875000,120220.5390625000,114954.8281250000,132260.8906250000,,,
2.9399999953,22,143746.6093750000,123734.9843750000,156965.8750000000,132265.5625000000,117600.7500000000,120223.5703125000,114955.6328125000,132267.3906250000,,,
2.9439999952,23,143741.0156250000,123737.5312500000,156962.5468750000,132272.4531250000,117596.3203125000,120221.5625000000,114952.9765625000,132269.9687500000,,,
