Time:250Hz,Epoch,Channel 1,Channel 2,Channel 3,Channel 4,Channel 5,Channel 6,Channel 7,Channel 8,Event Id,Event Date,Event Duration
0.0000000000,0,150177.9218750000,202804.8281250000,175937.0312500000,151917.8750000000,110421.2265625000,150286.9531250000,130865.6406250000,139043.2656250000,,,
0.0040000000,0,150309.0781250000,205918.9531250000,176069.4218750000,152043.7500000000,110554.5859375000,150393.7343750000,130977.7265625000,139104.3125000000,,,
0.0079999999,0,151014.6718750000,203792.2500000000,176824.7812500000,152802.8437500000,111253.5937500000,151080.3750000000,131639.6406250000,139621.4218750000,,,
0.0119999999,0,151358.3906250000,199380.2343750000,177236.6093750000,153176.0937500000,111587.2343750000,151419.1406250000,131966.8437500000,139909.5625000000,,,
0.0159999998,0,150860.0937500000,198734.9843750000,176705.4062500000,152630.8281250000,111090.2500000000,150946.8593750000,131496.3281250000,139569.8593750000,,,
0.0199999998,0,150230.0156250000,202685.7968750000,175978.8437500000,151951.4218750000,110464.6171875000,150344.5625000000,130898.5468750000,139091.1406250000,,,
0.0240000000,0,150344.9218750000,205819.9531250000,176088.9843750000,152077.6562500000,110577.5390625000,150458.7031250000,130998.5156250000,139146.3906250000,,,
0.0279999999,0,151059.9375000000,203802.6875000000,176864.5937500000,152821.8281250000,111291.7109375000,151142.1250000000,131672.5781250000,139676.9375000000,,,
0.0319999999,0,151357.8281250000,199468.0312500000,177250.1250000000,153143.4531250000,111589.8593750000,151412.8125000000,131952.6875000000,139920.4531250000,,,
0.0359999998,0,150819.5937500000,198761.4531250000,176670.3750000000,152562.0781250000,111052.4843750000,150900.3750000000,131446.1718750000,139536.7343750000,,,
0.0399999998,0,150194.4218750000,202577.2968750000,175934.7968750000,151867.6562500000,110431.5468750000,150301.8125000000,130860.3046875000,139056.6250000000,,,
0.0440000000,0,150319.4843750000,205665.1093750000,176059.5000000000,151981.9531250000,110552.1406250000,150410.8125000000,130965.3125000000,139117.7500000000,,,
0.0480000000,0,151039.7187500000,203736.4062500000,176843.7031250000,152728.4062500000,111266.9765625000,151095.6093750000,131629.7500000000,139646.7343750000,,,
0.0519999999,0,151389.0156250000,199496.2656250000,177274.6250000000,153094.1562500000,111605.8984375000,151434.3437500000,131958.4218750000,139938.1250000000,,,
0.0559999999,0,150896.1718750000,198748.8750000000,176741.7187500000,152552.7500000000,111113.1250000000,150970.4062500000,131506.1250000000,139593.7968750000,,,
0.0599999998,0,150260.0312500000,202424.3281250000,175996.3593750000,151851.7500000000,110485.0859375000,150361.8125000000,130910.4843750000,139100.7968750000,,,
0.0639999998,0,150340.3593750000,205442.6250000000,176076.9687500000,151939.9218750000,110567.0000000000,150427.3750000000,130979.9531250000,139123.9218750000,,,
0.0680000000,0,151011.2343750000,203613.0625000000,176818.2656250000,152662.4062500000,111236.4531250000,151067.8750000000,131602.2812500000,139620.2656250000,,,
0.0719999999,0,151333.6406250000,199501.0156250000,177223.9062500000,153022.2968750000,111557.8906250000,151388.1562500000,131906.5000000000,139898.2187500000,,,
0.0759999999,0,150858.5312500000,198729.8281250000,176699.3750000000,152522.3125000000,111088.0703125000,150948.3281250000,131478.8437500000,139565.5468750000,,,
0.0799999998,0,150271.1093750000,202262.7500000000,175992.9843750000,151863.2656250000,110506.0859375000,150392.8750000000,130928.5078125000,139119.8750000000,,,
0.0839999998,0,150352.9687500000,205203.6093750000,176083.4062500000,151951.1250000000,110586.8203125000,150464.2187500000,130996.3203125000,139150.9062500000,,,
0.0880000000,0,151008.7968750000,203464.7031250000,176814.7031250000,152666.1562500000,111234.6796875000,151089.5468750000,131606.3281250000,139632.6875000000,,,
0.0919999999,0,151343.8593750000,199495.4687500000,177238.6250000000,153038.1718750000,111565.5078125000,151414.2343750000,131925.1718750000,139914.7656250000,,,
0.0959999999,0,150873.2812500000,198690.0312500000,176718.7343750000,152520.9687500000,111100.1718750000,150966.2968750000,131488.7656250000,139582.2343750000,,,
0.0999999999,0,150255.2500000000,202060.1093750000,175976.6406250000,151837.3750000000,110487.1250000000,150380.4218750000,130900.7265625000,139105.1406250000,,,
0.1039999998,0,150336.5781250000,204976.5625000000,176068.0312500000,151931.0156250000,110564.5078125000,150451.7968750000,130977.1093750000,139138.8125000000,,,
0.1079999998,0,150993.8750000000,203396.1718750000,176817.4687500000,152638.9062500000,111216.8984375000,151081.8593750000,131596.8125000000,139631.0781250000,,,
0.1120000000,0,151332.8593750000,199561.2656250000,177249.4062500000,153018.1093750000,111553.6250000000,151408.5468750000,131920.5468750000,139915.5156250000,,,
0.1159999999,0,150883.8750000000,198734.7656250000,176736.0937500000,152518.2812500000,111112.9921875000,150982.5781250000,131513.3437500000,139598.3750000000,,,
0.1199999999,0,150279.3593750000,201959.0468750000,176001.5156250000,151821.3125000000,110517.9140625000,150403.2343750000,130939.3750000000,139126.9531250000,,,
0.1239999998,0,150344.2812500000,204808.6562500000,176073.7187500000,151904.8437500000,110573.3593750000,150465.9062500000,130977.9453125000,139144.7656250000,,,
0.1279999998,1,150998.0312500000,203330.6718750000,176825.9218750000,152626.1093750000,111216.5546875000,151084.2968750000,131584.7343750000,139637.4531250000,,,
0.1319999998,1,151352.4687500000,199625.7187500000,177270.5781250000,153010.1718750000,111562.4218750000,151401.2500000000,131921.7343750000,139922.2500000000,,,
0.1359999997,1,150889.7500000000,198790.2343750000,176742.9531250000,152503.3750000000,111104.3281250000,150974.5156250000,131485.5781250000,139583.0937500000,,,
0.1399999997,1,150270.0312500000,201896.5781250000,175979.6562500000,151833.8906250000,110494.9296875000,150379.7343750000,130891.5234375000,139095.3281250000,,,
0.1439999996,1,150335.1562500000,204704.3437500000,176054.8906250000,151917.3281250000,110562.2500000000,150433.4375000000,130944.2265625000,139121.5937500000,,,
0.1479999996,1,150972.7343750000,203310.4531250000,176800.5468750000,152633.0000000000,111189.6796875000,151046.6406250000,131557.6562500000,139599.3750000000,,,
0.1519999998,1,151317.3281250000,199682.2031250000,177240.2812500000,153016.3125000000,111528.0625000000,151383.1718750000,131894.3281250000,139888.9687500000,,,
0.1559999997,1,150894.2031250000,198823.4375000000,176742.0625000000,152534.0312500000,111115.7031250000,150984.4375000000,131493.4062500000,139596.4531250000,,,
0.1599999997,1,150287.1718750000,201860.9375000000,175991.2656250000,151866.0000000000,110522.2890625000,150389.2812500000,130910.4062500000,139124.0000000000,,,
0.1639999996,1,150339.8750000000,204668.7031250000,176057.8906250000,151926.5937500000,110568.6093750000,150444.4218750000,130977.5937500000,139128.2968750000,,,
0.1679999996,1,150960.2500000000,203333.0312500000,176790.8593750000,152606.6875000000,111177.5546875000,151039.8437500000,131567.5468750000,139597.7656250000,,,
0.1719999998,1,151292.4843750000,199743.0000000000,177221.1093750000,152983.7500000000,111505.7187500000,151370.8125000000,131884.8750000000,139877.1875000000,,,
0.1759999997,1,150878.4687500000,198863.4531250000,176735.1562500000,152519.4843750000,111101.9687500000,150991.6562500000,131497.9687500000,139589.9218750000,,,
0.1799999997,1,150283.9531250000,201877.0000000000,176001.2656250000,151861.1718750000,110526.3125000000,150419.6718750000,130936.1250000000,139128.9843750000,,,
0.1839999997,1,150337.1093750000,204696.5937500000,176059.4531250000,151916.3437500000,110576.5234375000,150467.0625000000,130990.0937500000,139146.4218750000,,,
0.1879999996,1,150958.5468750000,203374.9062500000,176786.7500000000,152603.8437500000,111187.3671875000,151058.3906250000,131577.6093750000,139607.7343750000,,,
0.1919999996,1,151306.1406250000,199762.9062500000,177226.5781250000,153001.8125000000,111526.7187500000,151392.1093750000,131905.2031250000,139895.8906250000,,,
0.1959999998,1,150894.8281250000,198851.0312500000,176746.5781250000,152542.7187500000,111123.3984375000,151000.2031250000,131519.7187500000,139606.2031250000,,,
0.1999999997,1,150305.2812500000,201871.1562500000,176013.5468750000,151871.9062500000,110543.8281250000,150431.3906250000,130955.7890625000,139148.6250000000,,,
0.2039999997,1,150354.6875000000,204737.4375000000,176072.0000000000,151941.7500000000,110586.6875000000,150466.8281250000,130981.2734375000,139156.9375000000,,,
0.2079999996,1,150995.8125000000,203435.2031250000,176814.5468750000,152652.9062500000,111215.3750000000,151083.2031250000,131582.9218750000,139634.8593750000,,,
0.2119999996,1,151333.3125000000,199778.2031250000,177255.0156250000,153036.3593750000,111547.1640625000,151401.1406250000,131907.6562500000,139909.2500000000,,,
0.2159999998,1,150889.2187500000,198813.6718750000,176757.4843750000,152558.7656250000,111114.8437500000,150977.8125000000,131496.4375000000,139589.0156250000,,,
0.2199999997,1,150281.3750000000,201858.0625000000,176013.5781250000,151881.1250000000,110519.1796875000,150406.4531250000,130918.1562500000,139123.7343750000,,,
0.2239999997,1,150332.4218750000,204781.8281250000,176065.2187500000,151984.8125000000,110564.8046875000,150451.3750000000,130951.1250000000,139137.9531250000,,,
0.2279999997,1,150961.1562500000,203471.0937500000,176786.5156250000,152708.8281250000,111185.0859375000,151047.3125000000,131541.6562500000,139599.9843750000,,,
0.2319999996,1,151313.4843750000,199748.7500000000,177234.7343750000,153118.8593750000,111530.4218750000,151391.4843750000,131882.8906250000,139895.2500000000,,,
0.2359999996,1,150894.5000000000,198738.8437500000,176760.5468750000,152665.2187500000,111121.4687500000,151002.9687500000,131500.1093750000,139605.9375000000,,,
0.2399999998,1,150296.9843750000,201798.5937500000,176021.4062500000,152012.3437500000,110534.2812500000,150427.6562500000,130937.7656250000,139147.2343750000,,,
0.2439999997,1,150318.3437500000,204754.0156250000,176043.3281250000,152028.8281250000,110554.7421875000,150441.5781250000,130951.5546875000,139133.6250000000,,,
0.2479999997,1,150948.6562500000,203445.2343750000,176771.3281250000,152696.6718750000,111183.9609375000,151054.0468750000,131547.1875000000,139600.8437500000,,,
0.2519999996,1,151314.4531250000,199659.2656250000,177236.6093750000,153117.9687500000,111545.1484375000,151400.2812500000,131884.6093750000,139898.6562500000,,,
0.2559999996,2,150900.6406250000,198618.7812500000,176773.1093750000,152646.6250000000,111135.0937500000,151006.0625000000,131511.7812500000,139608.8437500000,,,
0.2599999995,2,150271.5000000000,201773.7031250000,176008.4375000000,151949.4687500000,110512.4218750000,150405.6718750000,130926.6328125000,139124.2968750000,,,
0.2639999995,2,150299.9843750000,204865.9531250000,176032.6718750000,151997.6718750000,110534.6796875000,150426.9687500000,130937.6015625000,139119.2343750000,,,
0.2679999995,2,150931.0625000000,203617.4531250000,176756.7343750000,152688.2500000000,111157.9687500000,151029.6562500000,131520.8281250000,139584.9062500000,,,
0.2719999994,2,151312.0468750000,199800.5468750000,177226.1562500000,153130.5781250000,111532.9453125000,151396.3750000000,131875.2031250000,139896.2968750000,,,
0.2759999994,2,150902.2812500000,198746.2656250000,176773.7500000000,152680.0156250000,111132.9453125000,151007.1562500000,131500.1406250000,139613.1093750000,,,
0.2799999996,2,150266.0312500000,201944.5156250000,176005.8750000000,151962.8750000000,110507.1328125000,150405.9062500000,130909.8437500000,139127.8437500000,,,
0.2839999995,2,150304.0468750000,205087.2500000000,176037.9062500000,152028.8125000000,110538.5703125000,150442.5781250000,130939.3437500000,139130.4062500000,,,
0.2879999995,2,150955.6562500000,203819.2187500000,176780.7500000000,152722.1875000000,111184.1796875000,151064.5468750000,131550.7500000000,139607.2812500000,,,
0.2919999994,2,151352.6250000000,199930.6562500000,177270.6562500000,153134.8437500000,111576.1250000000,151442.1875000000,131925.2968750000,139932.7343750000,,,
0.2959999994,2,150909.1718750000,198810.4062500000,176787.9843750000,152683.2656250000,111143.0859375000,151025.7968750000,131511.6562500000,139618.7031250000,,,
0.2999999996,2,150267.2343750000,202029.4062500000,176018.7343750000,151982.3281250000,110512.7968750000,150405.7187500000,130909.1953125000,139119.1718750000,,,
0.3039999995,2,150287.6718750000,205244.1093750000,176044.1562500000,152004.0000000000,110531.2968750000,150417.0937500000,130927.1718750000,139104.5000000000,,,
0.3079999995,2,150931.6250000000,203989.2343750000,176776.6093750000,152706.0937500000,111171.4921875000,151033.8125000000,131527.6875000000,139579.0312500000,,,
0.3119999995,2,151319.6250000000,200028.2343750000,177260.0781250000,153149.9218750000,111558.3750000000,151415.6875000000,131906.3906250000,139900.1718750000,,,
0.3159999994,2,150911.7812500000,198863.1562500000,176806.6562500000,152702.2343750000,111159.6328125000,151038.8593750000,131533.2187500000,139624.6406250000,,,
0.3199999994,2,150281.3750000000,202144.8906250000,176046.5156250000,151992.4375000000,110539.1093750000,150445.8750000000,130939.3203125000,139151.8906250000,,,
0.3239999996,2,150284.2968750000,205473.4375000000,176046.7656250000,152012.7656250000,110540.1796875000,150449.7343750000,130942.1328125000,139129.9531250000,,,
0.3279999995,2,150925.1562500000,204237.7968750000,176766.8593750000,152709.3437500000,111177.0156250000,151055.9218750000,131548.6406250000,139594.5156250000,,,
0.3319999995,2,151314.9062500000,200175.7812500000,177242.5937500000,153132.0000000000,111562.9296875000,151432.3125000000,131922.1562500000,139911.6093750000,,,
0.3359999994,2,150903.4531250000,198931.8593750000,176788.9062500000,152682.2968750000,111154.1328125000,151039.7656250000,131535.7031250000,139629.2812500000,,,
0.3399999994,2,150259.4687500000,202254.2187500000,176019.6406250000,151976.3750000000,110522.5312500000,150427.0468750000,130929.6875000000,139140.7968750000,,,
0.3439999996,2,150266.6562500000,205643.5937500000,176027.7656250000,151977.2812500000,110530.3359375000,150429.6718750000,130934.3593750000,139117.4843750000,,,
0.3479999995,2,150904.8593750000,204381.7031250000,176741.2656250000,152689.4843750000,111159.6328125000,151035.1250000000,131522.8281250000,139577.1562500000,,,
0.3519999995,2,151316.9531250000,200208.6406250000,177236.4062500000,153147.7500000000,111563.1718750000,151430.1718750000,131905.4218750000,139909.5625000000,,,
0.3559999994,2,150930.8750000000,198894.0312500000,176815.5937500000,152721.4843750000,111179.7265625000,151064.7343750000,131546.2968750000,139654.5468750000,,,
0.3599999994,2,150277.9375000000,202264.6250000000,176047.7187500000,152007.8593750000,110537.9531250000,150431.6875000000,130937.4453125000,139158.6093750000,,,
0.3639999994,2,150261.2812500000,205734.5468750000,176022.1562500000,151995.5000000000,110514.2421875000,150411.4843750000,130911.8515625000,139115.5312500000,,,
0.3679999996,2,150921.9375000000,204459.1406250000,176751.0312500000,152690.4843750000,111166.5312500000,151039.3906250000,131524.2031250000,139594.1406250000,,,
0.3719999995,2,151335.7187500000,200167.7343750000,177247.1875000000,153150.5625000000,111572.2109375000,151436.3593750000,131921.7656250000,139926.1718750000,,,
0.3759999995,2,150933.5312500000,198761.4531250000,176813.4375000000,152730.3906250000,111173.6640625000,151057.6875000000,131549.3906250000,139653.8125000000,,,
0.3799999994,2,150251.5468750000,202176.8750000000,176017.9843750000,151992.7343750000,110504.3984375000,150414.0156250000,130909.3593750000,139141.0000000000,,,
0.3839999994,3,150252.9218750000,205739.7812500000,176014.8437500000,151970.2500000000,110512.1250000000,150416.5781250000,130906.8671875000,139117.1406250000,,,
0.3879999993,3,150929.0000000000,204474.2031250000,176762.4062500000,152682.1406250000,111190.3750000000,151057.2656250000,131542.2812500000,139605.9375000000,,,
0.3919999993,3,151336.2812500000,200080.5156250000,177262.9843750000,153150.1875000000,111601.1562500000,151441.8281250000,131946.5468750000,139924.0468750000,,,
0.3959999993,3,150930.1562500000,198604.6250000000,176820.6875000000,152714.0000000000,111195.3046875000,151066.9375000000,131568.0312500000,139656.1562500000,,,
0.3999999992,3,150238.1406250000,202053.7500000000,176010.8750000000,151976.2968750000,110510.6484375000,150403.3906250000,130906.1953125000,139132.1093750000,,,
0.4039999992,3,150237.2500000000,205704.1406250000,176002.5312500000,151965.9843750000,110510.2968750000,150393.0312500000,130906.6796875000,139102.9531250000,,,
0.4079999994,3,150898.0468750000,204466.1406250000,176726.7187500000,152677.0468750000,111165.3984375000,151029.6093750000,131535.5468750000,139581.0781250000,,,
0.4119999993,3,151335.1875000000,200026.9218750000,177247.7656250000,153162.7656250000,111595.2500000000,151462.0000000000,131943.3281250000,139932.3593750000,,,
0.4159999993,3,150942.7500000000,198520.8593750000,176837.7500000000,152743.3437500000,111208.7968750000,151091.3750000000,131570.8750000000,139672.4531250000,,,
0.4199999992,3,150223.2187500000,202026.1093750000,176014.8125000000,151983.6093750000,110499.3593750000,150398.7968750000,130901.5000000000,139124.6250000000,,,
0.4239999992,3,150206.4062500000,205776.5781250000,175991.9843750000,151969.1875000000,110479.2890625000,150373.0000000000,130873.7421875000,139083.5781250000,,,
0.4279999994,3,150868.5625000000,204557.6250000000,176713.0937500000,152667.9218750000,111135.7109375000,151007.5312500000,131498.5312500000,139561.9062500000,,,
0.4319999993,3,151321.1875000000,200032.2031250000,177234.9843750000,153160.7812500000,111579.9375000000,151446.9375000000,131928.8906250000,139926.9531250000,,,
0.4359999993,3,150925.2656250000,198448.7812500000,176810.8750000000,152734.9062500000,111181.2031250000,151077.7187500000,131557.2812500000,139663.8281250000,,,
0.4399999992,3,150236.9531250000,201973.8281250000,176014.6250000000,151981.7343750000,110494.8203125000,150414.9218750000,130902.0078125000,139144.7343750000,,,
0.4439999992,3,150220.6250000000,205786.9062500000,175987.3750000000,151954.2187500000,110474.3281250000,150389.5000000000,130872.8046875000,139100.6093750000,,,
0.4479999992,3,150892.8437500000,204595.8281250000,176718.0156250000,152665.8125000000,111142.4453125000,151027.3593750000,131501.8281250000,139580.7812500000,,,
0.4519999993,3,151353.0781250000,200019.4375000000,177256.5937500000,153172.7656250000,111604.7500000000,151465.1093750000,131942.8437500000,139943.1406250000,,,
0.4559999993,3,150952.7031250000,198384.5000000000,176848.6406250000,152760.7031250000,111214.7578125000,151087.4531250000,131565.3750000000,139675.0000000000,,,
0.4599999993,3,150253.7500000000,201913.6718750000,176049.7031250000,152003.3281250000,110526.6328125000,150425.7031250000,130912.7421875000,139153.3750000000,,,
0.4639999992,3,150222.6093750000,205774.8906250000,176009.0468750000,151971.7500000000,110495.5468750000,150391.4218750000,130891.5781250000,139101.2812500000,,,
0.4679999992,3,150877.2812500000,204608.7968750000,176718.3906250000,152671.0312500000,111148.4531250000,151012.8906250000,131508.6718750000,139566.0625000000,,,
0.4719999994,3,151345.4687500000,200009.0781250000,177264.1562500000,153177.2500000000,111612.1250000000,151466.4218750000,131952.5000000000,139938.5312500000,,,
0.4759999993,3,150957.7187500000,198318.0312500000,176865.1093750000,152763.9531250000,111228.6250000000,151098.6250000000,131594.0468750000,139679.4375000000,,,
0.4799999993,3,150259.9375000000,201835.3437500000,176074.6250000000,151978.9687500000,110544.6015625000,150420.2031250000,130942.7265625000,139151.4687500000,,,
0.4839999992,3,150227.4375000000,205754.7187500000,176029.6250000000,151948.2656250000,110509.3359375000,150384.4062500000,130891.2265625000,139099.0000000000,,,
0.4879999992,3,150867.6562500000,204632.1406250000,176713.2343750000,152648.2343750000,111142.2031250000,151002.7031250000,131494.0312500000,139554.1718750000,,,
0.4919999992,3,151347.5312500000,200008.6250000000,177258.6562500000,153178.2500000000,111611.0546875000,151462.5937500000,131957.2968750000,139938.1562500000,,,
0.4959999993,3,150959.4843750000,198275.5625000000,176854.6093750000,152774.1875000000,111220.4375000000,151097.4687500000,131592.8125000000,139684.9062500000,,,
0.4999999993,3,150249.8281250000,201790.7968750000,176043.4375000000,152010.4062500000,110517.0546875000,150418.8437500000,130920.2734375000,139153.1093750000,,,
0.5039999993,3,150212.9218750000,205751.0468750000,175996.5468750000,151969.2656250000,110483.6406250000,150373.0781250000,130883.3437500000,139096.0000000000,,,
0.5079999992,3,150883.0781250000,204673.9218750000,176729.5937500000,152679.0781250000,111156.3359375000,151012.0156250000,131515.7343750000,139577.2187500000,,,
0.5119999992,4,151352.5937500000,200042.6406250000,177278.3281250000,153188.0937500000,111620.1406250000,151466.4843750000,131956.5468750000,139952.6093750000,,,
0.5159999991,4,150963.1406250000,198273.0468750000,176882.5312500000,152774.3281250000,111233.2656250000,151098.2500000000,131597.0312500000,139692.8437500000,,,
0.5199999991,4,150241.1093750000,201772.3125000000,176066.0937500000,151992.1718750000,110521.2187500000,150408.1093750000,130922.6875000000,139144.3281250000,,,
0.5239999990,4,150188.8593750000,205754.9062500000,175999.0937500000,151937.4531250000,110466.0937500000,150346.7187500000,130855.6640625000,139070.8437500000,,,
0.5279999990,4,150845.3593750000,204703.0781250000,176702.3437500000,152633.2500000000,111118.3828125000,150970.5468750000,131470.2656250000,139536.8281250000,,,
0.5319999990,4,151333.7343750000,200058.8906250000,177255.0625000000,153159.5781250000,111600.2968750000,151443.3281250000,131939.4375000000,139923.1406250000,,,
0.5359999991,4,150965.3437500000,198238.0468750000,176872.4843750000,152779.5625000000,111230.5234375000,151089.5781250000,131599.3281250000,139677.2812500000,,,
0.5399999991,4,150246.9687500000,201704.4843750000,176058.5937500000,152011.1562500000,110517.9140625000,150404.4062500000,130922.5546875000,139136.9062500000,,,
0.5439999991,4,150189.4062500000,205720.1718750000,175989.3281250000,151944.7812500000,110457.9687500000,150349.5000000000,130859.5234375000,139064.5937500000,,,
0.5479999990,4,150858.3437500000,204722.3750000000,176708.7343750000,152646.1250000000,111124.9843750000,150992.2343750000,131484.7968750000,139547.3906250000,,,
0.5519999990,4,151363.6718750000,200084.9375000000,177287.3281250000,153183.4687500000,111631.6796875000,151486.7343750000,131962.8281250000,139956.6718750000,,,
0.5559999992,4,150991.1406250000,198210.6406250000,176911.8593750000,152800.7968750000,111266.2812500000,151137.5625000000,131629.6718750000,139714.7656250000,,,
0.5599999991,4,150269.0937500000,201643.6250000000,176096.4375000000,152027.5781250000,110557.6640625000,150444.1875000000,130961.1562500000,139170.5312500000,,,
0.5639999991,4,150186.0000000000,205697.5312500000,176001.3281250000,151954.7031250000,110471.1406250000,150350.6093750000,130870.3593750000,139072.3125000000,,,
0.5679999990,4,150841.9375000000,204747.6093750000,176698.5625000000,152665.0312500000,111117.3359375000,150970.4687500000,131473.5625000000,139540.8437500000,,,
0.5719999990,4,151348.0625000000,200103.5000000000,177276.3125000000,153215.4218750000,111617.8671875000,151449.4218750000,131953.6718750000,139941.1406250000,,,
0.5759999990,4,150991.9687500000,198177.9375000000,176911.5781250000,152797.2031250000,111261.5859375000,151122.4062500000,131620.6875000000,139712.4218750000,,,
0.5799999991,4,150267.7187500000,201582.2812500000,176084.8437500000,152021.3593750000,110539.9921875000,150437.5625000000,130933.0703125000,139171.9062500000,,,
0.5839999991,4,150170.3125000000,205646.8750000000,175980.5937500000,151932.5781250000,110445.6328125000,150330.5468750000,130846.4609375000,139060.7031250000,,,
0.5879999991,4,150828.1250000000,204729.3750000000,176691.7187500000,152631.0156250000,111102.0468750000,150954.5781250000,131472.8125000000,139530.8906250000,,,
0.5919999990,4,151321.7187500000,200074.5312500000,177257.8593750000,153168.0468750000,111590.6406250000,151436.1406250000,131942.4375000000,139921.9062500000,,,
0.5959999990,4,150975.3437500000,198096.3906250000,176902.8906250000,152801.4218750000,111243.5859375000,151112.6718750000,131612.1718750000,139699.1250000000,,,
0.5999999992,4,150268.2812500000,201469.8906250000,176094.6875000000,152026.5000000000,110542.9140625000,150435.0937500000,130949.9140625000,139171.7500000000,,,
0.6039999991,4,150204.4843750000,205583.5468750000,176017.4218750000,151943.4062500000,110477.8203125000,150361.8750000000,130884.0156250000,139098.1406250000,,,
0.6079999991,4,150867.4687500000,204723.2187500000,176724.7187500000,152650.7812500000,111134.3437500000,150997.0625000000,131501.5156250000,139576.7031250000,,,
0.6119999990,4,151380.8437500000,200068.9687500000,177312.7656250000,153208.5468750000,111642.3828125000,151493.6875000000,131993.0781250000,139981.3750000000,,,
0.6159999990,4,151016.3281250000,198030.6875000000,176941.8593750000,152836.3750000000,111277.7890625000,151143.3593750000,131650.9375000000,139732.7343750000,,,
0.6199999989,4,150285.0312500000,201380.6093750000,176109.4375000000,152056.4843750000,110552.5156250000,150442.2031250000,130951.0703125000,139180.8906250000,,,
0.6239999991,4,150178.6718750000,205524.2187500000,175996.8906250000,151950.4843750000,110447.4296875000,150330.8281250000,130836.3750000000,139065.3906250000,,,
0.6279999991,4,150834.2031250000,204710.7187500000,176700.3593750000,152635.3125000000,111101.4609375000,150954.6875000000,131455.3750000000,139528.4843750000,,,
0.6319999991,4,151368.9375000000,200050.8750000000,177313.0625000000,153197.0156250000,111636.5859375000,151466.4531250000,131974.4062500000,139947.6562500000,,,
0.6359999990,4,151015.3906250000,197955.1875000000,176957.6718750000,152840.7343750000,111285.6953125000,151131.9375000000,131649.8437500000,139713.0156250000,,,
0.6399999990,5,150279.3906250000,201273.5000000000,176123.0625000000,152044.6406250000,110557.1328125000,150429.6718750000,130957.9062500000,139161.0156250000,,,
0.6439999989,5,150188.1093750000,205454.0468750000,176021.5781250000,151943.5156250000,110466.2812500000,150335.9062500000,130866.7109375000,139066.8750000000,,,
0.6479999989,5,150845.7343750000,204690.6562500000,176729.0625000000,152624.7187500000,111123.9062500000,150970.2812500000,131490.1718750000,139541.5156250000,,,
0.6519999988,5,151350.4843750000,200020.7187500000,177302.6562500000,153177.3281250000,111623.8984375000,151454.4375000000,131970.6093750000,139936.4375000000,,,
0.6559999988,5,151021.5312500000,197883.6406250000,176960.2656250000,152843.2656250000,111289.0234375000,151140.5156250000,131656.2187500000,139725.2656250000,,,
0.6599999988,5,150287.0312500000,201197.1718750000,176126.6406250000,152051.9062500000,110559.7578125000,150435.0937500000,130963.7812500000,139176.5781250000,,,
0.6639999989,5,150147.3437500000,205412.8750000000,175969.1875000000,151910.8906250000,110419.9609375000,150285.1250000000,130829.6718750000,139031.7031250000,,,
0.6679999989,5,150807.3593750000,204686.7187500000,176667.6718750000,152594.5937500000,111074.5859375000,150913.3906250000,131446.2031250000,139502.8125000000,,,
0.6719999989,5,151356.7500000000,200006.8281250000,177290.3593750000,153169.3437500000,111618.7187500000,151450.7968750000,131961.9687500000,139943.0937500000,,,
0.6759999988,5,151036.2500000000,197818.9218750000,176967.1406250000,152838.5468750000,111296.0781250000,151158.0781250000,131662.6250000000,139741.3437500000,,,
0.6799999988,5,150303.4843750000,201118.9843750000,176142.3750000000,152054.9531250000,110570.5937500000,150456.4218750000,130972.6562500000,139191.5937500000,,,
0.6839999990,5,150185.2656250000,205393.6406250000,176008.2500000000,151926.7187500000,110453.8125000000,150332.2343750000,130856.8984375000,139072.2031250000,,,
0.6879999989,5,150820.5000000000,204719.5468750000,176688.5781250000,152606.3906250000,111091.3984375000,150941.1406250000,131454.2968750000,139522.1250000000,,,
0.6919999989,5,151357.4843750000,200017.0781250000,177296.5156250000,153183.0937500000,111627.1406250000,151460.4218750000,131966.1562500000,139945.4218750000,,,
0.6959999988,5,151039.6093750000,197778.1875000000,176979.5312500000,152853.5937500000,111312.1718750000,151159.0468750000,131679.0156250000,139742.5937500000,,,
0.6999999988,5,150298.5937500000,201068.7656250000,176140.0937500000,152064.3281250000,110577.6250000000,150453.4687500000,130982.3125000000,139188.9843750000,,,
0.7039999987,5,150167.2812500000,205383.5625000000,175995.0781250000,151926.9375000000,110447.8281250000,150321.5781250000,130847.4531250000,139061.4531250000,,,
0.7079999989,5,150817.1250000000,204750.7500000000,176691.7968750000,152603.0156250000,111101.1328125000,150946.0000000000,131451.0625000000,139524.2187500000,,,
0.7119999989,5,151346.2343750000,200015.7812500000,177294.3906250000,153165.5000000000,111627.0937500000,151457.5468750000,131945.3593750000,139937.4375000000,,,
0.7159999989,5,151014.0000000000,197722.1562500000,176950.5000000000,152850.2656250000,111279.4531250000,151142.7187500000,131647.6875000000,139720.2812500000,,,
0.7199999988,5,150270.8125000000,201008.7656250000,176108.0781250000,152044.0156250000,110534.3593750000,150432.1406250000,130950.8281250000,139163.4843750000,,,
0.7239999988,5,150137.6875000000,205383.2343750000,175955.5312500000,151893.2500000000,110399.4140625000,150289.6406250000,130815.2968750000,139027.9218750000,,,
0.7279999990,5,150795.0781250000,204801.8750000000,176649.1875000000,152578.7656250000,111055.9921875000,150910.1875000000,131432.2500000000,139491.6562500000,,,
0.7319999989,5,151373.5468750000,200046.3125000000,177296.7968750000,153193.9062500000,111633.6328125000,151464.5312500000,131981.9687500000,139946.9375000000,,,
0.7359999989,5,151049.3437500000,197680.1250000000,176986.7656250000,152879.2500000000,111319.0156250000,151155.9375000000,131681.9375000000,139730.6875000000,,,
0.7399999988,5,150280.1406250000,200968.5625000000,176130.8750000000,152061.7656250000,110560.5937500000,150426.8593750000,130956.5703125000,139155.3281250000,,,
0.7439999988,5,150145.7031250000,205424.8125000000,175983.0000000000,151912.8281250000,110427.5781250000,150289.5625000000,130832.1640625000,139028.3750000000,,,
0.7479999987,5,150807.3281250000,204885.6406250000,176685.8750000000,152599.6406250000,111089.5234375000,150923.9218750000,131459.1562500000,139508.5781250000,,,
0.7519999989,5,151375.9375000000,200075.8906250000,177319.5156250000,153196.0781250000,111656.8359375000,151480.1562500000,131993.0312500000,139961.4687500000,,,
0.7559999989,5,151059.9687500000,197640.9062500000,177002.5156250000,152882.7187500000,111339.8281250000,151183.7031250000,131692.7187500000,139762.4687500000,,,
0.7599999988,5,150304.8750000000,200941.5312500000,176157.4218750000,152086.5781250000,110587.1406250000,150461.5937500000,130988.6484375000,139205.3750000000,,,
0.7639999988,5,150165.2031250000,205469.6875000000,176004.7343750000,151925.5468750000,110444.3671875000,150325.0468750000,130857.7578125000,139070.0312500000,,,
0.7679999988,6,150812.0312500000,204973.5312500000,176682.8437500000,152595.4531250000,111081.9609375000,150949.3281250000,131460.4218750000,139531.9062500000,,,
0.7719999987,6,151368.8437500000,200094.8593750000,177291.8906250000,153193.2656250000,111631.6484375000,151489.5781250000,131985.3750000000,139964.6875000000,,,
0.7759999987,6,151057.8281250000,197581.0156250000,176986.5781250000,152871.7968750000,111320.1093750000,151194.9687500000,131694.9218750000,139760.9218750000,,,
0.7799999986,6,150289.0937500000,200879.8125000000,176136.0781250000,152063.3281250000,110557.4531250000,150452.3125000000,130973.3046875000,139180.3281250000,,,
0.7839999986,6,150141.9843750000,205477.1718750000,175968.9531250000,151904.8906250000,110408.1875000000,150299.9062500000,130820.4453125000,139036.1093750000,,,
0.7879999985,6,150799.6562500000,205020.5000000000,176659.4843750000,152591.0468750000,111066.7265625000,150930.0937500000,131433.8437500000,139501.5468750000,,,
0.7919999987,6,151386.0156250000,200090.3750000000,177309.0625000000,153213.5156250000,111656.0078125000,151495.1875000000,131984.2500000000,139957.9843750000,,,
0.7959999987,6,151080.5937500000,197498.2187500000,177019.2500000000,152884.1093750000,111359.0859375000,151212.0000000000,131703.2656250000,139765.6093750000,,,
0.7999999986,6,150291.2187500000,200802.1093750000,176149.7500000000,152040.5312500000,110576.4687500000,150466.6875000000,130963.6171875000,139181.8281250000,,,
0.8039999986,6,150143.9687500000,205469.8437500000,175978.0468750000,151888.2656250000,110428.2734375000,150313.2656250000,130838.3359375000,139045.5468750000,,,
0.8079999986,6,150789.8906250000,205036.4531250000,176655.2968750000,152559.8593750000,111076.0000000000,150929.2968750000,131459.8593750000,139497.0468750000,,,
0.8119999988,6,151352.2812500000,200056.6406250000,177274.4843750000,153171.1406250000,111631.6484375000,151469.8281250000,131990.3906250000,139929.6093750000,,,
0.8159999987,6,151054.8750000000,197396.1875000000,176976.5156250000,152873.5468750000,111326.6015625000,151194.0781250000,131696.7500000000,139746.9218750000,,,
0.8199999987,6,150290.5468750000,200690.0468750000,176129.6875000000,152053.0781250000,110559.7031250000,150461.2656250000,130965.6093750000,139181.7968750000,,,
0.8239999986,6,150118.9375000000,205411.4531250000,175938.0156250000,151874.1562500000,110382.0078125000,150283.5468750000,130784.9062500000,139020.8906250000,,,
0.8279999986,6,150769.8906250000,205037.9062500000,176614.1875000000,152537.0937500000,111034.2187500000,150901.8281250000,131390.7343750000,139482.8750000000,,,
0.8319999985,6,151370.7343750000,200038.0468750000,177263.7656250000,153170.6718750000,111628.0000000000,151486.1406250000,131967.9218750000,139955.2187500000,,,
0.8359999987,6,151073.4375000000,197334.8125000000,176986.7656250000,152886.9062500000,111333.6015625000,151206.5000000000,131690.8750000000,139768.7031250000,,,
0.8399999987,6,150293.7343750000,200626.2031250000,176133.3750000000,152067.4843750000,110561.0703125000,150458.8281250000,130960.4531250000,139187.9218750000,,,
0.8439999986,6,150117.4687500000,205415.9531250000,175941.4218750000,151884.8281250000,110386.1640625000,150284.2656250000,130793.4375000000,139025.5937500000,,,
0.8479999986,6,150762.8593750000,205096.1093750000,176609.3593750000,152553.3437500000,111034.1328125000,150899.2031250000,131407.1562500000,139479.5781250000,,,
0.8519999986,6,151362.0312500000,200077.5781250000,177257.5156250000,153185.2500000000,111632.7265625000,151480.0781250000,131978.0937500000,139944.5156250000,,,
0.8559999987,6,151084.7968750000,197312.6875000000,176995.4531250000,152904.6562500000,111355.2500000000,151220.4218750000,131717.4843750000,139775.1093750000,,,
0.8599999987,6,150318.3906250000,200577.2343750000,176160.8593750000,152083.9843750000,110595.4609375000,150484.7968750000,130992.7500000000,139211.3125000000,,,
0.8639999987,6,150124.3125000000,205400.4531250000,175952.4218750000,151883.0625000000,110404.0000000000,150292.4531250000,130793.9140625000,139037.0781250000,,,
0.8679999986,6,150762.4531250000,205115.0468750000,176613.0468750000,152538.9687500000,111041.5625000000,150897.3125000000,131385.2343750000,139484.7031250000,,,
0.8719999986,6,151364.5312500000,200087.9687500000,177262.1250000000,153181.0000000000,111636.1796875000,151480.5156250000,131960.4843750000,139953.3437500000,,,
0.8759999985,6,151087.0781250000,197269.3437500000,176998.8437500000,152904.3281250000,111351.6796875000,151222.2343750000,131702.9375000000,139780.7343750000,,,
0.8799999987,6,150297.3125000000,200508.9687500000,176146.2187500000,152068.4218750000,110565.5000000000,150466.2812500000,130978.8593750000,139191.6250000000,,,
0.8839999987,6,150097.1093750000,205375.7031250000,175933.6718750000,151850.6093750000,110366.5625000000,150268.5000000000,130787.2890625000,139011.9062500000,,,
0.8879999986,6,150745.0468750000,205140.0156250000,176608.4375000000,152515.8125000000,111016.8906250000,150888.3125000000,131390.8750000000,139467.5937500000,,,
0.8919999986,6,151363.5156250000,200102.6562500000,177279.3906250000,153154.0468750000,111634.0625000000,151483.1093750000,131972.6406250000,139945.4531250000,,,
0.8959999986,7,151101.5468750000,197229.1562500000,177043.6093750000,152884.8125000000,111373.5156250000,151228.3593750000,131731.4375000000,139783.2031250000,,,
0.8999999985,7,150299.0781250000,200460.5312500000,176177.5781250000,152046.5156250000,110580.5468750000,150453.4687500000,130972.2578125000,139184.0625000000,,,
0.9039999985,7,150092.1250000000,205377.9843750000,175950.7656250000,151835.8750000000,110377.9062500000,150251.6875000000,130771.3906250000,138998.5468750000,,,
0.9079999984,7,150753.8437500000,205187.1093750000,176628.0156250000,152511.7968750000,111042.5546875000,150883.5000000000,131390.7968750000,139467.5625000000,,,
0.9119999984,7,151392.9843750000,200128.3125000000,177314.8281250000,153190.1718750000,111676.0390625000,151506.3750000000,131989.8593750000,139969.8125000000,,,
0.9159999983,7,151101.1406250000,197191.0937500000,177045.5000000000,152915.7343750000,111380.2734375000,151230.4218750000,131723.0625000000,139786.9843750000,,,
0.9199999985,7,150294.8125000000,200407.5000000000,176166.2031250000,152077.8125000000,110577.4921875000,150455.6875000000,130963.5937500000,139188.2343750000,,,
0.9239999985,7,150083.0000000000,205384.6093750000,175932.6562500000,151862.4843750000,110364.0937500000,150252.4843750000,130753.3125000000,139001.1093750000,,,
0.9279999984,7,150727.3125000000,205248.9687500000,176585.0781250000,152513.5156250000,111002.1093750000,150864.9218750000,131361.0937500000,139455.2500000000,,,
0.9319999984,7,151382.7968750000,200155.9531250000,177275.8281250000,153172.6406250000,111650.6171875000,151496.2031250000,131983.7500000000,139967.3906250000,,,
0.9359999984,7,151113.2031250000,197157.7031250000,177026.4843750000,152921.6875000000,111376.0078125000,151243.4062500000,131729.3593750000,139802.3593750000,,,
0.9399999985,7,150290.0156250000,200369.9218750000,176143.9375000000,152075.1250000000,110557.6093750000,150451.9062500000,130945.4062500000,139185.7968750000,33029,0.9408564554,0.0000000000
0.9439999985,7,150071.8750000000,205402.0625000000,175907.5000000000,151835.5625000000,110342.4218750000,150233.1718750000,130725.7656250000,138991.6093750000,,,
0.9479999985,7,150719.8906250000,205299.3125000000,176566.0625000000,152488.8906250000,110993.1484375000,150854.4062500000,131341.1718750000,139448.0156250000,,,
0.9519999984,7,151360.4062500000,200176.5781250000,177249.2187500000,153160.4375000000,111633.7421875000,151473.7187500000,131956.9218750000,139943.6875000000,,,
0.9559999984,7,151117.9375000000,197105.1406250000,177033.4843750000,152915.5468750000,111392.6953125000,151246.2500000000,131738.0000000000,139801.9375000000,,,
0.9599999983,7,150343.2812500000,200305.2031250000,176205.5000000000,152096.2968750000,110625.2578125000,150501.5625000000,131013.6718750000,139234.5937500000,,,
0.9639999985,7,150113.5468750000,205397.2187500000,175955.1093750000,151858.2656250000,110392.1171875000,150275.4687500000,130786.1093750000,139033.7968750000,,,
0.9679999985,7,150746.9531250000,205356.6250000000,176595.1562500000,152507.0468750000,111024.5625000000,150879.7187500000,131375.8437500000,139475.7187500000,,,
0.9719999984,7,151381.6406250000,200216.4218750000,177276.6562500000,153171.4531250000,111658.9296875000,151485.0156250000,131974.1718750000,139963.0000000000,,,
0.9759999984,7,151143.2187500000,197076.6250000000,177062.5156250000,152935.6093750000,111420.2890625000,151261.8281250000,131737.5781250000,139825.9687500000,,,
0.9799999984,7,150355.5625000000,200241.7343750000,176216.2812500000,152095.4062500000,110637.1171875000,150505.0468750000,131002.0000000000,139246.7968750000,,,
0.9839999985,7,150098.0937500000,205368.4843750000,175936.2187500000,151844.6406250000,110373.8515625000,150250.7187500000,130760.8984375000,139016.3125000000,,,
0.9879999985,7,150723.5937500000,205390.0000000000,176566.5468750000,152496.8281250000,110992.4296875000,150852.5781250000,131350.1562500000,139442.8906250000,,,
0.9919999985,7,151365.9531250000,200264.1093750000,177251.0781250000,153169.7343750000,111629.1328125000,151469.2656250000,131958.3750000000,139931.3437500000,,,
0.9959999984,7,151135.5312500000,197080.0625000000,177050.9843750000,152945.2343750000,111398.1093750000,151248.8750000000,131744.1093750000,139797.5000000000,,,
0.9999999984,7,150351.2187500000,200205.6093750000,176209.8593750000,152116.8593750000,110620.5078125000,150503.5937500000,131006.8593750000,139227.2343750000,,,
1.0039999983,7,150122.3281250000,205353.2500000000,175962.8906250000,151861.8750000000,110392.0156250000,150274.8906250000,130779.7812500000,139030.6875000000,,,
1.0079999985,7,150772.5468750000,205430.9218750000,176621.7500000000,152529.5781250000,111041.8046875000,150889.9375000000,131382.7500000000,139491.1718750000,,,
1.0119999985,7,151396.7187500000,200283.4218750000,177289.2968750000,153200.8593750000,111670.8359375000,151493.3593750000,131979.3125000000,139965.0156250000,,,
1.0159999984,7,151156.9218750000,197031.2968750000,177083.1406250000,152969.0312500000,111433.4921875000,151252.9843750000,131759.9375000000,139814.6406250000,,,
1.0199999984,7,150351.2187500000,200143.6406250000,176214.9375000000,152121.2656250000,110629.3125000000,150487.6718750000,131002.0000000000,139227.5625000000,,,
1.0239999983,8,150100.5625000000,205341.6093750000,175935.8750000000,151853.7187500000,110374.2343750000,150249.0781250000,130759.7500000000,139017.4062500000,,,
1.0279999983,8,150726.8437500000,205458.9218750000,176574.8125000000,152494.4062500000,111003.3984375000,150850.3750000000,131349.7031250000,139454.2031250000,,,
1.0319999983,8,151382.9843750000,200296.9062500000,177272.4687500000,153193.5312500000,111658.3125000000,151487.7187500000,131974.6718750000,139958.6562500000,,,
1.0359999982,8,151156.6562500000,197004.9062500000,177070.5000000000,152957.2031250000,111429.1406250000,151279.2968750000,131760.4218750000,139832.7187500000,,,
1.0399999982,8,150357.4375000000,200108.4843750000,176212.5781250000,152110.4531250000,110633.5234375000,150515.0468750000,131009.1406250000,139251.0000000000,,,
1.0439999981,8,150106.0468750000,205345.9062500000,175938.3906250000,151847.3593750000,110378.3046875000,150273.6718750000,130767.0390625000,139042.5625000000,,,
1.0479999983,8,150746.9531250000,205516.6250000000,176586.5468750000,152503.8750000000,111016.8593750000,150885.4843750000,131365.1718750000,139495.0625000000,,,
1.0519999983,8,151393.0468750000,200360.0468750000,177268.6718750000,153194.0468750000,111660.3203125000,151504.7343750000,131979.4843750000,139983.3593750000,,,
1.0559999982,8,151173.9687500000,197015.0156250000,177073.7968750000,152971.7187500000,111438.5859375000,151291.0468750000,131780.0625000000,139853.7812500000,,,
1.0599999982,8,150361.1406250000,200070.3906250000,176207.9843750000,152129.8437500000,110627.7500000000,150502.8125000000,131007.8515625000,139247.0312500000,,,
1.0639999982,8,150099.8906250000,205318.0000000000,175926.8125000000,151849.2343750000,110368.0312500000,150246.2656250000,130749.2031250000,139019.4218750000,,,
1.0679999983,8,150729.9531250000,205538.6250000000,176568.0000000000,152493.4687500000,111000.7656250000,150846.2968750000,131336.4687500000,139457.4218750000,,,
1.0719999983,8,151404.4375000000,200400.4375000000,177277.8437500000,153195.5468750000,111672.5781250000,151499.7187500000,131981.5000000000,139975.3593750000,,,
1.0759999983,8,151185.2500000000,197018.7187500000,177087.0781250000,152986.8593750000,111450.4375000000,151298.0937500000,131785.9062500000,139851.6250000000,,,
1.0799999982,8,150376.6406250000,200036.7812500000,176229.5781250000,152143.3125000000,110646.3437500000,150524.8593750000,131022.4687500000,139258.5156250000,,,
1.0839999982,8,150121.8906250000,205309.3906250000,175953.0937500000,151854.0625000000,110394.5625000000,150277.9218750000,130765.6484375000,139047.2968750000,,,
1.0879999981,8,150744.5937500000,205589.2812500000,176585.5156250000,152491.5937500000,111020.1093750000,150867.1093750000,131323.7031250000,139484.0312500000,,,
1.0919999983,8,151376.6562500000,200455.2656250000,177257.9062500000,153187.3593750000,111648.4140625000,151479.7656250000,131961.0312500000,139958.8125000000,,,
1.0959999983,8,151166.9062500000,197018.5468750000,177071.0937500000,152989.1406250000,111429.2500000000,151288.3281250000,131789.7656250000,139841.3906250000,,,
1.0999999982,8,150361.7812500000,199983.0625000000,176214.0156250000,152145.1562500000,110629.0156250000,150519.9843750000,131035.9609375000,139250.3125000000,,,
1.1039999982,8,150086.5937500000,205267.7187500000,175923.1406250000,151850.9843750000,110357.8984375000,150243.5000000000,130765.8359375000,139011.5312500000,,,
1.1079999981,8,150707.6562500000,205588.8750000000,176545.1406250000,152465.5312500000,110981.1328125000,150828.2500000000,131339.3437500000,139441.8437500000,,,
1.1119999983,8,151388.2500000000,200469.7031250000,177255.6562500000,153166.4687500000,111660.8046875000,151481.0156250000,131980.2031250000,139961.2187500000,,,
1.1159999983,8,151197.1406250000,196989.8750000000,177101.2656250000,152976.8125000000,111470.6640625000,151296.6718750000,131805.2656250000,139854.2656250000,,,
1.1199999982,8,150391.8281250000,199925.2031250000,176254.7968750000,152131.0312500000,110671.3906250000,150524.0625000000,131046.1796875000,139263.9062500000,,,
1.1239999982,8,150114.5468750000,205239.3906250000,175954.7812500000,151842.8750000000,110393.3046875000,150260.5312500000,130775.5156250000,139038.9531250000,,,
1.1279999982,8,150713.7812500000,205614.7656250000,176560.5312500000,152466.7812500000,110993.5781250000,150838.0937500000,131338.5468750000,139457.2187500000,,,
1.1319999981,8,151372.7968750000,200489.7656250000,177251.8281250000,153170.3906250000,111652.2500000000,151473.7500000000,131969.5312500000,139954.1406250000,,,
1.1359999983,8,151191.1250000000,196946.0000000000,177099.9218750000,152996.9531250000,111467.2031250000,151300.9062500000,131799.5000000000,139858.1562500000,,,
1.1399999983,8,150374.6093750000,199838.4375000000,176242.2343750000,152149.9062500000,110657.6562500000,150520.2812500000,131028.0234375000,139260.9062500000,,,
1.1439999982,8,150067.1406250000,205168.0625000000,175914.4218750000,151840.4062500000,110348.9921875000,150232.9843750000,130744.1328125000,139005.8750000000,,,
1.1479999982,8,150671.6093750000,205590.9687500000,176521.5312500000,152461.3906250000,110949.4062500000,150822.3437500000,131319.3593750000,139427.1718750000,,,
1.1519999981,9,151355.1406250000,200499.4375000000,177236.5937500000,153173.5000000000,111627.6562500000,151477.3437500000,131958.7812500000,139944.6250000000,,,
1.1559999981,9,151182.8906250000,196941.7031250000,177094.1093750000,153000.8125000000,111449.2031250000,151305.6875000000,131791.4843750000,139849.2656250000,,,
1.1599999981,9,150394.4062500000,199812.3750000000,176256.3750000000,152167.5625000000,110661.4687500000,150542.1875000000,131046.1015625000,139269.5156250000,,,
1.1639999980,9,150095.3906250000,205172.6250000000,175938.6718750000,151857.0156250000,110362.9921875000,150242.3281250000,130750.6250000000,139012.9531250000,,,
1.1679999980,9,150680.4375000000,205655.1875000000,176526.4218750000,152461.1562500000,110948.6015625000,150809.0468750000,131290.8281250000,139414.5156250000,,,
1.1719999979,9,151359.2187500000,200555.9375000000,177240.0781250000,153166.9218750000,111631.0625000000,151467.0156250000,131949.2187500000,139928.7500000000,,,
1.1759999981,9,151186.5625000000,196936.6718750000,177103.0468750000,153003.1250000000,111456.1796875000,151303.9218750000,131794.8906250000,139840.5000000000,,,
1.1799999981,9,150378.9531250000,199765.9062500000,176248.7343750000,152168.2031250000,110651.7890625000,150528.4843750000,131031.6953125000,139253.3125000000,,,
1.1839999980,9,150066.6093750000,205155.4375000000,175914.6875000000,151846.1562500000,110342.0468750000,150222.9375000000,130732.1718750000,138997.5625000000,,,
1.1879999980,9,150685.2656250000,205691.6718750000,176534.0156250000,152472.6875000000,110960.5078125000,150820.4687500000,131308.7187500000,139439.2968750000,,,
1.1919999979,9,151368.7187500000,200595.5781250000,177252.2500000000,153192.9687500000,111642.9140625000,151474.0468750000,131947.3281250000,139954.8125000000,,,
1.1959999981,9,151181.5000000000,196922.0000000000,177093.6562500000,153006.5468750000,111446.8437500000,151293.7500000000,131779.6875000000,139846.1093750000,,,
1.1999999981,9,150387.9062500000,199721.8125000000,176253.6406250000,152167.0468750000,110653.1015625000,150527.1250000000,131039.2031250000,139264.1718750000,,,
1.2039999980,9,150074.7343750000,205138.9375000000,175921.9218750000,151834.0781250000,110340.2968750000,150225.5000000000,130741.1015625000,139005.7968750000,,,
1.2079999980,9,150672.8750000000,205721.5468750000,176518.0781250000,152435.2187500000,110939.9375000000,150807.8593750000,131295.3906250000,139424.5625000000,,,
1.2119999980,9,151393.0156250000,200640.3593750000,177260.9375000000,153169.7343750000,111660.4609375000,151508.7343750000,131969.0781250000,139978.0468750000,,,
1.2159999979,9,151199.0625000000,196907.7812500000,177108.8281250000,153018.7656250000,111466.1015625000,151313.5625000000,131794.5937500000,139853.1093750000,,,
1.2199999981,9,150384.3750000000,199665.0625000000,176243.6562500000,152171.4687500000,110650.4687500000,150527.6875000000,131023.1406250000,139251.8281250000,,,
1.2239999981,9,150066.5312500000,205108.8750000000,175900.0156250000,151826.1718750000,110335.2031250000,150216.7031250000,130710.5312500000,138987.6875000000,,,
1.2279999980,9,150660.7968750000,205741.5312500000,176496.7343750000,152429.8593750000,110932.1015625000,150782.5156250000,131278.7812500000,139398.3906250000,,,
1.2319999980,9,151376.9843750000,200656.5937500000,177244.9062500000,153173.9531250000,111648.6015625000,151474.4687500000,131965.2187500000,139947.6875000000,,,
1.2359999979,9,151233.4531250000,196885.6562500000,177141.2343750000,153039.7031250000,111502.7968750000,151342.9062500000,131832.8125000000,139883.2500000000,,,
1.2399999981,9,150439.3593750000,199617.5937500000,176307.3125000000,152200.9218750000,110712.7265625000,150587.9218750000,131084.3750000000,139311.6562500000,,,
1.2439999981,9,150088.0156250000,205090.3906250000,175932.6250000000,151856.7187500000,110359.6093750000,150249.0000000000,130738.0468750000,139021.8906250000,,,
1.2479999980,9,150654.8437500000,205775.1406250000,176495.8125000000,152434.1406250000,110926.0390625000,150792.8750000000,131265.6718750000,139408.3750000000,,,
1.2519999980,9,151357.2968750000,200699.4843750000,177219.2812500000,153165.1875000000,111622.0781250000,151468.8906250000,131931.5156250000,139938.4062500000,,,
1.2559999980,9,151240.8281250000,196885.1875000000,177139.3906250000,153047.5625000000,111496.9765625000,151353.0781250000,131823.0312500000,139891.5468750000,,,
1.2599999979,9,150448.5625000000,199572.6250000000,176310.0156250000,152209.2187500000,110704.9765625000,150586.7656250000,131074.5000000000,139316.5312500000,,,
1.2639999981,9,150118.7187500000,205057.4218750000,175968.7343750000,151872.8437500000,110384.5546875000,150257.8750000000,130768.0859375000,139039.4062500000,,,
1.2679999981,9,150689.9062500000,205804.3437500000,176543.5625000000,152454.0781250000,110957.5859375000,150809.2031250000,131302.3281250000,139433.0156250000,,,
1.2719999980,9,151358.6562500000,200745.4062500000,177233.2656250000,153182.0468750000,111622.2656250000,151459.9062500000,131916.2343750000,139935.5312500000,,,
1.2759999980,9,151209.5000000000,196882.2656250000,177128.9843750000,153044.4062500000,111476.2187500000,151321.0312500000,131771.4531250000,139856.5468750000,,,
1.2799999979,10,150409.0156250000,199517.6406250000,176295.0000000000,152200.4375000000,110679.6796875000,150559.3906250000,131045.6171875000,139277.0000000000,,,
1.2839999979,10,150065.5156250000,205022.0781250000,175925.9218750000,151840.7031250000,110337.1328125000,150225.7500000000,130727.1562500000,138995.3281250000,,,
1.2879999978,10,150645.1875000000,205819.5468750000,176501.5000000000,152433.4218750000,110917.7812500000,150782.1250000000,131272.7656250000,139395.1718750000,,,
1.2919999978,10,151360.9062500000,200784.9375000000,177247.6718750000,153175.3750000000,111634.7343750000,151472.5468750000,131952.9843750000,139935.9062500000,,,
1.2959999978,10,151240.8281250000,196885.3750000000,177170.0625000000,153053.6562500000,111514.6562500000,151360.2656250000,131841.6718750000,139884.2968750000,,,
1.2999999977,10,150469.3750000000,199484.4375000000,176361.9218750000,152223.9375000000,110746.8984375000,150619.1250000000,131107.8437500000,139333.7031250000,,,
1.3039999979,10,150113.8125000000,205003.4375000000,175983.6406250000,151848.2968750000,110384.7968750000,150274.7812500000,130758.7812500000,139050.3437500000,,,
1.3079999979,10,150647.6562500000,205853.2656250000,176506.5156250000,152421.7187500000,110907.2109375000,150787.9843750000,131262.3437500000,139409.9531250000,,,
1.3119999978,10,151365.4687500000,200838.9531250000,177243.5937500000,153178.2656250000,111616.7656250000,151480.0312500000,131940.5156250000,139949.6718750000,,,
1.3159999978,10,151227.4687500000,196899.0625000000,177141.7500000000,153046.2187500000,111477.3437500000,151346.7031250000,131814.7656250000,139878.1250000000,,,
1.3199999977,10,150423.6406250000,199433.5000000000,176292.3437500000,152210.3906250000,110681.1796875000,150573.5781250000,131060.7421875000,139293.5781250000,,,
1.3239999979,10,150068.8593750000,204935.7968750000,175913.1562500000,151826.7812500000,110330.5625000000,150226.7656250000,130717.3906250000,139004.0468750000,,,
1.3279999979,10,150629.7343750000,205834.1718750000,176477.0156250000,152388.0156250000,110897.6406250000,150765.4062500000,131246.1093750000,139386.9375000000,,,
1.3319999978,10,151358.9218750000,200852.2343750000,177233.5000000000,153147.6718750000,111631.0625000000,151474.9375000000,131943.7343750000,139940.0312500000,,,
1.3359999978,10,151246.7343750000,196885.4062500000,177172.6093750000,153057.0312500000,111521.6015625000,151368.0156250000,131840.0312500000,139893.3593750000,,,
1.3399999978,10,150440.0312500000,199371.5937500000,176330.7812500000,152234.2343750000,110718.7578125000,150588.7343750000,131088.6718750000,139302.3437500000,,,
1.3439999977,10,150074.3281250000,204879.5468750000,175934.9843750000,151849.8281250000,110351.1093750000,150232.3125000000,130740.5390625000,139002.1718750000,,,
1.3479999979,10,150647.0468750000,205837.2500000000,176504.5000000000,152410.7500000000,110920.5156250000,150783.4531250000,131266.0156250000,139399.1093750000,,,
1.3519999979,10,151368.0468750000,200884.6406250000,177256.0312500000,153162.0468750000,111638.9765625000,151477.8750000000,131944.8281250000,139941.9218750000,,,
1.3559999978,10,151261.1875000000,196884.8437500000,177189.6718750000,153074.4375000000,111529.7500000000,151374.6718750000,131849.7968750000,139900.6875000000,,,
1.3599999978,10,150471.2500000000,199321.4375000000,176356.5312500000,152258.5937500000,110741.3984375000,150620.1406250000,131102.6406250000,139330.8281250000,,,
1.3639999977,10,150078.1406250000,204830.1718750000,175940.2187500000,151854.2031250000,110352.1562500000,150237.1406250000,130720.9375000000,139006.3281250000,,,
1.3679999979,10,150618.4218750000,205832.5625000000,176476.1250000000,152394.0468750000,110890.3437500000,150759.1875000000,131234.0937500000,139373.8437500000,,,
1.3719999979,10,151346.3437500000,200910.0937500000,177229.4218750000,153153.2187500000,111611.4765625000,151460.0468750000,131928.8437500000,139921.7187500000,,,
1.3759999978,10,151258.7968750000,196881.0312500000,177176.9062500000,153076.0156250000,111517.9765625000,151377.4375000000,131851.3281250000,139895.6718750000,,,
1.3799999978,10,150459.6875000000,199275.7656250000,176333.1093750000,152249.6093750000,110717.6093750000,150613.6250000000,131091.7500000000,139318.4062500000,,,
1.3839999977,10,150093.1093750000,204786.8437500000,175939.6875000000,151859.4531250000,110353.6875000000,150254.8750000000,130737.7265625000,139022.8750000000,,,
1.3879999977,10,150643.2343750000,205844.3125000000,176495.4687500000,152402.6875000000,110908.6875000000,150784.3125000000,131242.1406250000,139405.0937500000,,,
1.3919999979,10,151361.1250000000,200948.2812500000,177244.2812500000,153150.2343750000,111630.7109375000,151486.5468750000,131929.6406250000,139947.8750000000,,,
1.3959999979,10,151271.3593750000,196874.7812500000,177187.0781250000,153071.9218750000,111539.8906250000,151408.2187500000,131864.6250000000,139920.6250000000,,,
1.3999999978,10,150482.1875000000,199211.6875000000,176351.6250000000,152254.2500000000,110754.6718750000,150653.2031250000,131124.7343750000,139352.2500000000,,,
1.4039999978,10,150091.5312500000,204725.8750000000,175943.5000000000,151847.7343750000,110367.4140625000,150274.5156250000,130748.0781250000,139033.9062500000,,,
1.4079999977,11,150628.5312500000,205831.2500000000,176484.6562500000,152397.6093750000,110906.0859375000,150778.8750000000,131248.9062500000,139394.7500000000,,,
1.4119999977,11,151355.1718750000,200964.8906250000,177232.6250000000,153145.5468750000,111625.8281250000,151472.1718750000,131935.4375000000,139935.6875000000,,,
1.4159999976,11,151278.3750000000,196862.0937500000,177194.0156250000,153080.0000000000,111541.2343750000,151398.8593750000,131861.7812500000,139917.0312500000,,,
1.4199999976,11,150478.5468750000,199150.9062500000,176353.3593750000,152254.5625000000,110741.5859375000,150628.7187500000,131101.8125000000,139338.6093750000,,,
1.4239999976,11,150080.6718750000,204668.7812500000,175924.9843750000,151837.0312500000,110341.6171875000,150236.5781250000,130718.2812500000,139017.0156250000,,,
1.4279999975,11,150593.0781250000,205829.3125000000,176439.7343750000,152383.1250000000,110850.7500000000,150725.8125000000,131189.9687500000,139358.1093750000,,,
1.4319999977,11,151324.5156250000,200987.3125000000,177191.3125000000,153157.0312500000,111578.9453125000,151434.1562500000,131875.7656250000,139904.7968750000,,,
1.4359999977,11,151254.2968750000,196845.1406250000,177161.8281250000,153098.0468750000,111511.0546875000,151372.1562500000,131827.7187500000,139891.6718750000,,,
1.4399999976,11,150451.3281250000,199087.0937500000,176326.8906250000,152246.6562500000,110715.8125000000,150606.5468750000,131081.3125000000,139309.2031250000,,,
1.4439999976,11,150051.1562500000,204615.2968750000,175903.6875000000,151824.3750000000,110320.1875000000,150213.0000000000,130698.0000000000,138982.6718750000,,,
1.4479999975,11,150612.6875000000,205829.4687500000,176462.5781250000,152391.9062500000,110882.0781250000,150747.1093750000,131222.2656250000,139373.9843750000,,,
1.4519999977,11,151359.7343750000,201017.3281250000,177238.4375000000,153160.7812500000,111628.2421875000,151460.5000000000,131929.8125000000,139937.8125000000,,,
1.4559999977,11,151289.1093750000,196849.3125000000,177214.2500000000,153112.1562500000,111558.6640625000,151393.8437500000,131862.2343750000,139921.6093750000,,,
1.4599999976,11,150490.3750000000,199055.2656250000,176377.2812500000,152295.0156250000,110760.4140625000,150629.2343750000,131095.4218750000,139343.2968750000,,,
1.4639999976,11,150069.8593750000,204580.4531250000,175924.3750000000,151845.0781250000,110337.6718750000,150222.2656250000,130689.3125000000,139005.1718750000,,,
1.4679999975,11,150595.4375000000,205839.7500000000,176444.8281250000,152377.8750000000,110861.0234375000,150730.0781250000,131192.2031250000,139363.5781250000,,,
1.4719999975,11,151338.4687500000,201054.4687500000,177209.1250000000,153142.2187500000,111600.3203125000,151454.3281250000,131913.9062500000,139925.5781250000,,,
1.4759999977,11,151285.3750000000,196853.1406250000,177197.9687500000,153097.7187500000,111542.3828125000,151409.4531250000,131868.6562500000,139927.1875000000,,,
1.4799999977,11,150488.7343750000,199011.3281250000,176361.8125000000,152272.0781250000,110747.9687500000,150642.9687500000,131111.9531250000,139350.2500000000,,,
1.4839999976,11,150090.9062500000,204549.3906250000,175933.4375000000,151859.0000000000,110352.5859375000,150246.1093750000,130720.5859375000,139026.6718750000,,,
1.4879999976,11,150597.9531250000,205858.5312500000,176444.8750000000,152379.3437500000,110861.9609375000,150731.0156250000,131199.5468750000,139366.8750000000,,,
1.4919999975,11,151334.0312500000,201084.4531250000,177200.0625000000,153128.1406250000,111596.5703125000,151445.3437500000,131908.6093750000,139918.0156250000,,,
1.4959999977,11,151301.2343750000,196850.5937500000,177210.0312500000,153095.9843750000,111564.1640625000,151414.6093750000,131887.0312500000,139934.4843750000,,,
1.4999999977,11,150516.3593750000,198964.3593750000,176385.3125000000,152284.6093750000,110778.3593750000,150663.0468750000,131137.7187500000,139369.9843750000,,,
1.5039999976,11,150086.7500000000,204513.4531250000,175920.0312500000,151844.5468750000,110346.4687500000,150244.1250000000,130715.7812500000,139025.9687500000,,,
1.5079999976,11,150596.9687500000,205881.4062500000,176430.1875000000,152364.4843750000,110858.8281250000,150731.2031250000,131202.6250000000,139373.6562500000,,,
1.5119999975,11,151353.6093750000,201140.8593750000,177208.2343750000,153141.6562500000,111613.7343750000,151470.7968750000,131922.4843750000,139948.1875000000,,,
1.5159999975,11,151302.0156250000,196858.1875000000,177203.6250000000,153111.6093750000,111562.5546875000,151430.4687500000,131873.3437500000,139950.6562500000,,,
1.5199999977,11,150505.5781250000,198906.5625000000,176377.2343750000,152282.3281250000,110777.5312500000,150668.3437500000,131110.6875000000,139376.2968750000,,,
1.5239999976,11,150085.4687500000,204460.6718750000,175929.7031250000,151825.6875000000,110360.7421875000,150251.2812500000,130727.1562500000,139038.2500000000,,,
1.5279999976,11,150591.2187500000,205876.7656250000,176431.1406250000,152349.3906250000,110861.7500000000,150736.0937500000,131215.1250000000,139377.5312500000,,,
1.5319999976,11,151333.5312500000,201161.6875000000,177191.9843750000,153126.8750000000,111599.0312500000,151456.0468750000,131912.8593750000,139927.2656250000,,,
1.5359999975,12,151304.1875000000,196855.8437500000,177202.9843750000,153114.0312500000,111564.8671875000,151419.3281250000,131880.4531250000,139940.4687500000,,,
1.5399999975,12,150533.0000000000,198858.5781250000,176398.6406250000,152305.6093750000,110794.6640625000,150672.8437500000,131148.0000000000,139384.5781250000,,,
1.5439999974,12,150097.6718750000,204402.8125000000,175935.2656250000,151852.5625000000,110360.1484375000,150260.0312500000,130730.3203125000,139040.3437500000,,,
1.5479999974,12,150583.6562500000,205876.8125000000,176428.3281250000,152342.4062500000,110850.2421875000,150728.7343750000,131182.0000000000,139365.1250000000,,,
1.5519999973,12,151344.2812500000,201209.5781250000,177210.8593750000,153128.9218750000,111611.5078125000,151462.9375000000,131906.2500000000,139938.3750000000,,,
1.5559999973,12,151318.1093750000,196885.8125000000,177232.4375000000,153127.5000000000,111584.7421875000,151436.3593750000,131893.5468750000,139957.9843750000,,,
1.5599999975,12,150528.5156250000,198837.5156250000,176410.8125000000,152296.1718750000,110798.9296875000,150678.3750000000,131150.9531250000,139386.4062500000,,,
1.5639999975,12,150100.5937500000,204367.8906250000,175947.7343750000,151840.1875000000,110373.3750000000,150256.4062500000,130737.0000000000,139045.0312500000,,,
1.5679999974,12,150606.2500000000,205876.8125000000,176454.5625000000,152351.4531250000,110884.1953125000,150729.9218750000,131217.1093750000,139385.5156250000,,,
1.5719999974,12,151368.3750000000,201239.0312500000,177239.3437500000,153134.2031250000,111644.3906250000,151461.9531250000,131934.5468750000,139956.7812500000,,,
1.5759999973,12,151331.0312500000,196885.3593750000,177250.7968750000,153125.2968750000,111605.1484375000,151431.1562500000,131901.5312500000,139964.6250000000,,,
1.5799999975,12,150537.1250000000,198774.3593750000,176422.8125000000,152322.6406250000,110814.6484375000,150677.2656250000,131154.5937500000,139388.2187500000,,,
1.5839999975,12,150090.0000000000,204303.2500000000,175938.0000000000,151857.5781250000,110361.2187500000,150243.1562500000,130726.0859375000,139030.1718750000,,,
1.5879999974,12,150578.2968750000,205867.2343750000,176419.4843750000,152356.3593750000,110845.4140625000,150707.2500000000,131181.5781250000,139358.6718750000,,,
1.5919999974,12,151336.3906250000,201276.0000000000,177195.2500000000,153142.3281250000,111599.1953125000,151444.4375000000,131897.7500000000,139932.0781250000,,,
1.5959999973,12,151314.1562500000,196898.5312500000,177220.7343750000,153129.3125000000,111575.1093750000,151436.0937500000,131884.2968750000,139956.3750000000,,,
1.5999999973,12,150534.5156250000,198736.8906250000,176409.4218750000,152306.3437500000,110802.2031250000,150690.5156250000,131155.3750000000,139394.6406250000,,,
1.6039999975,12,150083.9375000000,204260.5781250000,175930.9218750000,151839.0156250000,110353.3906250000,150254.0781250000,130724.3125000000,139038.0312500000,,,
1.6079999974,12,150573.4218750000,205878.1562500000,176420.2343750000,152337.3750000000,110843.4296875000,150724.4218750000,131175.4687500000,139370.3906250000,,,
1.6119999974,12,151322.9062500000,201304.7968750000,177196.0937500000,153125.1093750000,111596.7812500000,151443.2500000000,131884.4531250000,139925.3437500000,,,
1.6159999974,12,151309.7343750000,196885.4062500000,177230.2031250000,153128.2968750000,111583.0234375000,151432.9062500000,131887.9843750000,139950.4218750000,,,
1.6199999973,12,150516.3906250000,198683.2968750000,176401.8281250000,152309.9375000000,110791.1015625000,150676.7031250000,131146.1406250000,139374.9531250000,,,
1.6239999975,12,150059.7656250000,204219.7812500000,175908.7031250000,151831.6406250000,110332.8984375000,150232.0468750000,130704.0625000000,139012.0000000000,,,
1.6279999975,12,150533.4687500000,205888.2968750000,176383.5312500000,152312.1093750000,110804.7812500000,150682.7343750000,131145.9843750000,139325.2812500000,,,
1.6319999974,12,151288.6718750000,201341.8125000000,177158.0781250000,153089.3281250000,111555.7421875000,151411.5000000000,131852.7187500000,139883.9843750000,,,
1.6359999974,12,151300.5937500000,196891.9062500000,177214.0625000000,153124.8906250000,111560.4609375000,151420.7500000000,131859.5937500000,139929.8906250000,,,
1.6399999973,12,150531.6718750000,198644.0468750000,176417.2187500000,152330.0468750000,110794.1875000000,150677.0000000000,131133.4375000000,139376.9375000000,,,
1.6439999973,12,150065.0312500000,204180.9375000000,175926.5468750000,151839.7656250000,110333.3828125000,150223.3125000000,130688.2890625000,139008.4531250000,,,
1.6479999975,12,150542.8593750000,205904.1250000000,176403.7031250000,152314.9218750000,110815.3750000000,150683.0312500000,131141.4843750000,139335.7343750000,,,
1.6519999974,12,151320.8437500000,201407.7812500000,177195.1406250000,153106.6250000000,111590.7187500000,151434.6250000000,131878.9843750000,139922.5468750000,,,
1.6559999974,12,151325.7187500000,196938.4062500000,177247.6718750000,153149.2968750000,111594.0703125000,151441.9375000000,131881.4218750000,139960.3750000000,,,
1.6599999974,12,150542.0625000000,198632.0625000000,176434.3593750000,152338.6562500000,110818.0312500000,150694.5625000000,131140.7812500000,139396.0625000000,,,
1.6639999973,13,150075.3593750000,204163.6406250000,175937.0000000000,151842.4531250000,110353.2578125000,150238.5625000000,130707.7890625000,139024.3906250000,,,
1.6679999973,13,150539.1093750000,205933.6562500000,176396.1250000000,152319.1250000000,110815.8046875000,150679.7968750000,131155.1562500000,139332.8437500000,,,
1.6719999972,13,151309.2187500000,201454.2031250000,177181.2812500000,153102.2812500000,111581.8671875000,151429.8906250000,131893.8593750000,139912.3281250000,,,
1.6759999972,13,151319.5781250000,196937.9218750000,177240.6718750000,153127.8125000000,111589.3750000000,151442.2031250000,131905.4531250000,139955.6250000000,,,
1.6799999971,13,150553.0312500000,198570.2031250000,176440.9687500000,152331.9843750000,110823.0703125000,150707.9062500000,131172.4062500000,139403.8437500000,,,
1.6839999971,13,150082.2968750000,204092.9062500000,175931.7500000000,151840.2187500000,110351.4062500000,150244.4687500000,130718.3593750000,139032.1562500000,,,
1.6879999973,13,150544.0156250000,205910.2031250000,176391.3906250000,152309.3750000000,110811.5625000000,150681.2968750000,131147.9218750000,139340.2656250000,,,
1.6919999972,13,151318.6406250000,201476.9531250000,177180.7656250000,153114.7031250000,111583.8281250000,151440.6250000000,131885.0625000000,139927.9375000000,,,
1.6959999972,13,151337.6562500000,196950.9843750000,177253.1562500000,153163.6250000000,111603.1406250000,151468.3593750000,131915.1875000000,139982.0156250000,,,
1.6999999972,13,150556.1406250000,198529.6093750000,176437.6093750000,152345.9062500000,110823.6093750000,150726.9218750000,131179.7812500000,139419.3906250000,,,
1.7039999971,13,150070.3906250000,204014.2031250000,175915.3906250000,151829.2187500000,110342.8515625000,150259.7031250000,130716.0000000000,139036.5156250000,,,
1.7079999973,13,150519.2343750000,205867.2968750000,176371.2500000000,152286.5468750000,110794.0234375000,150686.2500000000,131132.2812500000,139335.7656250000,,,
1.7119999973,13,151273.0937500000,201495.3437500000,177150.7812500000,153074.5156250000,111547.8828125000,151411.3437500000,131844.9687500000,139890.9062500000,,,
1.7159999972,13,151314.6718750000,196979.5468750000,177234.5781250000,153142.6718750000,111582.2734375000,151445.2968750000,131886.2187500000,139953.2343750000,,,
1.7199999972,13,150562.3125000000,198491.0781250000,176439.5156250000,152360.5937500000,110828.4375000000,150714.9531250000,131174.6250000000,139405.5781250000,,,
1.7239999971,13,150083.5156250000,203935.9375000000,175914.1562500000,151837.5468750000,110347.8671875000,150247.4687500000,130711.7343750000,139023.2500000000,,,
1.7279999971,13,150537.9531250000,205830.8437500000,176371.3906250000,152294.9375000000,110799.3359375000,150675.5312500000,131129.2500000000,139324.9218750000,,,
1.7319999973,13,151305.4375000000,201529.1718750000,177163.5781250000,153080.7968750000,111563.3359375000,151412.4843750000,131851.5156250000,139896.3437500000,,,
1.7359999972,13,151345.6250000000,197019.9218750000,177252.8437500000,153140.5000000000,111602.1171875000,151447.9687500000,131892.0156250000,139962.0781250000,,,
1.7399999972,13,150591.3593750000,198481.0312500000,176467.0937500000,152352.9843750000,110855.6875000000,150735.2031250000,131183.3437500000,139425.9062500000,,,
1.7439999972,13,150098.9375000000,203880.5625000000,175947.6562500000,151842.9375000000,110372.5703125000,150263.7500000000,130719.5156250000,139040.5312500000,,,
1.7479999971,13,150527.4687500000,205807.3750000000,176376.2187500000,152290.6718750000,110799.0625000000,150674.4843750000,131120.5000000000,139330.0156250000,,,
1.7519999973,13,151294.3906250000,201579.2500000000,177173.6093750000,153091.6875000000,111568.6953125000,151415.3593750000,131870.1250000000,139909.6406250000,,,
1.7559999973,13,151355.4375000000,197091.9843750000,177294.2031250000,153171.3750000000,111634.6562500000,151470.7812500000,131947.2656250000,139991.8281250000,,,
1.7599999972,13,150593.3750000000,198488.5156250000,176492.1406250000,152385.5156250000,110869.3671875000,150743.8750000000,131216.8750000000,139437.2500000000,,,
1.7639999972,13,150082.4062500000,203824.0625000000,175936.6562500000,151855.3281250000,110359.0468750000,150255.5156250000,130723.2656250000,139028.0781250000,,,
1.7679999971,13,150512.4687500000,205775.2343750000,176365.8906250000,152285.7343750000,110787.2656250000,150669.7343750000,131124.8437500000,139316.1562500000,,,
1.7719999971,13,151297.4218750000,201619.5937500000,177172.8906250000,153085.5781250000,111565.4531250000,151427.4062500000,131868.1718750000,139910.1093750000,,,
1.7759999973,13,151344.5156250000,197141.4218750000,177266.4687500000,153159.7343750000,111605.2812500000,151473.4062500000,131914.9687500000,139980.1093750000,,,
1.7799999972,13,150601.0625000000,198468.7187500000,176475.6718750000,152392.3593750000,110862.9531250000,150756.6406250000,131207.8125000000,139443.0468750000,,,
1.7839999972,13,150109.1562500000,203751.5625000000,175939.6250000000,151863.2968750000,110374.6328125000,150281.6718750000,130734.9921875000,139058.1562500000,,,
1.7879999971,13,150516.9531250000,205735.4687500000,176354.1406250000,152276.9062500000,110785.1953125000,150667.2968750000,131122.1406250000,139326.3281250000,,,
1.7919999971,14,151283.0937500000,201656.4218750000,177153.4062500000,153077.9218750000,111555.2109375000,151403.8281250000,131851.0625000000,139900.2656250000,,,
1.7959999971,14,151352.1875000000,197198.4218750000,177273.0937500000,153175.4531250000,111624.5937500000,151471.3125000000,131925.0312500000,139987.8593750000,,,
1.7999999970,14,150607.1875000000,198461.4687500000,176489.1406250000,152393.0312500000,110884.4375000000,150762.1093750000,131232.2656250000,139448.1718750000,,,
1.8039999970,14,150100.5937500000,203678.1562500000,175935.5312500000,151856.0781250000,110380.5312500000,150279.2812500000,130745.8515625000,139051.9062500000,,,
1.8079999969,14,150516.1562500000,205682.3906250000,176359.3906250000,152277.3125000000,110799.6328125000,150672.2031250000,131132.8437500000,139331.0468750000,,,
1.8119999969,14,151276.4531250000,201670.4375000000,177150.7500000000,153070.7343750000,111553.2500000000,151407.5781250000,131851.5937500000,139898.6250000000,,,
1.8159999971,14,151349.1875000000,197229.1093750000,177264.4843750000,153160.7031250000,111615.5312500000,151478.9218750000,131912.5937500000,139985.9218750000,,,
1.8199999970,14,150625.3437500000,198431.8125000000,176501.3437500000,152392.5625000000,110896.5078125000,150783.8593750000,131226.0468750000,139465.0781250000,,,
1.8239999970,14,150131.5468750000,203605.6875000000,175960.1250000000,151871.3593750000,110403.6250000000,150302.9062500000,130769.0000000000,139075.0781250000,,,
1.8279999970,14,150539.5625000000,205640.9687500000,176375.8437500000,152289.4843750000,110811.4609375000,150683.0156250000,131147.9218750000,139342.8125000000,,,
1.8319999969,14,151274.8125000000,201697.0781250000,177149.6875000000,153052.9218750000,111547.9140625000,151390.9843750000,131833.8437500000,139889.2031250000,,,
1.8359999971,14,151329.5625000000,197264.2187500000,177252.9687500000,153155.4218750000,111601.9296875000,151448.8281250000,131899.3437500000,139961.4218750000,,,
1.8399999971,14,150606.1718750000,198415.4531250000,176486.0468750000,152404.8593750000,110885.6718750000,150759.8593750000,131230.5000000000,139441.5468750000,,,
1.8439999970,14,150115.9687500000,203534.3125000000,175943.7656250000,151881.0156250000,110400.6796875000,150287.1093750000,130767.2578125000,139061.7812500000,,,
1.8479999970,14,150510.4687500000,205601.4375000000,176352.7656250000,152285.7656250000,110797.1328125000,150662.0937500000,131141.8281250000,139329.0781250000,,,
1.8519999969,14,151260.1406250000,201720.2812500000,177139.2968750000,153068.2968750000,111544.1328125000,151380.7031250000,131850.1250000000,139886.7343750000,,,
1.8559999969,14,151341.5781250000,197297.7500000000,177263.4687500000,153174.7031250000,111617.5703125000,151459.0312500000,131924.2343750000,139980.0625000000,,,
1.8599999971,14,150631.3750000000,198395.3281250000,176502.8437500000,152428.4531250000,110907.5312500000,150784.2656250000,131249.2500000000,139470.8125000000,,,
1.8639999970,14,150127.2343750000,203473.9531250000,175948.5312500000,151888.5000000000,110405.7968750000,150301.7656250000,130765.7578125000,139075.3125000000,,,
1.8679999970,14,150527.9531250000,205571.0937500000,176363.6093750000,152279.6562500000,110802.7656250000,150676.9531250000,131141.0781250000,139341.7656250000,,,
1.8719999969,14,151279.1875000000,201766.4843750000,177160.7031250000,153065.0000000000,111549.6796875000,151396.4843750000,131843.5937500000,139899.7187500000,,,
1.8759999969,14,151352.7812500000,197355.4375000000,177282.2968750000,153193.0468750000,111618.1015625000,151473.4375000000,131914.9687500000,139986.5468750000,,,
1.8799999971,14,150642.9375000000,198388.2500000000,176524.6562500000,152448.8750000000,110914.3984375000,150791.2343750000,131251.5781250000,139474.5468750000,,,
1.8839999971,14,150126.6875000000,203417.6093750000,175952.2343750000,151897.8906250000,110400.2734375000,150292.2656250000,130754.7812500000,139067.1718750000,,,
1.8879999970,14,150503.0000000000,205545.9375000000,176341.0312500000,152272.8906250000,110777.3906250000,150647.0625000000,131103.7968750000,139314.4687500000,,,
1.8919999970,14,151241.5468750000,201791.5468750000,177128.9843750000,153047.5937500000,111518.0859375000,151355.8437500000,131810.0781250000,139861.9375000000,,,
1.8959999969,14,151332.0781250000,197386.3593750000,177273.4375000000,153176.6875000000,111606.5156250000,151450.6250000000,131901.3437500000,139963.0156250000,,,
1.8999999969,14,150629.9531250000,198359.0468750000,176518.9687500000,152432.4062500000,110908.9531250000,150783.7343750000,131241.2031250000,139457.6093750000,,,
1.9039999971,14,150124.6250000000,203349.7968750000,175963.3750000000,151883.0000000000,110406.5234375000,150290.8750000000,130763.7421875000,139061.1093750000,,,
1.9079999970,14,150499.5156250000,205499.4375000000,176355.2656250000,152270.8281250000,110783.2656250000,150639.7968750000,131114.2343750000,139309.3906250000,,,
1.9119999970,14,151238.2500000000,201813.5937500000,177144.2968750000,153033.4375000000,111519.4531250000,151350.2656250000,131810.7656250000,139858.9062500000,,,
1.9159999969,14,151345.8906250000,197430.2968750000,177302.7343750000,153165.0156250000,111620.9765625000,151460.5781250000,131916.8750000000,139974.3437500000,,,
1.9199999969,15,150646.3750000000,198356.7812500000,176546.6093750000,152435.5625000000,110922.8203125000,150788.5468750000,131258.0156250000,139467.5937500000,,,
1.9239999969,15,150130.3906250000,203287.8125000000,175967.2031250000,151886.4375000000,110410.9765625000,150290.0468750000,130765.7031250000,139064.2187500000,,,
1.9279999968,15,150500.7812500000,205461.9531250000,176348.7968750000,152262.0312500000,110780.1796875000,150637.9531250000,131110.2812500000,139310.5000000000,,,
1.9319999968,15,151224.9218750000,201843.7343750000,177107.8437500000,153034.8750000000,111495.8515625000,151339.5312500000,131793.0937500000,139851.3593750000,,,
1.9359999967,15,151338.4062500000,197478.6875000000,177261.3750000000,153169.0625000000,111603.7812500000,151454.7812500000,131897.0781250000,139973.0781250000,,,
1.9399999967,15,150659.7343750000,198345.9218750000,176529.6875000000,152443.8281250000,110927.7031250000,150806.2343750000,131253.3593750000,139488.7812500000,,,
1.9439999969,15,150125.9375000000,203221.7031250000,175944.4843750000,151878.1718750000,110398.6953125000,150285.9687500000,130749.9296875000,139062.4687500000,,,
1.9479999968,15,150478.2968750000,205418.5156250000,176317.3437500000,152248.1250000000,110747.8593750000,150623.4375000000,131087.9218750000,139289.7656250000,,,
1.9519999968,15,151213.7968750000,201866.3750000000,177099.4531250000,153031.2500000000,111477.5312500000,151331.1875000000,131783.5468750000,139836.3750000000,,,
1.9559999967,15,151337.7968750000,197524.3125000000,177275.2343750000,153176.1250000000,111597.9609375000,151450.0468750000,131903.9218750000,139967.7968750000,,,
1.9599999967,15,150662.7656250000,198338.1406250000,176540.2812500000,152457.6875000000,110930.3359375000,150807.9687500000,131272.7656250000,139488.0000000000,,,
1.9639999969,15,150147.9687500000,203158.3750000000,175953.6875000000,151902.1875000000,110419.0468750000,150313.4062500000,130777.5312500000,139085.8281250000,,,
1.9679999969,15,150492.0625000000,205371.7031250000,176316.7187500000,152253.6562500000,110760.1171875000,150631.4062500000,131086.3906250000,139308.0000000000,,,
1.9719999968,15,151232.1875000000,201891.8281250000,177115.6250000000,153032.7031250000,111499.2031250000,151329.9531250000,131788.0312500000,139855.1718750000,,,
1.9759999968,15,151367.1406250000,197579.3750000000,177304.0781250000,153192.4843750000,111631.5156250000,151460.7187500000,131926.1250000000,139992.3437500000,,,
1.9799999967,15,150689.7656250000,198338.4375000000,176568.3750000000,152472.0156250000,110959.5703125000,150809.8437500000,131292.6718750000,139504.9062500000,,,
1.9839999967,15,150152.8125000000,203093.5156250000,175965.7031250000,151915.2500000000,110424.2031250000,150285.4218750000,130778.8437500000,139075.8281250000,,,
1.9879999969,15,150484.3125000000,205325.9375000000,176312.6406250000,152264.0156250000,110753.2812500000,150601.4375000000,131089.3906250000,139286.8593750000,,,
1.9919999968,15,151210.9218750000,201912.3750000000,177097.4062500000,153012.7031250000,111477.6640625000,151307.7031250000,131780.8125000000,139827.7656250000,,,
1.9959999968,15,151335.3281250000,197622.2968750000,177279.2031250000,153163.1406250000,111598.7421875000,151436.1250000000,131904.0312500000,139956.8281250000,,,
1.9999999967,15,150665.0156250000,198323.3437500000,176546.7500000000,152462.4375000000,110932.8828125000,150794.5625000000,131271.5156250000,139475.9687500000,,,
2.0039999967,15,150143.4062500000,203023.9375000000,175959.4843750000,151899.9843750000,110418.5156250000,150289.0937500000,130776.5078125000,139069.1562500000,,,
2.0079999969,15,150475.1093750000,205278.5000000000,176311.0625000000,152242.4687500000,110751.7265625000,150597.3125000000,131087.8281250000,139286.2812500000,,,
2.0119999968,15,151219.0781250000,201950.0625000000,177109.9375000000,153025.9218750000,111493.7578125000,151315.7968750000,131787.1093750000,139843.9375000000,,,
2.0159999968,15,151347.0468750000,197692.9375000000,177292.4531250000,153191.1406250000,111615.9296875000,151450.2031250000,131909.9531250000,139975.7656250000,,,
2.0199999968,15,150680.2968750000,198339.8906250000,176558.4375000000,152481.7031250000,110953.2421875000,150820.9843750000,131293.4843750000,139499.5937500000,,,
2.0239999967,15,150153.0625000000,202962.9218750000,175961.7343750000,151899.9843750000,110428.5156250000,150309.4062500000,130789.6562500000,139088.2187500000,,,
2.0279999967,15,150469.2656250000,205225.9531250000,176295.4843750000,152218.0937500000,110740.0000000000,150602.8125000000,131073.8906250000,139293.6562500000,,,
2.0319999969,15,151207.9375000000,201969.1093750000,177087.8906250000,152994.7500000000,111468.6796875000,151315.7968750000,131767.6093750000,139848.3281250000,,,
2.0359999968,15,151347.9062500000,197755.4375000000,177283.7343750000,153161.8281250000,111605.0703125000,151457.4687500000,131904.7031250000,139982.4687500000,,,
2.0399999968,15,150675.3437500000,198341.5781250000,176554.9062500000,152465.9062500000,110941.4921875000,150814.7812500000,131282.1093750000,139486.2031250000,,,
2.0439999967,15,150139.3281250000,202877.1718750000,175944.0000000000,151898.1250000000,110411.3515625000,150297.7031250000,130779.1093750000,139059.2500000000,,,
2.0479999967,16,150459.1718750000,205149.3281250000,176287.4062500000,152231.5000000000,110730.6953125000,150593.2031250000,131071.7421875000,139268.5468750000,,,
2.0519999966,16,151202.0781250000,201985.8906250000,177096.0625000000,152998.2656250000,111471.5781250000,151307.0781250000,131769.4375000000,139828.9375000000,,,
2.0559999966,16,151337.2500000000,197819.3593750000,177292.7187500000,153174.2187500000,111604.5312500000,151441.2656250000,131906.2031250000,139962.0000000000,,,
2.0599999966,16,150689.7968750000,198352.2812500000,176568.9375000000,152483.0468750000,110960.5312500000,150829.7187500000,131292.4531250000,139501.3906250000,,,
2.0639999965,16,150161.8281250000,202825.1875000000,175957.1718750000,151906.4687500000,110432.1406250000,150325.7968750000,130785.0156250000,139089.7187500000,,,
2.0679999965,16,150472.5625000000,205101.6875000000,176291.2500000000,152227.3125000000,110739.0937500000,150621.8593750000,131076.0625000000,139293.2500000000,,,
2.0719999967,16,151199.8906250000,202012.2343750000,177088.6562500000,152999.7968750000,111463.9609375000,151317.6250000000,131765.3125000000,139836.3906250000,,,
2.0759999966,16,151352.1875000000,197889.3593750000,177303.7187500000,153178.1875000000,111615.6640625000,151460.6562500000,131909.2031250000,139982.2031250000,,,
2.0799999966,16,150719.1875000000,198378.5156250000,176602.1406250000,152499.4062500000,110993.4453125000,150851.9687500000,131320.5468750000,139527.0625000000,,,
2.0839999965,16,150190.5312500000,202777.1562500000,175996.0625000000,151934.3437500000,110472.7734375000,150337.5468750000,130821.9218750000,139108.3125000000,,,
2.0879999965,16,150469.6093750000,205067.1406250000,176302.5156250000,152232.5000000000,110747.1406250000,150603.3750000000,131073.0625000000,139283.8281250000,,,
2.0919999967,16,151180.8593750000,202069.9062500000,177079.7031250000,152990.7500000000,111448.1640625000,151288.4375000000,131747.0156250000,139816.3281250000,,,
2.0959999966,16,151345.3593750000,198002.6875000000,177300.4218750000,153196.0312500000,111605.4218750000,151451.6250000000,131910.8750000000,139975.0937500000,,,
2.0999999966,16,150727.7500000000,198446.2968750000,176610.0312500000,152523.6562500000,110997.0390625000,150866.0156250000,131340.0937500000,139536.1718750000,,,
2.1039999966,16,150199.1875000000,202775.6406250000,175993.6718750000,151914.1093750000,110478.1406250000,150360.9375000000,130840.9609375000,139125.8281250000,,,
2.1079999965,16,150475.7031250000,205069.4687500000,176299.1093750000,152209.4843750000,110755.2656250000,150620.8437500000,131096.2812500000,139299.3593750000,,,
2.1119999965,16,151168.4687500000,202128.7031250000,177070.1093750000,152965.6718750000,111440.4609375000,151284.7656250000,131745.0781250000,139811.3437500000,,,
2.1159999967,16,151322.1250000000,198081.0781250000,177284.0625000000,153152.5000000000,111586.3203125000,151436.6875000000,131885.4687500000,139957.2031250000,,,
2.1199999966,16,150691.7031250000,198465.0937500000,176574.3437500000,152486.2656250000,110961.2343750000,150836.4062500000,131286.8750000000,139498.7343750000,,,
2.1239999966,16,150161.9062500000,202707.9687500000,175953.6875000000,151913.6562500000,110441.0156250000,150322.0625000000,130779.9453125000,139078.7500000000,,,
2.1279999965,16,150441.9062500000,205001.6093750000,176255.8437500000,152209.9687500000,110716.0781250000,150584.2187500000,131042.1328125000,139258.3281250000,,,
2.1319999965,16,151154.4375000000,202139.5937500000,177043.6093750000,152970.4843750000,111418.4140625000,151271.5625000000,131728.4218750000,139794.2656250000,,,
2.1359999967,16,151341.5937500000,198139.7968750000,177288.2500000000,153183.0156250000,111595.3046875000,151458.6718750000,131909.2031250000,139971.2812500000,,,
2.1399999966,16,150735.4531250000,198485.0000000000,176607.7187500000,152527.5156250000,110995.3515625000,150887.4531250000,131339.2343750000,139536.8437500000,,,
2.1439999966,16,150209.9687500000,202669.7031250000,175989.2031250000,151953.8906250000,110476.2109375000,150380.8593750000,130837.7421875000,139123.9531250000,,,
2.1479999966,16,150468.4062500000,204975.1718750000,176277.1093750000,152229.1718750000,110736.5703125000,150620.1093750000,131074.9843750000,139282.2500000000,,,
2.1519999965,16,151164.5781250000,202200.5781250000,177054.2500000000,152980.0312500000,111429.5468750000,151285.0312500000,131732.0781250000,139801.1718750000,,,
2.1559999965,16,151335.1875000000,198245.8281250000,177290.7187500000,153177.4843750000,111594.9062500000,151446.1718750000,131895.1250000000,139959.6718750000,,,
2.1599999967,16,150737.6250000000,198534.0312500000,176618.9531250000,152529.5156250000,111006.0000000000,150881.4062500000,131336.7968750000,139534.5156250000,,,
2.1639999966,16,150202.2812500000,202631.4218750000,175989.0156250000,151947.4375000000,110478.6250000000,150368.3906250000,130833.1015625000,139116.4375000000,,,
2.1679999966,16,150447.9375000000,204931.9062500000,176267.9375000000,152211.5000000000,110720.5312500000,150597.5000000000,131057.8437500000,139269.4531250000,,,
2.1719999965,16,151132.5781250000,202213.2656250000,177040.5937500000,152948.5156250000,111399.4765625000,151261.4218750000,131705.8750000000,139779.6875000000,,,
2.1759999965,17,151308.8437500000,198299.5468750000,177278.7187500000,153145.6250000000,111569.1562500000,151435.7500000000,131875.4062500000,139941.5937500000,,,
2.1799999964,17,150708.7812500000,198536.3125000000,176591.2187500000,152504.3437500000,110973.7812500000,150859.6093750000,131312.2343750000,139505.1093750000,,,
2.1839999964,17,150178.7031250000,202566.1875000000,175952.3750000000,151925.7812500000,110448.2343750000,150347.1718750000,130806.1718750000,139089.5312500000,,,
2.1879999964,17,150440.7812500000,204863.9062500000,176237.8125000000,152209.3437500000,110706.4765625000,150588.3750000000,131033.9765625000,139259.3125000000,,,
2.1919999963,17,151141.1250000000,202213.7187500000,177026.5468750000,152950.6875000000,111403.3671875000,151253.8437500000,131685.7187500000,139785.1406250000,,,
2.1959999963,17,151332.0781250000,198336.2656250000,177275.5000000000,153160.1093750000,111585.2187500000,151443.5000000000,131885.8125000000,139964.7343750000,,,
2.1999999965,17,150750.7656250000,198540.5468750000,176605.2187500000,152517.6875000000,111009.8359375000,150892.4687500000,131354.7343750000,139546.1250000000,,,
2.2039999964,17,150210.7812500000,202502.8437500000,175970.0781250000,151920.5781250000,110479.1562500000,150369.1406250000,130844.1250000000,139118.0937500000,,,
2.2079999964,17,150459.8281250000,204794.7656250000,176255.5156250000,152190.5937500000,110724.9843750000,150601.6093750000,131063.3750000000,139275.8750000000,,,
2.2119999963,17,151142.2031250000,202214.7656250000,177028.5312500000,152938.4843750000,111397.9765625000,151257.0781250000,131698.9218750000,139789.5156250000,,,
2.2159999963,17,151336.6093750000,198383.4218750000,177292.4062500000,153159.2187500000,111592.8671875000,151445.4843750000,131893.5625000000,139968.6562500000,,,
2.2199999965,17,150747.7812500000,198538.7812500000,176620.1875000000,152519.4843750000,111015.1953125000,150892.0000000000,131340.1250000000,139544.5781250000,,,
2.2239999964,17,150203.0312500000,202421.2187500000,175970.9375000000,151926.3437500000,110478.1406250000,150370.7187500000,130819.9062500000,139116.1718750000,,,
2.2279999964,17,150448.5781250000,204711.6718750000,176242.7812500000,152192.8750000000,110717.4218750000,150602.3281250000,131053.6640625000,139274.2343750000,,,
2.2319999964,17,151139.5000000000,202212.1093750000,177019.3750000000,152936.5000000000,111396.5546875000,151268.6718750000,131707.4218750000,139798.2031250000,,,
2.2359999963,17,151337.2812500000,198438.0625000000,177291.0625000000,153159.0625000000,111593.9921875000,151463.1250000000,131899.5000000000,139982.4375000000,,,
2.2399999963,17,150757.0937500000,198547.0156250000,176626.2968750000,152533.2812500000,111028.9609375000,150906.0625000000,131364.2343750000,139558.6250000000,,,
2.2439999965,17,150209.5937500000,202346.5468750000,175974.9531250000,151943.9687500000,110492.4062500000,150379.2500000000,130839.7265625000,139124.4375000000,,,
2.2479999964,17,150435.5781250000,204621.9687500000,176234.6718750000,152187.2656250000,110713.1796875000,150590.7968750000,131037.7031250000,139266.6093750000,,,
2.2519999964,17,151120.0000000000,202188.4843750000,177013.1250000000,152914.9375000000,111387.8359375000,151247.6406250000,131682.9687500000,139784.0937500000,,,
2.2559999963,17,151326.9531250000,198457.9843750000,177292.9375000000,153145.7812500000,111589.3281250000,151445.3437500000,131880.2968750000,139972.4687500000,,,
2.2599999963,17,150766.0312500000,198530.1406250000,176643.3593750000,152523.7812500000,111036.0625000000,150909.3906250000,131353.3125000000,139568.0156250000,,,
2.2639999965,17,150244.6250000000,202281.2031250000,176006.7343750000,151944.9843750000,110523.6328125000,150407.0156250000,130859.1250000000,139161.5468750000,,,
2.2679999964,17,150495.5000000000,204582.5781250000,176292.5000000000,152197.7812500000,110775.4062500000,150640.7656250000,131083.0312500000,139329.8125000000,,,
2.2719999964,17,151139.3125000000,202222.8437500000,177044.0000000000,152919.2968750000,111414.0156250000,151252.8750000000,131701.1406250000,139808.0468750000,,,
2.2759999963,17,151337.8750000000,198534.4843750000,177309.0625000000,153149.0000000000,111607.1875000000,151442.9531250000,131908.7968750000,139987.8593750000,,,
2.2799999963,17,150777.5625000000,198578.9843750000,176652.4531250000,152528.0156250000,111052.7734375000,150914.8906250000,131387.5781250000,139585.9062500000,,,
2.2839999963,17,150251.6562500000,202263.9375000000,176006.1718750000,151940.9375000000,110532.0781250000,150419.9687500000,130879.5625000000,139177.5312500000,,,
2.2879999964,17,150463.9218750000,204560.7968750000,176256.7031250000,152176.4375000000,110739.1484375000,150619.7968750000,131073.0312500000,139307.2500000000,,,
2.2919999964,17,151126.6250000000,202259.8281250000,177029.7031250000,152901.8750000000,111394.9218750000,151251.1875000000,131686.2656250000,139805.2343750000,,,
2.2959999964,17,151325.5000000000,198598.5000000000,177306.3281250000,153140.7968750000,111593.1328125000,151445.3281250000,131862.6718750000,139983.0000000000,,,
2.2999999963,17,150772.1406250000,198588.5781250000,176657.7187500000,152538.4843750000,111043.5468750000,150918.0781250000,131371.1562500000,139576.5156250000,,,
2.3039999963,18,150242.2187500000,202203.5625000000,176002.6093750000,151944.7812500000,110516.8984375000,150404.8906250000,130877.0156250000,139155.2187500000,,,
2.3079999962,18,150454.3281250000,204500.8125000000,176247.4218750000,152174.1875000000,110725.3593750000,150596.6093750000,131069.6484375000,139281.7656250000,,,
2.3119999962,18,151121.3437500000,202263.9687500000,177024.3125000000,152905.4062500000,111390.1718750000,151226.3750000000,131675.8750000000,139776.9531250000,,,
2.3159999961,18,151330.2343750000,198641.1875000000,177314.7968750000,153147.0781250000,111604.3437500000,151426.1406250000,131851.8906250000,139964.9062500000,,,
2.3199999961,18,150781.5468750000,198591.0312500000,176675.0937500000,152537.5937500000,111072.4921875000,150915.5312500000,131342.6718750000,139570.7031250000,,,
2.3239999961,18,150251.7968750000,202142.3437500000,176013.3593750000,151948.0781250000,110538.2734375000,150417.7656250000,130902.8437500000,139160.5625000000,,,
2.3279999963,18,150464.0000000000,204444.3281250000,176251.0156250000,152185.5625000000,110733.8906250000,150616.9531250000,131101.0312500000,139298.0156250000,,,
2.3319999962,18,151118.6562500000,202281.5781250000,177016.2656250000,152919.6562500000,111375.2812500000,151240.7187500000,131706.8125000000,139787.5312500000,,,
2.3359999962,18,151325.6406250000,198690.8593750000,177307.1250000000,153162.2812500000,111577.9765625000,151442.3906250000,131895.6406250000,139972.8125000000,,,
2.3399999961,18,150776.5937500000,198595.9062500000,176666.7187500000,152550.1250000000,111040.3281250000,150929.9843750000,131372.9843750000,139576.9531250000,,,
2.3439999961,18,150245.1718750000,202082.0468750000,176002.6562500000,151961.1875000000,110517.5703125000,150422.1406250000,130868.1093750000,139159.4375000000,,,
2.3479999963,18,150440.3750000000,204384.1718750000,176231.1562500000,152175.4375000000,110712.4296875000,150593.8281250000,131033.5156250000,139276.0625000000,,,
2.3519999962,18,151117.8437500000,202284.2968750000,177028.3437500000,152899.3437500000,111388.0234375000,151231.2812500000,131663.8906250000,139784.2343750000,,,
2.3559999962,18,151345.2187500000,198734.2343750000,177327.8437500000,153168.9843750000,111600.2421875000,151455.9375000000,131897.2968750000,139987.4375000000,,,
2.3599999961,18,150795.6562500000,198597.0000000000,176681.0000000000,152571.9531250000,111058.1171875000,150932.5625000000,131396.0468750000,139587.2656250000,,,
2.3639999961,18,150250.8593750000,202012.2968750000,176009.3750000000,151961.9062500000,110525.5859375000,150413.9531250000,130875.2968750000,139158.9218750000,,,
2.3679999961,18,150437.6406250000,204288.1406250000,176230.5781250000,152170.5312500000,110711.3046875000,150587.0625000000,131051.8906250000,139273.1250000000,,,
2.3719999962,18,151092.7968750000,202237.3593750000,176998.6562500000,152889.5312500000,111358.7656250000,151214.1875000000,131668.6093750000,139768.0000000000,,,
2.3759999962,18,151333.7968750000,198742.8437500000,177324.2656250000,153156.9218750000,111593.7812500000,151452.6718750000,131901.0312500000,139983.1406250000,,,
2.3799999962,18,150794.2968750000,198588.9843750000,176690.6718750000,152574.4531250000,111061.2812500000,150948.8906250000,131396.6875000000,139589.8437500000,,,
2.3839999961,18,150254.6562500000,201950.7656250000,176015.1093750000,151976.2343750000,110526.9531250000,150433.7500000000,130884.0937500000,139163.1875000000,,,
2.3879999961,18,150444.7500000000,204233.7187500000,176237.3281250000,152173.5156250000,110710.1250000000,150608.5312500000,131053.1250000000,139280.9843750000,,,
2.3919999963,18,151089.2500000000,202252.4531250000,176995.9687500000,152881.2343750000,111342.8828125000,151221.5156250000,131649.9375000000,139765.7968750000,,,
2.3959999962,18,151324.2656250000,198796.1875000000,177308.0625000000,153154.5000000000,111566.8750000000,151445.1562500000,131875.4062500000,139973.3281250000,,,
2.3999999962,18,150817.6562500000,198604.7343750000,176693.4375000000,152580.2656250000,111060.8750000000,150968.2656250000,131399.7968750000,139609.1562500000,,,
2.4039999961,18,150289.0468750000,201905.9062500000,176024.7343750000,151984.1250000000,110538.3281250000,150462.2031250000,130899.8906250000,139193.2343750000,,,
2.4079999961,18,150469.5000000000,204187.2343750000,176239.2343750000,152187.5468750000,110716.5312500000,150619.5468750000,131060.6640625000,139299.7656250000,,,
2.4119999961,18,151117.3125000000,202270.3437500000,177005.9218750000,152892.3125000000,111355.8359375000,151240.1250000000,131667.1875000000,139789.9687500000,,,
2.4159999962,18,151344.7968750000,198861.5781250000,177316.7812500000,153166.1250000000,111580.8515625000,151461.3906250000,131886.0000000000,139986.2812500000,,,
2.4199999962,18,150844.5312500000,198646.0156250000,176719.0781250000,152600.5156250000,111096.9218750000,150985.7968750000,131426.2968750000,139621.7187500000,,,
2.4239999962,18,150316.0781250000,201892.4687500000,176058.3125000000,152000.9687500000,110584.3515625000,150483.3125000000,130927.7343750000,139209.4843750000,,,
2.4279999961,18,150460.9687500000,204175.3593750000,176243.0156250000,152176.2812500000,110727.9843750000,150613.7812500000,131057.4687500000,139291.6718750000,,,
2.4319999961,19,151077.5312500000,202305.5625000000,176983.3906250000,152876.8125000000,111340.0703125000,151204.8125000000,131641.7656250000,139756.3593750000,,,
2.4359999960,19,151313.9218750000,198919.3593750000,177304.4218750000,153156.4062500000,111572.8046875000,151439.4531250000,131875.8593750000,139965.8437500000,,,
2.4399999960,19,150826.5625000000,198663.6875000000,176717.9218750000,152599.3437500000,111096.4921875000,150981.5468750000,131427.8281250000,139618.8750000000,,,
2.4439999959,19,150288.0468750000,201855.9218750000,176035.9843750000,151985.6718750000,110568.6875000000,150467.0156250000,130917.7812500000,139196.8281250000,,,
2.4479999959,19,150447.3750000000,204143.7812500000,176223.8906250000,152169.3281250000,110719.5390625000,150608.4375000000,131059.4531250000,139293.6562500000,,,
2.4519999959,19,151094.5156250000,202330.4843750000,176991.1718750000,152877.7812500000,111355.0312500000,151226.1250000000,131662.4375000000,139787.4531250000,,,
2.4559999960,19,151335.5156250000,198973.3125000000,177320.4375000000,153162.0468750000,111592.1406250000,151453.3906250000,131891.7968750000,139992.9375000000,,,
2.4599999960,19,150841.0781250000,198686.9687500000,176721.3906250000,152608.0312500000,111107.8125000000,150982.5781250000,131437.3593750000,139631.6406250000,,,
2.4639999960,19,150292.1562500000,201836.4375000000,176022.7812500000,151993.6718750000,110563.4609375000,150462.5000000000,130914.6953125000,139198.2500000000,,,
2.4679999959,19,150445.7343750000,204132.5156250000,176209.4687500000,152161.4218750000,110710.5781250000,150599.2968750000,131049.8515625000,139288.3125000000,,,
2.4719999959,19,151081.8281250000,202357.9687500000,176979.7187500000,152863.7812500000,111337.7890625000,151198.3906250000,131647.5000000000,139766.0625000000,,,
2.4759999961,19,151332.7500000000,199011.5937500000,177319.3593750000,153160.1875000000,111583.5859375000,151437.8593750000,131886.3750000000,139981.0000000000,,,
2.4799999960,19,150837.1562500000,198693.1562500000,176722.2812500000,152600.9531250000,111098.5625000000,150973.1406250000,131419.4843750000,139618.1250000000,,,
2.4839999960,19,150296.5000000000,201822.8750000000,176036.2968750000,151992.5468750000,110568.1015625000,150458.4218750000,130901.7421875000,139190.5937500000,,,
2.4879999959,19,150443.7343750000,204148.7500000000,176217.4218750000,152165.4375000000,110709.2890625000,150593.6093750000,131034.5390625000,139277.9062500000,,,
2.4919999959,19,151063.3125000000,202411.1562500000,176967.4218750000,152851.6093750000,111317.2656250000,151184.0000000000,131627.5781250000,139742.8906250000,,,
2.4959999959,19,151325.3125000000,199039.3281250000,177313.6250000000,153144.7187500000,111570.3593750000,151439.5781250000,131880.4531250000,139971.5468750000,,,
2.4999999960,19,150852.5781250000,198675.2500000000,176732.7656250000,152606.2656250000,111105.6953125000,150996.7812500000,131437.5937500000,139636.3593750000,,,
2.5039999960,19,150300.5468750000,201791.8593750000,176036.4375000000,151987.2656250000,110568.1015625000,150467.4687500000,130923.9218750000,139200.1250000000,,,
2.5079999960,19,150440.8593750000,204140.0312500000,176207.9062500000,152145.4062500000,110705.6406250000,150590.1250000000,131051.1718750000,139278.4375000000,,,
2.5119999959,19,151068.7343750000,202426.4843750000,176961.3906250000,152849.8281250000,111322.5781250000,151187.0000000000,131638.7656250000,139750.2500000000,,,
2.5159999959,19,151329.6562500000,199047.3750000000,177312.5781250000,153158.4218750000,111576.0468750000,151440.1718750000,131886.0000000000,139973.1093750000,,,
2.5199999961,19,150854.7187500000,198650.5937500000,176735.3593750000,152631.1562500000,111106.2890625000,150993.1250000000,131438.8281250000,139631.4687500000,,,
2.5239999960,19,150310.4218750000,201752.4062500000,176039.3281250000,152006.4062500000,110569.4140625000,150477.7343750000,130920.4921875000,139205.7031250000,,,
2.5279999960,19,150443.9687500000,204126.1406250000,176210.3750000000,152160.7500000000,110705.1875000000,150594.9843750000,131044.6250000000,139278.9062500000,,,
2.5319999959,19,151055.8437500000,202445.7812500000,176962.8906250000,152844.8125000000,111315.2578125000,151182.5468750000,131628.8281250000,139734.7343750000,,,
2.5359999959,19,151321.1093750000,199075.5937500000,177321.3750000000,153151.9531250000,111579.4843750000,151445.8906250000,131887.9687500000,139963.5000000000,,,
2.5399999958,19,150849.2187500000,198646.3281250000,176742.9062500000,152622.6562500000,111115.0000000000,151004.7343750000,131450.6562500000,139624.3125000000,,,
2.5439999960,19,150311.0937500000,201741.5000000000,176046.1718750000,152005.3437500000,110586.4453125000,150493.7031250000,130944.0937500000,139206.8593750000,,,
2.5479999960,19,150448.9531250000,204150.7031250000,176206.9687500000,152155.7500000000,110721.2812500000,150616.6250000000,131065.9453125000,139286.5625000000,,,
2.5519999960,19,151089.7656250000,202507.0468750000,176971.0468750000,152852.1718750000,111353.0468750000,151233.9062500000,131677.5937500000,139775.0781250000,,,
2.5559999959,19,151348.1093750000,199117.7343750000,177321.9375000000,153163.8593750000,111604.6953125000,151502.5781250000,131934.0781250000,140004.6718750000,,,
2.5599999959,20,150885.4062500000,198657.0000000000,176763.7187500000,152638.9062500000,111150.1953125000,151073.8125000000,131509.8281250000,139678.8906250000,,,
2.5639999958,20,150339.8281250000,201743.1562500000,176075.0000000000,152016.7968750000,110617.7500000000,150550.2656250000,130995.3750000000,139252.2187500000,,,
2.5679999958,20,150467.0937500000,204183.2968750000,176230.7656250000,152162.0937500000,110744.0546875000,150664.7968750000,131094.8593750000,139325.5156250000,,,
2.5719999957,20,151081.9687500000,202553.1875000000,176974.5312500000,152850.7656250000,111351.3593750000,151257.9375000000,131685.1562500000,139787.6562500000,,,
2.5759999957,20,151361.1250000000,199142.0625000000,177347.8437500000,153171.1562500000,111625.2421875000,151527.2343750000,131976.2656250000,140028.1250000000,,,
2.5799999957,20,150893.0000000000,198640.5937500000,176785.1406250000,152647.6718750000,111165.9375000000,151082.5781250000,131549.6093750000,139689.8125000000,,,
2.5839999958,20,150327.8125000000,201717.8593750000,176069.7656250000,152007.0781250000,110614.2890625000,150552.3593750000,131014.8750000000,139245.6406250000,,,
2.5879999958,20,150444.9375000000,204192.1718750000,176213.7500000000,152136.8281250000,110727.9843750000,150659.5156250000,131113.4531250000,139308.0312500000,,,
2.5919999958,20,151084.0468750000,202591.6718750000,176976.7656250000,152848.4687500000,111356.8281250000,151265.1093750000,131703.7187500000,139790.0937500000,,,
2.5959999957,20,151384.6718750000,199161.6406250000,177371.6562500000,153189.5312500000,111653.0000000000,151547.8593750000,131985.4375000000,140046.1718750000,,,
2.5999999957,20,150913.7812500000,198630.0312500000,176809.4531250000,152659.3125000000,111188.9765625000,151100.7031250000,131547.6718750000,139702.8281250000,,,
2.6039999959,20,150327.1406250000,201713.9218750000,176072.9375000000,152006.9687500000,110613.7265625000,150537.7968750000,131004.9531250000,139234.1406250000,,,
2.6079999958,20,150450.5468750000,204211.3750000000,176216.7656250000,152150.0468750000,110726.9921875000,150643.1718750000,131106.8750000000,139302.8437500000,,,
2.6119999958,20,151083.1093750000,202621.6406250000,176978.3437500000,152847.7656250000,111347.9765625000,151240.2656250000,131689.5937500000,139776.8750000000,,,
2.6159999957,20,151378.1093750000,199175.4218750000,177367.2187500000,153184.2968750000,111636.4531250000,151516.2343750000,131962.6406250000,140023.5000000000,,,
2.6199999957,20,150917.5468750000,198637.2187500000,176815.3437500000,152671.0312500000,111180.2578125000,151077.5312500000,131537.8281250000,139695.1718750000,,,
2.6239999956,20,150349.2343750000,201731.5468750000,176089.8125000000,152023.6875000000,110618.0468750000,150535.4062500000,131000.2343750000,139253.6875000000,,,
2.6279999958,20,150455.5312500000,204252.6875000000,176214.5000000000,152138.5625000000,110719.6718750000,150623.6562500000,131090.0625000000,139307.8906250000,,,
2.6319999958,20,151089.5312500000,202668.9218750000,176972.5468750000,152833.5781250000,111343.6875000000,151219.5000000000,131674.4375000000,139783.4531250000,,,
2.6359999957,20,151388.8906250000,199190.3593750000,177371.5781250000,153175.8281250000,111640.1562500000,151503.7343750000,131947.7812500000,140038.6406250000,,,
2.6399999957,20,150914.1562500000,198607.8437500000,176807.1093750000,152661.0000000000,111172.8046875000,151053.1562500000,131521.5781250000,139693.7812500000,,,
2.6439999957,20,150343.9218750000,201709.6250000000,176080.3125000000,152018.7187500000,110615.3046875000,150512.4687500000,130994.5703125000,139248.9375000000,,,
2.6479999959,20,150441.2812500000,204278.6250000000,176196.9062500000,152133.9843750000,110710.6875000000,150598.2812500000,131077.0781250000,139296.6875000000,,,
2.6519999958,20,151070.1406250000,202705.9062500000,176952.5468750000,152836.4687500000,111334.8671875000,151197.9687500000,131668.0781250000,139766.4375000000,,,
2.6559999958,20,151364.0468750000,199191.4687500000,177350.4531250000,153185.0625000000,111625.4531250000,151480.1562500000,131949.5781250000,140014.7656250000,,,
2.6599999957,20,150906.6718750000,198572.2968750000,176813.2343750000,152672.9687500000,111177.2578125000,151049.5625000000,131521.9218750000,139687.9062500000,,,
2.6639999957,20,150325.7656250000,201680.8750000000,176085.4375000000,152011.9375000000,110608.4140625000,150491.7656250000,130971.8828125000,139230.6406250000,,,
2.6679999956,20,150420.4687500000,204286.0312500000,176199.1875000000,152117.9062500000,110699.5546875000,150570.0312500000,131052.3984375000,139271.3281250000,,,
2.6719999958,20,151061.6562500000,202738.7968750000,176959.2812500000,152826.6250000000,111331.6718750000,151177.4531250000,131655.1718750000,139751.5781250000,,,
2.6759999958,20,151387.3906250000,199205.9218750000,177374.7500000000,153196.1875000000,111645.0859375000,151494.1562500000,131957.1406250000,140035.3593750000,,,
2.6799999957,20,150927.7343750000,198551.9687500000,176831.2500000000,152681.2343750000,111190.6718750000,151060.2343750000,131524.3593750000,139707.6562500000,,,
2.6839999957,20,150337.4531250000,201661.9062500000,176090.2187500000,152011.4062500000,110612.2734375000,150494.1093750000,130967.1328125000,139243.3125000000,,,
2.6879999957,21,150424.9531250000,204309.4218750000,176190.6093750000,152110.8593750000,110696.8750000000,150568.9687500000,131041.2968750000,139283.4062500000,,,
2.6919999956,21,151057.1718750000,202785.8437500000,176940.7968750000,152815.6093750000,111320.9140625000,151170.2656250000,131632.2187500000,139754.4531250000,,,
2.6959999956,21,151369.5468750000,199224.1562500000,177358.9218750000,153186.1562500000,111627.7890625000,151469.6718750000,131929.9687500000,140016.2656250000,,,
2.6999999955,21,150921.5156250000,198532.5781250000,176834.9218750000,152671.5937500000,111189.0859375000,151049.3125000000,131520.5312500000,139695.0937500000,,,
2.7039999955,21,150338.0312500000,201646.4687500000,176098.0156250000,152010.7031250000,110617.7500000000,150493.0312500000,130976.1171875000,139237.1406250000,,,
2.7079999954,21,150414.8906250000,204332.2343750000,176182.6406250000,152109.4843750000,110690.7343750000,150559.3281250000,131037.5703125000,139264.5156250000,,,
2.7119999956,21,151046.1562500000,202828.6406250000,176923.0312500000,152809.9218750000,111311.6093750000,151159.2343750000,131630.3593750000,139733.1562500000,,,
2.7159999956,21,151367.8281250000,199240.3906250000,177342.5312500000,153180.5468750000,111627.1171875000,151468.4687500000,131938.3593750000,140004.6250000000,,,
2.7199999955,21,150916.4375000000,198510.6406250000,176818.1093750000,152692.5781250000,111184.3906250000,151047.4687500000,131518.5937500000,139685.3125000000,,,
2.7239999955,21,150319.3593750000,201622.2500000000,176069.9375000000,152018.8906250000,110595.0859375000,150487.6718750000,130950.7734375000,139223.1406250000,,,
2.7279999955,21,150393.8437500000,204347.4531250000,176154.2031250000,152099.1093750000,110661.0937500000,150553.0000000000,131009.2734375000,139252.6718750000,,,
2.7319999957,21,151033.9218750000,202868.9062500000,176906.4687500000,152809.3593750000,111287.7109375000,151164.3906250000,131617.1875000000,139731.5156250000,,,
2.7359999956,21,151355.7656250000,199257.0937500000,177331.5156250000,153186.7968750000,111604.8046875000,151471.6875000000,131925.5625000000,140002.1093750000,,,
2.7399999956,21,150912.1250000000,198487.0156250000,176816.9062500000,152702.8281250000,111172.6406250000,151055.1093750000,131513.9843750000,139689.6718750000,,,
2.7439999955,21,150312.9687500000,201603.7968750000,176068.7812500000,152029.3437500000,110589.0468750000,150490.1250000000,130952.6484375000,139225.6562500000,,,
2.7479999955,21,150382.0312500000,204367.3437500000,176147.3750000000,152101.9218750000,110661.1484375000,150549.9218750000,131013.8828125000,139247.6562500000,,,
2.7519999954,21,151024.9843750000,202913.6718750000,176904.5781250000,152807.3125000000,111297.5312500000,151158.2968750000,131616.2343750000,139726.1250000000,,,
2.7559999956,21,151384.2187500000,199279.6562500000,177363.9375000000,153211.7500000000,111651.1250000000,151499.1718750000,131959.2812500000,140033.1406250000,,,
2.7599999956,21,150917.0937500000,198471.8593750000,176829.9843750000,152701.4531250000,111193.7500000000,151054.0468750000,131525.2812500000,139695.7343750000,,,
2.7639999955,21,150309.4531250000,201588.3125000000,176068.8906250000,152016.2031250000,110593.9062500000,150472.1093750000,130946.4843750000,139221.5468750000,,,
2.7679999955,21,150375.8906250000,204393.4531250000,176145.0156250000,152089.4218750000,110653.9609375000,150529.1875000000,131000.5312500000,139242.7187500000,,,
2.7719999955,21,151002.1718750000,202958.5781250000,176883.2343750000,152788.9218750000,111270.8359375000,151124.6093750000,131587.3906250000,139702.6562500000,,,
2.7759999956,21,151347.7343750000,199280.0625000000,177328.5937500000,153185.1875000000,111610.5156250000,151456.3906250000,131914.0625000000,139989.7187500000,,,
2.7799999956,21,150905.6406250000,198425.3125000000,176808.9062500000,152705.0156250000,111171.8125000000,151039.8750000000,131494.2656250000,139676.7500000000,,,
2.7839999956,21,150309.7500000000,201544.7343750000,176058.8281250000,152033.0468750000,110584.3281250000,150460.2500000000,130929.7187500000,139210.7968750000,,,
2.7879999955,21,150393.9531250000,204405.7656250000,176142.0781250000,152129.5468750000,110657.5234375000,150529.8593750000,130997.1718750000,139253.2812500000,,,
2.7919999955,21,151022.1406250000,203006.3125000000,176879.0000000000,152811.6406250000,111272.7734375000,151131.3437500000,131588.2812500000,139719.9843750000,,,
2.7959999954,21,151369.6875000000,199306.2968750000,177329.9218750000,153199.8281250000,111613.4140625000,151466.6718750000,131921.2968750000,140009.0156250000,,,
2.7999999956,21,150938.1718750000,198409.7031250000,176833.9375000000,152722.4062500000,111189.3281250000,151058.1093750000,131525.1406250000,139700.2968750000,,,
2.8039999956,21,150326.6562500000,201536.5468750000,176072.1093750000,152026.9375000000,110589.1562500000,150474.7968750000,130949.7031250000,139226.0000000000,,,
2.8079999955,21,150381.2656250000,204442.2343750000,176130.0468750000,152090.7343750000,110641.7265625000,150518.1093750000,130988.1093750000,139241.2343750000,,,
2.8119999955,21,151017.1093750000,203067.2343750000,176879.2656250000,152790.6562500000,111272.6875000000,151122.2187500000,131584.8281250000,139712.7500000000,,,
2.8159999955,22,151372.3125000000,199334.4531250000,177340.6875000000,153195.2812500000,111627.6015625000,151463.0781250000,131924.3906250000,140008.1406250000,,,
2.8199999954,22,150947.3437500000,198398.9218750000,176855.4531250000,152721.8593750000,111215.4765625000,151065.2500000000,131532.4062500000,139711.9218750000,,,
2.8239999954,22,150345.3125000000,201545.0781250000,176109.0468750000,152029.9687500000,110625.9296875000,150494.7656250000,130964.4765625000,139248.6093750000,,,
2.8279999953,22,150388.0937500000,204497.4687500000,176161.1875000000,152091.9531250000,110670.0000000000,150522.5937500000,131002.6718750000,139244.8125000000,,,
2.8319999953,22,151012.6250000000,203128.5781250000,176891.8125000000,152786.3906250000,111288.9140625000,151120.7187500000,131592.8437500000,139705.6875000000,,,
2.8359999952,22,151369.9843750000,199346.5000000000,177347.3125000000,153184.5468750000,111639.7500000000,151474.4218750000,131933.9375000000,140009.9375000000,,,
2.8399999954,22,150944.6562500000,198364.6406250000,176861.0312500000,152724.1406250000,111219.5859375000,151075.2812500000,131534.3125000000,139713.4218750000,,,
2.8439999954,22,150323.5937500000,201514.4687500000,176092.7656250000,152031.3906250000,110609.3281250000,150479.8593750000,130951.4453125000,139229.2187500000,,,
2.8479999953,22,150386.0156250000,204535.3593750000,176155.2031250000,152091.9218750000,110667.5000000000,150525.8281250000,130994.0937500000,139250.9531250000,,,
2.8519999953,22,151040.2812500000,203201.7500000000,176904.1562500000,152810.0000000000,111305.3046875000,151149.3437500000,131594.8750000000,139742.8750000000,,,
2.8559999953,22,151393.6406250000,199373.6875000000,177352.8593750000,153238.2656250000,111647.7421875000,151482.2812500000,131939.2187500000,140029.7343750000,,,
2.8599999954,22,150968.2343750000,198337.0000000000,176867.3750000000,152745.2812500000,111227.0390625000,151077.9843750000,131542.6875000000,139729.2968750000,,,
2.8639999954,22,150343.2343750000,201500.6250000000,176094.7187500000,152023.7187500000,110613.4062500000,150481.0156250000,130951.9765625000,139244.8593750000,,,
2.8679999954,22,150388.7656250000,204573.6718750000,176142.0625000000,152069.2343750000,110655.0546875000,150511.6093750000,130984.1953125000,139249.2812500000,,,
2.8719999953,22,151032.4218750000,203254.3906250000,176893.3437500000,152790.8281250000,111288.9140625000,151119.7812500000,131585.2812500000,139716.8437500000,,,
2.8759999953,22,151415.2031250000,199385.6562500000,177380.0312500000,153224.4531250000,111665.5234375000,151483.2500000000,131954.4531250000,140026.8906250000,,,
2.8799999952,22,151023.7031250000,198311.3750000000,176938.5937500000,152777.6562500000,111283.6093750000,151116.3281250000,131598.3906250000,139760.4375000000,,,
2.8839999954,22,150355.6406250000,201485.7968750000,176128.6250000000,152072.5781250000,110626.3593750000,150490.0312500000,130968.8515625000,139244.5625000000,,,
2.8879999954,22,150366.7812500000,204611.0000000000,176139.7812500000,152089.1093750000,110637.6250000000,150494.6718750000,130974.5078125000,139224.1250000000,,,
2.8919999953,22,151008.1406250000,203319.4843750000,176874.4843750000,152787.1250000000,111271.7500000000,151101.0000000000,131570.4218750000,139697.7812500000,,,
2.8959999953,22,151399.2187500000,199405.7500000000,177360.7812500000,153222.9843750000,111653.5078125000,151483.3593750000,131935.9531250000,140024.8437500000,,,
2.8999999953,22,150985.6718750000,198267.6093750000,176889.2187500000,152763.8750000000,111245.4375000000,151108.8593750000,131554.9375000000,139744.6875000000,,,
2.9039999954,22,150341.3750000000,201453.3437500000,176097.4218750000,152050.5312500000,110612.6015625000,150495.4375000000,130953.6953125000,139248.0312500000,,,
2.9079999954,22,150354.3593750000,204641.2812500000,176108.5312500000,152064.5937500000,110623.2500000000,150495.4375000000,130959.7031250000,139224.9375000000,,,
2.9119999954,22,151004.1250000000,203373.5625000000,176851.2656250000,152764.4843750000,111263.8359375000,151116.5156250000,131565.0000000000,139705.0468750000,,,
2.9159999953,22,151401.2812500000,199417.0156250000,177343.4687500000,153211.2812500000,111654.4453125000,151498.5937500000,131942.5468750000,140030.4218750000,,,
2.9199999953,22,150998.7656250000,198229.7031250000,176888.5156250000,152774.3281250000,111259.8437500000,151115.6250000000,131565.1093750000,139749.8906250000,,,
2.9239999952,22,150354.2812500000,201431.7500000000,176104.1562500000,152044.6406250000,110625.0156250000,150505.0156250000,130961.9062500000,139256.5781250000,,,
2.9279999954,22,150355.4531250000,204684.0312500000,176108.1875000000,152045.2968750000,110625.7656250000,150503.0625000000,130956.7812500000,139228.5000000000,,,
2.9319999954,22,150995.7812500000,203430.9843750000,176846.5937500000,152763.6875000000,111260.4609375000,151108.3750000000,131560.3125000000,139695.4531250000,,,
2.9359999953,22,151407.2031250000,199404.4062500000,177358.2500000000,153228.4531250000,111665.2343750000,151499.2812500000,131949.5000000000,140030.4843750000,,,
2.9399999953,22,151011.7187500000,198161.9531250000,176923.5937500000,152783.5625000000,111275.8515625000,151120.3125000000,131577.2500000000,139759.7187500000,,,
2.9439999952,23,150345.2343750000,201393.9375000000,176122.8750000000,152043.2656250000,110617.8046875000,150483.5937500000,130946.7734375000,139246.0468750000,,,
