Time:250Hz,Epoch,Channel 1,Channel 2,Channel 3,Channel 4,Channel 5,Channel 6,Channel 7,Channel 8,Event Id,Event Date,Event Duration
0.0000000000,0,148827.8593750000,149085.8593750000,175049.8125000000,168084.4843750000,157902.4375000000,160284.0312500000,67719.1093750000,179191.9218750000,,,
0.0040000000,0,148834.7031250000,149095.4062500000,175056.8437500000,168082.5625000000,157911.1875000000,160295.0781250000,67724.4765625000,179202.5468750000,,,
0.0079999999,0,148842.7187500000,149103.1406250000,175068.5000000000,168090.3125000000,157921.0625000000,160301.0937500000,67730.9375000000,179211.5312500000,,,
0.0119999999,0,148829.2343750000,149089.8281250000,175054.2812500000,168092.6875000000,157909.1562500000,160294.4375000000,67726.5937500000,179199.9062500000,,,
0.0159999998,0,148825.0937500000,149083.7500000000,175051.8437500000,168094.1093750000,157907.2968750000,160289.9375000000,67727.1562500000,179192.0781250000,,,
0.0199999998,0,148834.0000000000,149092.0000000000,175063.0000000000,168102.6250000000,157918.4843750000,160299.7031250000,67736.6796875000,179203.7187500000,,,
0.0240000000,0,148828.5312500000,149086.2031250000,175058.6562500000,168098.5937500000,157915.7812500000,160300.4687500000,67734.1250000000,179209.6406250000,,,
0.0279999999,0,148827.7187500000,149083.3906250000,175058.7187500000,168094.7343750000,157914.9375000000,160297.1406250000,67735.5234375000,179210.7187500000,,,
0.0319999999,0,148843.4687500000,149096.1562500000,175075.5000000000,168098.8125000000,157928.3750000000,160300.3125000000,67747.1406250000,179215.7031250000,,,
0.0359999998,0,148851.7812500000,149103.0468750000,175083.3125000000,168105.9375000000,157936.0781250000,160304.5000000000,67751.6171875000,179217.5625000000,,,
0.0399999998,0,148844.1718750000,149097.6875000000,175075.5625000000,168112.7343750000,157930.3437500000,160300.3593750000,67745.7187500000,179217.0312500000,,,
0.0440000000,0,148837.1093750000,149088.9531250000,175069.9531250000,168109.7187500000,157924.0156250000,160292.6093750000,67742.2812500000,179209.6406250000,,,
0.0480000000,0,148840.9218750000,149091.5937500000,175072.5312500000,168111.4375000000,157926.2343750000,160296.5625000000,67741.8515625000,179206.3750000000,,,
0.0519999999,0,148840.3906250000,149093.1250000000,175071.0000000000,168111.7187500000,157923.2031250000,160299.9375000000,67738.5000000000,179203.5781250000,,,
0.0559999999,0,148831.0781250000,149087.1718750000,175061.7500000000,168091.5937500000,157913.7968750000,160299.1875000000,67734.9609375000,179194.6875000000,,,
0.0599999998,0,148835.7656250000,149093.0000000000,175065.0781250000,168101.3281250000,157918.4843750000,160302.7500000000,67740.8906250000,179203.1875000000,,,
0.0639999998,0,148839.4531250000,149096.1875000000,175068.3125000000,168108.2812500000,157922.6718750000,160301.3906250000,67743.3828125000,179215.6093750000,,,
0.0680000000,0,148836.2343750000,149091.8906250000,175067.4375000000,168087.9687500000,157922.1093750000,160298.5625000000,67744.7500000000,179217.3437500000,,,
0.0719999999,0,148835.3437500000,149091.7656250000,175067.1562500000,168084.5156250000,157919.9375000000,160300.4531250000,67747.0000000000,179210.9687500000,,,
0.0759999999,0,148838.3125000000,149093.9687500000,175067.0625000000,168097.2500000000,157919.0781250000,160308.1718750000,67748.3984375000,179203.3906250000,,,
0.0799999998,0,148827.7812500000,149081.3281250000,175058.9531250000,168090.6562500000,157911.0312500000,160301.3906250000,67742.0156250000,179189.5781250000,,,
0.0839999998,0,148833.0937500000,149082.9687500000,175070.3281250000,168106.4843750000,157919.5000000000,160302.0625000000,67747.1875000000,179191.1875000000,,,
0.0880000000,0,148833.0156250000,149087.6093750000,175063.1093750000,168127.0312500000,157915.0000000000,160309.1406250000,67741.5078125000,179196.6406250000,,,
0.0919999999,0,148817.2343750000,149077.6250000000,175041.9531250000,168087.7031250000,157896.0312500000,160304.0156250000,67725.6562500000,179188.0625000000,,,
0.0959999999,0,148820.7031250000,149085.4531250000,175046.1562500000,168087.8437500000,157897.7968750000,160306.6406250000,67727.7968750000,179187.5781250000,,,
0.0999999999,0,148817.0312500000,149080.3593750000,175046.8593750000,168100.7187500000,157897.1093750000,160308.3906250000,67729.4921875000,179186.5312500000,,,
0.1039999998,0,148815.3593750000,149080.6562500000,175046.4218750000,168091.8593750000,157898.4218750000,160309.1093750000,67731.1796875000,179194.7656250000,,,
0.1079999998,0,148818.3906250000,149081.3281250000,175054.1875000000,168084.5156250000,157906.4375000000,160306.7500000000,67740.2187500000,179197.5781250000,,,
0.1120000000,0,148835.8281250000,149092.8906250000,175075.4843750000,168105.4843750000,157924.7656250000,160312.9531250000,67755.7500000000,179203.8750000000,,,
0.1159999999,0,148830.2812500000,149090.1718750000,175063.0000000000,168108.0937500000,157913.2343750000,160305.7031250000,67742.9765625000,179194.8125000000,,,
0.1199999999,0,148822.1406250000,149080.7343750000,175051.7343750000,168099.4062500000,157903.5781250000,160300.5312500000,67732.6015625000,179188.4531250000,,,
0.1239999998,0,148832.3437500000,149092.7031250000,175062.1718750000,168099.0312500000,157913.8906250000,160312.4062500000,67737.8828125000,179205.1093750000,,,
0.1279999998,1,148839.6093750000,149097.2812500000,175070.9687500000,168104.2031250000,157921.3281250000,160312.3281250000,67737.8046875000,179211.9218750000,,,
0.1319999998,1,148849.6406250000,149101.8750000000,175081.7031250000,168109.2500000000,157927.0468750000,160314.1562500000,67741.0468750000,179208.8437500000,,,
0.1359999997,1,148850.1250000000,149104.1250000000,175081.5937500000,168100.7968750000,157922.9375000000,160314.4687500000,67744.1328125000,179181.8593750000,,,
0.1399999997,1,148833.4062500000,149089.9687500000,175058.4531250000,168103.9375000000,157904.1093750000,160300.7187500000,67729.8906250000,179181.8593750000,,,
0.1439999996,1,148824.2343750000,149079.9843750000,175049.2500000000,168104.8437500000,157896.1875000000,160290.3906250000,67719.5625000000,179187.2500000000,,,
0.1479999996,1,148823.4531250000,149078.8281250000,175051.3125000000,168100.9843750000,157898.0781250000,160290.2812500000,67722.1406250000,179193.9531250000,,,
0.1519999998,1,148833.5000000000,149086.8593750000,175065.7187500000,168111.0468750000,157912.0000000000,160296.7500000000,67727.4218750000,179206.7031250000,,,
0.1559999997,1,148843.0156250000,149096.6718750000,175076.5468750000,168119.8906250000,157924.9687500000,160302.5468750000,67724.9296875000,179216.8593750000,,,
0.1599999997,1,148840.5000000000,149096.5937500000,175071.8593750000,168114.5312500000,157921.9687500000,160307.9531250000,67743.7343750000,179228.7187500000,,,
0.1639999996,1,148833.0625000000,149084.6875000000,175066.4375000000,168119.0312500000,157915.9687500000,160304.0625000000,67748.9062500000,179226.7343750000,,,
0.1679999996,1,148829.2031250000,149081.8593750000,175066.7343750000,168124.5312500000,157915.6718750000,160300.0781250000,67745.6328125000,179231.6406250000,,,
0.1719999998,1,148832.4218750000,149084.8437500000,175071.1093750000,168161.8125000000,157919.1562500000,160299.7187500000,67744.0546875000,179239.6875000000,,,
0.1759999997,1,148828.1562500000,149078.0312500000,175067.5312500000,168158.9375000000,157915.4843750000,160294.8906250000,67739.2265625000,179235.1093750000,,,
0.1799999997,1,148810.8750000000,149066.8125000000,175050.7187500000,168066.4687500000,157902.4375000000,160292.7500000000,67729.1640625000,179226.0937500000,,,
0.1839999997,1,148803.2656250000,149062.9218750000,175044.8125000000,168063.1562500000,157896.8906250000,160294.1093750000,67723.5312500000,179230.1875000000,,,
0.1879999996,1,148808.0156250000,149067.3281250000,175049.2187500000,168073.8906250000,157899.3593750000,160295.9687500000,67723.0781250000,179225.7968750000,,,
0.1919999996,1,148814.8437500000,149075.8281250000,175050.2187500000,168094.8437500000,157898.6562500000,160298.9218750000,67721.2031250000,179218.2500000000,,,
0.1959999998,1,148818.2500000000,149079.3125000000,175050.3125000000,168102.3437500000,157898.2656250000,160299.5937500000,67719.9687500000,179206.9375000000,,,
0.1999999997,1,148815.6562500000,149076.5000000000,175045.2500000000,168099.1250000000,157894.3906250000,160298.4843750000,67716.1328125000,179206.7968750000,,,
0.2039999997,1,148802.7500000000,149064.2656250000,175033.6562500000,168075.7656250000,157884.3125000000,160291.4375000000,67706.5546875000,179204.1250000000,,,
0.2079999996,1,148803.6718750000,149066.1718750000,175033.3125000000,168075.6406250000,157883.4218750000,160288.8281250000,67706.9062500000,179220.7031250000,,,
0.2119999996,1,148811.5000000000,149074.6250000000,175039.7500000000,168073.3593750000,157888.3593750000,160294.9218750000,67713.4453125000,179232.4218750000,,,
0.2159999998,1,148818.4375000000,149077.1718750000,175047.6406250000,168080.0625000000,157895.3593750000,160295.3750000000,67716.8515625000,179216.5468750000,,,
0.2199999997,1,148828.6093750000,149082.5312500000,175060.5312500000,168083.6875000000,157907.6718750000,160296.7656250000,67724.6640625000,179214.2656250000,,,
0.2239999997,1,148819.4687500000,149073.9531250000,175051.6562500000,168074.3750000000,157900.5468750000,160287.4687500000,67722.0859375000,179212.8125000000,,,
0.2279999997,1,148814.1250000000,149071.1875000000,175042.9375000000,168076.8750000000,157893.9375000000,160285.5312500000,67716.6406250000,179213.0781250000,,,
0.2319999996,1,148815.8906250000,149073.3125000000,175044.2812500000,168086.5781250000,157894.4843750000,160290.8125000000,67717.4453125000,179208.7343750000,,,
0.2359999996,1,148820.0000000000,149076.5781250000,175051.6562500000,168089.8281250000,157901.5000000000,160298.6250000000,67725.6562500000,179209.2187500000,,,
0.2399999998,1,148821.7656250000,149079.5781250000,175055.2343750000,168101.7812500000,157905.1562500000,160301.7812500000,67727.3437500000,179224.2656250000,,,
0.2439999997,1,148818.0937500000,149075.5625000000,175049.9375000000,168099.1562500000,157901.1250000000,160296.7500000000,67725.1953125000,179233.9687500000,,,
0.2479999997,1,148817.5625000000,149077.1718750000,175048.7031250000,168087.1093750000,157899.0625000000,160296.7187500000,67724.5234375000,179234.5156250000,,,
0.2519999996,1,148810.8281250000,149070.9687500000,175041.5937500000,168074.3437500000,157890.4218750000,160289.3906250000,67716.5078125000,179225.1718750000,,,
0.2559999996,2,148808.2031250000,149069.3125000000,175038.9531250000,168073.7343750000,157887.0156250000,160286.2031250000,67713.3984375000,179225.1718750000,,,
0.2599999995,2,148808.3281250000,149068.1093750000,175039.8906250000,168083.4375000000,157888.2343750000,160284.6718750000,67711.5468750000,179230.5468750000,,,
0.2639999995,2,148812.6718750000,149066.1250000000,175047.3125000000,168113.4843750000,157894.4218750000,160282.9062500000,67715.6718750000,179230.6562500000,,,
0.2679999995,2,148823.1718750000,149074.2500000000,175059.4687500000,168115.1718750000,157903.5781250000,160285.1562500000,67721.5781250000,179233.5937500000,,,
0.2719999994,2,148815.4218750000,149069.6562500000,175048.8750000000,168071.0156250000,157894.1093750000,160284.9218750000,67715.2734375000,179224.7968750000,,,
0.2759999994,2,148797.4218750000,149049.7343750000,175028.5468750000,168054.3906250000,157874.8125000000,160273.6250000000,67702.6640625000,179201.5781250000,,,
0.2799999996,2,148802.0781250000,149056.0625000000,175032.3437500000,168072.1718750000,157878.8437500000,160280.8593750000,67706.4218750000,179198.5625000000,,,
0.2839999995,2,148801.2500000000,149057.4531250000,175032.2656250000,168072.1562500000,157880.6093750000,160282.8593750000,67705.2109375000,179200.0937500000,,,
0.2879999995,2,148796.9375000000,149054.3437500000,175027.6250000000,168068.7968750000,157877.7343750000,160281.4062500000,67705.9921875000,179195.4062500000,,,
0.2919999994,2,148804.5312500000,149064.7812500000,175032.2968750000,168085.4062500000,157882.9687500000,160289.3750000000,67710.0703125000,179194.7812500000,,,
0.2959999994,2,148832.1250000000,149092.6406250000,175059.5937500000,168151.6250000000,157906.0312500000,160305.9531250000,67729.2968750000,179209.1093750000,,,
0.2999999996,2,148835.2343750000,149090.5781250000,175066.2812500000,168159.7031250000,157912.7500000000,160306.8281250000,67737.7265625000,179209.7343750000,,,
0.3039999995,2,148815.0625000000,149072.0156250000,175049.9687500000,168057.5312500000,157902.1562500000,160303.2031250000,67733.2968750000,179200.1718750000,,,
0.3079999995,2,148809.0000000000,149067.1718750000,175041.3125000000,168048.2187500000,157896.0625000000,160301.7812500000,67729.0859375000,179195.8281250000,,,
0.3119999995,2,148810.7500000000,149065.0937500000,175041.8750000000,168065.1250000000,157893.9687500000,160301.2812500000,67725.9765625000,179186.5000000000,,,
0.3159999994,2,148817.0000000000,149071.8593750000,175050.6093750000,168058.6562500000,157898.7656250000,160304.3593750000,67731.0156250000,179182.0000000000,,,
0.3199999994,2,148820.4062500000,149074.4687500000,175057.7968750000,168065.5468750000,157904.2968750000,160300.2031250000,67735.8750000000,179179.4218750000,,,
0.3239999996,2,148819.2812500000,149076.7187500000,175055.4218750000,168060.9062500000,157903.8593750000,160301.2031250000,67733.5390625000,179184.0937500000,,,
0.3279999995,2,148813.9375000000,149071.8906250000,175048.6875000000,168059.1406250000,157899.1406250000,160295.1562500000,67722.6484375000,179180.5937500000,,,
0.3319999995,2,148815.1406250000,149072.1562500000,175051.3906250000,168067.6718750000,157900.2656250000,160292.9375000000,67714.5468750000,179170.5625000000,,,
0.3359999994,2,148823.9375000000,149085.3281250000,175057.2968750000,168077.2656250000,157903.8906250000,160306.1406250000,67731.5000000000,179173.0937500000,,,
0.3399999994,2,148824.6875000000,149085.8593750000,175055.3125000000,168077.5468750000,157901.7968750000,160305.3281250000,67734.5312500000,179175.9843750000,,,
0.3439999996,2,148824.1562500000,149082.0781250000,175054.8281250000,168081.7187500000,157902.7343750000,160299.8906250000,67731.8750000000,179178.1250000000,,,
0.3479999995,2,148828.6406250000,149087.1718750000,175058.6562500000,168085.7500000000,157908.7187500000,160302.6250000000,67734.3437500000,179186.4687500000,,,
0.3519999995,2,148830.6250000000,149088.2812500000,175061.2031250000,168090.5781250000,157912.7500000000,160305.2187500000,67738.1015625000,179188.4531250000,,,
0.3559999994,2,148834.9375000000,149093.5625000000,175067.4843750000,168095.5156250000,157918.3437500000,160313.0781250000,67742.6562500000,179190.7968750000,,,
0.3599999994,2,148846.2031250000,149105.7343750000,175082.6875000000,168093.6406250000,157932.0000000000,160324.1250000000,67756.7109375000,179205.2968750000,,,
0.3639999994,2,148843.1250000000,149103.4375000000,175077.4375000000,168083.0156250000,157930.0468750000,160321.5781250000,67756.5546875000,179213.8593750000,,,
0.3679999996,2,148840.4375000000,149099.8281250000,175067.8593750000,168092.6406250000,157923.1562500000,160316.5625000000,67743.0859375000,179215.7343750000,,,
0.3719999995,2,148842.2031250000,149099.3281250000,175069.4375000000,168087.5468750000,157925.7031250000,160315.1250000000,67742.1484375000,179213.9062500000,,,
0.3759999995,2,148840.7031250000,149099.2187500000,175067.1562500000,168086.3593750000,157922.7187500000,160314.7500000000,67749.9296875000,179210.1093750000,,,
0.3799999994,2,148840.7031250000,149097.3125000000,175067.7500000000,168101.5156250000,157921.7500000000,160315.3281250000,67750.4609375000,179210.4218750000,,,
0.3839999994,3,148841.8281250000,149098.3281250000,175069.7343750000,168114.6562500000,157922.3437500000,160316.8125000000,67748.3437500000,179214.6093750000,,,
0.3879999993,3,148837.4375000000,149094.2031250000,175070.6718750000,168092.5625000000,157922.7812500000,160312.1093750000,67747.8046875000,179214.8437500000,,,
0.3919999993,3,148827.9687500000,149081.8125000000,175062.6093750000,168082.0156250000,157914.8906250000,160299.4218750000,67740.2734375000,179199.8593750000,,,
0.3959999993,3,148816.9218750000,149072.5625000000,175046.9687500000,168059.5937500000,157898.9843750000,160288.0781250000,67727.4218750000,179181.9375000000,,,
0.3999999992,3,148819.5468750000,149076.0468750000,175046.0468750000,168055.3906250000,157897.0468750000,160292.0312500000,67727.8828125000,179181.4062500000,,,
0.4039999992,3,148824.8593750000,149083.6406250000,175050.0000000000,168070.0312500000,157901.1562500000,160299.7812500000,67729.9140625000,179193.2031250000,,,
0.4079999994,3,148832.9531250000,149095.6718750000,175060.8281250000,168072.4218750000,157911.3281250000,160310.3125000000,67737.6718750000,179202.0000000000,,,
0.4119999993,3,148832.3593750000,149093.5312500000,175061.6406250000,168066.5625000000,157911.5312500000,160309.7812500000,67738.1796875000,179191.2812500000,,,
0.4159999993,3,148826.5781250000,149090.5781250000,175054.4218750000,168066.5625000000,157904.5156250000,160309.3281250000,67733.2968750000,179189.3750000000,,,
0.4199999992,3,148830.1093750000,149094.5312500000,175062.1250000000,168061.9062500000,157909.8281250000,160312.6718750000,67737.5625000000,179196.5781250000,,,
0.4239999992,3,148835.8750000000,149101.8281250000,175062.0625000000,168073.4687500000,157913.8125000000,160323.3750000000,67741.2890625000,179203.3125000000,,,
0.4279999994,3,148840.2031250000,149102.4687500000,175064.6093750000,168102.2500000000,157918.2500000000,160327.1406250000,67746.9765625000,179205.4843750000,,,
0.4319999993,3,148841.8125000000,149100.7812500000,175067.5312500000,168110.2656250000,157917.5937500000,160325.2500000000,67749.5000000000,179197.1562500000,,,
0.4359999993,3,148850.1718750000,149107.5312500000,175074.0625000000,168114.4687500000,157920.7343750000,160332.4687500000,67752.4453125000,179201.1250000000,,,
0.4399999992,3,148843.5468750000,149101.3593750000,175070.1718750000,168104.9531250000,157916.7187500000,160325.4687500000,67744.5390625000,179204.4218750000,,,
0.4439999992,3,148838.2656250000,149098.8750000000,175068.0156250000,168095.8281250000,157917.2968750000,160325.5468750000,67745.3906250000,179211.8437500000,,,
0.4479999992,3,148840.5156250000,149103.3281250000,175070.4375000000,168100.8281250000,157922.1093750000,160332.0625000000,67753.3906250000,179221.9375000000,,,
0.4519999993,3,148845.3437500000,149108.5000000000,175075.9375000000,168104.8750000000,157927.2343750000,160334.4531250000,67762.6640625000,179224.9843750000,,,
0.4559999993,3,148847.5937500000,149108.3125000000,175078.6406250000,168131.5000000000,157927.9218750000,160332.1718750000,67766.1562500000,179225.2812500000,,,
0.4599999993,3,148851.2968750000,149110.3437500000,175080.4687500000,168131.7187500000,157928.5625000000,160333.6718750000,67764.8906250000,179228.4218750000,,,
0.4639999992,3,148850.1718750000,149106.7343750000,175080.7812500000,168126.8906250000,157928.3750000000,160328.8750000000,67761.8359375000,179229.4687500000,,,
0.4679999992,3,148834.1562500000,149090.6406250000,175068.4218750000,168096.5625000000,157915.2187500000,160310.9687500000,67748.8281250000,179218.9062500000,,,
0.4719999994,3,148836.0937500000,149098.8906250000,175069.2812500000,168090.6875000000,157915.0312500000,160312.2187500000,67748.6093750000,179216.4375000000,,,
0.4759999993,3,148841.1875000000,149107.0312500000,175069.8125000000,168109.5625000000,157915.6406250000,160313.4218750000,67744.1875000000,179214.6093750000,,,
0.4799999993,3,148833.3281250000,149101.0156250000,175057.6406250000,168085.1875000000,157906.8125000000,160306.6406250000,67737.0234375000,179214.2812500000,,,
0.4839999992,3,148829.8125000000,149097.9531250000,175051.3906250000,168064.9843750000,157902.6250000000,160304.3437500000,67739.8984375000,179218.6562500000,,,
0.4879999992,3,148824.4218750000,149093.9062500000,175044.7656250000,168064.3125000000,157895.4375000000,160301.6875000000,67734.5859375000,179219.7656250000,,,
0.4919999992,3,148826.7031250000,149095.7031250000,175046.4218750000,168064.3750000000,157895.0625000000,160307.5625000000,67732.9765625000,179221.1562500000,,,
0.4959999993,3,148833.5000000000,149100.5625000000,175054.2656250000,168068.2031250000,157900.9375000000,160316.6718750000,67737.3437500000,179221.1562500000,,,
0.4999999993,3,148844.4687500000,149110.8281250000,175067.6250000000,168069.0156250000,157912.9531250000,160324.0312500000,67747.2187500000,179231.2187500000,,,
0.5039999993,3,148844.9218750000,149113.1718750000,175070.5937500000,168069.5468750000,157918.0625000000,160325.5000000000,67749.0156250000,179237.4687500000,,,
0.5079999992,3,148830.0625000000,149098.9218750000,175055.5468750000,168069.0937500000,157906.5156250000,160319.3593750000,67738.4453125000,179227.1875000000,,,
0.5119999992,4,148826.6562500000,149091.3906250000,175053.1875000000,168071.8593750000,157904.8906250000,160314.3437500000,67739.7890625000,179214.1562500000,,,
0.5159999991,4,148833.7656250000,149100.3750000000,175058.6562500000,168081.9687500000,157908.7968750000,160321.3906250000,67743.2500000000,179214.4531250000,,,
0.5199999991,4,148841.6718750000,149106.8593750000,175066.1093750000,168098.2187500000,157915.7500000000,160328.9375000000,67750.2187500000,179219.9687500000,,,
0.5239999990,4,148838.2343750000,149101.5468750000,175064.2187500000,168090.4375000000,157914.0312500000,160324.5000000000,67749.2812500000,179222.9531250000,,,
0.5279999990,4,148828.9062500000,149091.5000000000,175058.1562500000,168072.6250000000,157909.4375000000,160320.1562500000,67745.8515625000,179218.2812500000,,,
0.5319999990,4,148829.3593750000,149093.1875000000,175060.8906250000,168066.8125000000,157911.6718750000,160324.5937500000,67749.9843750000,179218.5312500000,,,
0.5359999991,4,148842.8750000000,149106.3281250000,175076.3125000000,168073.7656250000,157924.8750000000,160336.3593750000,67764.7031250000,179225.5312500000,,,
0.5399999991,4,148841.0781250000,149096.4843750000,175075.9531250000,168083.4062500000,157923.9531250000,160328.9531250000,67763.6093750000,179220.1093750000,,,
0.5439999991,4,148842.2343750000,149095.9531250000,175075.0468750000,168089.4687500000,157924.2500000000,160327.6718750000,67761.4375000000,179224.8593750000,,,
0.5479999990,4,148836.7031250000,149091.2187500000,175069.5468750000,168095.8906250000,157919.5781250000,160323.0781250000,67760.0156250000,179223.2187500000,,,
0.5519999990,4,148834.8906250000,149089.8593750000,175067.6250000000,168102.1875000000,157916.3593750000,160320.7500000000,67756.3906250000,179219.8125000000,,,
0.5559999992,4,148839.4218750000,149094.4687500000,175075.0156250000,168100.3906250000,157921.5937500000,160322.9531250000,67757.3828125000,179220.7500000000,,,
0.5599999991,4,148843.6875000000,149099.4375000000,175080.5781250000,168096.6875000000,157926.3125000000,160323.6250000000,67766.1250000000,179226.2968750000,,,
0.5639999991,4,148828.2031250000,149088.3593750000,175062.6562500000,168074.2656250000,157911.8593750000,160314.8437500000,67750.4375000000,179225.0468750000,,,
0.5679999990,4,148822.7031250000,149085.7500000000,175054.1562500000,168075.5312500000,157905.0937500000,160310.7968750000,67743.1953125000,179225.7343750000,,,
0.5719999990,4,148826.8906250000,149091.6250000000,175056.9687500000,168089.0468750000,157905.9531250000,160308.2500000000,67744.9609375000,179230.1875000000,,,
0.5759999990,4,148834.3437500000,149099.0312500000,175065.8750000000,168099.1562500000,157912.8750000000,160313.3437500000,67751.0234375000,179233.7031250000,,,
0.5799999991,4,148844.1875000000,149107.9687500000,175078.9843750000,168117.2343750000,157925.2500000000,160320.0781250000,67762.5078125000,179239.9531250000,,,
0.5839999991,4,148841.2656250000,149105.4687500000,175076.1406250000,168114.8281250000,157922.2656250000,160319.5156250000,67758.3515625000,179245.6718750000,,,
0.5879999991,4,148831.4062500000,149100.6406250000,175062.4375000000,168086.3125000000,157910.5468750000,160319.9687500000,67745.9296875000,179250.1562500000,,,
0.5919999990,4,148833.4375000000,149106.5156250000,175064.1250000000,168088.5156250000,157912.7187500000,160327.1875000000,67748.0781250000,179251.8906250000,,,
0.5959999990,4,148828.9843750000,149100.2968750000,175062.1250000000,168081.3437500000,157910.8593750000,160324.8750000000,67748.9375000000,179239.5312500000,,,
0.5999999992,4,148828.7656250000,149096.2343750000,175060.2656250000,168089.0468750000,157909.4687500000,160323.1718750000,67745.3671875000,179240.8750000000,,,
0.6039999991,4,148820.7500000000,149084.3281250000,175054.3906250000,168080.7656250000,157904.6093750000,160314.3437500000,67740.0312500000,179240.0937500000,,,
0.6079999991,4,148821.2031250000,149083.3125000000,175056.6562500000,168068.6562500000,157908.3750000000,160315.5468750000,67745.2578125000,179236.0625000000,,,
0.6119999990,4,148835.7656250000,149095.6562500000,175071.3437500000,168078.3125000000,157921.1875000000,160321.9843750000,67757.4140625000,179235.8281250000,,,
0.6159999990,4,148838.0000000000,149096.8593750000,175068.6875000000,168089.5781250000,157918.5937500000,160318.5000000000,67755.3750000000,179227.6718750000,,,
0.6199999989,4,148828.2031250000,149090.7500000000,175055.6875000000,168080.2812500000,157907.3281250000,160309.6250000000,67745.0468750000,179220.1093750000,,,
0.6239999991,4,148826.8593750000,149086.1250000000,175055.6562500000,168084.8906250000,157909.5468750000,160304.4218750000,67747.9453125000,179218.2343750000,,,
0.6279999991,4,148845.9687500000,149104.5781250000,175077.5937500000,168095.1093750000,157930.9062500000,160317.5937500000,67766.3125000000,179231.9375000000,,,
0.6319999991,4,148844.4843750000,149103.5625000000,175076.3125000000,168095.4531250000,157927.9062500000,160317.2343750000,67762.3750000000,179227.8593750000,,,
0.6359999990,4,148837.5625000000,149097.3437500000,175067.4531250000,168100.7968750000,157917.8593750000,160313.3437500000,67755.9609375000,179213.5156250000,,,
0.6399999990,5,148834.4062500000,149094.6250000000,175066.3281250000,168094.4062500000,157917.0156250000,160311.8125000000,67756.0156250000,179208.4375000000,,,
0.6439999989,5,148832.9531250000,149093.6718750000,175064.9687500000,168094.9531250000,157917.5937500000,160311.2031250000,67754.4609375000,179205.6562500000,,,
0.6479999989,5,148837.2812500000,149097.2656250000,175069.8437500000,168105.1093750000,157922.5625000000,160315.9531250000,67757.5703125000,179208.3125000000,,,
0.6519999988,5,148850.3906250000,149112.3593750000,175083.3125000000,168125.6093750000,157932.8125000000,160329.1718750000,67766.7968750000,179216.2656250000,,,
0.6559999988,5,148852.0468750000,149113.6250000000,175082.6406250000,168108.5468750000,157930.0468750000,160329.5468750000,67762.7734375000,179211.2343750000,,,
0.6599999988,5,148841.5625000000,149101.7656250000,175068.8593750000,168105.4375000000,157919.9062500000,160319.2968750000,67753.4687500000,179202.6718750000,,,
0.6639999989,5,148836.2500000000,149097.6093750000,175063.5937500000,168106.3125000000,157918.3281250000,160313.9843750000,67751.8828125000,179205.2187500000,,,
0.6679999989,5,148829.2500000000,149092.4062500000,175060.2656250000,168089.3750000000,157915.2968750000,160305.4375000000,67750.1718750000,179203.7812500000,,,
0.6719999989,5,148836.1718750000,149102.3906250000,175068.7187500000,168088.5625000000,157921.3281250000,160311.1718750000,67755.3984375000,179208.0937500000,,,
0.6759999988,5,148836.6093750000,149104.5781250000,175068.1250000000,168102.1093750000,157918.3281250000,160310.1875000000,67757.4375000000,179207.8437500000,,,
0.6799999988,5,148830.4843750000,149097.7500000000,175062.1718750000,168089.6093750000,157913.8750000000,160307.1718750000,67758.1328125000,179205.0312500000,,,
0.6839999990,5,148832.3125000000,149101.6250000000,175063.3281250000,168079.5000000000,157916.4218750000,160313.5156250000,67759.3437500000,179212.4687500000,,,
0.6879999989,5,148833.6250000000,149104.7968750000,175061.2812500000,168082.2031250000,157914.7343750000,160314.6875000000,67754.1953125000,179216.8906250000,,,
0.6919999989,5,148843.8437500000,149116.7031250000,175070.9218750000,168089.6875000000,157922.1875000000,160322.7968750000,67756.7421875000,179222.7656250000,,,
0.6959999988,5,148850.7187500000,149124.7500000000,175080.1718750000,168090.4218750000,157928.4687500000,160329.2812500000,67759.2890625000,179225.4531250000,,,
0.6999999988,5,148859.8593750000,149127.4062500000,175095.8593750000,168097.3593750000,157941.4687500000,160333.8437500000,67771.6015625000,179230.5156250000,,,
0.7039999987,5,148849.9375000000,149110.8281250000,175088.6250000000,168098.0625000000,157934.9062500000,160317.0781250000,67763.8437500000,179223.8437500000,,,
0.7079999989,5,148841.4062500000,149104.2343750000,175076.7187500000,168105.3750000000,157926.2343750000,160311.8437500000,67754.4609375000,179223.6562500000,,,
0.7119999989,5,148844.5937500000,149108.8281250000,175079.0937500000,168101.2500000000,157929.3125000000,160317.5312500000,67757.8671875000,179226.2500000000,,,
0.7159999989,5,148836.6093750000,149101.0156250000,175072.1718750000,168088.4218750000,157923.4687500000,160316.8281250000,67756.3125000000,179216.4843750000,,,
0.7199999988,5,148845.4218750000,149111.0156250000,175081.7031250000,168087.7656250000,157934.0625000000,160328.7968750000,67771.4921875000,179226.0156250000,,,
0.7239999988,5,148841.4843750000,149109.0625000000,175077.4843750000,168093.5468750000,157932.0781250000,160327.8281250000,67771.6250000000,179230.2812500000,,,
0.7279999990,5,148842.7187500000,149109.2500000000,175078.1562500000,168092.4062500000,157932.8593750000,160329.2812500000,67771.9218750000,179233.2187500000,,,
0.7319999989,5,148856.9687500000,149120.8906250000,175091.9687500000,168099.9843750000,157944.0781250000,160339.0937500000,67780.7968750000,179239.8750000000,,,
0.7359999989,5,148857.2812500000,149118.5781250000,175095.8593750000,168101.6875000000,157945.3593750000,160338.7968750000,67782.5937500000,179236.0468750000,,,
0.7399999988,5,148852.7031250000,149110.0625000000,175090.5468750000,168122.2031250000,157941.3593750000,160333.2500000000,67778.3281250000,179229.0468750000,,,
0.7439999988,5,148847.7031250000,149106.6406250000,175080.0156250000,168105.9687500000,157934.8437500000,160329.2031250000,67775.1953125000,179230.6562500000,,,
0.7479999987,5,148850.6250000000,149110.7500000000,175081.2656250000,168093.1562500000,157937.8437500000,160332.4218750000,67779.3203125000,179236.0625000000,,,
0.7519999989,5,148851.8437500000,149114.2968750000,175082.7500000000,168100.3906250000,157938.2187500000,160333.4375000000,67779.8593750000,179234.4531250000,,,
0.7559999989,5,148848.1093750000,149114.0468750000,175079.1718750000,168088.5156250000,157932.6718750000,160331.9843750000,67775.7031250000,179229.2343750000,,,
0.7599999988,5,148842.9062500000,149111.2031250000,175080.4375000000,168069.7343750000,157931.2031250000,160331.4218750000,67770.2812500000,179229.5000000000,,,
0.7639999988,5,148840.0625000000,149109.2812500000,175083.9531250000,168067.1562500000,157935.2968750000,160331.7187500000,67763.5000000000,179232.0468750000,,,
0.7679999988,6,148832.1718750000,149100.3125000000,175072.3437500000,168083.2031250000,157924.7656250000,160325.7343750000,67765.1093750000,179231.7031250000,,,
0.7719999987,6,148834.0312500000,149094.1562500000,175075.1093750000,168093.8281250000,157926.2031250000,160320.4062500000,67771.8125000000,179223.4375000000,,,
0.7759999987,6,148840.9687500000,149101.9843750000,175078.0000000000,168104.9843750000,157928.9218750000,160321.4531250000,67775.7265625000,179223.1875000000,,,
0.7799999986,6,148851.7812500000,149115.0156250000,175089.1093750000,168119.0312500000,157938.5781250000,160328.1562500000,67785.1406250000,179232.2031250000,,,
0.7839999986,6,148855.2656250000,149116.8906250000,175094.5468750000,168111.0468750000,157942.8593750000,160325.9531250000,67789.9218750000,179235.9843750000,,,
0.7879999985,6,148837.7812500000,149101.6250000000,175075.0468750000,168085.1875000000,157925.6250000000,160313.2656250000,67774.4687500000,179229.8750000000,,,
0.7919999987,6,148836.4375000000,149103.7500000000,175072.1250000000,168095.1093750000,157921.8593750000,160312.1875000000,67769.5625000000,179232.5000000000,,,
0.7959999987,6,148846.3906250000,149112.1406250000,175083.2500000000,168112.3593750000,157931.3281250000,160318.2812500000,67778.0625000000,179226.5937500000,,,
0.7999999986,6,148844.6718750000,149108.3906250000,175080.3906250000,168099.2656250000,157932.0000000000,160323.6718750000,67780.3437500000,179218.0937500000,,,
0.8039999986,6,148839.4687500000,149102.8125000000,175073.1406250000,168083.8125000000,157928.1718750000,160320.0468750000,67776.5859375000,179216.1093750000,,,
0.8079999986,6,148843.5468750000,149105.7031250000,175078.9687500000,168085.6718750000,157933.7968750000,160322.7031250000,67780.4531250000,179215.6250000000,,,
0.8119999988,6,148849.0468750000,149110.1406250000,175087.0156250000,168085.5625000000,157938.9687500000,160325.4687500000,67781.0703125000,179214.9375000000,,,
0.8159999987,6,148847.3125000000,149106.6406250000,175084.6562500000,168102.0312500000,157934.2343750000,160321.3906250000,67774.2812500000,179207.5312500000,,,
0.8199999987,6,148846.7656250000,149103.9687500000,175086.7500000000,168096.2343750000,157934.4218750000,160320.9687500000,67774.5781250000,179206.8281250000,,,
0.8239999986,6,148847.2812500000,149104.8437500000,175086.7500000000,168094.0156250000,157935.3750000000,160324.6718750000,67773.1562500000,179210.9375000000,,,
0.8279999986,6,148834.3437500000,149090.5625000000,175069.9843750000,168095.0781250000,157920.0625000000,160311.4218750000,67756.5000000000,179200.6093750000,,,
0.8319999985,6,148837.1718750000,149090.7187500000,175072.1562500000,168091.7812500000,157922.0312500000,160313.7500000000,67760.6796875000,179206.5156250000,,,
0.8359999987,6,148857.3125000000,149112.9531250000,175092.0468750000,168097.4375000000,157941.5312500000,160332.7187500000,67780.5859375000,179223.0312500000,,,
0.8399999987,6,148864.3437500000,149118.0937500000,175103.3125000000,168101.2187500000,157951.2031250000,160337.1718750000,67790.4296875000,179231.0781250000,,,
0.8439999986,6,148855.1875000000,149112.4375000000,175091.2500000000,168116.9687500000,157941.5312500000,160331.0468750000,67783.5312500000,179228.8593750000,,,
0.8479999986,6,148844.5468750000,149110.0625000000,175075.0468750000,168115.0312500000,157927.9843750000,160325.6093750000,67772.4609375000,179229.4375000000,,,
0.8519999986,6,148849.0781250000,149116.5937500000,175082.9843750000,168107.8437500000,157933.5781250000,160331.6406250000,67781.0703125000,179236.6093750000,,,
0.8559999987,6,148854.8906250000,149121.7812500000,175094.8125000000,168102.2187500000,157943.6718750000,160334.2500000000,67786.6484375000,179241.3281250000,,,
0.8599999987,6,148853.5000000000,149117.9375000000,175089.2031250000,168107.2031250000,157940.4531250000,160331.1562500000,67778.8671875000,179241.7812500000,,,
0.8639999987,6,148856.9687500000,149119.1250000000,175092.9375000000,168109.2968750000,157944.7656250000,160335.5781250000,67787.9375000000,179248.1093750000,,,
0.8679999986,6,148858.0312500000,149119.9531250000,175092.4531250000,168107.6406250000,157943.2656250000,160339.3593750000,67791.0468750000,179253.2031250000,,,
0.8719999986,6,148854.3281250000,149112.5468750000,175085.2187500000,168107.8281250000,157935.0000000000,160332.3125000000,67785.1718750000,179249.1562500000,,,
0.8759999985,6,148865.6718750000,149121.9687500000,175100.1562500000,168096.8593750000,157948.0156250000,160339.5312500000,67797.7812500000,179255.5156250000,,,
0.8799999987,6,148874.8281250000,149129.7968750000,175117.5156250000,168087.3593750000,157962.1718750000,160343.2500000000,67808.4765625000,179258.6562500000,,,
0.8839999987,6,148866.3281250000,149122.6406250000,175107.4843750000,168089.4687500000,157956.2968750000,160339.2031250000,67803.0859375000,179255.9218750000,,,
0.8879999986,6,148855.4375000000,149117.9375000000,175085.1875000000,168105.9375000000,157939.1875000000,160335.6093750000,67777.5781250000,179251.1093750000,,,
0.8919999986,6,148860.8281250000,149123.5781250000,175094.2031250000,168107.5781250000,157947.2968750000,160341.6718750000,67791.7421875000,179249.9687500000,,,
0.8959999986,7,148858.4062500000,149120.4062500000,175092.5937500000,168110.0468750000,157946.0000000000,160338.5625000000,67799.3593750000,179241.0781250000,,,
0.8999999985,7,148862.0312500000,149119.7968750000,175097.9531250000,168117.7500000000,157950.2343750000,160334.2500000000,67802.3906250000,179238.7187500000,,,
0.9039999985,7,148863.1250000000,149118.8750000000,175102.6562500000,168101.8750000000,157955.4218750000,160335.8593750000,67804.5937500000,179242.7500000000,,,
0.9079999984,7,148856.2656250000,149109.7656250000,175096.0000000000,168096.8593750000,157949.9687500000,160336.1718750000,67797.0546875000,179238.1093750000,,,
0.9119999984,7,148850.7968750000,149103.3750000000,175088.6406250000,168097.4218750000,157941.7968750000,160334.6406250000,67787.0781250000,179228.0781250000,,,
0.9159999983,7,148862.3281250000,149116.2187500000,175101.1406250000,168102.0781250000,157953.4062500000,160345.4531250000,67798.8203125000,179233.5156250000,,,
0.9199999985,7,148860.0156250000,149110.6718750000,175099.4062500000,168115.5468750000,157950.8125000000,160340.2187500000,67794.3437500000,179235.0156250000,,,
0.9239999985,7,148854.7656250000,149107.5937500000,175096.2656250000,168105.2968750000,157950.2343750000,160337.4843750000,67774.1484375000,179240.9218750000,,,
0.9279999984,7,148855.0000000000,149110.3750000000,175095.8593750000,168102.2656250000,157952.4375000000,160339.1562500000,67748.1328125000,179249.8593750000,,,
0.9319999984,7,148853.4531250000,149112.9531250000,175085.2187500000,168109.4062500000,157939.0781250000,160335.2812500000,67771.9453125000,179250.6875000000,,,
0.9359999984,7,148856.3906250000,149118.4531250000,175085.3281250000,168109.1093750000,157932.7500000000,160335.6093750000,67791.8203125000,179250.7343750000,,,
0.9399999985,7,148843.7343750000,149104.2656250000,175075.4843750000,168093.2031250000,157920.3906250000,160324.8750000000,67784.6640625000,179243.6250000000,,,
0.9439999985,7,148844.5937500000,149107.9062500000,175076.9531250000,168108.4375000000,157923.3593750000,160327.5312500000,67780.5859375000,179251.6250000000,,,
0.9479999985,7,148856.7812500000,149120.2968750000,175087.0156250000,168174.3437500000,157933.3906250000,160333.2968750000,67782.7031250000,179263.8750000000,,,
0.9519999984,7,148849.9687500000,149110.3750000000,175083.8125000000,168178.7656250000,157928.3281250000,160324.6406250000,67773.2890625000,179256.2656250000,,,
0.9559999984,7,148842.7500000000,149107.7187500000,175079.0781250000,168076.6875000000,157926.3437500000,160325.9531250000,67764.8437500000,179248.8593750000,,,
0.9599999983,7,148821.5312500000,149086.5312500000,175061.8593750000,168023.1250000000,157915.3750000000,160314.6562500000,67718.5703125000,179231.0000000000,,,
0.9639999985,7,148822.5000000000,149086.9687500000,175061.0468750000,168050.3125000000,157914.5625000000,160315.5468750000,67741.8515625000,179232.1718750000,,,
0.9679999985,7,148833.5468750000,149099.0000000000,175067.4062500000,168077.7343750000,157918.2656250000,160323.9375000000,67776.4296875000,179243.3437500000,,,
0.9719999984,7,148832.5312500000,149096.4843750000,175066.7656250000,168070.0000000000,157917.0312500000,160322.6093750000,67779.8046875000,179242.9062500000,,,
0.9759999984,7,148834.5625000000,149100.0781250000,175069.2343750000,168060.7812500000,157918.0000000000,160325.3906250000,67777.2578125000,179239.4531250000,,,
0.9799999984,7,148835.1562500000,149101.5000000000,175062.4218750000,168076.2187500000,157912.2812500000,160323.7031250000,67768.0625000000,179235.5312500000,,,
0.9839999985,7,148835.1562500000,149101.1562500000,175059.8906250000,168090.2500000000,157910.2812500000,160322.6093750000,67763.2812500000,179238.2656250000,,,
0.9879999985,7,148836.7031250000,149102.1093750000,175065.9062500000,168086.9062500000,157914.9687500000,160328.7656250000,67765.9921875000,179241.6250000000,,,
0.9919999985,7,148833.4687500000,149096.7187500000,175066.8437500000,168087.9687500000,157913.2812500000,160327.3437500000,67758.3203125000,179234.5937500000,,,
0.9959999984,7,148831.5000000000,149089.2968750000,175068.4531250000,168097.8437500000,157913.4687500000,160320.4843750000,67751.0000000000,179222.3125000000,,,
0.9999999984,7,148819.6718750000,149077.7656250000,175055.4375000000,168072.9062500000,157904.1875000000,160313.8906250000,67745.8750000000,179209.4531250000,,,
1.0039999983,7,148816.1093750000,149074.2812500000,175050.9687500000,168063.4375000000,157901.7968750000,160309.7343750000,67746.2500000000,179209.3750000000,,,
1.0079999985,7,148826.2187500000,149085.0000000000,175060.5625000000,168079.1250000000,157911.0000000000,160317.6875000000,67755.7500000000,179221.3906250000,,,
1.0119999985,7,148830.4062500000,149090.5000000000,175063.6250000000,168085.7812500000,157913.4218750000,160321.3906250000,67759.0234375000,179227.4062500000,,,
1.0159999984,7,148839.6406250000,149102.7812500000,175071.6406250000,168110.3125000000,157918.1562500000,160324.9375000000,67762.2656250000,179237.3750000000,,,
1.0199999984,7,148841.2968750000,149102.3906250000,175077.7031250000,168110.8593750000,157921.3281250000,160320.4843750000,67763.2812500000,179236.7968750000,,,
1.0239999983,8,148831.5312500000,149089.7500000000,175066.8906250000,168109.5937500000,157913.2031250000,160309.3281250000,67749.2812500000,179224.8593750000,,,
1.0279999983,8,148837.7500000000,149095.5156250000,175073.2500000000,168114.5468750000,157918.5156250000,160311.1562500000,67759.6875000000,179231.9687500000,,,
1.0319999983,8,148839.9531250000,149097.5625000000,175071.9843750000,168123.3281250000,157916.7656250000,160310.5312500000,67760.5468750000,179231.3437500000,,,
1.0359999982,8,148835.2031250000,149090.4687500000,175068.5000000000,168088.6718750000,157912.0781250000,160306.0312500000,67757.1406250000,179223.5156250000,,,
1.0399999982,8,148825.7187500000,149084.2812500000,175053.1562500000,168076.5781250000,157903.2812500000,160303.6093750000,67751.8281250000,179218.8437500000,,,
1.0439999981,8,148834.3437500000,149091.7656250000,175063.9375000000,168103.1562500000,157916.8281250000,160310.7812500000,67763.6562500000,179230.0937500000,,,
1.0479999983,8,148833.8125000000,149088.1875000000,175065.6875000000,168116.1562500000,157918.2187500000,160309.1093750000,67766.0468750000,179234.1406250000,,,
1.0519999983,8,148831.0781250000,149086.1250000000,175062.8437500000,168096.8593750000,157915.3750000000,160307.0468750000,67767.5781250000,179230.8906250000,,,
1.0559999982,8,148831.3750000000,149087.5468750000,175062.2031250000,168064.0468750000,157915.9687500000,160313.4531250000,67771.4140625000,179226.4062500000,,,
1.0599999982,8,148838.6406250000,149096.7187500000,175065.7343750000,168077.7031250000,157920.5000000000,160319.9218750000,67774.1484375000,179232.6562500000,,,
1.0639999982,8,148840.9687500000,149095.4375000000,175069.6562500000,168083.6875000000,157922.7968750000,160318.8437500000,67772.5625000000,179235.9062500000,,,
1.0679999983,8,148834.6250000000,149090.0781250000,175063.5156250000,168084.4843750000,157913.6250000000,160311.7187500000,67761.0859375000,179231.9062500000,,,
1.0719999983,8,148835.0781250000,149093.1562500000,175061.6406250000,168088.5937500000,157910.6250000000,160314.8281250000,67758.8593750000,179232.1562500000,,,
1.0759999983,8,148839.0156250000,149098.3906250000,175063.7343750000,168084.7812500000,157913.3281250000,160322.3281250000,67761.8359375000,179232.2656250000,,,
1.0799999982,8,148841.6718750000,149100.0000000000,175066.4375000000,168092.0000000000,157917.8437500000,160326.8125000000,67764.8125000000,179231.7812500000,,,
1.0839999982,8,148836.5781250000,149093.5625000000,175064.0312500000,168087.5156250000,157917.6250000000,160319.4843750000,67764.1718750000,179233.4687500000,,,
1.0879999981,8,148835.1875000000,149091.7656250000,175064.0781250000,168081.7500000000,157918.9062500000,160316.2500000000,67767.2031250000,179235.1562500000,,,
1.0919999983,8,148837.2812500000,149095.9218750000,175067.2968750000,168090.6093750000,157921.8125000000,160320.5312500000,67774.4921875000,179237.3281250000,,,
1.0959999983,8,148842.2031250000,149101.7656250000,175071.9687500000,168108.7343750000,157924.5781250000,160324.6093750000,67781.3593750000,179237.5156250000,,,
1.0999999982,8,148836.0937500000,149093.0000000000,175065.3593750000,168096.0468750000,157916.9218750000,160316.3593750000,67774.4921875000,179233.1093750000,33029,1.1005465933,0.0000000000
1.1039999982,8,148835.4218750000,149094.3593750000,175060.5937500000,168090.2812500000,157911.8906250000,160316.2968750000,67765.2968750000,179237.1093750000,,,
1.1079999981,8,148843.5468750000,149097.3906250000,175071.6718750000,168095.4375000000,157919.4687500000,160314.9375000000,67763.4453125000,179239.1250000000,,,
1.1119999983,8,148850.1250000000,149102.4375000000,175074.7343750000,168116.9687500000,157919.8281250000,160314.0156250000,67760.1718750000,179246.3593750000,,,
1.1159999983,8,148857.6875000000,149106.0000000000,175081.6406250000,168115.0625000000,157925.6250000000,160314.6562500000,67764.4375000000,179249.2968750000,,,
1.1199999982,8,148858.0625000000,149105.7031250000,175084.6250000000,168109.4062500000,157929.2656250000,160307.9531250000,67767.3593750000,179247.4687500000,,,
1.1239999982,8,148855.4375000000,149103.4843750000,175082.9687500000,168102.4843750000,157930.0468750000,160301.9687500000,67766.5859375000,179251.1875000000,,,
1.1279999982,8,148855.4531250000,149105.5781250000,175079.2812500000,168101.2500000000,157930.2343750000,160302.7031250000,67766.2343750000,179257.0468750000,,,
1.1319999981,8,148858.2031250000,149107.5937500000,175080.0312500000,168104.0468750000,157930.5312500000,160306.1875000000,67771.2734375000,179257.4375000000,,,
1.1359999983,8,148854.0937500000,149103.5937500000,175075.6093750000,168103.6875000000,157924.6875000000,160302.0781250000,67770.2343750000,179252.6093750000,,,
1.1399999983,8,148853.7187500000,149102.9218750000,175073.8125000000,168113.4218750000,157921.7500000000,160303.5312500000,67768.1093750000,179251.6250000000,,,
1.1439999982,8,148851.5625000000,149099.7812500000,175069.8437500000,168105.9687500000,157920.7656250000,160311.6875000000,67768.7265625000,179257.4687500000,,,
1.1479999982,8,148847.9687500000,149097.9375000000,175065.9062500000,168102.0625000000,157920.6875000000,160317.8281250000,67768.8671875000,179262.3281250000,,,
1.1519999981,9,148846.6406250000,149099.4375000000,175063.0937500000,168102.4843750000,157920.3593750000,160323.5156250000,67769.3750000000,179262.7500000000,,,
1.1559999981,9,148832.7187500000,149086.7656250000,175047.5781250000,168089.7968750000,157905.6093750000,160316.1093750000,67758.1640625000,179249.3750000000,,,
1.1599999981,9,148826.3593750000,149080.0937500000,175043.2656250000,168092.0781250000,157900.7500000000,160313.7187500000,67757.9765625000,179247.0312500000,,,
1.1639999980,9,148820.9687500000,149076.5468750000,175040.0937500000,168094.7031250000,157897.2343750000,160311.2031250000,67755.9375000000,179251.7031250000,,,
1.1679999980,9,148813.7500000000,149071.3437500000,175034.1250000000,168079.9531250000,157890.2968750000,160303.7187500000,67744.2109375000,179249.5781250000,,,
1.1719999979,9,148820.1875000000,149078.4062500000,175042.4843750000,168088.8125000000,157894.1875000000,160305.9531250000,67745.4453125000,179252.0468750000,,,
1.1759999981,9,148825.5000000000,149077.4687500000,175049.6718750000,168106.2343750000,157896.1875000000,160302.5937500000,67747.4062500000,179246.2031250000,,,
1.1799999981,9,148825.4218750000,149078.5156250000,175047.1562500000,168095.8906250000,157892.9218750000,160301.6562500000,67742.3906250000,179243.6250000000,,,
1.1839999980,9,148821.9843750000,149072.0000000000,175045.4687500000,168089.5781250000,157892.0312500000,160295.3437500000,67737.2109375000,179240.3906250000,,,
1.1879999980,9,148826.5468750000,149072.7187500000,175052.3593750000,168096.7500000000,157900.2656250000,160291.8125000000,67741.7500000000,179241.2187500000,,,
1.1919999979,9,148832.9843750000,149078.5156250000,175058.3593750000,168095.7031250000,157906.8750000000,160291.6250000000,67745.9843750000,179245.8906250000,,,
1.1959999981,9,148833.5468750000,149079.3906250000,175055.0937500000,168099.0468750000,157907.2656250000,160291.3750000000,67746.7343750000,179246.6406250000,,,
1.1999999981,9,148836.6250000000,149084.8125000000,175056.9687500000,168104.0937500000,157910.5156250000,160292.7500000000,67749.0937500000,179246.2031250000,,,
1.2039999980,9,148843.2343750000,149091.6250000000,175066.6250000000,168105.5156250000,157920.0625000000,160299.2968750000,67758.0546875000,179257.6250000000,,,
1.2079999980,9,148845.7812500000,149093.8750000000,175069.2031250000,168109.1093750000,157923.6406250000,160300.9375000000,67762.8281250000,179267.0468750000,,,
1.2119999980,9,148838.1875000000,149083.0937500000,175060.3281250000,168102.4843750000,157915.1093750000,160292.7968750000,67757.3281250000,179260.3437500000,,,
1.2159999979,9,148842.2656250000,149085.0312500000,175065.0781250000,168106.0468750000,157917.1718750000,160296.6093750000,67761.1093750000,179255.1875000000,,,
1.2199999981,9,148844.1406250000,149088.1718750000,175066.3593750000,168106.5000000000,157917.7031250000,160304.3593750000,67762.9062500000,179255.3750000000,,,
1.2239999981,9,148842.0000000000,149092.5468750000,175060.3750000000,168101.8750000000,157911.7031250000,160314.1875000000,67758.0781250000,179263.6718750000,,,
1.2279999980,9,148844.6250000000,149096.6718750000,175060.1875000000,168103.4218750000,157909.4687500000,160322.0156250000,67756.7968750000,179272.5156250000,,,
1.2319999980,9,148843.2500000000,149096.1562500000,175057.2968750000,168100.2656250000,157905.8437500000,160320.5937500000,67755.5312500000,179270.6406250000,,,
1.2359999979,9,148853.1562500000,149105.8750000000,175070.0000000000,168103.0937500000,157916.3593750000,160329.4218750000,67766.2578125000,179272.2812500000,,,
1.2399999981,9,148850.5000000000,149101.1718750000,175068.1875000000,168108.8906250000,157916.6093750000,160330.4531250000,67767.4687500000,179269.6562500000,,,
1.2439999981,9,148849.6875000000,149099.2187500000,175067.6406250000,168109.2500000000,157919.6093750000,160328.5000000000,67766.9062500000,179272.9218750000,,,
1.2479999980,9,148853.6406250000,149105.0625000000,175073.2500000000,168109.3281250000,157925.7500000000,160334.1406250000,67769.8046875000,179285.4687500000,,,
1.2519999980,9,148854.0625000000,149107.8593750000,175074.3437500000,168109.5937500000,157926.1562500000,160336.4218750000,67772.6953125000,179290.2968750000,,,
1.2559999980,9,148853.1718750000,149107.2656250000,175072.5312500000,168109.2500000000,157922.7500000000,160330.3593750000,67768.8671875000,179279.5781250000,,,
1.2599999979,9,148851.6562500000,149104.9375000000,175073.3125000000,168105.0312500000,157921.8125000000,160322.5000000000,67768.4062500000,179275.3593750000,,,
1.2639999981,9,148841.2187500000,149097.2031250000,175061.6718750000,168104.2031250000,157913.3906250000,160317.3437500000,67758.8593750000,179284.9843750000,,,
1.2679999981,9,148830.0781250000,149083.1250000000,175051.1250000000,168104.3593750000,157903.6250000000,160307.9843750000,67748.9843750000,179322.8125000000,,,
1.2719999980,9,148832.4218750000,149082.6718750000,175053.8906250000,168106.6406250000,157903.6718750000,160307.9531250000,67749.3359375000,179311.1093750000,,,
1.2759999980,9,148828.1250000000,149079.3750000000,175045.1718750000,168104.5781250000,157895.1250000000,160306.4843750000,67742.9765625000,179284.0000000000,,,
1.2799999979,10,148826.3906250000,149074.9375000000,175043.6718750000,168097.3906250000,157895.5312500000,160305.5937500000,67744.3750000000,179272.4687500000,,,
1.2839999979,10,148823.5625000000,149070.4375000000,175040.2656250000,168100.5468750000,157896.3593750000,160301.5156250000,67744.5859375000,179274.7187500000,,,
1.2879999978,10,148828.3906250000,149072.5625000000,175044.9843750000,168101.1718750000,157904.5312500000,160301.9218750000,67751.6406250000,179278.0781250000,,,
1.2919999978,10,148835.7968750000,149079.0000000000,175053.3437500000,168103.5625000000,157913.0625000000,160301.8750000000,67756.2812500000,179283.9218750000,,,
1.2959999978,10,148840.2500000000,149076.3437500000,175056.6718750000,168105.8125000000,157914.8593750000,160292.8906250000,67754.8359375000,179279.3906250000,,,
1.2999999977,10,148846.4687500000,149081.6718750000,175062.8125000000,168105.7031250000,157919.5312500000,160294.2031250000,67754.5937500000,179284.3281250000,,,
1.3039999979,10,148851.8593750000,149092.5156250000,175070.3750000000,168117.7656250000,157926.4218750000,160306.5625000000,67757.2734375000,179299.9843750000,,,
1.3079999979,10,148850.5781250000,149096.5156250000,175072.2656250000,168114.0156250000,157927.5000000000,160311.7656250000,67755.5859375000,179302.7500000000,,,
1.3119999978,10,148848.7031250000,149095.2031250000,175073.2187500000,168106.4531250000,157927.9843750000,160306.9687500000,67756.7968750000,179294.8906250000,,,
1.3159999978,10,148838.2343750000,149088.8906250000,175062.8750000000,168072.8750000000,157916.8437500000,160297.0937500000,67748.8828125000,179277.6406250000,,,
1.3199999977,10,148836.3281250000,149088.4062500000,175062.4218750000,168076.1406250000,157914.4375000000,160300.0781250000,67749.3671875000,179273.4062500000,,,
1.3239999979,10,148846.4687500000,149097.1250000000,175071.2187500000,168097.1250000000,157920.9843750000,160309.1875000000,67759.7421875000,179285.0468750000,,,
1.3279999979,10,148848.7812500000,149098.6562500000,175071.7031250000,168108.0937500000,157921.4687500000,160311.5312500000,67762.1875000000,179289.1718750000,,,
1.3319999978,10,148851.4375000000,149098.7343750000,175074.8593750000,168099.9062500000,157924.9687500000,160310.9062500000,67766.3125000000,179285.9531250000,,,
1.3359999978,10,148854.8750000000,149099.6250000000,175077.4375000000,168107.3437500000,157926.5312500000,160309.9218750000,67768.0078125000,179277.4531250000,,,
1.3399999978,10,148849.8281250000,149094.3437500000,175071.4843750000,168101.6250000000,157923.0156250000,160310.9375000000,67764.3828125000,179271.7968750000,,,
1.3439999977,10,148843.9218750000,149087.2812500000,175066.8125000000,168083.2812500000,157921.2968750000,160309.7812500000,67761.2187500000,179269.7812500000,,,
1.3479999979,10,148847.7656250000,149093.2343750000,175070.5937500000,168095.1562500000,157924.7343750000,160315.1406250000,67761.2734375000,179277.0781250000,,,
1.3519999979,10,148840.5937500000,149088.9531250000,175063.3593750000,168083.2500000000,157916.3906250000,160310.1875000000,67753.7890625000,179271.4531250000,,,
1.3559999978,10,148846.1250000000,149098.6875000000,175068.1562500000,168093.6406250000,157920.2812500000,160315.5000000000,67760.8671875000,179270.1875000000,,,
1.3599999978,10,148847.9687500000,149097.8281250000,175071.3281250000,168101.9531250000,157922.1875000000,160313.8593750000,67763.1796875000,179270.2187500000,,,
1.3639999977,10,148834.0000000000,149084.1406250000,175058.0625000000,168095.3750000000,157908.3437500000,160299.4531250000,67750.9765625000,179264.5000000000,,,
1.3679999979,10,148828.3750000000,149080.7187500000,175052.5937500000,168098.9687500000,157902.7656250000,160296.1875000000,67744.1328125000,179265.4375000000,,,
1.3719999979,10,148829.1718750000,149082.9843750000,175053.4375000000,168092.7187500000,157902.1718750000,160298.2500000000,67745.2343750000,179265.5781250000,,,
1.3759999978,10,148826.3281250000,149080.5781250000,175051.2500000000,168076.5937500000,157897.5312500000,160296.4531250000,67745.6640625000,179258.7812500000,,,
1.3799999978,10,148838.9062500000,149089.6718750000,175062.9218750000,168100.4531250000,157905.9375000000,160305.0625000000,67754.4609375000,179263.9687500000,,,
1.3839999977,10,148841.2500000000,149088.4375000000,175064.0312500000,168109.2656250000,157907.1718750000,160306.1093750000,67754.9140625000,179269.5937500000,,,
1.3879999977,10,148842.9843750000,149089.9687500000,175063.8906250000,168089.5781250000,157909.0625000000,160310.5625000000,67756.4140625000,179276.6562500000,,,
1.3919999979,10,148840.9218750000,149088.0000000000,175058.9531250000,168079.9843750000,157906.6875000000,160308.0156250000,67753.6562500000,179277.4062500000,,,
1.3959999979,10,148845.7968750000,149091.2187500000,175062.8125000000,168098.5156250000,157910.8593750000,160311.8750000000,67754.2968750000,179276.4062500000,,,
1.3999999978,10,148846.0781250000,149087.7656250000,175065.5312500000,168084.7500000000,157914.6562500000,160315.7343750000,67757.3281250000,179273.3281250000,,,
1.4039999978,10,148842.5000000000,149082.2968750000,175064.6406250000,168072.5000000000,157916.6093750000,160314.1875000000,67760.8203125000,179273.1875000000,,,
1.4079999977,11,148832.9218750000,149072.5625000000,175057.8750000000,168070.3593750000,157911.6250000000,160307.4218750000,67757.1406250000,179271.8750000000,,,
1.4119999977,11,148841.1093750000,149081.1406250000,175068.8593750000,168079.9218750000,157922.6093750000,160315.8906250000,67768.3828125000,179283.7343750000,,,
1.4159999976,11,148843.1718750000,149083.0937500000,175071.5312500000,168077.8281250000,157925.2968750000,160316.5625000000,67773.9609375000,179288.1562500000,,,
1.4199999976,11,148846.7500000000,149084.5156250000,175078.6406250000,168082.7656250000,157930.5468750000,160316.4843750000,67780.9296875000,179291.4218750000,,,
1.4239999976,11,148846.1250000000,149083.5468750000,175079.4218750000,168084.8125000000,157931.4687500000,160315.5000000000,67780.5546875000,179298.4843750000,,,
1.4279999975,11,148846.4531250000,149083.7187500000,175080.2031250000,168086.6250000000,157932.3437500000,160314.3437500000,67782.5390625000,179302.2968750000,,,
1.4319999977,11,148839.7187500000,149079.4531250000,175067.6718750000,168092.6718750000,157920.5781250000,160306.9375000000,67771.3828125000,179294.7812500000,,,
1.4359999977,11,148848.3593750000,149092.5156250000,175075.6093750000,168104.8125000000,157924.2187500000,160314.9843750000,67775.3828125000,179297.5156250000,,,
1.4399999976,11,148841.7031250000,149084.2031250000,175070.9375000000,168097.5000000000,157917.4687500000,160309.1875000000,67770.5000000000,179300.8906250000,,,
1.4439999976,11,148839.2031250000,149082.8281250000,175066.9531250000,168091.5625000000,157913.5468750000,160305.0937500000,67763.5781250000,179304.6250000000,,,
1.4479999975,11,148843.1406250000,149088.0312500000,175068.2968750000,168092.9062500000,157916.6093750000,160306.2343750000,67764.2500000000,179305.7187500000,,,
1.4519999977,11,148849.5625000000,149096.4531250000,175074.1875000000,168094.2187500000,157922.6093750000,160312.3750000000,67771.0625000000,179306.2656250000,,,
1.4559999977,11,148852.0781250000,149099.2187500000,175075.4218750000,168092.8281250000,157923.2343750000,160321.2031250000,67773.9062500000,179289.7656250000,,,
1.4599999976,11,148848.5156250000,149095.7812500000,175071.0781250000,168092.4218750000,157920.1406250000,160319.8437500000,67771.3593750000,179304.3906250000,,,
1.4639999976,11,148847.5937500000,149094.5312500000,175073.7812500000,168087.3281250000,157924.4687500000,160314.9843750000,67775.6484375000,179307.5156250000,,,
1.4679999975,11,148842.9375000000,149090.3437500000,175069.5000000000,168082.0156250000,157923.3593750000,160310.4531250000,67773.1562500000,179303.4375000000,,,
1.4719999975,11,148846.5781250000,149093.9687500000,175071.9687500000,168084.2187500000,157927.2343750000,160315.7656250000,67773.3437500000,179302.2343750000,,,
1.4759999977,11,148849.3125000000,149095.2187500000,175076.1250000000,168083.6250000000,157930.5312500000,160315.8906250000,67777.2578125000,179294.8593750000,,,
1.4799999977,11,148848.7500000000,149092.5468750000,175077.2500000000,168090.1250000000,157931.1250000000,160314.5625000000,67781.3359375000,179291.1093750000,,,
1.4839999976,11,148851.5625000000,149092.4375000000,175080.1250000000,168096.3750000000,157935.0937500000,160317.2968750000,67784.6328125000,179296.0625000000,,,
1.4879999976,11,148850.4687500000,149090.1562500000,175080.9687500000,168089.3125000000,157935.7343750000,160314.2031250000,67783.8593750000,179297.9531250000,,,
1.4919999975,11,148845.9375000000,149084.2500000000,175075.1250000000,168080.5468750000,157928.6718750000,160311.2031250000,67779.0000000000,179294.1093750000,,,
1.4959999977,11,148840.0625000000,149080.5781250000,175066.4375000000,168084.3593750000,157919.0937500000,160303.3437500000,67771.6796875000,179283.3593750000,,,
1.4999999977,11,148838.5937500000,149082.0000000000,175061.3437500000,168090.7343750000,157912.9062500000,160302.6406250000,67764.4609375000,179281.7968750000,,,
1.5039999976,11,148833.8125000000,149080.5312500000,175056.2187500000,168084.4375000000,157906.0937500000,160301.6875000000,67755.3437500000,179284.2187500000,,,
1.5079999976,11,148828.1250000000,149075.4843750000,175050.2343750000,168073.3750000000,157899.8906250000,160294.7656250000,67747.8046875000,179283.5937500000,,,
1.5119999975,11,148833.9531250000,149080.1718750000,175052.8593750000,168080.5468750000,157902.0468750000,160299.7500000000,67752.3125000000,179285.2656250000,,,
1.5159999975,11,148849.9062500000,149095.6718750000,175068.6406250000,168092.6093750000,157916.3125000000,160314.7187500000,67766.3437500000,179294.5156250000,,,
1.5199999977,11,148857.0156250000,149104.6562500000,175079.0468750000,168094.7343750000,157927.0937500000,160328.1562500000,67773.5000000000,179312.8906250000,,,
1.5239999976,11,148854.7031250000,149103.2343750000,175075.1250000000,168105.5468750000,157926.3437500000,160329.8437500000,67769.6406250000,179317.5781250000,,,
1.5279999976,11,148842.4531250000,149087.2343750000,175065.0468750000,168097.0625000000,157918.4843750000,160316.0312500000,67760.7656250000,179301.1406250000,,,
1.5319999976,11,148834.4531250000,149076.3437500000,175061.8750000000,168093.1562500000,157914.3281250000,160308.0625000000,67757.0078125000,179290.4843750000,,,
1.5359999975,12,148829.4375000000,149072.0781250000,175060.8906250000,168088.7812500000,157910.7343750000,160305.5625000000,67755.3437500000,179280.9687500000,,,
1.5399999975,12,148825.7656250000,149073.9531250000,175056.4375000000,168081.7968750000,157906.1250000000,160308.7812500000,67755.0000000000,179287.6250000000,,,
1.5439999974,12,148827.1562500000,149077.3281250000,175056.1406250000,168085.8593750000,157907.3281250000,160314.2812500000,67755.9921875000,179288.9531250000,,,
1.5479999974,12,148829.1250000000,149082.4062500000,175058.2031250000,168083.5468750000,157909.6093750000,160314.3906250000,67755.5312500000,179299.5781250000,,,
1.5519999973,12,148836.1406250000,149092.1093750000,175064.2343750000,168088.8281250000,157915.3125000000,160318.9062500000,67758.9921875000,179304.2031250000,,,
1.5559999973,12,148841.9218750000,149096.8593750000,175070.0312500000,168089.8437500000,157920.6875000000,160324.2187500000,67767.5468750000,179296.8125000000,,,
1.5599999975,12,148841.3750000000,149095.7031250000,175069.3906250000,168094.4375000000,157919.9375000000,160326.6718750000,67766.9296875000,179291.0312500000,,,
1.5639999975,12,148831.4843750000,149086.3437500000,175056.9687500000,168088.5312500000,157910.3906250000,160319.5156250000,67758.5625000000,179285.4218750000,,,
1.5679999974,12,148831.2187500000,149089.0312500000,175055.5468750000,168073.2968750000,157911.8125000000,160322.0156250000,67763.0937500000,179290.5937500000,,,
1.5719999974,12,148831.3437500000,149087.7187500000,175057.0312500000,168073.3750000000,157913.7031250000,160323.3750000000,67763.8203125000,179288.2968750000,,,
1.5759999973,12,148833.4375000000,149088.4843750000,175057.7968750000,168075.1250000000,157913.5781250000,160323.5156250000,67761.6718750000,179282.6093750000,,,
1.5799999975,12,148832.8281250000,149088.4062500000,175055.4687500000,168080.2968750000,157911.9062500000,160322.2500000000,67762.4531250000,179277.6093750000,,,
1.5839999975,12,148835.7968750000,149093.0000000000,175059.1718750000,168085.5000000000,157916.9843750000,160327.7500000000,67768.5156250000,179282.6875000000,,,
1.5879999974,12,148833.2812500000,149090.9843750000,175056.2968750000,168082.9062500000,157914.0781250000,160325.3906250000,67764.7890625000,179283.7031250000,,,
1.5919999974,12,148842.0156250000,149097.0937500000,175064.2656250000,168086.4218750000,157920.9531250000,160328.1875000000,67769.8593750000,179291.5937500000,,,
1.5959999973,12,148849.2343750000,149102.7656250000,175072.2656250000,168092.4843750000,157927.0468750000,160328.2031250000,67775.1406250000,179295.7968750000,,,
1.5999999973,12,148854.5781250000,149105.7343750000,175077.6718750000,168116.1875000000,157930.4687500000,160329.5468750000,67778.0078125000,179293.5156250000,,,
1.6039999975,12,148850.2500000000,149104.4218750000,175068.8750000000,168116.9375000000,157923.9843750000,160328.1250000000,67770.8515625000,179295.1093750000,,,
1.6079999974,12,148848.4062500000,149102.9218750000,175069.0625000000,168104.1406250000,157923.7656250000,160326.6718750000,67771.6562500000,179295.7656250000,,,
1.6119999974,12,148848.5156250000,149101.9531250000,175071.2343750000,168108.3281250000,157922.9687500000,160325.2031250000,67769.8046875000,179291.5312500000,,,
1.6159999974,12,148856.2343750000,149106.3281250000,175079.9843750000,168103.4531250000,157928.8437500000,160328.7656250000,67777.9296875000,179286.5156250000,,,
1.6199999973,12,148848.7031250000,149095.8593750000,175073.2031250000,168067.8593750000,157920.8125000000,160321.1250000000,67773.1562500000,179274.3906250000,,,
1.6239999975,12,148840.3281250000,149083.4531250000,175068.3906250000,168063.9687500000,157914.1093750000,160313.7500000000,67765.2187500000,179265.4375000000,,,
1.6279999975,12,148836.5000000000,149076.8281250000,175066.1406250000,168062.1718750000,157911.2656250000,160310.5625000000,67760.6015625000,179263.2968750000,,,
1.6319999974,12,148839.5312500000,149081.4375000000,175071.1093750000,168067.4531250000,157916.0468750000,160312.8437500000,67762.3437500000,179264.1562500000,,,
1.6359999974,12,148853.3125000000,149099.4375000000,175086.7500000000,168078.2656250000,157932.2187500000,160326.2031250000,67779.0546875000,179274.9375000000,,,
1.6399999973,12,148852.9375000000,149101.3593750000,175085.8593750000,168080.8125000000,157933.4843750000,160324.1875000000,67781.6875000000,179277.0781250000,,,
1.6439999973,12,148846.4218750000,149097.3437500000,175075.3906250000,168078.9843750000,157926.1875000000,160318.5312500000,67773.2109375000,179278.0468750000,,,
1.6479999975,12,148842.9062500000,149095.0625000000,175070.7500000000,168081.0312500000,157923.8750000000,160318.0468750000,67769.3437500000,179284.6093750000,,,
1.6519999974,12,148845.9375000000,149097.9531250000,175074.5937500000,168088.2656250000,157927.3906250000,160322.3906250000,67775.0625000000,179283.3593750000,,,
1.6559999974,12,148849.2343750000,149102.8437500000,175077.9218750000,168087.9218750000,157928.1093750000,160328.6875000000,67779.5078125000,179278.3125000000,,,
1.6599999974,12,148842.6718750000,149099.6718750000,175071.8593750000,168077.6250000000,157920.8750000000,160326.4375000000,67777.3671875000,179272.6562500000,,,
1.6639999973,13,148847.3281250000,149107.8593750000,175073.9218750000,168087.0937500000,157924.8906250000,160336.4218750000,67783.9609375000,179281.9843750000,,,
1.6679999973,13,148847.1406250000,149107.3437500000,175070.0625000000,168088.8906250000,157922.9062500000,160339.6093750000,67781.2578125000,179283.6718750000,,,
1.6719999972,13,148849.5781250000,149107.5000000000,175070.1093750000,168091.0625000000,157923.9531250000,160344.8593750000,67785.1718750000,179281.3906250000,,,
1.6759999972,13,148858.8125000000,149114.1250000000,175078.8593750000,168094.5937500000,157934.4687500000,160355.0312500000,67800.3281250000,179279.7031250000,,,
1.6799999971,13,148864.6562500000,149117.5312500000,175085.7812500000,168101.3906250000,157943.8593750000,160362.4531250000,67808.4531250000,179283.4062500000,,,
1.6839999971,13,148860.7187500000,149111.3906250000,175085.1875000000,168104.0156250000,157946.2187500000,160359.4531250000,67808.1562500000,179286.1718750000,,,
1.6879999973,13,148863.7812500000,149112.7656250000,175090.3906250000,168095.2968750000,157952.8750000000,160362.6718750000,67816.4687500000,179290.7500000000,,,
1.6919999972,13,148872.2187500000,149121.0312500000,175099.1093750000,168104.5468750000,157961.0468750000,160374.7656250000,67827.7343750000,179297.4687500000,,,
1.6959999972,13,148869.1406250000,149118.2343750000,175098.0312500000,168104.8750000000,157959.1406250000,160383.9218750000,67831.0078125000,179292.2656250000,,,
1.6999999972,13,148869.2500000000,149113.8593750000,175100.9531250000,168095.6406250000,157961.1562500000,160383.4375000000,67838.7890625000,179290.2187500000,,,
1.7039999971,13,148871.4531250000,149115.2656250000,175101.9843750000,168101.9531250000,157962.3593750000,160380.9375000000,67838.6250000000,179296.3906250000,,,
1.7079999973,13,148869.9687500000,149114.0000000000,175103.4531250000,168112.0625000000,157962.5781250000,160378.5312500000,67843.0000000000,179299.5625000000,,,
1.7119999973,13,148875.8750000000,149124.4843750000,175109.0781250000,168123.6406250000,157964.3281250000,160386.0312500000,67849.8359375000,179304.7343750000,,,
1.7159999972,13,148869.5937500000,149121.7187500000,175097.3437500000,168097.3281250000,157952.7968750000,160391.5156250000,67849.0859375000,179298.8906250000,,,
1.7199999972,13,148868.3906250000,149123.8437500000,175093.0937500000,168082.6406250000,157948.8750000000,160400.5468750000,67850.8828125000,179299.3750000000,,,
1.7239999971,13,148868.2812500000,149124.4843750000,175090.5781250000,168080.3906250000,157947.0468750000,160409.9687500000,67854.1875000000,179306.4218750000,,,
1.7279999971,13,148866.1406250000,149120.1406250000,175087.3281250000,168072.6875000000,157945.0625000000,160410.4218750000,67853.6718750000,179308.4375000000,,,
1.7319999973,13,148870.6093750000,149126.6093750000,175093.3750000000,168068.3437500000,157951.3906250000,160415.2968750000,67859.2031250000,179312.7031250000,,,
1.7359999972,13,148879.2812500000,149137.5000000000,175105.4843750000,168076.0937500000,157962.7656250000,160421.8437500000,67867.7812500000,179318.0625000000,,,
1.7399999972,13,148877.0781250000,149136.9375000000,175105.7656250000,168078.3906250000,157964.1562500000,160424.6875000000,67872.3984375000,179317.5312500000,,,
1.7439999972,13,148869.2656250000,149130.4687500000,175101.2343750000,168083.4687500000,157962.6406250000,160424.5781250000,67875.2656250000,179317.5312500000,,,
1.7479999971,13,148876.2500000000,149141.8125000000,175109.2968750000,168088.1875000000,157972.2656250000,160433.0625000000,67883.2343750000,179332.3281250000,,,
1.7519999973,13,148871.6875000000,149135.2187500000,175107.1875000000,168082.7656250000,157971.2968750000,160427.5781250000,67886.6093750000,179326.7187500000,,,
1.7559999973,13,148877.2187500000,149139.9375000000,175116.1718750000,168078.7187500000,157979.3437500000,160431.1718750000,67900.2343750000,179322.5625000000,,,
1.7599999972,13,148876.1875000000,149142.1406250000,175109.2187500000,168088.4062500000,157975.7812500000,160434.9375000000,67899.0078125000,179322.2968750000,,,
1.7639999972,13,148870.2656250000,149136.2343750000,175099.2656250000,168088.8125000000,157968.2187500000,160432.5156250000,67889.7500000000,179321.5468750000,,,
1.7679999971,13,148869.2968750000,149132.9375000000,175100.3906250000,168090.6250000000,157970.8125000000,160434.1250000000,67893.5078125000,179322.1875000000,,,
1.7719999971,13,148872.2968750000,149134.0937500000,175104.6093750000,168088.9375000000,157975.4062500000,160435.6250000000,67898.9531250000,179321.6093750000,,,
1.7759999973,13,148887.3750000000,149144.0156250000,175118.5000000000,168099.9687500000,157988.2812500000,160441.7500000000,67905.5234375000,179325.5937500000,,,
1.7799999972,13,148903.5468750000,149158.3906250000,175133.9843750000,168118.0468750000,158002.5937500000,160453.6250000000,67914.7734375000,179337.7187500000,,,
1.7839999972,13,148911.6562500000,149165.6875000000,175140.7343750000,168119.9531250000,158010.4531250000,160459.3125000000,67918.7968750000,179349.0468750000,,,
1.7879999971,13,148903.4375000000,149156.2656250000,175132.3906250000,168099.1875000000,158004.3750000000,160448.1093750000,67907.6953125000,179346.4375000000,,,
1.7919999971,14,148895.1875000000,149146.8750000000,175124.3437500000,168083.7031250000,157996.8593750000,160438.6562500000,67893.2890625000,179338.2031250000,,,
1.7959999971,14,148890.4843750000,149141.6718750000,175118.1562500000,168090.2812500000,157988.6250000000,160431.9531250000,67893.5312500000,179328.5000000000,,,
1.7999999970,14,148886.8750000000,149138.7031250000,175112.5000000000,168098.0000000000,157980.5468750000,160426.1562500000,67890.3671875000,179321.7343750000,,,
1.8039999970,14,148886.4687500000,149138.7812500000,175114.1562500000,168093.0937500000,157979.9062500000,160423.6875000000,67888.7031250000,179324.2343750000,,,
1.8079999969,14,148887.4375000000,149141.5156250000,175118.5312500000,168086.1250000000,157982.1562500000,160422.1093750000,67886.4765625000,179328.1718750000,,,
1.8119999969,14,148883.2812500000,149142.8593750000,175110.7500000000,168088.2343750000,157973.2343750000,160420.8750000000,67873.6015625000,179328.6562500000,,,
1.8159999971,14,148882.0468750000,149138.4062500000,175109.2812500000,168087.1406250000,157967.6250000000,160411.6250000000,67867.0312500000,179318.1093750000,,,
1.8199999970,14,148888.2968750000,149144.0312500000,175115.9218750000,168093.7187500000,157969.9843750000,160411.1093750000,67865.2343750000,179318.0625000000,,,
1.8239999970,14,148890.8593750000,149147.5468750000,175119.9687500000,168092.6093750000,157972.3125000000,160416.7187500000,67862.5781250000,179326.8593750000,,,
1.8279999970,14,148876.9218750000,149131.2968750000,175105.5781250000,168080.8125000000,157959.9843750000,160404.5937500000,67850.9375000000,179319.2187500000,,,
1.8319999969,14,148865.2500000000,149119.7343750000,175092.2187500000,168079.9531250000,157948.1250000000,160397.8593750000,67841.2265625000,179309.5937500000,,,
1.8359999971,14,148872.6718750000,149131.2187500000,175100.0000000000,168087.9218750000,157953.5468750000,160402.6406250000,67844.8203125000,179313.5000000000,,,
1.8399999971,14,148875.2500000000,149137.6562500000,175106.6718750000,168099.5937500000,157960.2656250000,160404.4843750000,67853.3281250000,179317.6875000000,,,
1.8439999970,14,148863.7812500000,149126.1250000000,175098.2812500000,168089.9843750000,157957.0000000000,160395.9531250000,67855.0703125000,179312.1562500000,,,
1.8479999970,14,148863.9062500000,149121.5937500000,175098.4687500000,168100.3125000000,157958.5000000000,160387.7812500000,67852.6015625000,179310.9531250000,,,
1.8519999969,14,148865.2187500000,149125.2968750000,175098.8437500000,168081.2656250000,157960.5468750000,160389.4375000000,67852.5468750000,179309.4218750000,,,
1.8559999969,14,148863.2656250000,149123.8750000000,175096.4843750000,168084.2187500000,157959.4375000000,160391.9843750000,67852.4140625000,179305.4843750000,,,
1.8599999971,14,148852.4531250000,149111.5000000000,175084.8593750000,168083.0312500000,157949.4375000000,160382.8125000000,67845.1171875000,179293.8437500000,,,
1.8639999970,14,148859.8281250000,149119.9218750000,175092.0000000000,168090.7343750000,157957.0468750000,160387.8906250000,67851.3984375000,179303.5312500000,,,
1.8679999970,14,148864.9843750000,149121.8906250000,175100.9531250000,168075.5312500000,157962.9218750000,160386.1406250000,67853.7265625000,179309.9062500000,,,
1.8719999969,14,148861.5156250000,149123.3593750000,175093.7656250000,168072.6250000000,157956.0625000000,160386.5468750000,67843.7500000000,179311.2968750000,,,
1.8759999969,14,148857.8750000000,149113.0000000000,175088.4062500000,168079.4687500000,157951.4687500000,160381.3437500000,67840.4218750000,179299.3437500000,,,
1.8799999971,14,148857.6093750000,149115.3593750000,175085.0781250000,168078.9062500000,157949.0000000000,160381.7968750000,67838.8125000000,179295.0468750000,,,
1.8839999971,14,148858.8906250000,149120.6718750000,175083.3437500000,168078.2031250000,157948.4218750000,160385.3437500000,67837.2578125000,179298.4531250000,,,
1.8879999970,14,148855.4531250000,149117.2656250000,175080.6562500000,168071.3906250000,157946.7812500000,160389.8125000000,67841.1484375000,179298.4218750000,,,
1.8919999970,14,148852.9687500000,149112.0156250000,175076.1250000000,168066.0625000000,157943.0000000000,160389.0468750000,67840.2109375000,179293.2500000000,,,
1.8959999969,14,148867.0781250000,149121.9687500000,175085.3437500000,168081.4218750000,157950.3437500000,160394.3281250000,67843.7265625000,179294.5156250000,,,
1.8999999969,14,148880.8281250000,149129.7968750000,175098.5937500000,168094.8125000000,157961.2968750000,160399.2343750000,67854.6953125000,179298.0000000000,,,
1.9039999971,14,148875.8750000000,149120.7343750000,175094.6875000000,168081.2187500000,157960.9218750000,160399.3125000000,67857.0000000000,179296.5468750000,,,
1.9079999970,14,148879.7343750000,149125.3437500000,175100.4687500000,168075.1718750000,157967.5468750000,160397.5468750000,67858.5000000000,179305.1875000000,,,
1.9119999970,14,148885.6875000000,149127.1875000000,175109.0000000000,168078.5000000000,157975.0468750000,160399.9843750000,67857.3203125000,179312.0312500000,,,
1.9159999969,14,148878.6562500000,149122.2812500000,175099.0781250000,168068.8281250000,157965.0000000000,160400.4375000000,67850.0000000000,179307.2500000000,,,
1.9199999969,15,148879.9531250000,149123.4375000000,175101.1718750000,168067.1875000000,157963.8125000000,160402.7968750000,67860.0078125000,179306.9375000000,,,
1.9239999969,15,148880.8906250000,149128.7812500000,175103.0312500000,168073.8125000000,157963.2968750000,160410.9218750000,67861.9921875000,179315.4375000000,,,
1.9279999968,15,148877.4843750000,149128.9375000000,175100.3750000000,168082.7656250000,157958.8281250000,160418.4843750000,67860.2968750000,179321.3281250000,,,
1.9319999968,15,148873.3281250000,149129.2343750000,175096.1875000000,168085.0468750000,157954.3125000000,160420.9375000000,67858.5312500000,179320.4687500000,,,
1.9359999967,15,148867.1562500000,149126.2812500000,175090.8437500000,168081.7968750000,157952.1406250000,160416.7187500000,67852.1171875000,179312.4375000000,,,
1.9399999967,15,148867.6875000000,149133.1562500000,175094.3906250000,168080.8125000000,157962.2031250000,160425.4375000000,67845.7656250000,179313.1875000000,,,
1.9439999969,15,148870.7500000000,149136.2343750000,175101.3125000000,168084.1718750000,157974.8437500000,160430.2343750000,67855.8437500000,179321.7031250000,,,
1.9479999968,15,148870.6406250000,149135.1562500000,175099.5312500000,168088.4843750000,157974.0000000000,160428.0937500000,67888.6796875000,179323.3750000000,,,
1.9519999968,15,148870.7812500000,149134.8125000000,175097.4218750000,168086.8437500000,157970.7656250000,160429.8593750000,67908.1250000000,179321.5781250000,,,
1.9559999967,15,148868.6562500000,149129.7968750000,175094.8750000000,168081.1093750000,157966.7968750000,160430.9687500000,67913.7031250000,179313.6406250000,,,
1.9599999967,15,148873.8906250000,149130.6875000000,175104.1718750000,168093.1718750000,157974.4375000000,160433.1093750000,67912.0156250000,179311.5156250000,,,
1.9639999969,15,148878.7187500000,149136.9062500000,175115.5000000000,168094.2187500000,157988.0000000000,160432.2031250000,67881.7343750000,179319.4375000000,,,
1.9679999969,15,148873.0781250000,149127.3281250000,175117.5156250000,168096.1562500000,157989.0781250000,160434.0000000000,67837.5000000000,179318.4375000000,,,
1.9719999968,15,148877.4843750000,149136.9843750000,175111.3437500000,168114.0781250000,157983.3437500000,160443.2812500000,67871.1875000000,179323.4218750000,,,
1.9759999968,15,148875.8437500000,149139.3750000000,175101.4218750000,168097.6093750000,157968.8281250000,160444.3437500000,67921.2421875000,179320.3750000000,,,
1.9799999967,15,148873.1562500000,149134.5625000000,175095.0000000000,168086.6093750000,157958.9062500000,160440.5312500000,67925.5546875000,179313.4531250000,,,
1.9839999967,15,148877.3437500000,149136.5312500000,175098.7656250000,168087.1406250000,157961.0312500000,160439.7812500000,67907.5625000000,179317.6562500000,,,
1.9879999969,15,148879.6875000000,149139.7968750000,175102.6250000000,168074.8281250000,157965.7968750000,160441.2343750000,67899.0078125000,179325.2968750000,,,
1.9919999968,15,148877.8281250000,149137.5156250000,175100.4218750000,168071.6875000000,157965.4531250000,160433.1093750000,67888.3593750000,179324.2656250000,,,
1.9959999968,15,148883.4687500000,149143.3437500000,175105.4687500000,168073.5625000000,157969.7656250000,160431.5468750000,67880.7890625000,179322.6562500000,,,
1.9999999967,15,148881.6093750000,149143.0468750000,175104.8750000000,168069.3593750000,157969.3125000000,160429.5625000000,67873.8203125000,179316.5937500000,,,
2.0039999967,15,148878.2812500000,149141.1406250000,175103.2968750000,168076.2500000000,157968.6093750000,160429.7812500000,67866.3593750000,179321.3125000000,,,
2.0079999969,15,148873.4375000000,149135.6718750000,175100.6406250000,168081.0000000000,157964.2656250000,160420.1875000000,67858.2343750000,179322.2187500000,,,
2.0119999968,15,148872.8437500000,149134.6250000000,175101.6093750000,168071.6406250000,157961.5000000000,160416.7500000000,67854.6640625000,179320.9531250000,,,
2.0159999968,15,148876.8125000000,149137.2187500000,175104.5312500000,168078.7187500000,157960.2968750000,160410.9843750000,67853.1093750000,179315.8125000000,,,
2.0199999968,15,148882.1250000000,149143.6093750000,175107.5312500000,168093.4531250000,157960.5468750000,160408.1406250000,67850.2109375000,179319.3437500000,,,
2.0239999967,15,148871.5000000000,149130.5000000000,175095.7031250000,168081.9062500000,157951.0156250000,160395.0781250000,67837.2578125000,179314.7031250000,,,
2.0279999967,15,148869.2968750000,149128.6093750000,175095.1875000000,168075.1250000000,157952.0312500000,160390.6718750000,67835.5937500000,179315.5468750000,,,
2.0319999969,15,148872.2968750000,149133.0468750000,175101.0937500000,168079.4687500000,157958.6093750000,160392.1250000000,67839.8593750000,179319.3750000000,,,
2.0359999968,15,148873.2656250000,149135.7031250000,175102.8437500000,168076.7812500000,157960.9218750000,160391.2656250000,67840.5625000000,179314.0468750000,,,
2.0399999968,15,148871.3593750000,149132.2656250000,175103.5000000000,168076.6562500000,157962.1718750000,160384.7968750000,67841.0156250000,179308.1875000000,,,
2.0439999967,15,148865.4062500000,149122.3906250000,175098.0625000000,168077.7343750000,157958.6875000000,160373.4062500000,67834.6328125000,179304.5781250000,,,
2.0479999967,16,148861.9843750000,149119.7343750000,175092.2187500000,168081.5156250000,157954.0156250000,160370.6406250000,67829.8046875000,179307.1718750000,,,
2.0519999966,16,148861.8906250000,149117.4531250000,175089.3750000000,168096.5625000000,157950.1562500000,160370.1093750000,67825.9375000000,179303.7187500000,,,
2.0559999966,16,148865.0625000000,149118.8593750000,175090.7656250000,168092.2968750000,157948.8750000000,160373.0312500000,67824.8437500000,179300.6875000000,,,
2.0599999966,16,148862.9218750000,149116.8750000000,175087.8125000000,168091.3281250000,157945.3281250000,160373.9375000000,67821.4062500000,179298.5312500000,,,
2.0639999965,16,148855.6406250000,149107.2343750000,175080.9218750000,168078.5937500000,157937.7968750000,160366.1875000000,67815.0000000000,179292.0781250000,,,
2.0679999965,16,148858.2812500000,149105.9218750000,175084.9218750000,168077.3281250000,157940.7500000000,160368.0312500000,67817.6796875000,179295.5781250000,,,
2.0719999967,16,148858.0625000000,149106.2968750000,175083.9843750000,168072.0468750000,157938.1718750000,160370.7187500000,67813.1171875000,179294.8125000000,,,
2.0759999966,16,148862.5625000000,149109.6250000000,175087.5000000000,168081.3281250000,157941.0625000000,160371.9531250000,67814.4609375000,179292.2812500000,,,
2.0799999966,16,148863.8281250000,149110.1093750000,175088.8125000000,168088.0468750000,157942.9531250000,160373.5312500000,67813.7343750000,179292.7656250000,,,
2.0839999965,16,148864.2500000000,149113.5937500000,175085.6093750000,168085.6093750000,157943.0781250000,160377.3125000000,67811.2968750000,179302.6875000000,,,
2.0879999965,16,148858.5468750000,149109.2031250000,175081.2968750000,168061.5312500000,157939.8281250000,160369.5625000000,67808.3437500000,179305.5937500000,,,
2.0919999967,16,148856.2031250000,149107.5312500000,175079.4218750000,168041.2500000000,157937.1562500000,160363.0781250000,67807.9453125000,179301.9218750000,,,
2.0959999966,16,148867.2812500000,149120.9375000000,175092.5937500000,168046.3437500000,157945.5937500000,160372.0156250000,67818.2734375000,179306.0937500000,,,
2.0999999966,16,148861.1718750000,149117.1093750000,175081.1093750000,168058.4687500000,157935.6562500000,160368.0312500000,67811.7500000000,179301.7031250000,,,
2.1039999966,16,148857.5468750000,149114.2656250000,175074.6250000000,168058.5000000000,157930.4687500000,160363.1093750000,67806.0156250000,179299.7656250000,,,
2.1079999965,16,148866.8593750000,149123.7343750000,175083.6562500000,168062.6562500000,157939.5468750000,160369.0781250000,67814.0078125000,179311.2968750000,,,
2.1119999965,16,148863.0156250000,149116.8437500000,175080.8906250000,168065.4687500000,157937.0781250000,160363.1562500000,67808.5078125000,179306.5781250000,,,
2.1159999967,16,148863.6406250000,149115.4218750000,175081.9218750000,168064.1875000000,157936.6093750000,160359.6093750000,67805.5000000000,179295.9062500000,,,
2.1199999966,16,148867.8750000000,149118.2968750000,175089.7968750000,168058.0625000000,157943.7031250000,160363.5625000000,67809.9843750000,179292.7187500000,,,
2.1239999966,16,148870.6093750000,149120.0312500000,175095.7500000000,168064.2343750000,157949.1093750000,160364.0156250000,67814.8125000000,179295.4843750000,,,
2.1279999965,16,148859.4843750000,149107.0468750000,175087.3906250000,168068.2656250000,157943.1875000000,160357.4218750000,67809.6093750000,179289.1718750000,,,
2.1319999965,16,148852.2343750000,149102.4843750000,175078.2343750000,168075.5000000000,157936.1093750000,160354.3593750000,67801.9375000000,179282.6562500000,,,
2.1359999967,16,148853.5625000000,149104.3125000000,175079.9062500000,168085.0468750000,157937.2031250000,160355.4375000000,67806.1484375000,179275.7656250000,,,
2.1399999966,16,148847.5000000000,149099.6406250000,175074.6250000000,168073.9531250000,157930.3593750000,160351.7500000000,67805.8203125000,179266.8906250000,,,
2.1439999966,16,148852.9375000000,149105.5000000000,175083.0468750000,168072.3125000000,157937.9531250000,160357.1718750000,67815.4765625000,179274.8750000000,,,
2.1479999966,16,148837.6250000000,149090.3125000000,175068.8593750000,168066.4062500000,157926.7656250000,160345.9687500000,67805.8203125000,179270.7187500000,,,
2.1519999965,16,148832.4531250000,149086.0781250000,175059.7812500000,168069.0156250000,157919.6718750000,160341.8906250000,67795.8984375000,179269.4531250000,,,
2.1559999965,16,148828.3750000000,149083.2656250000,175052.7343750000,168061.8437500000,157912.7500000000,160342.4218750000,67788.9765625000,179264.1250000000,,,
2.1599999967,16,148823.9375000000,149080.4687500000,175046.8281250000,168069.0937500000,157905.9062500000,160343.3906250000,67785.0390625000,179257.7968750000,,,
2.1639999966,16,148830.7812500000,149088.0937500000,175053.6250000000,168091.0781250000,157910.3281250000,160348.4062500000,67786.3281250000,179265.8593750000,,,
2.1679999966,16,148827.4531250000,149086.8281250000,175052.8593750000,168091.5468750000,157907.8593750000,160342.8750000000,67780.4765625000,179269.5625000000,,,
2.1719999965,16,148816.3593750000,149077.3593750000,175044.3125000000,168053.2968750000,157899.7656250000,160336.3906250000,67775.3515625000,179264.1562500000,,,
2.1759999965,17,148808.5781250000,149070.1718750000,175034.3281250000,168032.5000000000,157892.2187500000,160330.7031250000,67770.3906250000,179253.2031250000,,,
2.1799999964,17,148819.7343750000,149078.8593750000,175043.8750000000,168044.9218750000,157901.1562500000,160336.1406250000,67779.2968750000,179257.5781250000,,,
2.1839999964,17,148829.2500000000,149088.9687500000,175051.6562500000,168054.2656250000,157909.6093750000,160343.2343750000,67786.8906250000,179269.5156250000,,,
2.1879999964,17,148833.4062500000,149093.8593750000,175056.8125000000,168067.8593750000,157913.5468750000,160338.9687500000,67786.7265625000,179279.5937500000,,,
2.1919999963,17,148829.0468750000,149086.3125000000,175051.2500000000,168074.5937500000,157907.1875000000,160329.6250000000,67779.8359375000,179274.6093750000,,,
2.1959999963,17,148834.6718750000,149093.0000000000,175057.6875000000,168059.1718750000,157912.7500000000,160336.9218750000,67786.4843750000,179273.4062500000,,,
2.1999999965,17,148847.1406250000,149106.1718750000,175072.7187500000,168050.5312500000,157924.4375000000,160346.6093750000,67797.0546875000,179283.9218750000,,,
2.2039999964,17,148844.1718750000,149094.6250000000,175074.1562500000,168059.4843750000,157923.9218750000,160338.4218750000,67795.4687500000,179282.1406250000,,,
2.2079999964,17,148826.6250000000,149079.1562500000,175051.6562500000,168063.5937500000,157906.6250000000,160333.1718750000,67773.7421875000,179275.2343750000,,,
2.2119999963,17,148821.1250000000,149073.9531250000,175047.6562500000,168056.9062500000,157903.6562500000,160334.0000000000,67776.8828125000,179270.3125000000,,,
2.2159999963,17,148828.6875000000,149083.5312500000,175055.4687500000,168052.8437500000,157910.0156250000,160345.3281250000,67789.8671875000,179271.3125000000,,,
2.2199999965,17,148833.7812500000,149087.2031250000,175063.4843750000,168049.9687500000,157917.2968750000,160346.5312500000,67795.5000000000,179268.2812500000,,,
2.2239999964,17,148838.7812500000,149085.8906250000,175071.7500000000,168056.3437500000,157926.5312500000,160342.7187500000,67799.6796875000,179268.0937500000,,,
2.2279999964,17,148839.0937500000,149084.8437500000,175069.8437500000,168055.9531250000,157926.7968750000,160341.9375000000,67797.6953125000,179268.7968750000,,,
2.2319999964,17,148839.9843750000,149086.5312500000,175066.5781250000,168049.0781250000,157923.7656250000,160343.6250000000,67798.3671875000,179265.0312500000,,,
2.2359999963,17,148861.5000000000,149107.3437500000,175090.7656250000,168057.8593750000,157942.5156250000,160358.5468750000,67818.0312500000,179273.0312500000,,,
2.2399999963,17,148862.3281250000,149116.3281250000,175080.4687500000,168067.4843750000,157935.1093750000,160364.3906250000,67811.0000000000,179278.9531250000,,,
2.2439999965,17,148836.5000000000,149075.2343750000,175060.4531250000,168070.7500000000,157915.5312500000,160327.5312500000,67792.7890625000,179252.6406250000,,,
2.2479999964,17,148833.2812500000,149073.2500000000,175058.1250000000,168069.8125000000,157912.8750000000,160320.6406250000,67786.5625000000,179254.6250000000,,,
2.2519999964,17,148840.3906250000,149082.7968750000,175063.4062500000,168093.4531250000,157917.5781250000,160329.9218750000,67791.4453125000,179263.0000000000,,,
2.2559999963,17,148853.7968750000,149099.7343750000,175077.0937500000,168113.5156250000,157929.5156250000,160343.1250000000,67803.6484375000,179275.4218750000,,,
2.2599999963,17,148857.4687500000,149104.6093750000,175082.9375000000,168089.4531250000,157934.1406250000,160348.8281250000,67811.0546875000,179280.2968750000,,,
2.2639999965,17,148848.2187500000,149100.5000000000,175072.9062500000,168041.6562500000,157927.3906250000,160351.7500000000,67807.8359375000,179281.4218750000,,,
2.2679999964,17,148838.4218750000,149098.6562500000,175057.1875000000,168030.8437500000,157914.7500000000,160350.1250000000,67795.3671875000,179284.3437500000,,,
2.2719999964,17,148829.1406250000,149089.1875000000,175045.8437500000,168050.7656250000,157903.2187500000,160337.0937500000,67782.3515625000,179274.4843750000,,,
2.2759999963,17,148831.2656250000,149090.2031250000,175048.7031250000,168057.0781250000,157902.9843750000,160337.0000000000,67782.0625000000,179270.2656250000,,,
2.2799999963,17,148832.0937500000,149090.1562500000,175051.1250000000,168047.6406250000,157902.7968750000,160331.9062500000,67781.9218750000,179270.0468750000,,,
2.2839999963,17,148819.2812500000,149076.2031250000,175041.5156250000,168045.4062500000,157894.0781250000,160321.3125000000,67777.2890625000,179264.1718750000,,,
2.2879999964,17,148820.4843750000,149078.7031250000,175047.4531250000,168043.8437500000,157898.7968750000,160320.4531250000,67777.0468750000,179269.7031250000,,,
2.2919999964,17,148825.8281250000,149087.0625000000,175051.6875000000,168052.3750000000,157902.9843750000,160324.5312500000,67776.4531250000,179276.5625000000,,,
2.2959999964,17,148831.4218750000,149092.7500000000,175054.1250000000,168071.5000000000,157904.4062500000,160326.2031250000,67785.5234375000,179275.3281250000,,,
2.2999999963,17,148840.8125000000,149100.1093750000,175061.7500000000,168083.8437500000,157913.2500000000,160331.0312500000,67793.5937500000,179279.2187500000,,,
2.3039999963,18,148837.3281250000,149092.9218750000,175061.4843750000,168062.8437500000,157915.6093750000,160328.9062500000,67792.0625000000,179276.0937500000,,,
2.3079999962,18,148841.5625000000,149094.8437500000,175068.4531250000,168066.1875000000,157924.0156250000,160330.2968750000,67797.5625000000,179278.5468750000,,,
2.3119999962,18,148849.1250000000,149100.0156250000,175075.4531250000,168074.5312500000,157930.6093750000,160333.3281250000,67802.8203125000,179280.5625000000,,,
2.3159999961,18,148845.1562500000,149092.7343750000,175072.5468750000,168069.5000000000,157925.5156250000,160334.4843750000,67798.5546875000,179270.4531250000,,,
2.3199999961,18,148833.3593750000,149083.5312500000,175060.9687500000,168047.0937500000,157913.7656250000,160336.6093750000,67788.5000000000,179257.4375000000,,,
2.3239999961,18,148833.0312500000,149080.6093750000,175061.1875000000,168056.8906250000,157913.1250000000,160337.2968750000,67788.6328125000,179255.4062500000,,,
2.3279999963,18,148833.5937500000,149079.7187500000,175059.2187500000,168059.8125000000,157911.2656250000,160336.0468750000,67795.7109375000,179257.9843750000,,,
2.3319999962,18,148837.4843750000,149083.2343750000,175061.5781250000,168064.4843750000,157913.0937500000,160334.8906250000,67801.8046875000,179258.7656250000,,,
2.3359999962,18,148848.7812500000,149096.8906250000,175073.0625000000,168073.0937500000,157922.6718750000,160344.3593750000,67812.9843750000,179263.2656250000,,,
2.3399999961,18,148862.0312500000,149112.5781250000,175087.7343750000,168080.3906250000,157938.0625000000,160354.2187500000,67824.2265625000,179272.6718750000,,,
2.3439999961,18,148858.8437500000,149111.3750000000,175082.3906250000,168100.2812500000,157934.6093750000,160347.9531250000,67813.2031250000,179277.6093750000,,,
2.3479999963,18,148849.6875000000,149103.9375000000,175074.6250000000,168086.4375000000,157928.0312500000,160342.8750000000,67804.8046875000,179277.8906250000,,,
2.3519999962,18,148848.7812500000,149104.3906250000,175075.1250000000,168062.9531250000,157928.3281250000,160346.0468750000,67808.0781250000,179278.4218750000,,,
2.3559999962,18,148853.4531250000,149108.7968750000,175079.4531250000,168063.0625000000,157930.5468750000,160346.1250000000,67811.7812500000,179277.3437500000,,,
2.3599999961,18,148855.1875000000,149116.0156250000,175076.4218750000,168070.4843750000,157927.3906250000,160351.9687500000,67808.0000000000,179281.2968750000,,,
2.3639999961,18,148848.1093750000,149106.8593750000,175068.8281250000,168075.1718750000,157920.5156250000,160347.2500000000,67801.4531250000,179283.5156250000,,,
2.3679999961,18,148849.1562500000,149105.1250000000,175068.9062500000,168084.3281250000,157922.4218750000,160350.1250000000,67801.6406250000,179285.9062500000,,,
2.3719999962,18,148855.2656250000,149110.7187500000,175075.5625000000,168077.6718750000,157928.3281250000,160356.7187500000,67805.1250000000,179290.7500000000,,,
2.3759999962,18,148861.5781250000,149116.3281250000,175084.0625000000,168076.1718750000,157934.9062500000,160364.4375000000,67813.5234375000,179293.8437500000,,,
2.3799999962,18,148866.0781250000,149117.4375000000,175092.2968750000,168087.6562500000,157942.0312500000,160367.3750000000,67821.9687500000,179293.3906250000,,,
2.3839999961,18,148860.2343750000,149105.5468750000,175086.1875000000,168091.8437500000,157936.1093750000,160361.2812500000,67814.8125000000,179289.1250000000,,,
2.3879999961,18,148857.2812500000,149105.9843750000,175083.7343750000,168086.0468750000,157935.0625000000,160360.6562500000,67812.0468750000,179296.0468750000,,,
2.3919999963,18,148867.6875000000,149114.4531250000,175095.0000000000,168089.5000000000,157945.9218750000,160363.2968750000,67821.0078125000,179308.9375000000,,,
2.3959999962,18,148871.9062500000,149116.1718750000,175097.7656250000,168088.9687500000,157947.0156250000,160360.6875000000,67819.4765625000,179308.4843750000,,,
2.3999999962,18,148873.3750000000,149120.3750000000,175096.2656250000,168085.2656250000,157946.3281250000,160361.5781250000,67817.2500000000,179309.3125000000,,,
2.4039999961,18,148871.6875000000,149115.4687500000,175094.1718750000,168087.5937500000,157945.2187500000,160361.3593750000,67813.1718750000,179308.1875000000,,,
2.4079999961,18,148862.6406250000,149109.1093750000,175083.6250000000,168073.8437500000,157937.4531250000,160360.1562500000,67801.3203125000,179304.2187500000,,,
2.4119999961,18,148854.7812500000,149104.1562500000,175076.6250000000,168059.2812500000,157930.7968750000,160359.7187500000,67799.5781250000,179299.7500000000,,,
2.4159999962,18,148859.0468750000,149112.4218750000,175079.9843750000,168057.2656250000,157934.0625000000,160366.9687500000,67806.0625000000,179296.7343750000,,,
2.4199999962,18,148864.5312500000,149119.8750000000,175085.5937500000,168066.5156250000,157939.1875000000,160373.3437500000,67812.9062500000,179292.0937500000,,,
2.4239999962,18,148855.5937500000,149108.6093750000,175079.6093750000,168059.5468750000,157933.8750000000,160365.2812500000,67808.2890625000,179284.4531250000,,,
2.4279999961,18,148849.6875000000,149101.5000000000,175074.2500000000,168051.5000000000,157928.9687500000,160360.2812500000,67807.4843750000,179284.0781250000,,,
2.4319999961,19,148842.7968750000,149095.3906250000,175066.3593750000,168048.4843750000,157920.4687500000,160351.4375000000,67800.7265625000,179280.3750000000,,,
2.4359999960,19,148841.4062500000,149092.1875000000,175067.0625000000,168055.6875000000,157918.2187500000,160348.1875000000,67798.4453125000,179275.5000000000,,,
2.4399999960,19,148841.5937500000,149086.5000000000,175069.5000000000,168059.4062500000,157917.8906250000,160345.6718750000,67796.0078125000,179273.1875000000,,,
2.4439999959,19,148834.6718750000,149079.4531250000,175057.4531250000,168052.8593750000,157909.0625000000,160339.3437500000,67785.9453125000,179276.3750000000,,,
2.4479999959,19,148828.2656250000,149072.5000000000,175049.2500000000,168045.5468750000,157904.5937500000,160334.8593750000,67782.4921875000,179280.0781250000,,,
2.4519999959,19,148833.1406250000,149076.9531250000,175054.6093750000,168058.6875000000,157909.4687500000,160338.5312500000,67788.8984375000,179287.6718750000,,,
2.4559999960,19,148844.4687500000,149090.0937500000,175066.7031250000,168068.8281250000,157918.8125000000,160349.0000000000,67799.6796875000,179300.9531250000,,,
2.4599999960,19,148839.5781250000,149084.2500000000,175062.8906250000,168073.0937500000,157914.5156250000,160345.2187500000,67796.6250000000,179300.2812500000,,,
2.4639999960,19,148835.2968750000,149080.7968750000,175057.0468750000,168068.9531250000,157912.1562500000,160343.0156250000,67793.7812500000,179286.8906250000,,,
2.4679999959,19,148835.2031250000,149080.7656250000,175055.9218750000,168059.6718750000,157914.9687500000,160351.2187500000,67795.8750000000,179283.7812500000,,,
2.4719999959,19,148831.4218750000,149074.5156250000,175053.7500000000,168054.4218750000,157913.8906250000,160345.7187500000,67794.3984375000,179283.4687500000,,,
2.4759999961,19,148835.5625000000,149077.6250000000,175060.2500000000,168056.0781250000,157919.0156250000,160344.8437500000,67800.7265625000,179278.3437500000,,,
2.4799999960,19,148848.1875000000,149087.5468750000,175075.9531250000,168082.6562500000,157933.2656250000,160349.6093750000,67814.5390625000,179275.8437500000,,,
2.4839999960,19,148861.9218750000,149099.5468750000,175091.8906250000,168109.1093750000,157949.2968750000,160361.0312500000,67830.8515625000,179287.4062500000,,,
2.4879999959,19,148843.3281250000,149083.4687500000,175070.4843750000,168066.7812500000,157931.7656250000,160353.9375000000,67814.5703125000,179285.4687500000,,,
2.4919999959,19,148820.7500000000,149061.5937500000,175050.0468750000,168009.9531250000,157912.5625000000,160339.9218750000,67800.1640625000,179273.4843750000,,,
2.4959999959,19,148821.8750000000,149060.9687500000,175054.3437500000,168002.7812500000,157913.8125000000,160337.5937500000,67804.1875000000,179271.3906250000,,,
2.4999999960,19,148826.8437500000,149065.5625000000,175061.7968750000,168012.2812500000,157918.1875000000,160339.5000000000,67809.2343750000,179275.0156250000,,,
2.5039999960,19,148825.3437500000,149068.0468750000,175053.1093750000,168025.7968750000,157910.6718750000,160340.8125000000,67798.7421875000,179281.1093750000,,,
2.5079999960,19,148819.8906250000,149065.4687500000,175043.8281250000,168028.5156250000,157902.0156250000,160336.6093750000,67790.1328125000,179283.3750000000,,,
2.5119999959,19,148819.6562500000,149064.1562500000,175044.0468750000,168028.2656250000,157901.3906250000,160336.0625000000,67790.8281250000,179281.4531250000,,,
2.5159999959,19,148827.5937500000,149070.9218750000,175052.2968750000,168031.6250000000,157907.0000000000,160339.3593750000,67796.8906250000,179277.7187500000,,,
2.5199999961,19,148835.9531250000,149076.6562500000,175060.3750000000,168034.5937500000,157914.0781250000,160338.9843750000,67801.2109375000,179277.3437500000,,,
2.5239999960,19,148847.7812500000,149087.0937500000,175072.9843750000,168039.0468750000,157925.9687500000,160343.3906250000,67806.3593750000,179284.9062500000,,,
2.5279999960,19,148852.7812500000,149091.8125000000,175080.2500000000,168042.2656250000,157931.6562500000,160343.2031250000,67805.6093750000,179291.3750000000,,,
2.5319999959,19,148851.0000000000,149094.7187500000,175075.8750000000,168042.5156250000,157926.3750000000,160340.4062500000,67802.2031250000,179293.3593750000,,,
2.5359999959,19,148848.7812500000,149095.5468750000,175068.1562500000,168064.3125000000,157919.2031250000,160339.1562500000,67804.6953125000,179287.9687500000,,,
2.5399999958,19,148846.0937500000,149093.6718750000,175062.6250000000,168074.4062500000,157913.2812500000,160337.4687500000,67795.3671875000,179282.3125000000,,,
2.5439999960,19,148849.7968750000,149093.2968750000,175067.5312500000,168065.9218750000,157918.8593750000,160340.5781250000,67794.5078125000,179286.9218750000,,,
2.5479999960,19,148846.8281250000,149087.6250000000,175066.8750000000,168053.1093750000,157918.1093750000,160337.6250000000,67798.5859375000,179288.9375000000,,,
2.5519999960,19,148841.8906250000,149078.8125000000,175065.4218750000,168053.0468750000,157915.9687500000,160333.1718750000,67798.7421875000,179284.1093750000,,,
2.5559999959,19,148837.2500000000,149074.7343750000,175060.1406250000,168051.4375000000,157910.1093750000,160333.5937500000,67795.6328125000,179275.7343750000,,,
2.5599999959,20,148838.9843750000,149078.2968750000,175061.0468750000,168051.0468750000,157910.8437500000,160341.2656250000,67798.1562500000,179275.8125000000,,,
2.5639999958,20,148840.8437500000,149073.0468750000,175067.8906250000,168054.3906250000,157915.8593750000,160338.3750000000,67803.0312500000,179277.6718750000,,,
2.5679999958,20,148841.1562500000,149067.2187500000,175068.9062500000,168060.5312500000,157917.8906250000,160336.2500000000,67800.3828125000,179281.2343750000,,,
2.5719999957,20,148843.5000000000,149068.5937500000,175071.3750000000,168060.1562500000,157920.8906250000,160337.7500000000,67801.2890625000,179283.3281250000,,,
2.5759999957,20,148849.1875000000,149079.2968750000,175071.6093750000,168063.2500000000,157922.6406250000,160346.6406250000,67804.1875000000,179285.6562500000,,,
2.5799999957,20,148848.1562500000,149085.2656250000,175069.0625000000,168059.4375000000,157918.6250000000,160349.9375000000,67800.4062500000,179285.6093750000,,,
2.5839999958,20,148835.7656250000,149082.4218750000,175053.5625000000,168047.8281250000,157903.8125000000,160343.3281250000,67790.1875000000,179285.2812500000,,,
2.5879999958,20,148831.2656250000,149080.9843750000,175048.1718750000,168048.4843750000,157899.7656250000,160335.2656250000,67788.3593750000,179289.1250000000,,,
2.5919999958,20,148835.1562500000,149088.7656250000,175047.5781250000,168063.4531250000,157900.5468750000,160337.5468750000,67789.2500000000,179295.7500000000,,,
2.5959999957,20,148838.3125000000,149095.4843750000,175049.0312500000,168064.2343750000,157900.6718750000,160337.4843750000,67787.6406250000,179294.2187500000,,,
2.5999999957,20,148834.6250000000,149092.3281250000,175046.6718750000,168050.1562500000,157897.1406250000,160329.9843750000,67786.7031250000,179284.4062500000,,,
2.6039999959,20,148840.8750000000,149098.6562500000,175054.4218750000,168062.6562500000,157905.5312500000,160333.8750000000,67795.0390625000,179285.9062500000,,,
2.6079999958,20,148844.4687500000,149099.5625000000,175061.1250000000,168061.5468750000,157912.0000000000,160333.2031250000,67796.9453125000,179288.9062500000,,,
2.6119999958,20,148839.9062500000,149091.7656250000,175061.0468750000,168045.2968750000,157911.2968750000,160326.2812500000,67793.9921875000,179283.0312500000,,,
2.6159999957,20,148841.9375000000,149092.0781250000,175066.5000000000,168043.4531250000,157915.9843750000,160326.8593750000,67800.6171875000,179282.2343750000,,,
2.6199999957,20,148849.4531250000,149091.9843750000,175075.2343750000,168053.7968750000,157922.4062500000,160326.6250000000,67808.5078125000,179281.6718750000,,,
2.6239999956,20,148844.8906250000,149083.0781250000,175069.0156250000,168059.7500000000,157916.6406250000,160322.2500000000,67802.0390625000,179273.0312500000,,,
2.6279999958,20,148850.8125000000,149087.7343750000,175073.7343750000,168049.7500000000,157923.4218750000,160334.5937500000,67809.0156250000,179282.3906250000,,,
2.6319999958,20,148843.7656250000,149077.0312500000,175067.1875000000,168050.5781250000,157918.2500000000,160333.1093750000,67804.0000000000,179280.2968750000,,,
2.6359999957,20,148848.9375000000,149078.7031250000,175073.1406250000,168060.4531250000,157925.3437500000,160338.0312500000,67809.1796875000,179280.7031250000,,,
2.6399999957,20,148861.0937500000,149091.6250000000,175085.7968750000,168061.6093750000,157938.0312500000,160348.1093750000,67820.2265625000,179289.7968750000,,,
2.6439999957,20,148860.2812500000,149094.7968750000,175085.4531250000,168044.8906250000,157938.6250000000,160347.3125000000,67818.1640625000,179294.1875000000,,,
2.6479999959,20,148853.7187500000,149094.2500000000,175078.7031250000,168029.6406250000,157931.8750000000,160340.9531250000,67811.6953125000,179300.5937500000,,,
2.6519999958,20,148855.6250000000,149098.4687500000,175078.9062500000,168030.0156250000,157932.1875000000,160341.9062500000,67812.1562500000,179304.2031250000,,,
2.6559999958,20,148861.8906250000,149106.6406250000,175084.8593750000,168037.6250000000,157935.5468750000,160344.2500000000,67815.0781250000,179305.6093750000,,,
2.6599999957,20,148864.7343750000,149118.3437500000,175081.3281250000,168048.8125000000,157930.1250000000,160348.1406250000,67811.5937500000,179311.6718750000,,,
2.6639999957,20,148851.2500000000,149105.8437500000,175068.1250000000,168042.8906250000,157916.2343750000,160334.6250000000,67798.3906250000,179305.6718750000,,,
2.6679999956,20,148840.5937500000,149095.1718750000,175058.0156250000,168040.0468750000,157906.8906250000,160325.7187500000,67788.6562500000,179302.0156250000,,,
2.6719999958,20,148837.7812500000,149095.9218750000,175056.2187500000,168041.4375000000,157904.7500000000,160330.7343750000,67787.0781250000,179302.7812500000,,,
2.6759999958,20,148838.8593750000,149098.1250000000,175058.2031250000,168041.1718750000,157905.5312500000,160334.6718750000,67786.0000000000,179299.0937500000,,,
2.6799999957,20,148841.8125000000,149098.5156250000,175061.6406250000,168039.6406250000,157908.0000000000,160335.0468750000,67786.0312500000,179294.0625000000,,,
2.6839999957,20,148844.6718750000,149103.1562500000,175064.0312500000,168045.3593750000,157910.9531250000,160342.0468750000,67790.5625000000,179299.4218750000,,,
2.6879999957,21,148837.5937500000,149098.0625000000,175055.5156250000,168040.0468750000,157903.7656250000,160343.5781250000,67786.8906250000,179303.3437500000,,,
2.6919999956,21,148835.6406250000,149094.4375000000,175052.1093750000,168042.7031250000,157899.9531250000,160340.4375000000,67784.9531250000,179302.1093750000,,,
2.6959999956,21,148842.4218750000,149102.2968750000,175058.7187500000,168053.9375000000,157904.7812500000,160344.5625000000,67791.5781250000,179302.6406250000,,,
2.6999999955,21,148850.1250000000,149109.0312500000,175070.5625000000,168057.0937500000,157916.3125000000,160352.8906250000,67804.7500000000,179309.2656250000,,,
2.7039999955,21,148843.8437500000,149097.3437500000,175069.5156250000,168040.8281250000,157918.0781250000,160343.6562500000,67805.5546875000,179304.6562500000,,,
2.7079999954,21,148834.6718750000,149088.2187500000,175055.3593750000,168036.5625000000,157909.7968750000,160335.1875000000,67792.5468750000,179303.2812500000,,,
2.7119999956,21,148834.0000000000,149085.7343750000,175056.0781250000,168036.2031250000,157911.8125000000,160333.8906250000,67794.8515625000,179302.6093750000,,,
2.7159999956,21,148835.3750000000,149087.4687500000,175058.9062500000,168030.3593750000,157913.3593750000,160334.0312500000,67800.9140625000,179295.6718750000,,,
2.7199999955,21,148843.3906250000,149092.5625000000,175070.3750000000,168040.1250000000,157920.8437500000,160336.5156250000,67807.9687500000,179293.9218750000,,,
2.7239999955,21,148841.2968750000,149088.2968750000,175068.1562500000,168031.7343750000,157918.2187500000,160335.2343750000,67805.6875000000,179295.4531250000,,,
2.7279999955,21,148837.3281250000,149087.2812500000,175061.3437500000,168028.3750000000,157912.0156250000,160330.7812500000,67802.7421875000,179298.6093750000,,,
2.7319999957,21,148843.0156250000,149094.5468750000,175062.8750000000,168033.7343750000,157913.7031250000,160335.2031250000,67803.3281250000,179303.5468750000,,,
2.7359999956,21,148840.8437500000,149088.0312500000,175060.5937500000,168040.9843750000,157911.8593750000,160334.0625000000,67802.7421875000,179296.9843750000,,,
2.7399999956,21,148843.2812500000,149092.5468750000,175065.5312500000,168044.5156250000,157915.7812500000,160333.8125000000,67808.6640625000,179295.3750000000,,,
2.7439999955,21,148840.1250000000,149088.0000000000,175064.0000000000,168046.0000000000,157914.0000000000,160325.4687500000,67805.5546875000,179292.3906250000,,,
2.7479999955,21,148846.7500000000,149093.4843750000,175071.1250000000,168044.1406250000,157921.4687500000,160332.1250000000,67811.2187500000,179302.2343750000,,,
2.7519999954,21,148845.1562500000,149094.5468750000,175067.5625000000,168030.2031250000,157919.4531250000,160335.8593750000,67808.2109375000,179306.3125000000,,,
2.7559999956,21,148836.0937500000,149088.0312500000,175053.4531250000,168027.2812500000,157907.8125000000,160331.1093750000,67796.4609375000,179298.5312500000,,,
2.7599999956,21,148842.7968750000,149094.8437500000,175059.2500000000,168034.0937500000,157912.5625000000,160338.4218750000,67798.1796875000,179299.0781250000,,,
2.7639999955,21,148843.2500000000,149095.7812500000,175062.5468750000,168030.0625000000,157913.7656250000,160340.6562500000,67797.8828125000,179299.3906250000,,,
2.7679999955,21,148827.7031250000,149079.4218750000,175050.3437500000,168028.7031250000,157901.3750000000,160328.6093750000,67792.8125000000,179290.7343750000,,,
2.7719999955,21,148840.0156250000,149093.0156250000,175059.9687500000,168057.2968750000,157908.1875000000,160337.4375000000,67803.8671875000,179300.3593750000,,,
2.7759999956,21,148853.6406250000,149106.8437500000,175067.4843750000,168066.2812500000,157914.4531250000,160349.6093750000,67809.9843750000,179308.5937500000,,,
2.7799999956,21,148845.4531250000,149093.8593750000,175057.8281250000,168039.2343750000,157905.9843750000,160343.5000000000,67801.9375000000,179294.8593750000,,,
2.7839999956,21,148836.8750000000,149081.8906250000,175048.5156250000,168022.2812500000,157899.4062500000,160337.0937500000,67793.4062500000,179282.9062500000,,,
2.7879999955,21,148839.3906250000,149079.9843750000,175053.9375000000,168027.8906250000,157905.8437500000,160336.9531250000,67797.2109375000,179286.5937500000,,,
2.7919999955,21,148840.6250000000,149081.1875000000,175057.2968750000,168030.3125000000,157909.7187500000,160335.2343750000,67797.7265625000,179290.8906250000,,,
2.7959999954,21,148845.0781250000,149088.2812500000,175061.8281250000,168026.3125000000,157913.7656250000,160335.3437500000,67797.9375000000,179294.1875000000,,,
2.7999999956,21,148849.7968750000,149096.1093750000,175068.3750000000,168030.2187500000,157918.6718750000,160341.2187500000,67806.4140625000,179297.1875000000,,,
2.8039999956,21,148846.2343750000,149099.7812500000,175062.1406250000,168036.0781250000,157912.7187500000,160341.3437500000,67803.5468750000,179301.7031250000,,,
2.8079999955,21,148835.3437500000,149092.4375000000,175051.2812500000,168041.1093750000,157901.3906250000,160332.0468750000,67793.5156250000,179298.4843750000,,,
2.8119999955,21,148836.5000000000,149095.5468750000,175051.2500000000,168042.0781250000,157900.4062500000,160330.9687500000,67789.3281250000,179303.2343750000,,,
2.8159999955,22,148839.6562500000,149099.5625000000,175052.3906250000,168040.0468750000,157897.3437500000,160332.1250000000,67790.2656250000,179302.6718750000,,,
2.8199999954,22,148845.0312500000,149102.8906250000,175059.2500000000,168032.6718750000,157900.2187500000,160335.6875000000,67798.6093750000,179302.8593750000,,,
2.8239999954,22,148832.5312500000,149085.9687500000,175046.9062500000,168028.9375000000,157888.8125000000,160326.9218750000,67789.7031250000,179292.1718750000,,,
2.8279999953,22,148828.3125000000,149080.5781250000,175042.1406250000,168027.2968750000,157885.6562500000,160327.6250000000,67785.1171875000,179289.1406250000,,,
2.8319999953,22,148827.0625000000,149079.3437500000,175040.3906250000,168023.7343750000,157886.5937500000,160328.8750000000,67781.8203125000,179286.5937500000,,,
2.8359999952,22,148827.0312500000,149076.3593750000,175042.1718750000,168024.0000000000,157890.5312500000,160328.9531250000,67777.9062500000,179280.3281250000,,,
2.8399999954,22,148829.4375000000,149075.7968750000,175046.4843750000,168043.7500000000,157894.1093750000,160327.3750000000,67785.3593750000,179275.0468750000,,,
2.8439999954,22,148829.3125000000,149072.4531250000,175050.1093750000,168043.3906250000,157896.3750000000,160322.9531250000,67790.3203125000,179273.7812500000,,,
2.8479999953,22,148831.2187500000,149073.6093750000,175054.3750000000,168034.4843750000,157900.9687500000,160325.0468750000,67791.1015625000,179277.4843750000,,,
2.8519999953,22,148844.2187500000,149086.1562500000,175067.9375000000,168038.9218750000,157914.9687500000,160332.5312500000,67802.2578125000,179288.2031250000,,,
2.8559999953,22,148843.1406250000,149085.5625000000,175065.3437500000,168044.7343750000,157913.0625000000,160327.7500000000,67803.0625000000,179287.0000000000,,,
2.8599999954,22,148845.7031250000,149091.0937500000,175067.8593750000,168047.2343750000,157913.1250000000,160326.2968750000,67804.9375000000,179288.6406250000,,,
2.8639999954,22,148839.6406250000,149084.4687500000,175060.3437500000,168048.3593750000,157905.5312500000,160316.4843750000,67794.9609375000,179287.2500000000,,,
2.8679999954,22,148845.4062500000,149092.6406250000,175063.1406250000,168057.0781250000,157910.0937500000,160320.8906250000,67796.4375000000,179299.7656250000,,,
2.8719999953,22,148850.9218750000,149100.5312500000,175066.0156250000,168057.1250000000,157913.4218750000,160327.2656250000,67798.0703125000,179309.9375000000,,,
2.8759999953,22,148855.4843750000,149108.6875000000,175065.9531250000,168060.8593750000,157913.2031250000,160330.4062500000,67798.6875000000,179313.3125000000,,,
2.8799999952,22,148862.2656250000,149119.7656250000,175068.8750000000,168055.3906250000,157915.4843750000,160338.4843750000,67804.0000000000,179317.5000000000,,,
2.8839999954,22,148861.2187500000,149124.2500000000,175065.1562500000,168054.2656250000,157914.1093750000,160344.1875000000,67802.9296875000,179320.3750000000,,,
2.8879999954,22,148856.7812500000,149119.9218750000,175063.0000000000,168046.5625000000,157915.7187500000,160345.2343750000,67804.7500000000,179324.5000000000,,,
2.8919999953,22,148856.2031250000,149114.0312500000,175064.9375000000,168040.7656250000,157919.0468750000,160345.3281250000,67808.2890625000,179325.4062500000,,,
2.8959999953,22,148863.2968750000,149117.3281250000,175072.1250000000,168047.9843750000,157924.8750000000,160348.2968750000,67812.5312500000,179325.6562500000,,,
2.8999999953,22,148859.0781250000,149113.5625000000,175066.5156250000,168032.8750000000,157918.4375000000,160346.5312500000,67808.0234375000,179318.3593750000,,,
2.9039999954,22,148857.6250000000,149114.2968750000,175065.6093750000,168036.4687500000,157916.4687500000,160350.1718750000,67802.8437500000,179319.9375000000,,,
2.9079999954,22,148851.4843750000,149108.0937500000,175060.2500000000,168036.3750000000,157911.9375000000,160347.3906250000,67795.0703125000,179320.7968750000,,,
2.9119999954,22,148850.0468750000,149105.3125000000,175064.2187500000,168031.6250000000,157915.0312500000,160346.1562500000,67797.8828125000,179322.1406250000,,,
2.9159999953,22,148856.1562500000,149112.8437500000,175072.1718750000,168030.2812500000,157921.3750000000,160354.4375000000,67807.5703125000,179326.3750000000,,,
2.9199999953,22,148847.6875000000,149100.7500000000,175065.0781250000,168025.4531250000,157912.4687500000,160345.5625000000,67802.2031250000,179311.8125000000,,,
2.9239999952,22,148853.3906250000,149103.0312500000,175071.5937500000,168031.5468750000,157919.2656250000,160352.3281250000,67808.2109375000,179309.7968750000,,,
2.9279999954,22,148857.0156250000,149104.5000000000,175075.2656250000,168032.3906250000,157924.6562500000,160360.2812500000,67812.3125000000,179315.5156250000,,,
2.9319999954,22,148847.3125000000,149093.7968750000,175062.2031250000,168035.8125000000,157912.6093750000,160354.8750000000,67802.8437500000,179308.1406250000,,,
2.9359999953,22,148848.1406250000,149094.3437500000,175059.8125000000,168043.3437500000,157908.7968750000,160355.1093750000,67801.9609375000,179304.3593750000,,,
2.9399999953,22,148851.0625000000,149097.7656250000,175057.8750000000,168040.4375000000,157905.5625000000,160358.5156250000,67802.7968750000,179303.0468750000,,,
2.9439999952,23,148856.4843750000,149104.9062500000,175061.7500000000,168046.7812500000,157906.9531250000,160362.9687500000,67804.2109375000,179309.9687500000,,,
2.9479999952,23,148857.9531250000,149109.7343750000,175066.4687500000,168046.1562500000,157909.2500000000,160360.6093750000,67806.1171875000,179315.8593750000,,,
2.9519999952,23,148855.7500000000,149106.1718750000,175063.1406250000,168055.0156250000,157905.7500000000,160357.5000000000,67803.3281250000,179317.4218750000,,,
2.9559999951,23,148840.0312500000,149086.0468750000,175047.5000000000,168043.7968750000,157891.3906250000,160343.9062500000,67794.1328125000,179300.0312500000,,,
2.9599999951,23,148847.0156250000,149093.0000000000,175053.5312500000,168049.5937500000,157896.6562500000,160344.4843750000,67798.7187500000,179297.0312500000,,,
