Time:250Hz,Epoch,Channel 1,Channel 2,Channel 3,Channel 4,Channel 5,Channel 6,Channel 7,Channel 8,Event Id,Event Date,Event Duration
0.0000000000,0,195442.8906250000,189888.9687500000,197094.9375000000,182740.5625000000,185191.1875000000,163941.6250000000,170220.6718750000,38607.5078125000,,,
0.0040000000,0,195466.7656250000,189903.2656250000,197125.3593750000,182786.2968750000,185220.2656250000,163966.7031250000,170245.6718750000,38624.0039062500,,,
0.0079999999,0,195460.5937500000,189884.4375000000,197129.4687500000,182789.4062500000,185226.9375000000,163966.5781250000,170248.2500000000,38620.2734375000,,,
0.0119999999,0,195448.2187500000,189875.5625000000,197118.6562500000,182771.8125000000,185218.8125000000,163965.1562500000,170240.6875000000,38616.1171875000,,,
0.0159999998,0,195442.2968750000,189892.7343750000,197105.6718750000,182747.2656250000,185202.7812500000,163948.9687500000,170226.2343750000,38614.5078125000,,,
0.0199999998,0,195438.8437500000,189899.0625000000,197098.2187500000,182735.4375000000,185191.7812500000,163924.6406250000,170212.2343750000,38609.5742187500,,,
0.0240000000,0,195449.2187500000,189883.0156250000,197114.1406250000,182781.0625000000,185209.7031250000,163923.8437500000,170223.7031250000,38603.3242187500,,,
0.0279999999,0,195446.9062500000,189859.5000000000,197121.2031250000,182797.1093750000,185222.4375000000,163958.2031250000,170233.9062500000,38601.8750000000,,,
0.0319999999,0,195440.3437500000,189868.7500000000,197114.6562500000,182795.2031250000,185219.1718750000,163953.0781250000,170233.8437500000,38610.2968750000,,,
0.0359999998,0,195428.4843750000,189874.8125000000,197096.0937500000,182745.3437500000,185199.1250000000,163937.3906250000,170219.9062500000,38592.9414062500,,,
0.0399999998,0,195431.7500000000,189883.7343750000,197092.0937500000,182730.6718750000,185192.6875000000,163929.1875000000,170212.5781250000,38582.5351562500,,,
0.0440000000,0,195449.1406250000,189884.7656250000,197115.3750000000,182741.9843750000,185215.2187500000,163938.3750000000,170230.9843750000,38591.6015625000,,,
0.0480000000,0,195423.1250000000,189860.9687500000,197088.4531250000,182723.0781250000,185196.6093750000,163929.9531250000,170211.7500000000,38580.2812500000,,,
0.0519999999,0,195391.2031250000,189835.7500000000,197058.2187500000,182715.4843750000,185169.6562500000,163908.9531250000,170186.1093750000,38560.1914062500,,,
0.0559999999,0,195384.0937500000,189842.8125000000,197045.3750000000,182701.4531250000,185152.0781250000,163892.0937500000,170169.9531250000,38549.3554687500,,,
0.0599999998,0,195398.2343750000,189857.1406250000,197054.8437500000,182717.8125000000,185155.7500000000,163887.3593750000,170169.4218750000,38550.1875000000,,,
0.0639999998,0,195400.7187500000,189846.1093750000,197064.2812500000,182717.6250000000,185167.7500000000,163892.4843750000,170177.4218750000,38550.2148437500,,,
0.0680000000,0,195399.3281250000,189829.4062500000,197076.9218750000,182694.4062500000,185182.2812500000,163900.3281250000,170193.5625000000,38554.5585937500,,,
0.0719999999,0,195406.9531250000,189834.4687500000,197085.9062500000,182716.2656250000,185194.6562500000,163914.7968750000,170210.1718750000,38568.5351562500,,,
0.0759999999,0,195421.3437500000,189869.7968750000,197088.9843750000,182739.0312500000,185195.5937500000,163930.0156250000,170217.5468750000,38584.8945312500,,,
0.0799999998,0,195440.1250000000,189905.0625000000,197101.5468750000,182753.9531250000,185205.1406250000,163942.2656250000,170228.3281250000,38598.8984375000,,,
0.0839999998,0,195460.6718750000,189915.0625000000,197127.4843750000,182783.8593750000,185232.1250000000,163965.3593750000,170251.8437500000,38615.4726562500,,,
0.0880000000,0,195451.5468750000,189889.0468750000,197123.7968750000,182788.2031250000,185231.9843750000,163962.3593750000,170245.6250000000,38608.6054687500,,,
0.0919999999,0,195432.7500000000,189871.5312500000,197110.8437500000,182773.6875000000,185222.5937500000,163950.8281250000,170236.0156250000,38601.5546875000,,,
0.0959999999,0,195436.8593750000,189898.3906250000,197109.0000000000,182732.1406250000,185220.5625000000,163953.3750000000,170224.0312500000,38610.7265625000,,,
0.0999999999,0,195451.5781250000,189924.7500000000,197117.7187500000,182746.7500000000,185226.2187500000,163958.9843750000,170226.9062500000,38619.4687500000,,,
0.1039999998,0,195463.5625000000,189916.8125000000,197134.1562500000,182785.2812500000,185241.0781250000,163962.1718750000,170255.4062500000,38622.3945312500,,,
0.1079999998,0,195453.4531250000,189892.4375000000,197127.0781250000,182767.5468750000,185240.2968750000,163963.2656250000,170264.4843750000,38620.8906250000,,,
0.1120000000,0,195456.9687500000,189898.6875000000,197130.9687500000,182763.1718750000,185245.9843750000,163984.5156250000,170270.8593750000,38636.0468750000,,,
0.1159999999,0,195472.6093750000,189933.7343750000,197137.2343750000,182786.9843750000,185249.6406250000,163995.0000000000,170275.2031250000,38653.0781250000,,,
0.1199999999,0,195493.9843750000,189965.3125000000,197152.8437500000,182802.7343750000,185260.2031250000,164006.6406250000,170286.1718750000,38668.9843750000,,,
0.1239999998,0,195517.2187500000,189972.2343750000,197184.2031250000,182807.6093750000,185292.6093750000,164023.5937500000,170307.2343750000,38682.3671875000,,,
0.1279999998,1,195502.8281250000,189938.5312500000,197176.9843750000,182814.4062500000,185293.5156250000,164016.3750000000,170290.0937500000,38666.9726562500,,,
0.1319999998,1,195489.0468750000,189922.5468750000,197168.1093750000,182794.2812500000,185287.6875000000,164017.0781250000,170296.9843750000,38662.5468750000,,,
0.1359999997,1,195501.0156250000,189954.6875000000,197169.4218750000,182792.1406250000,185283.8593750000,164025.1250000000,170320.7812500000,38677.8359375000,,,
0.1399999997,1,195531.6093750000,189994.5156250000,197191.7187500000,182818.4218750000,185298.5781250000,164043.3906250000,170334.5156250000,38698.0039062500,,,
0.1439999996,1,195546.0937500000,189987.9218750000,197215.4062500000,182852.7656250000,185321.1718750000,164041.1406250000,170351.1718750000,38701.3046875000,,,
0.1479999996,1,195536.5468750000,189961.2031250000,197214.9687500000,182851.5468750000,185326.9375000000,164039.9531250000,170354.5781250000,38701.0351562500,,,
0.1519999998,1,195512.8125000000,189946.1250000000,197189.4843750000,182821.8906250000,185303.2500000000,164034.4062500000,170328.9062500000,38686.4726562500,,,
0.1559999997,1,195493.9375000000,189953.3906250000,197159.1875000000,182788.5000000000,185270.7500000000,164013.1093750000,170298.5625000000,38666.0312500000,,,
0.1599999997,1,195504.5781250000,189961.2812500000,197167.7656250000,182809.8437500000,185273.6406250000,164004.4687500000,170305.2187500000,38665.2265625000,,,
0.1639999996,1,195525.2656250000,189963.4375000000,197198.4687500000,182818.8281250000,185304.2968750000,164026.5937500000,170334.2187500000,38679.8476562500,,,
0.1679999996,1,195501.6093750000,189929.9531250000,197184.0937500000,182804.6093750000,185295.9843750000,164013.7812500000,170316.2968750000,38666.0078125000,,,
0.1719999998,1,195501.9218750000,189934.5156250000,197183.2656250000,182811.2656250000,185295.8437500000,164016.8906250000,170314.7656250000,38676.8710937500,,,
0.1759999997,1,195499.6406250000,189945.9687500000,197176.2343750000,182780.7656250000,185286.1718750000,164006.3281250000,170312.7656250000,38672.6054687500,,,
0.1799999997,1,195496.7500000000,189951.5468750000,197167.0937500000,182763.7031250000,185276.5312500000,164003.9843750000,170299.9375000000,38667.1054687500,,,
0.1839999997,1,195497.8750000000,189943.0937500000,197155.1093750000,182781.8750000000,185266.1875000000,164010.5937500000,170290.2812500000,38664.7187500000,,,
0.1879999996,1,195493.4687500000,189920.5156250000,197164.2812500000,182787.4531250000,185281.1718750000,164010.4531250000,170300.7968750000,38659.0859375000,,,
0.1919999996,1,195494.6562500000,189923.5937500000,197175.5468750000,182774.8906250000,185296.1718750000,164012.4843750000,170322.7031250000,38667.0273437500,,,
0.1959999998,1,195498.2812500000,189943.0937500000,197169.3750000000,182770.9531250000,185286.8906250000,164013.9375000000,170328.3125000000,38669.9765625000,,,
0.1999999997,1,195515.9531250000,189971.5781250000,197176.5625000000,182793.2656250000,185288.3125000000,164018.8750000000,170324.0312500000,38680.0078125000,,,
0.2039999997,1,195522.0468750000,189960.8750000000,197188.0468750000,182810.3593750000,185298.9062500000,164020.6718750000,170318.3125000000,38678.2656250000,,,
0.2079999996,1,195511.9218750000,189930.4687500000,197191.0468750000,182813.5937500000,185306.8437500000,164016.1093750000,170323.9218750000,38666.6757812500,,,
0.2119999996,1,195512.5156250000,189941.2500000000,197189.0312500000,182808.2343750000,185306.2031250000,164025.0468750000,170334.1406250000,38679.2304687500,,,
0.2159999998,1,195518.5000000000,189975.8281250000,197172.1406250000,182785.8437500000,185281.9062500000,164025.4218750000,170324.9687500000,38690.7109375000,,,
0.2199999997,1,195528.4531250000,189992.3125000000,197182.0937500000,182777.6250000000,185287.9375000000,164030.3281250000,170325.4687500000,38692.5585937500,,,
0.2239999997,1,195531.6406250000,189982.8281250000,197190.8906250000,182790.0000000000,185299.9218750000,164036.0156250000,170314.3437500000,38693.9296875000,,,
0.2279999997,1,195530.6718750000,189942.7500000000,197211.9375000000,182809.8906250000,185324.9531250000,164028.4531250000,170337.8906250000,38685.6406250000,,,
0.2319999996,1,195533.5937500000,189949.7500000000,197209.3437500000,182827.6875000000,185323.9843750000,164035.9531250000,170345.0000000000,38698.2187500000,,,
0.2359999996,1,195522.3125000000,189966.8906250000,197172.7187500000,182822.4531250000,185290.7500000000,164031.0312500000,170322.2500000000,38698.0585937500,,,
0.2399999998,1,195550.7343750000,190007.6093750000,197198.5000000000,182826.5781250000,185315.6718750000,164061.2031250000,170356.3125000000,38727.3203125000,,,
0.2439999997,1,195577.6093750000,190023.3281250000,197244.1250000000,182836.9843750000,185358.1093750000,164070.8281250000,170382.7343750000,38743.8437500000,,,
0.2479999997,1,195563.8593750000,189986.7343750000,197229.6093750000,182836.1250000000,185345.3281250000,164054.2812500000,170353.5312500000,38720.8593750000,,,
0.2519999996,1,195576.1718750000,190010.1875000000,197244.9531250000,182841.1250000000,185358.2656250000,164085.2031250000,170376.2968750000,38748.2968750000,,,
0.2559999996,2,195565.2031250000,190007.5312500000,197229.3281250000,182851.8125000000,185338.3593750000,164060.3125000000,170343.3125000000,38731.9101562500,,,
0.2599999995,2,195551.9218750000,190004.4375000000,197193.0625000000,182842.1562500000,185308.0468750000,164051.1718750000,170310.4531250000,38715.6289062500,,,
0.2639999995,2,195554.5468750000,189996.6093750000,197197.4062500000,182825.0468750000,185311.5937500000,164045.1406250000,170321.9843750000,38711.1757812500,,,
0.2679999995,2,195517.6093750000,189943.8281250000,197170.1250000000,182779.5000000000,185284.2343750000,164022.7968750000,170308.2031250000,38675.9023437500,,,
0.2719999994,2,195511.7968750000,189944.9531250000,197175.1406250000,182796.5468750000,185291.8281250000,164031.5312500000,170312.4375000000,38685.9335937500,,,
0.2759999994,2,195541.1093750000,189987.4375000000,197202.9843750000,182828.0000000000,185314.1093750000,164047.1718750000,170327.8125000000,38711.9531250000,,,
0.2799999996,2,195556.4843750000,190010.8281250000,197212.6562500000,182821.1093750000,185320.8437500000,164052.4218750000,170331.2656250000,38714.0429687500,,,
0.2839999995,2,195574.3125000000,190016.0312500000,197237.1250000000,182849.6406250000,185347.1093750000,164065.3593750000,170356.6875000000,38725.5507812500,,,
0.2879999995,2,195544.1093750000,189970.6406250000,197212.2031250000,182840.1718750000,185327.6093750000,164044.8125000000,170328.2343750000,38699.8007812500,,,
0.2919999994,2,195511.7343750000,189947.5781250000,197180.2656250000,182807.0000000000,185297.4375000000,164029.9843750000,170305.5937500000,38680.7304687500,,,
0.2959999994,2,195508.6093750000,189966.8437500000,197168.8593750000,182774.7656250000,185283.8281250000,164023.8593750000,170298.3750000000,38681.5625000000,,,
0.2999999996,2,195518.2031250000,189979.2812500000,197172.7187500000,182776.5625000000,185281.4531250000,164011.7656250000,170297.3125000000,38675.6093750000,,,
0.3039999995,2,195530.3281250000,189975.9531250000,197184.6093750000,182808.2343750000,185293.0625000000,164021.7187500000,170303.8593750000,38681.6718750000,,,
0.3079999995,2,195545.4062500000,189967.0781250000,197207.1406250000,182831.7812500000,185319.0468750000,164043.7343750000,170323.1875000000,38698.6210937500,,,
0.3119999995,2,195540.7656250000,189969.5937500000,197204.1875000000,182845.5625000000,185319.0156250000,164051.6562500000,170324.3125000000,38706.8281250000,,,
0.3159999994,2,195557.1718750000,190008.2187500000,197217.6562500000,182849.3750000000,185330.6406250000,164061.2500000000,170337.9375000000,38727.4296875000,,,
0.3199999994,2,195577.6718750000,190039.9062500000,197230.5312500000,182848.2812500000,185339.3593750000,164068.5156250000,170329.6562500000,38740.0351562500,,,
0.3239999996,2,195586.7656250000,190033.6718750000,197238.2500000000,182851.2500000000,185345.8750000000,164072.7343750000,170351.1406250000,38740.6250000000,,,
0.3279999995,2,195548.5156250000,189974.3125000000,197204.4218750000,182822.9843750000,185317.1718750000,164039.5781250000,170324.1562500000,38704.5234375000,,,
0.3319999995,2,195521.8593750000,189955.4375000000,197176.0000000000,182808.3750000000,185291.7500000000,164033.5156250000,170298.2812500000,38696.7187500000,,,
0.3359999994,2,195510.9687500000,189958.1406250000,197158.5156250000,182783.4843750000,185270.4687500000,164025.6406250000,170272.4218750000,38679.8476562500,,,
0.3399999994,2,195532.1250000000,189985.6718750000,197176.2968750000,182789.2968750000,185284.4531250000,164037.5468750000,170291.2187500000,38691.3007812500,,,
0.3439999996,2,195560.7500000000,190000.9062500000,197208.1562500000,182824.2500000000,185316.0781250000,164050.2812500000,170326.5156250000,38710.9335937500,,,
0.3479999995,2,195559.1562500000,189981.4531250000,197220.7343750000,182828.8125000000,185332.6562500000,164072.5156250000,170333.4062500000,38713.4804687500,,,
0.3519999995,2,195540.9843750000,189974.2656250000,197202.9531250000,182811.2656250000,185320.0625000000,164067.8750000000,170319.4375000000,38708.4101562500,,,
0.3559999994,2,195524.4531250000,189972.0937500000,197174.3593750000,182799.5156250000,185292.1406250000,164046.7500000000,170314.7187500000,38693.4179687500,,,
0.3599999994,2,195545.1562500000,190010.7187500000,197188.9218750000,182829.0156250000,185303.9531250000,164070.2968750000,170323.0781250000,38716.8593750000,,,
0.3639999994,2,195554.0156250000,190011.6562500000,197204.3437500000,182812.9218750000,185322.8125000000,164081.9843750000,170340.4687500000,38722.9218750000,,,
0.3679999996,2,195542.1875000000,189976.9218750000,197192.9687500000,182817.4375000000,185316.9375000000,164083.2500000000,170339.9843750000,38712.5156250000,,,
0.3719999995,2,195530.0625000000,189959.9218750000,197185.9218750000,182792.1406250000,185313.9531250000,164090.7343750000,170348.0625000000,38710.8242187500,,,
0.3759999995,2,195542.8750000000,189992.4218750000,197198.0781250000,182782.5312500000,185326.1250000000,164113.9062500000,170378.4218750000,38726.0859375000,,,
0.3799999994,2,195562.9218750000,190023.0312500000,197215.1562500000,182801.5625000000,185337.9531250000,164126.7031250000,170389.8125000000,38739.4726562500,,,
0.3839999994,3,195584.0000000000,190031.5625000000,197236.7968750000,182833.8437500000,185358.6718750000,164126.0312500000,170403.6250000000,38749.1562500000,,,
0.3879999993,3,195585.7968750000,190016.1875000000,197251.9062500000,182837.8750000000,185377.3906250000,164125.4843750000,170428.3281250000,38751.9726562500,,,
0.3919999993,3,195565.2031250000,190002.5625000000,197237.7187500000,182826.3906250000,185366.3125000000,164118.6250000000,170420.4218750000,38746.1250000000,,,
0.3959999993,3,195542.6093750000,190003.8750000000,197206.7656250000,182797.7500000000,185337.9062500000,164115.4843750000,170394.6718750000,38734.9648437500,,,
0.3999999992,3,195555.7812500000,190034.3750000000,197213.1250000000,182800.8593750000,185342.1718750000,164123.8750000000,170385.5468750000,38749.9335937500,,,
0.4039999992,3,195579.6250000000,190040.2812500000,197244.4218750000,182830.6250000000,185373.6093750000,164126.8906250000,170382.0937500000,38761.9765625000,,,
0.4079999994,3,195584.7031250000,190020.4062500000,197259.0625000000,182860.3750000000,185392.5468750000,164142.4375000000,170406.6875000000,38764.1757812500,,,
0.4119999993,3,195558.3906250000,190002.3750000000,197225.6406250000,182864.5312500000,185357.8125000000,164142.1250000000,170407.6250000000,38747.6796875000,,,
0.4159999993,3,195546.0937500000,190004.3906250000,197204.2187500000,182817.9375000000,185331.4375000000,164124.0781250000,170403.4375000000,38731.8828125000,,,
0.4199999992,3,195545.0781250000,190011.5156250000,197199.0937500000,182804.3437500000,185321.0312500000,164107.1250000000,170397.1093750000,38726.2500000000,,,
0.4239999992,3,195553.4218750000,190002.1093750000,197212.9375000000,182809.1406250000,185336.4843750000,164105.6093750000,170400.0156250000,38723.2187500000,,,
0.4279999994,3,195537.7812500000,189962.2187500000,197207.8906250000,182814.4375000000,185338.7031250000,164100.6250000000,170376.2968750000,38706.4804687500,,,
0.4319999993,3,195528.3750000000,189961.3125000000,197204.2968750000,182786.8281250000,185335.6875000000,164107.7031250000,170361.0312500000,38717.8281250000,,,
0.4359999993,3,195536.3906250000,189994.3750000000,197205.1562500000,182788.5156250000,185328.6250000000,164113.1562500000,170369.1093750000,38728.9023437500,,,
0.4399999992,3,195520.1562500000,189989.1718750000,197176.9843750000,182776.7656250000,185300.0000000000,164078.4531250000,170363.7968750000,38707.2031250000,,,
0.4439999992,3,195533.8906250000,189987.9375000000,197189.4375000000,182809.7031250000,185311.8593750000,164059.5937500000,170388.7968750000,38706.9375000000,,,
0.4479999992,3,195486.6406250000,189918.7500000000,197140.6406250000,182777.7031250000,185270.2656250000,164045.4218750000,170336.0625000000,38655.7070312500,,,
0.4519999993,3,195457.1875000000,189890.2343750000,197117.2031250000,182767.1093750000,185246.9218750000,164018.9843750000,170300.9062500000,38637.0664062500,,,
0.4559999993,3,195416.0468750000,189881.4687500000,197066.5156250000,182691.2031250000,185195.5000000000,163974.1093750000,170248.3906250000,38603.7265625000,,,
0.4599999993,3,195403.8906250000,189876.1718750000,197053.0781250000,182667.5468750000,185175.3437500000,163947.1562500000,170215.4687500000,38581.2500000000,,,
0.4639999992,3,195408.7187500000,189866.5781250000,197060.0156250000,182663.3750000000,185182.8750000000,163944.7656250000,170211.2343750000,38579.8007812500,,,
0.4679999992,3,195403.7500000000,189846.7500000000,197064.7968750000,182671.9531250000,185190.2187500000,163943.2343750000,170219.2031250000,38579.0507812500,,,
0.4719999994,3,195436.2031250000,189885.8281250000,197094.7031250000,182702.5000000000,185221.9062500000,163981.5937500000,170241.7031250000,38625.8789062500,,,
0.4759999993,3,195472.8750000000,189937.3906250000,197124.7968750000,182740.7812500000,185248.7812500000,163998.1406250000,170272.4531250000,38659.1679687500,,,
0.4799999993,3,195493.6093750000,189960.9375000000,197143.5937500000,182785.2500000000,185262.3281250000,164007.4218750000,170290.1406250000,38669.8164062500,,,
0.4839999992,3,195530.6250000000,189981.0000000000,197189.8437500000,182814.1406250000,185307.6562500000,164041.0781250000,170326.9531250000,38697.7890625000,,,
0.4879999992,3,195524.1875000000,189951.7031250000,197192.6875000000,182827.9531250000,185315.7031250000,164037.1093750000,170329.3906250000,38689.9570312500,,,
0.4919999992,3,195511.4531250000,189934.1406250000,197184.6093750000,182809.8750000000,185311.7343750000,164035.5781250000,170321.6562500000,38689.2890625000,,,
0.4959999993,3,195501.8906250000,189943.2343750000,197169.7187500000,182761.9375000000,185293.5937500000,164019.0312500000,170305.2187500000,38682.4765625000,,,
0.4999999993,3,195502.4375000000,189952.3281250000,197161.4062500000,182757.0312500000,185279.9375000000,164002.2500000000,170278.7500000000,38670.0039062500,,,
0.5039999993,3,195537.5937500000,189981.7500000000,197185.1718750000,182798.1718750000,185306.7968750000,164038.4218750000,170301.1718750000,38703.1015625000,,,
0.5079999992,3,195550.8437500000,189984.2500000000,197206.9531250000,182822.7968750000,185328.5937500000,164059.3750000000,170325.7656250000,38720.8593750000,,,
0.5119999992,4,195521.1250000000,189942.2968750000,197187.2343750000,182821.6250000000,185309.9375000000,164026.4375000000,170315.8906250000,38690.1718750000,,,
0.5159999991,4,195506.8125000000,189940.3125000000,197173.1875000000,182800.6093750000,185290.6250000000,164002.1875000000,170296.0156250000,38673.7851562500,,,
0.5199999991,4,195501.8750000000,189956.1093750000,197160.3125000000,182781.5156250000,185278.1406250000,163994.0625000000,170281.9375000000,38668.0976562500,,,
0.5239999990,4,195503.0000000000,189946.6718750000,197154.6406250000,182778.6718750000,185271.8437500000,163983.1406250000,170285.2343750000,38661.2070312500,,,
0.5279999990,4,195518.7343750000,189938.7343750000,197177.0468750000,182801.8437500000,185295.3593750000,164004.3437500000,170300.6562500000,38677.2968750000,,,
0.5319999990,4,195505.3593750000,189935.0781250000,197167.2812500000,182799.7656250000,185289.2031250000,164011.5781250000,170287.3281250000,38680.9179687500,,,
0.5359999991,4,195503.8750000000,189952.8906250000,197161.7343750000,182775.4375000000,185279.2656250000,164010.6875000000,170283.3593750000,38683.4687500000,,,
0.5399999991,4,195534.6250000000,189988.2343750000,197185.7343750000,182786.6093750000,185297.1093750000,164023.1406250000,170298.5937500000,38702.6718750000,,,
0.5439999991,4,195541.4531250000,189981.8281250000,197189.9531250000,182815.9375000000,185304.7343750000,164021.2812500000,170301.5937500000,38701.0625000000,,,
0.5479999990,4,195536.7187500000,189962.0156250000,197192.2187500000,182831.2500000000,185309.1562500000,164017.0000000000,170302.4531250000,38701.8671875000,,,
0.5519999990,4,195528.8593750000,189943.9843750000,197191.9531250000,182824.9687500000,185311.0000000000,164014.3125000000,170300.7968750000,38700.4453125000,,,
0.5559999992,4,195518.2343750000,189956.5156250000,197176.9375000000,182774.9687500000,185295.0937500000,164008.0937500000,170285.2968750000,38698.9960937500,,,
0.5599999991,4,195511.8750000000,189958.8750000000,197168.1093750000,182761.0781250000,185282.7656250000,164000.0781250000,170272.9062500000,38687.2226562500,,,
0.5639999991,4,195540.5156250000,189983.7031250000,197197.3437500000,182795.9218750000,185312.2656250000,164039.2656250000,170291.4375000000,38716.5664062500,,,
0.5679999990,4,195536.9531250000,189964.7656250000,197196.7656250000,182816.7343750000,185310.8750000000,164020.8593750000,170308.0312500000,38708.5468750000,,,
0.5719999990,4,195511.2343750000,189933.9062500000,197173.4531250000,182810.1093750000,185289.2031250000,164003.0000000000,170298.0625000000,38685.3710937500,,,
0.5759999990,4,195515.2812500000,189957.3750000000,197172.6718750000,182795.1406250000,185288.8750000000,164006.4062500000,170282.1250000000,38696.5820312500,,,
0.5799999991,4,195535.8281250000,189997.0937500000,197184.9531250000,182801.0468750000,185299.4375000000,164016.5937500000,170270.3593750000,38711.5781250000,,,
0.5839999991,4,195543.2812500000,189982.1718750000,197192.3906250000,182834.6562500000,185307.3750000000,164015.7343750000,170300.6875000000,38699.6953125000,,,
0.5879999991,4,195518.4687500000,189937.4687500000,197174.0156250000,182822.7968750000,185291.7968750000,164005.1406250000,170291.1406250000,38676.2773437500,,,
0.5919999990,4,195497.0468750000,189927.7812500000,197159.9375000000,182801.0937500000,185281.5000000000,164000.6406250000,170272.9531250000,38672.9804687500,,,
0.5959999990,4,195500.8750000000,189953.6875000000,197161.1406250000,182793.6093750000,185281.6875000000,163999.1093750000,170270.5625000000,38687.3046875000,,,
0.5999999992,4,195510.6406250000,189964.8750000000,197162.9375000000,182789.4375000000,185280.5000000000,163994.6875000000,170263.5625000000,38682.9570312500,,,
0.6039999991,4,195516.8906250000,189958.6093750000,197164.3593750000,182813.2968750000,185287.9843750000,164005.4375000000,170282.9062500000,38682.4765625000,,,
0.6079999991,4,195525.7968750000,189950.6875000000,197186.8125000000,182847.0937500000,185313.0156250000,164012.0312500000,170300.2812500000,38693.8203125000,,,
0.6119999990,4,195509.6718750000,189938.0625000000,197173.0781250000,182832.7812500000,185299.0625000000,163997.9218750000,170278.5312500000,38687.6796875000,,,
0.6159999990,4,195509.0781250000,189952.2500000000,197165.2656250000,182846.5625000000,185286.8437500000,164005.4375000000,170277.8593750000,38688.2968750000,,,
0.6199999989,4,195514.2343750000,189974.5625000000,197159.1875000000,182864.4218750000,185277.3437500000,164007.0781250000,170272.0156250000,38688.2148437500,,,
0.6239999991,4,195507.3125000000,189951.9531250000,197156.6875000000,182806.2187500000,185276.2968750000,163988.9062500000,170269.7343750000,38668.6601562500,,,
0.6279999991,4,195509.2500000000,189930.9531250000,197172.7500000000,182776.4531250000,185293.3750000000,163992.9062500000,170279.3593750000,38673.7578125000,,,
0.6319999991,4,195510.9687500000,189930.5781250000,197179.4843750000,182797.9687500000,185302.4531250000,164011.5312500000,170286.6093750000,38691.2187500000,,,
0.6359999990,4,195505.6718750000,189945.6406250000,197166.7656250000,182798.0156250000,185286.9218750000,164008.5937500000,170277.7500000000,38690.7617187500,,,
0.6399999990,5,195515.2031250000,189966.2187500000,197166.2343750000,182807.8281250000,185281.2812500000,164009.4843750000,170278.5625000000,38690.6835937500,,,
0.6439999989,5,195538.5156250000,189975.3125000000,197187.6093750000,182832.9062500000,185302.4218750000,164025.7343750000,170294.5468750000,38702.3789062500,,,
0.6479999989,5,195545.1562500000,189960.2187500000,197200.7812500000,182841.4687500000,185315.7500000000,164028.2656250000,170304.4375000000,38705.9453125000,,,
0.6519999988,5,195559.5625000000,189977.1406250000,197215.6406250000,182843.5000000000,185329.2187500000,164044.8437500000,170319.9687500000,38728.6914062500,,,
0.6559999988,5,195546.0156250000,189977.5625000000,197191.9531250000,182836.1875000000,185306.5000000000,164030.5937500000,170305.4843750000,38716.1914062500,,,
0.6599999988,5,195548.2968750000,189989.7968750000,197193.2500000000,182825.4062500000,185305.8750000000,164027.1875000000,170301.9218750000,38715.2265625000,,,
0.6639999989,5,195561.7031250000,189987.2812500000,197209.7343750000,182857.8593750000,185325.0000000000,164038.1093750000,170299.1406250000,38724.7460937500,,,
0.6679999989,5,195556.3125000000,189966.2187500000,197208.6093750000,182856.5156250000,185326.0312500000,164037.0937500000,170298.1875000000,38721.8515625000,,,
0.6719999989,5,195533.4687500000,189939.0781250000,197189.2812500000,182816.6562500000,185307.3281250000,164030.0000000000,170298.0625000000,38711.1757812500,,,
0.6759999988,5,195545.0781250000,189963.8125000000,197193.4062500000,182811.1562500000,185308.9062500000,164047.3906250000,170309.5156250000,38724.4257812500,,,
0.6799999988,5,195563.7187500000,189993.1562500000,197201.9687500000,182841.1406250000,185312.7187500000,164052.7187500000,170312.2812500000,38732.3906250000,,,
0.6839999990,5,195581.3125000000,190002.5625000000,197221.8906250000,182880.7656250000,185327.6875000000,164055.0625000000,170317.7187500000,38737.8085937500,,,
0.6879999989,5,195560.3125000000,189976.2812500000,197212.8750000000,182827.4062500000,185321.2812500000,164041.4062500000,170313.9375000000,38722.2265625000,,,
0.6919999989,5,195544.5781250000,189958.8437500000,197202.1718750000,182826.2812500000,185315.5625000000,164031.1250000000,170316.9687500000,38714.5273437500,,,
0.6959999988,5,195553.1875000000,189982.0781250000,197209.0625000000,182813.9218750000,185320.1718750000,164041.2656250000,170321.4687500000,38726.5156250000,,,
0.6999999988,5,195569.4843750000,190013.1250000000,197218.1093750000,182825.4218750000,185327.6562500000,164050.8750000000,170323.4062500000,38739.0429687500,,,
0.7039999987,5,195566.3437500000,189999.2343750000,197209.6093750000,182847.3437500000,185324.1718750000,164040.2500000000,170295.6406250000,38728.3671875000,,,
0.7079999989,5,195556.9687500000,189965.2031250000,197214.6250000000,182853.1562500000,185334.3125000000,164037.1093750000,170283.6093750000,38721.1523437500,,,
0.7119999989,5,195528.2343750000,189938.7031250000,197189.1718750000,182833.6093750000,185310.6562500000,164027.1875000000,170290.5781250000,38707.8203125000,,,
0.7159999989,5,195537.4062500000,189968.1718750000,197189.7031250000,182835.6406250000,185304.5468750000,164038.9375000000,170307.1875000000,38723.4609375000,,,
0.7199999988,5,195546.0937500000,189991.1406250000,197188.7656250000,182828.8281250000,185300.5937500000,164039.7343750000,170310.3437500000,38728.3945312500,,,
0.7239999988,5,195553.0781250000,189986.2343750000,197198.8750000000,182842.9375000000,185310.4375000000,164037.3593750000,170314.4218750000,38725.6328125000,,,
0.7279999990,5,195553.2656250000,189971.0468750000,197209.9062500000,182856.6406250000,185324.1250000000,164035.7500000000,170317.1250000000,38725.2812500000,,,
0.7319999989,5,195549.5312500000,189968.9218750000,197215.4531250000,182865.2500000000,185331.9218750000,164043.8750000000,170327.9062500000,38732.4453125000,,,
0.7359999989,5,195544.6250000000,189986.0156250000,197209.9531250000,182832.2187500000,185323.4687500000,164042.5312500000,170317.9843750000,38733.8671875000,,,
0.7399999988,5,195533.1406250000,189987.0937500000,197186.6718750000,182811.0468750000,185299.3281250000,164029.9843750000,170285.3125000000,38716.7812500000,,,
0.7439999988,5,195540.7656250000,189982.6406250000,197192.5937500000,182810.4843750000,185305.6093750000,164025.9218750000,170287.7812500000,38715.7070312500,,,
0.7479999987,5,195566.5156250000,189989.9062500000,197226.0000000000,182849.5937500000,185339.7031250000,164041.6250000000,170321.2812500000,38739.6328125000,,,
0.7519999989,5,195537.1875000000,189941.8906250000,197208.3125000000,182827.2031250000,185325.4062500000,164022.0937500000,170323.1718750000,38713.9648437500,,,
0.7559999989,5,195523.1093750000,189952.5625000000,197188.7187500000,182798.4375000000,185302.7500000000,164013.4843750000,170304.3437500000,38710.9882812500,,,
0.7599999988,5,195518.5000000000,189966.2187500000,197171.8437500000,182798.7968750000,185284.2343750000,164008.5000000000,170280.6250000000,38702.1367187500,,,
0.7639999988,5,195553.7500000000,189989.2343750000,197202.9062500000,182838.1875000000,185315.1562500000,164041.2187500000,170308.2031250000,38725.8984375000,,,
0.7679999988,6,195563.6093750000,189977.4375000000,197226.2343750000,182853.3437500000,185339.5468750000,164044.0000000000,170326.8437500000,38732.0976562500,,,
0.7719999987,6,195526.3281250000,189941.7031250000,197194.7812500000,182828.8906250000,185310.4062500000,164016.2500000000,170299.7500000000,38705.2460937500,,,
0.7759999987,6,195509.8906250000,189944.7031250000,197171.2031250000,182810.6250000000,185286.9375000000,164007.2812500000,170282.7187500000,38696.6093750000,,,
0.7799999986,6,195525.9843750000,189973.2187500000,197178.6250000000,182818.9843750000,185290.0000000000,164011.8750000000,170281.4375000000,38706.1601562500,,,
0.7839999986,6,195549.1875000000,189992.2656250000,197201.5937500000,182848.2031250000,185311.0625000000,164033.4062500000,170297.9218750000,38726.9726562500,,,
0.7879999985,6,195559.4531250000,189982.5781250000,197223.7656250000,182861.4218750000,185337.2968750000,164046.3593750000,170310.9375000000,38739.0429687500,,,
0.7919999987,6,195536.5000000000,189950.7187500000,197207.7812500000,182833.8750000000,185328.5781250000,164031.2187500000,170294.6875000000,38727.8593750000,,,
0.7959999987,6,195531.2187500000,189960.8750000000,197192.5937500000,182790.9843750000,185310.9531250000,164026.5937500000,170295.4531250000,38726.8906250000,,,
0.7999999986,6,195537.7343750000,189979.0625000000,197189.4062500000,182803.2656250000,185302.3906250000,164017.5937500000,170303.5625000000,38722.4921875000,,,
0.8039999986,6,195563.5937500000,189992.2343750000,197218.3437500000,182840.4218750000,185329.4375000000,164033.7656250000,170332.0468750000,38737.8359375000,,,
0.8079999986,6,195570.1562500000,189975.0781250000,197233.0781250000,182842.9218750000,185347.1093750000,164046.0781250000,170343.6093750000,38742.8789062500,,,
0.8119999988,6,195550.2812500000,189952.5625000000,197217.2031250000,182817.9218750000,185336.6406250000,164039.4531250000,170330.4687500000,38735.6640625000,,,
0.8159999987,6,195537.7031250000,189962.9687500000,197196.2500000000,182803.9218750000,185316.4218750000,164031.6875000000,170308.1718750000,38732.0976562500,,,
0.8199999987,6,195543.1562500000,189983.5468750000,197192.6562500000,182808.0937500000,185307.8125000000,164030.2812500000,170295.7031250000,38729.2812500000,,,
0.8239999986,6,195565.6562500000,189992.7968750000,197213.8750000000,182830.9531250000,185327.6093750000,164040.7031250000,170315.9531250000,38742.6093750000,,,
0.8279999986,6,195565.9531250000,189970.8593750000,197224.6250000000,182834.0625000000,185341.5781250000,164045.6093750000,170328.5625000000,38740.0898437500,,,
0.8319999985,6,195547.7031250000,189962.5781250000,197213.6875000000,182816.2812500000,185331.7656250000,164039.8281250000,170318.7968750000,38738.5585937500,,,
0.8359999987,6,195542.6875000000,189967.8593750000,197203.2187500000,182823.9843750000,185320.3437500000,164036.9531250000,170309.5468750000,38736.3867187500,,,
0.8399999987,6,195557.2343750000,189995.1875000000,197207.0625000000,182839.5937500000,185321.3906250000,164044.4375000000,170309.7031250000,38744.7304687500,,,
0.8439999986,6,195555.1406250000,189988.7812500000,197203.3906250000,182844.8125000000,185316.7656250000,164045.9687500000,170311.0625000000,38737.5156250000,,,
0.8479999986,6,195555.1406250000,189969.3281250000,197212.0937500000,182863.9375000000,185326.3437500000,164048.1093750000,170322.0156250000,38733.5429687500,,,
0.8519999986,6,195539.4687500000,189949.4843750000,197204.1562500000,182843.8750000000,185320.0625000000,164037.6562500000,170308.8437500000,38726.2226562500,,,
0.8559999987,6,195545.0312500000,189974.1250000000,197204.6406250000,182812.7343750000,185319.0781250000,164048.7343750000,170309.4531250000,38737.2734375000,,,
0.8599999987,6,195559.5156250000,190005.0625000000,197211.1562500000,182821.1093750000,185320.7656250000,164045.3437500000,170316.6250000000,38744.3281250000,,,
0.8639999987,6,195575.9218750000,190013.1562500000,197225.3281250000,182853.5312500000,185334.5312500000,164049.6093750000,170318.6406250000,38752.7226562500,,,
0.8679999986,6,195557.5312500000,189975.3437500000,197211.9687500000,182846.0781250000,185326.7187500000,164046.9843750000,170313.4062500000,38734.0820312500,,,
0.8719999986,6,195534.6250000000,189945.9687500000,197196.1093750000,182825.3750000000,185314.4843750000,164036.0468750000,170308.8906250000,38719.8125000000,,,
0.8759999985,6,195518.0156250000,189948.4062500000,197174.8125000000,182793.8281250000,185290.4375000000,164023.0781250000,170291.8125000000,38711.5781250000,,,
0.8799999987,6,195514.4843750000,189959.4375000000,197166.3750000000,182787.3125000000,185276.7812500000,164011.7656250000,170283.3593750000,38705.0585937500,,,
0.8839999987,6,195528.1250000000,189960.6093750000,197184.7968750000,182778.5156250000,185296.3906250000,164021.0468750000,170304.4218750000,38711.4179687500,,,
0.8879999986,6,195530.9531250000,189941.2812500000,197201.2031250000,182778.2968750000,185315.8906250000,164018.6406250000,170321.6562500000,38713.6406250000,,,
0.8919999986,6,195531.3750000000,189936.6093750000,197208.1562500000,182808.6406250000,185324.5468750000,164024.4218750000,170303.2031250000,38721.6640625000,,,
0.8959999986,7,195523.0625000000,189953.0000000000,197188.1562500000,182810.1093750000,185303.2812500000,164033.8125000000,170280.9531250000,38725.1210937500,,,
0.8999999985,7,195532.1562500000,189977.2500000000,197187.1562500000,182809.8437500000,185296.8750000000,164037.2500000000,170299.7187500000,38727.1328125000,,,
0.9039999985,7,195530.6718750000,189968.2343750000,197182.4843750000,182779.0468750000,185292.0625000000,164013.7500000000,170301.0156250000,38713.0507812500,,,
0.9079999984,7,195535.0156250000,189943.2812500000,197194.5000000000,182810.3593750000,185305.7656250000,164023.4843750000,170307.9062500000,38710.5585937500,,,
0.9119999984,7,195512.5937500000,189919.5000000000,197175.8125000000,182801.5312500000,185290.8125000000,164007.0156250000,170279.1718750000,38700.9296875000,,,
0.9159999983,7,195510.0781250000,189932.3437500000,197170.4687500000,182782.2656250000,185286.4062500000,164009.4062500000,170276.2500000000,38707.7148437500,,,
0.9199999985,7,195523.8906250000,189962.6250000000,197175.3281250000,182790.0000000000,185287.6093750000,164033.2812500000,170286.7656250000,38716.8867187500,,,
0.9239999985,7,195550.7968750000,189982.8750000000,197199.1718750000,182853.3437500000,185308.0781250000,164051.8593750000,170306.9375000000,38732.2031250000,,,
0.9279999984,7,195548.2968750000,189957.8281250000,197206.8437500000,182844.9218750000,185317.0312500000,164045.1093750000,170312.3281250000,38722.4921875000,,,
0.9319999984,7,195516.4062500000,189911.9062500000,197184.9843750000,182802.5156250000,185297.6250000000,164025.4531250000,170294.2187500000,38695.9140625000,,,
0.9359999984,7,195519.2031250000,189938.2968750000,197184.7656250000,182794.3593750000,185297.0312500000,164027.1093750000,170291.1718750000,38711.0156250000,,,
0.9399999985,7,195548.5937500000,189985.3437500000,197211.7031250000,182814.9375000000,185318.5156250000,164049.1093750000,170298.4375000000,38738.6406250000,,,
0.9439999985,7,195557.7968750000,189990.0312500000,197215.9843750000,182834.4375000000,185321.0625000000,164049.3750000000,170295.9375000000,38741.6718750000,,,
0.9479999985,7,195551.9218750000,189961.5468750000,197215.0781250000,182838.1875000000,185323.6093750000,164053.9531250000,170285.3125000000,38734.9648437500,,,
0.9519999984,7,195552.0781250000,189967.0312500000,197221.0312500000,182848.8906250000,185333.4062500000,164063.8750000000,170298.1093750000,38751.0312500000,,,
0.9559999984,7,195550.9531250000,189985.2343750000,197214.2656250000,182832.3750000000,185326.6093750000,164061.6093750000,170313.3437500000,38753.9843750000,,,
0.9599999983,7,195549.5312500000,189985.8750000000,197205.6562500000,182829.0468750000,185313.8437500000,164049.3125000000,170311.2812500000,38741.7265625000,,,
0.9639999985,7,195573.1406250000,190001.4843750000,197222.8281250000,182857.9843750000,185329.7031250000,164070.9062500000,170322.1250000000,38758.1679687500,,,
0.9679999985,7,195586.9531250000,189994.4062500000,197243.6718750000,182881.0781250000,185353.8125000000,164078.7343750000,170334.4531250000,38769.6718750000,,,
0.9719999984,7,195561.4218750000,189962.5468750000,197224.7031250000,182852.7343750000,185338.6562500000,164057.8125000000,170314.9531250000,38750.4960937500,,,
0.9759999984,7,195554.6093750000,189975.8281250000,197212.5625000000,182830.3281250000,185325.7343750000,164057.7656250000,170303.6875000000,38751.2187500000,,,
0.9799999984,7,195558.2968750000,189989.9843750000,197209.1250000000,182839.1875000000,185317.8906250000,164048.3281250000,170288.2656250000,38746.6054687500,,,
0.9839999985,7,195576.0000000000,190002.2656250000,197222.9375000000,182859.6718750000,185332.8437500000,164061.7343750000,170301.4687500000,38758.2734375000,,,
0.9879999985,7,195550.6406250000,189960.9843750000,197206.3906250000,182842.2968750000,185320.3593750000,164045.0312500000,170299.6093750000,38736.7890625000,,,
0.9919999985,7,195542.1875000000,189949.9687500000,197205.0000000000,182851.3906250000,185320.3906250000,164051.7812500000,170304.2343750000,38740.9453125000,,,
0.9959999984,7,195556.7500000000,189983.0625000000,197219.5781250000,182864.0312500000,185333.6718750000,164073.0000000000,170303.7500000000,38763.2890625000,,,
0.9999999984,7,195539.6875000000,189984.9687500000,197193.9687500000,182815.0781250000,185305.6718750000,164049.3437500000,170275.6875000000,38740.2773437500,,,
1.0039999983,7,195549.9062500000,189987.0312500000,197201.8281250000,182806.6250000000,185313.8125000000,164056.8281250000,170285.4531250000,38742.8789062500,,,
1.0079999985,7,195572.4375000000,189983.1406250000,197237.1562500000,182844.4375000000,185348.9375000000,164067.2812500000,170317.6875000000,38758.7851562500,,,
1.0119999985,7,195580.1093750000,189973.5937500000,197252.8750000000,182885.8281250000,185366.9218750000,164074.8750000000,170324.7187500000,38767.8750000000,,,
1.0159999984,7,195577.8281250000,189983.6875000000,197240.1875000000,182872.0468750000,185356.0937500000,164075.3281250000,170324.7968750000,38771.5507812500,,,
1.0199999984,7,195570.1250000000,189994.7343750000,197226.3437500000,182817.0312500000,185337.4218750000,164066.0781250000,170319.6250000000,38763.1835937500,,,
1.0239999983,8,195584.0781250000,190004.7656250000,197240.9062500000,182836.5312500000,185351.3750000000,164079.7031250000,170327.5625000000,38768.8945312500,,,
1.0279999983,8,195582.9843750000,189990.2500000000,197252.0312500000,182844.3125000000,185365.4531250000,164081.3437500000,170324.9687500000,38765.0078125000,,,
1.0319999983,8,195551.4062500000,189955.9687500000,197224.7812500000,182846.4062500000,185343.5312500000,164065.2031250000,170299.9375000000,38745.3710937500,,,
1.0359999982,8,195554.3125000000,189978.2343750000,197223.6406250000,182827.4687500000,185341.0468750000,164069.5937500000,170304.5781250000,38758.7578125000,,,
1.0399999982,8,195566.6718750000,190006.7968750000,197230.5781250000,182846.3281250000,185344.3125000000,164075.7968750000,170309.3750000000,38768.1171875000,,,
1.0439999981,8,195573.1406250000,190007.4687500000,197239.2968750000,182857.2656250000,185353.1875000000,164076.5625000000,170319.7343750000,38765.4609375000,,,
1.0479999983,8,195588.5625000000,190008.9531250000,197255.3125000000,182878.0312500000,185374.5156250000,164095.3437500000,170341.4531250000,38785.7929687500,,,
1.0519999983,8,195580.0625000000,189992.2343750000,197247.4843750000,182869.2500000000,185369.8437500000,164090.1406250000,170341.1093750000,38782.1992187500,,,
1.0559999982,8,195574.0000000000,190000.8125000000,197235.8593750000,182857.6718750000,185355.2656250000,164080.5312500000,170330.3281250000,38779.2773437500,,,
1.0599999982,8,195576.7343750000,190021.0468750000,197230.8750000000,182843.2656250000,185346.4062500000,164081.1875000000,170326.9531250000,38778.2031250000,,,
1.0639999982,8,195592.3750000000,190030.0312500000,197245.6250000000,182860.2187500000,185360.5781250000,164095.3750000000,170333.2031250000,38787.6171875000,,,
1.0679999983,8,195593.4375000000,190012.7031250000,197254.4843750000,182876.6093750000,185372.2968750000,164081.3437500000,170334.7187500000,38791.0781250000,,,
1.0719999983,8,195575.0156250000,189984.1406250000,197245.2187500000,182854.7187500000,185364.5937500000,164082.8437500000,170330.7500000000,38779.6523437500,,,
1.0759999983,8,195560.1250000000,189988.7500000000,197224.7656250000,182841.1406250000,185342.9531250000,164077.0312500000,170316.2500000000,38772.1679687500,,,
1.0799999982,8,195560.4218750000,190003.7187500000,197212.8281250000,182857.0468750000,185329.3281250000,164070.7812500000,170294.6562500000,38767.4726562500,,,
1.0839999982,8,195589.1250000000,190017.3437500000,197240.0000000000,182877.2187500000,185355.1250000000,164092.3125000000,170325.3125000000,38783.8906250000,,,
1.0879999981,8,195612.6406250000,190027.3125000000,197270.0156250000,182904.7187500000,185387.3437500000,164115.8437500000,170365.7343750000,38809.3710937500,,,
1.0919999983,8,195601.9687500000,190006.6718750000,197269.8750000000,182920.1406250000,185389.2500000000,164109.7187500000,170370.7187500000,38809.5859375000,,,
1.0959999983,8,195588.8281250000,190004.3906250000,197254.9843750000,182874.7500000000,185373.4218750000,164095.8750000000,170357.4687500000,38800.6796875000,,,
1.0999999982,8,195566.4843750000,189995.7968750000,197229.1250000000,182820.7656250000,185343.9687500000,164070.4531250000,170326.7656250000,38771.8203125000,,,
1.1039999982,8,195570.2343750000,189991.8593750000,197231.3906250000,182840.5781250000,185349.0625000000,164066.0000000000,170312.0156250000,38767.8515625000,,,
1.1079999981,8,195588.9375000000,189990.0312500000,197257.7031250000,182871.1250000000,185379.1250000000,164081.5000000000,170320.9375000000,38786.1953125000,,,
1.1119999983,8,195592.9531250000,189990.8437500000,197264.3281250000,182867.2968750000,185386.1562500000,164097.8125000000,170340.4687500000,38801.9960937500,,,
1.1159999983,8,195564.6562500000,189980.3281250000,197226.8750000000,182824.4062500000,185346.5937500000,164083.4375000000,170327.1093750000,38778.2578125000,,,
1.1199999982,8,195552.9062500000,189983.8437500000,197209.6875000000,182796.2500000000,185327.2031250000,164063.5000000000,170310.9375000000,38762.5117187500,,,
1.1239999982,8,195586.4687500000,190014.8437500000,197245.9531250000,182829.9375000000,185361.2187500000,164085.8281250000,170338.2968750000,38790.0585937500,,,
1.1279999982,8,195583.7656250000,189995.0312500000,197244.1562500000,182846.2187500000,185365.1875000000,164084.7031250000,170335.7500000000,38778.1757812500,,,
1.1319999981,8,195561.0625000000,189969.1093750000,197223.4687500000,182846.5625000000,185349.7656250000,164072.7031250000,170317.6406250000,38765.1953125000,,,
1.1359999983,8,195559.8593750000,189985.7187500000,197221.3750000000,182835.2968750000,185345.9218750000,164074.6718750000,170312.8593750000,38772.9179687500,,,
1.1399999983,8,195568.7031250000,190007.2812500000,197227.5000000000,182832.7187500000,185348.5468750000,164084.8593750000,170314.0937500000,38777.6953125000,,,
1.1439999982,8,195583.3750000000,190014.7343750000,197241.9843750000,182841.6875000000,185360.0312500000,164090.6718750000,170322.8437500000,38783.7031250000,,,
1.1479999982,8,195580.5156250000,189991.3437500000,197245.5468750000,182847.7187500000,185364.7812500000,164089.0156250000,170327.0781250000,38780.1601562500,,,
1.1519999981,9,195580.8906250000,189985.1250000000,197250.2187500000,182860.1093750000,185371.0000000000,164092.3593750000,170338.1875000000,38789.5234375000,,,
1.1559999981,9,195595.7968750000,190013.5937500000,197263.5781250000,182888.4062500000,185381.5781250000,164105.0468750000,170351.0000000000,38808.9960937500,,,
1.1599999981,9,195612.5625000000,190040.7656250000,197272.1250000000,182901.6250000000,185388.2500000000,164117.8750000000,170356.6718750000,38822.4062500000,,,
1.1639999980,9,195625.4062500000,190047.0312500000,197284.6250000000,182885.8906250000,185400.2343750000,164114.8437500000,170367.8750000000,38824.9804687500,,,
1.1679999980,9,195593.7031250000,190001.8906250000,197257.6718750000,182871.3750000000,185377.6250000000,164087.6718750000,170349.5625000000,38792.0976562500,,,
1.1719999979,9,195566.2187500000,189973.9687500000,197234.7343750000,182865.1562500000,185357.2187500000,164080.8281250000,170329.7343750000,38776.5117187500,,,
1.1759999981,9,195568.3593750000,189993.2812500000,197231.3906250000,182872.1250000000,185351.6875000000,164086.5468750000,170320.5312500000,38784.1835937500,,,
1.1799999981,9,195581.9375000000,190017.3906250000,197237.9375000000,182897.2812500000,185352.7343750000,164088.2031250000,170319.3906250000,38788.4492187500,,,
1.1839999980,9,195601.7500000000,190024.7500000000,197258.5625000000,182883.3125000000,185372.2187500000,164100.1406250000,170333.5156250000,38797.9179687500,,,
1.1879999980,9,195601.7343750000,190014.7187500000,197264.5156250000,182880.2812500000,185382.0000000000,164103.1718750000,170341.1875000000,38802.5312500000,,,
1.1919999979,9,195580.2968750000,189987.8437500000,197254.7187500000,182848.1250000000,185374.4687500000,164093.0937500000,170341.4375000000,38791.8828125000,,,
1.1959999981,9,195571.9062500000,189989.9531250000,197245.0937500000,182832.1562500000,185365.1093750000,164099.8437500000,170328.2656250000,38789.8710937500,,,
1.1999999981,9,195580.9375000000,190016.6718750000,197244.5625000000,182835.5937500000,185361.2968750000,164101.4843750000,170313.9687500000,38793.5468750000,,,
1.2039999980,9,195581.8281250000,190010.7187500000,197238.8906250000,182845.7656250000,185352.7343750000,164087.8906250000,170312.0312500000,38784.9609375000,33029,1.2051361694,0.0000000000
1.2079999980,9,195593.7343750000,189998.6718750000,197257.3437500000,182888.7500000000,185372.8593750000,164093.6562500000,170344.4687500000,38789.8710937500,,,
1.2119999980,9,195577.7187500000,189973.0781250000,197252.6562500000,182878.0468750000,185372.9687500000,164095.4218750000,170348.8906250000,38782.2812500000,,,
1.2159999979,9,195565.0312500000,189977.5312500000,197235.7500000000,182828.6718750000,185355.6875000000,164091.7187500000,170335.3125000000,38778.7382812500,,,
1.2199999981,9,195594.1875000000,190023.7031250000,197257.9375000000,182838.5937500000,185372.2187500000,164114.2343750000,170348.9375000000,38804.6210937500,,,
1.2239999981,9,195605.7812500000,190032.5781250000,197259.0625000000,182861.2031250000,185373.2031250000,164108.3281250000,170332.3437500000,38802.9335937500,,,
1.2279999980,9,195582.9531250000,189990.8906250000,197236.9687500000,182877.0000000000,185351.9062500000,164080.7031250000,170315.5156250000,38777.8007812500,,,
1.2319999980,9,195574.6718750000,189975.8437500000,197238.3125000000,182860.5625000000,185355.2343750000,164091.1562500000,170327.8281250000,38782.8164062500,,,
1.2359999979,9,195568.3281250000,189990.5156250000,197226.5781250000,182831.8125000000,185343.5156250000,164088.4843750000,170314.0000000000,38787.0820312500,,,
1.2399999981,9,195572.0312500000,190001.0312500000,197222.3437500000,182826.4218750000,185334.4531250000,164073.2968750000,170308.8437500000,38779.8671875000,,,
1.2439999981,9,195577.8281250000,189992.6406250000,197227.7187500000,182836.1875000000,185337.1250000000,164068.5000000000,170311.5781250000,38773.6718750000,,,
1.2479999980,9,195596.5312500000,189998.4062500000,197254.9687500000,182868.6093750000,185366.6250000000,164090.4687500000,170318.3125000000,38797.8359375000,,,
1.2519999980,9,195597.2812500000,190009.4062500000,197262.4687500000,182863.7343750000,185377.8906250000,164102.1250000000,170320.1562500000,38815.6210937500,,,
1.2559999980,9,195597.9218750000,190028.1250000000,197260.4843750000,182849.3593750000,185375.9375000000,164111.5937500000,170326.3593750000,38824.2031250000,,,
1.2599999979,9,195584.6406250000,190021.8437500000,197238.4375000000,182837.8125000000,185352.5468750000,164099.3906250000,170315.3593750000,38803.1210937500,,,
1.2639999981,9,195587.6406250000,190013.6093750000,197239.7343750000,182839.6406250000,185354.1875000000,164094.1875000000,170327.8125000000,38795.2890625000,,,
1.2679999981,9,195577.4843750000,189982.4218750000,197238.5468750000,182842.2187500000,185355.8437500000,164078.9062500000,170325.9531250000,38782.5234375000,,,
1.2719999980,9,195562.5156250000,189963.2656250000,197227.7187500000,182841.6250000000,185347.9062500000,164076.7812500000,170310.3437500000,38777.2929687500,,,
1.2759999980,9,195577.1562500000,190001.8125000000,197240.9062500000,182851.0156250000,185358.1250000000,164101.5625000000,170316.6250000000,38804.5429687500,,,
1.2799999979,10,195595.1875000000,190040.7343750000,197249.8593750000,182866.2031250000,185363.7031250000,164119.6250000000,170327.9687500000,38822.3789062500,,,
1.2839999979,10,195593.3125000000,190024.3750000000,197248.4218750000,182862.6562500000,185363.4375000000,164109.5312500000,170326.5468750000,38808.4843750000,,,
1.2879999978,10,195585.1250000000,189993.0625000000,197247.7812500000,182857.0000000000,185368.0468750000,164097.1718750000,170334.4062500000,38799.4726562500,,,
1.2919999978,10,195580.5156250000,189990.6250000000,197246.1406250000,182844.7968750000,185367.2812500000,164097.6250000000,170338.3437500000,38808.6445312500,,,
1.2959999978,10,195573.5156250000,189988.6093750000,197237.6875000000,182838.9218750000,185356.8750000000,164100.5468750000,170322.1250000000,38800.2500000000,,,
1.2999999977,10,195573.4531250000,190002.5156250000,197235.4843750000,182849.7812500000,185352.1562500000,164097.4062500000,170314.2343750000,38793.8125000000,,,
1.3039999979,10,195595.9375000000,190025.0937500000,197251.7656250000,182899.2656250000,185368.7031250000,164107.4375000000,170329.6250000000,38811.9453125000,,,
1.3079999979,10,195591.3437500000,189997.5937500000,197252.1718750000,182898.1093750000,185371.7812500000,164104.8906250000,170335.3906250000,38801.9414062500,,,
1.3119999978,10,195576.2500000000,189983.3281250000,197249.2968750000,182874.7187500000,185369.4531250000,164100.5156250000,170330.2968750000,38799.0703125000,,,
1.3159999978,10,195566.2968750000,189992.6718750000,197235.9531250000,182861.8437500000,185352.5781250000,164092.2656250000,170316.6406250000,38797.4609375000,,,
1.3199999977,10,195576.8906250000,190015.2500000000,197237.6875000000,182871.3125000000,185349.2812500000,164093.6250000000,170312.1093750000,38804.8359375000,,,
1.3239999979,10,195592.9375000000,190021.4687500000,197255.8437500000,182866.7812500000,185365.3437500000,164099.8281250000,170320.3281250000,38811.9726562500,,,
1.3279999979,10,195592.0937500000,190000.4375000000,197260.4375000000,182869.7968750000,185374.4375000000,164102.6875000000,170334.5625000000,38808.4335937500,,,
1.3319999978,10,195592.4531250000,189996.9531250000,197268.2343750000,182876.6250000000,185387.0156250000,164116.5000000000,170350.7187500000,38822.7539062500,,,
1.3359999978,10,195597.8437500000,190022.2812500000,197270.0156250000,182878.1875000000,185387.7656250000,164127.0468750000,170358.5468750000,38838.7421875000,,,
1.3399999978,10,195587.6406250000,190022.7812500000,197249.4687500000,182870.1875000000,185363.8906250000,164107.2500000000,170337.3593750000,38819.6445312500,,,
1.3439999977,10,195592.5000000000,190020.5937500000,197253.4062500000,182868.6875000000,185366.7968750000,164101.0781250000,170332.1250000000,38815.5937500000,,,
1.3479999979,10,195592.7187500000,190001.8906250000,197263.0625000000,182863.2656250000,185380.5781250000,164101.7031250000,170341.3281250000,38815.7265625000,,,
1.3519999979,10,195578.5000000000,189985.3125000000,197251.7968750000,182846.9843750000,185374.7812500000,164103.4218750000,170334.2187500000,38813.9843750000,,,
1.3559999978,10,195575.2031250000,189994.8125000000,197248.0937500000,182832.3125000000,185367.7031250000,164104.4375000000,170324.9687500000,38817.0937500000,,,
1.3599999978,10,195593.3906250000,190027.5312500000,197258.7500000000,182845.3593750000,185372.8750000000,164116.4531250000,170328.1562500000,38829.6210937500,,,
1.3639999977,10,195608.8125000000,190032.9062500000,197274.6718750000,182866.4843750000,185387.1718750000,164124.6406250000,170342.0468750000,38834.2617187500,,,
1.3679999979,10,195608.3281250000,190016.9375000000,197278.9687500000,182869.3125000000,185397.5625000000,164125.8437500000,170344.1406250000,38831.9804687500,,,
1.3719999979,10,195592.4218750000,189994.1875000000,197267.2187500000,182852.7343750000,185392.5937500000,164115.8593750000,170342.9375000000,38825.8671875000,,,
1.3759999978,10,195581.5000000000,189996.7500000000,197251.7187500000,182842.7031250000,185374.8437500000,164111.8906250000,170344.2812500000,38824.6601562500,,,
1.3799999978,10,195580.9375000000,190011.0312500000,197238.5000000000,182836.0156250000,185356.8437500000,164107.2031250000,170332.6093750000,38818.3007812500,,,
1.3839999977,10,195594.2500000000,190018.3281250000,197249.6562500000,182840.2031250000,185366.4375000000,164109.3125000000,170335.3125000000,38822.9414062500,,,
1.3879999977,10,195586.5781250000,189996.5312500000,197248.3593750000,182863.8906250000,185367.7031250000,164100.1406250000,170328.0937500000,38815.4062500000,,,
1.3919999979,10,195579.5000000000,189983.4062500000,197253.2968750000,182879.4531250000,185375.1406250000,164106.9843750000,170336.2031250000,38820.5546875000,,,
1.3959999979,10,195575.2500000000,189994.1875000000,197252.8906250000,182861.9062500000,185370.2812500000,164108.9218750000,170337.2500000000,38822.7265625000,,,
1.3999999978,10,195581.4218750000,190016.2656250000,197256.0625000000,182852.4687500000,185368.7187500000,164114.0468750000,170336.2812500000,38825.7578125000,,,
1.4039999978,10,195601.5468750000,190036.1718750000,197272.0468750000,182871.4062500000,185384.0937500000,164119.3281250000,170342.0468750000,38834.7421875000,,,
1.4079999977,11,195600.0156250000,190013.3437500000,197271.4531250000,182887.5937500000,185388.6875000000,164111.0625000000,170345.1562500000,38825.7304687500,,,
1.4119999977,11,195593.3906250000,189998.9687500000,197267.8125000000,182873.0156250000,185391.2343750000,164116.1875000000,170349.9062500000,38830.3710937500,,,
1.4159999976,11,195582.8125000000,190005.5468750000,197254.2656250000,182841.0937500000,185375.8281250000,164109.2656250000,170339.5468750000,38830.0507812500,,,
1.4199999976,11,195578.4531250000,190012.8125000000,197242.4843750000,182838.5937500000,185361.7031250000,164097.4687500000,170324.4062500000,38822.3789062500,,,
1.4239999976,11,195608.2187500000,190028.9843750000,197272.1562500000,182900.5312500000,185389.2500000000,164114.2343750000,170337.2500000000,38841.4492187500,,,
1.4279999975,11,195613.9062500000,190016.3437500000,197286.2031250000,182889.0156250000,185407.5625000000,164109.6718750000,170341.9687500000,38846.7343750000,,,
1.4319999977,11,195596.0625000000,189983.7812500000,197280.3437500000,182842.5625000000,185405.9531250000,164109.7968750000,170343.9218750000,38836.8085937500,,,
1.4359999977,11,195577.3437500000,189985.3125000000,197250.0000000000,182829.4843750000,185375.3281250000,164116.4218750000,170329.6250000000,38824.7382812500,,,
1.4399999976,11,195565.4687500000,189994.1718750000,197223.8750000000,182822.4218750000,185346.1406250000,164100.5468750000,170311.1250000000,38806.1523437500,,,
1.4439999976,11,195581.1093750000,190003.6406250000,197238.9687500000,182843.4843750000,185358.1875000000,164105.7031250000,170325.0781250000,38811.8906250000,,,
1.4479999975,11,195595.0156250000,189991.0000000000,197263.7812500000,182850.5625000000,185385.9375000000,164117.3437500000,170343.8750000000,38824.4179687500,,,
1.4519999977,11,195579.2187500000,189966.2968750000,197256.8593750000,182842.2968750000,185380.1718750000,164108.2656250000,170334.5625000000,38821.4687500000,,,
1.4559999977,11,195567.2656250000,189969.5937500000,197237.1562500000,182839.5312500000,185359.1562500000,164101.1093750000,170320.5312500000,38817.6328125000,,,
1.4599999976,11,195567.3125000000,189992.5312500000,197227.1406250000,182831.5625000000,185344.1875000000,164089.7343750000,170311.3437500000,38814.7343750000,,,
1.4639999976,11,195598.4531250000,190015.0156250000,197259.2812500000,182867.9687500000,185371.5156250000,164110.0156250000,170332.1718750000,38833.4296875000,,,
1.4679999975,11,195628.8750000000,190027.7187500000,197301.8750000000,182889.4843750000,185413.5937500000,164133.7187500000,170358.8125000000,38860.4648437500,,,
1.4719999975,11,195600.6250000000,189999.5625000000,197273.4218750000,182892.9843750000,185393.0312500000,164117.7656250000,170327.0000000000,38841.7734375000,,,
1.4759999977,11,195567.9062500000,189983.1406250000,197242.1875000000,182842.8906250000,185364.1875000000,164101.1718750000,170291.8437500000,38819.2695312500,,,
1.4799999977,11,195548.6406250000,189982.6406250000,197211.9375000000,182801.7968750000,185333.4531250000,164082.3906250000,170263.1406250000,38798.2382812500,,,
1.4839999976,11,195540.8906250000,189971.2031250000,197196.6562500000,182818.4843750000,185317.0937500000,164065.4375000000,170270.8437500000,38776.6757812500,,,
1.4879999976,11,195541.5625000000,189951.2031250000,197205.1875000000,182841.9531250000,185326.2343750000,164064.0468750000,170294.6875000000,38767.5820312500,,,
1.4919999975,11,195540.9531250000,189942.0000000000,197216.8281250000,182857.4218750000,185339.7031250000,164074.3437500000,170309.4843750000,38769.0312500000,,,
1.4959999977,11,195558.4062500000,189967.7812500000,197236.1406250000,182870.5937500000,185355.4531250000,164093.2187500000,170324.2968750000,38790.4882812500,,,
1.4999999977,11,195574.0781250000,189992.0781250000,197244.6093750000,182849.2187500000,185357.6250000000,164100.4375000000,170324.0000000000,38802.9335937500,,,
1.5039999976,11,195590.2968750000,190008.8593750000,197257.2656250000,182838.1093750000,185369.2031250000,164102.8750000000,170326.9218750000,38816.1835937500,,,
1.5079999976,11,195576.5468750000,189985.6406250000,197248.9531250000,182825.2187500000,185367.4062500000,164093.3593750000,170321.7187500000,38811.0078125000,,,
1.5119999975,11,195550.4375000000,189952.0000000000,197223.0468750000,182815.3125000000,185350.0312500000,164079.2812500000,170307.7968750000,38799.6328125000,,,
1.5159999975,11,195529.3906250000,189945.7343750000,197195.3906250000,182797.6093750000,185321.7812500000,164062.9218750000,170281.2187500000,38784.8828125000,,,
1.5199999977,11,195539.4218750000,189976.4062500000,197200.3593750000,182801.3437500000,185319.6718750000,164068.8437500000,170285.1093750000,38792.0156250000,,,
1.5239999976,11,195560.3125000000,189994.6562500000,197220.7968750000,182828.3437500000,185336.4843750000,164072.4375000000,170299.1562500000,38803.2031250000,,,
1.5279999976,11,195578.5468750000,189995.1562500000,197246.1093750000,182834.8437500000,185363.2187500000,164085.7343750000,170317.3437500000,38816.9609375000,,,
1.5319999976,11,195572.6875000000,189979.3906250000,197248.9062500000,182841.8125000000,185367.2968750000,164089.4687500000,170319.7031250000,38815.8085937500,,,
1.5359999975,12,195546.1875000000,189967.9843750000,197212.2031250000,182832.9687500000,185332.8437500000,164073.7500000000,170288.0625000000,38797.3828125000,,,
1.5399999975,12,195553.0156250000,189988.5937500000,197214.9687500000,182836.1562500000,185330.6093750000,164075.8437500000,170289.7656250000,38799.7148437500,,,
1.5439999974,12,195565.8750000000,189990.9218750000,197230.2343750000,182838.7343750000,185342.6562500000,164082.6875000000,170298.6562500000,38800.1992187500,,,
1.5479999974,12,195583.1406250000,189988.9687500000,197253.5937500000,182855.4687500000,185368.2656250000,164096.6093750000,170321.4531250000,38813.4726562500,,,
1.5519999973,12,195569.6562500000,189972.9843750000,197247.8593750000,182841.9531250000,185366.7656250000,164092.0468750000,170315.4687500000,38810.7929687500,,,
1.5559999973,12,195572.2187500000,189989.5000000000,197248.1250000000,182858.4687500000,185365.9062500000,164100.1718750000,170314.5312500000,38819.6953125000,,,
1.5599999975,12,195595.0156250000,190017.6093750000,197262.1250000000,182876.5468750000,185376.8750000000,164111.8125000000,170324.4531250000,38834.6640625000,,,
1.5639999975,12,195596.7968750000,190005.9375000000,197263.8437500000,182841.5781250000,185378.5937500000,164104.8125000000,170337.2187500000,38825.7304687500,,,
1.5679999974,12,195605.7031250000,189999.2343750000,197281.0625000000,182865.0625000000,185397.9531250000,164108.7812500000,170355.3750000000,38836.4609375000,,,
1.5719999974,12,195601.6250000000,189990.3906250000,197288.1093750000,182864.6718750000,185406.3281250000,164106.3906250000,170363.5000000000,38841.0742187500,,,
1.5759999973,12,195567.9531250000,189975.1562500000,197240.3750000000,182846.2343750000,185364.0625000000,164086.0312500000,170313.5156250000,38820.0468750000,,,
1.5799999975,12,195560.0000000000,189988.7812500000,197218.8593750000,182822.9843750000,185337.9531250000,164077.5312500000,170287.6562500000,38810.5234375000,,,
1.5839999975,12,195578.5000000000,190010.4218750000,197232.3437500000,182857.7187500000,185345.4375000000,164087.7031250000,170303.9062500000,38820.9023437500,,,
1.5879999974,12,195580.4375000000,189998.5625000000,197238.1718750000,182856.7500000000,185351.8593750000,164089.7343750000,170320.4062500000,38819.5625000000,,,
1.5919999974,12,195577.2968750000,189989.9531250000,197241.0625000000,182839.0000000000,185358.3906250000,164097.4687500000,170326.6562500000,38823.9062500000,,,
1.5959999973,12,195577.4062500000,190000.4218750000,197243.9062500000,182845.6250000000,185360.0625000000,164102.2031250000,170325.1562500000,38830.7226562500,,,
1.5999999973,12,195572.0156250000,190001.4687500000,197236.4531250000,182837.5781250000,185350.7031250000,164094.4843750000,170313.1562500000,38818.4375000000,,,
1.6039999975,12,195595.3750000000,190022.9531250000,197262.4218750000,182842.7500000000,185377.3593750000,164107.8750000000,170327.1093750000,38834.1289062500,,,
1.6079999974,12,195603.8750000000,190017.8593750000,197276.8281250000,182864.6875000000,185394.7968750000,164112.9375000000,170335.5625000000,38837.9375000000,,,
1.6119999974,12,195577.4531250000,189976.5781250000,197255.8281250000,182841.5000000000,185373.4687500000,164095.8750000000,170330.5937500000,38815.1640625000,,,
1.6159999974,12,195576.7500000000,189995.0312500000,197249.9687500000,182842.0781250000,185362.6562500000,164106.3906250000,170332.9062500000,38824.0703125000,,,
1.6199999973,12,195589.2812500000,190024.0781250000,197253.6250000000,182854.2656250000,185361.1406250000,164113.3750000000,170333.8906250000,38831.2304687500,,,
1.6239999975,12,195580.1562500000,190003.0156250000,197240.6406250000,182849.9687500000,185345.9062500000,164099.3437500000,170315.4375000000,38807.1718750000,,,
1.6279999975,12,195569.1093750000,189973.3593750000,197231.5156250000,182832.1875000000,185339.5625000000,164086.0937500000,170295.1562500000,38793.4648437500,,,
1.6319999974,12,195561.4218750000,189964.5625000000,197230.0937500000,182836.9062500000,185341.5312500000,164087.1406250000,170297.0937500000,38800.5742187500,,,
1.6359999974,12,195561.1250000000,189981.1093750000,197233.6718750000,182832.2187500000,185344.1875000000,164097.7343750000,170305.3593750000,38812.4023437500,,,
1.6399999973,12,195580.8281250000,190016.7031250000,197248.5312500000,182846.4062500000,185356.7343750000,164109.6718750000,170309.2500000000,38830.4257812500,,,
1.6439999973,12,195603.2500000000,190036.9687500000,197267.2187500000,182865.5000000000,185374.9531250000,164117.0937500000,170316.1718750000,38845.1523437500,,,
1.6479999975,12,195599.8750000000,190014.8281250000,197269.0781250000,182874.2500000000,185380.4687500000,164113.4531250000,170335.5781250000,38837.2382812500,,,
1.6519999974,12,195572.7343750000,189961.9062500000,197252.8125000000,182852.1406250000,185370.6250000000,164099.3437500000,170342.7187500000,38813.9296875000,,,
1.6559999974,12,195561.7343750000,189963.6406250000,197239.5937500000,182851.6093750000,185357.0312500000,164095.9375000000,170336.4375000000,38809.5859375000,,,
1.6599999974,12,195566.9687500000,189991.1562500000,197234.2500000000,182836.5625000000,185348.4218750000,164105.7187500000,170328.5625000000,38814.5742187500,,,
1.6639999973,13,195567.0156250000,189997.3593750000,197231.8750000000,182827.2812500000,185342.8437500000,164099.1562500000,170318.7968750000,38808.5937500000,,,
1.6679999973,13,195577.9687500000,189991.7031250000,197251.7187500000,182855.8750000000,185365.6718750000,164106.2656250000,170334.9218750000,38818.8398437500,,,
1.6719999972,13,195549.7187500000,189950.2656250000,197229.8593750000,182828.7187500000,185351.5625000000,164086.4687500000,170313.5312500000,38798.6679687500,,,
1.6759999972,13,195550.3906250000,189963.9375000000,197230.0156250000,182816.8125000000,185351.3125000000,164094.5156250000,170316.8593750000,38811.0078125000,,,
1.6799999971,13,195561.8125000000,189998.0781250000,197225.2187500000,182825.7968750000,185342.1406250000,164102.8281250000,170316.9218750000,38822.4609375000,,,
1.6839999971,13,195573.4843750000,190006.8750000000,197232.8125000000,182838.9375000000,185345.3281250000,164099.4687500000,170321.6093750000,38820.8789062500,,,
1.6879999973,13,195591.6406250000,190004.9843750000,197261.6406250000,182872.9062500000,185374.5156250000,164109.4218750000,170347.6250000000,38831.7148437500,,,
1.6919999972,13,195560.3437500000,189958.5781250000,197244.8281250000,182839.2187500000,185361.8593750000,164082.0937500000,170325.2656250000,38804.0078125000,,,
1.6959999972,13,195563.4062500000,189986.3906250000,197245.5468750000,182813.2812500000,185364.2500000000,164094.5625000000,170310.0468750000,38820.6640625000,,,
1.6999999972,13,195572.0156250000,190014.1562500000,197242.1093750000,182837.0625000000,185356.3281250000,164104.3906250000,170321.2656250000,38829.7539062500,,,
1.7039999971,13,195586.6562500000,190018.0468750000,197248.3125000000,182897.2812500000,185357.6718750000,164106.7500000000,170332.3125000000,38833.9921875000,,,
1.7079999973,13,195589.8125000000,190003.3125000000,197252.3125000000,182874.3437500000,185367.4687500000,164115.1406250000,170341.8281250000,38836.3281250000,,,
1.7119999973,13,195564.9062500000,189971.5312500000,197234.7656250000,182827.7343750000,185354.7031250000,164107.8750000000,170330.7031250000,38821.4414062500,,,
1.7159999972,13,195547.3593750000,189967.5625000000,197216.6562500000,182810.2187500000,185333.5937500000,164097.0625000000,170313.4062500000,38810.3906250000,,,
1.7199999972,13,195575.8125000000,190009.4843750000,197237.3906250000,182847.4531250000,185347.1875000000,164111.8906250000,170324.8750000000,38833.4296875000,,,
1.7239999971,13,195602.4218750000,190029.3593750000,197261.1875000000,182872.5312500000,185369.5000000000,164120.3906250000,170341.6406250000,38849.2031250000,,,
1.7279999971,13,195595.6406250000,189997.4062500000,197261.1875000000,182864.0312500000,185373.2500000000,164111.5781250000,170335.1562500000,38832.9726562500,,,
1.7319999973,13,195580.1093750000,189976.4375000000,197255.6093750000,182849.9687500000,185372.2343750000,164108.3281250000,170328.2343750000,38829.0039062500,,,
1.7359999972,13,195590.1406250000,189998.2187500000,197265.2812500000,182847.5000000000,185381.5156250000,164131.7343750000,170341.4375000000,38853.3320312500,,,
1.7399999972,13,195583.5156250000,190006.5937500000,197247.9687500000,182830.6093750000,185361.5312500000,164120.2031250000,170331.7968750000,38844.5078125000,,,
1.7439999972,13,195580.9687500000,189991.2187500000,197243.7968750000,182851.5000000000,185356.0937500000,164102.4843750000,170322.7968750000,38828.3593750000,,,
1.7479999971,13,195588.3125000000,189983.8125000000,197256.0156250000,182843.6875000000,185371.9218750000,164112.0312500000,170332.3125000000,38833.7773437500,,,
1.7519999973,13,195569.8437500000,189960.4531250000,197243.6093750000,182834.0937500000,185364.4375000000,164106.9375000000,170321.4218750000,38823.8828125000,,,
1.7559999973,13,195570.7187500000,189972.4375000000,197242.1406250000,182831.2968750000,185361.4218750000,164113.0937500000,170324.7812500000,38830.7226562500,,,
1.7599999972,13,195578.2812500000,189999.3437500000,197243.3281250000,182832.2656250000,185356.0312500000,164106.6562500000,170318.2343750000,38832.9453125000,,,
1.7639999972,13,195582.0937500000,190009.2187500000,197241.7968750000,182864.0312500000,185352.8437500000,164100.4375000000,170307.7500000000,38829.0859375000,,,
1.7679999971,13,195576.3593750000,189979.5156250000,197241.2031250000,182878.0000000000,185354.3281250000,164096.9062500000,170318.2343750000,38816.9609375000,,,
1.7719999971,13,195585.3125000000,189975.5000000000,197259.5468750000,182870.5156250000,185375.3281250000,164111.2812500000,170348.3593750000,38837.4257812500,,,
1.7759999973,13,195590.6562500000,189995.3281250000,197262.0468750000,182879.3593750000,185378.1875000000,164127.0937500000,170351.6250000000,38853.1718750000,,,
1.7799999972,13,195580.7500000000,189999.5312500000,197245.3593750000,182838.1093750000,185357.0781250000,164113.9843750000,170327.3437500000,38837.7500000000,,,
1.7839999972,13,195576.6250000000,190000.5000000000,197239.1875000000,182825.0781250000,185347.2187500000,164097.7343750000,170314.2812500000,38824.9531250000,,,
1.7879999971,13,195591.8281250000,190002.0312500000,197261.4218750000,182847.6406250000,185371.4531250000,164119.3750000000,170339.0781250000,38841.5585937500,,,
1.7919999971,14,195588.9375000000,189994.8906250000,197268.8593750000,182879.9062500000,185381.3906250000,164127.9375000000,170347.0156250000,38852.3125000000,,,
1.7959999971,14,195580.1406250000,189997.2812500000,197264.4843750000,182860.1875000000,185377.7968750000,164128.1406250000,170352.1093750000,38853.9492187500,,,
1.7999999970,14,195563.4531250000,189995.0468750000,197240.0781250000,182813.6562500000,185351.6093750000,164112.0781250000,170331.5312500000,38835.0117187500,,,
1.8039999970,14,195588.0781250000,190019.7343750000,197262.6875000000,182860.5937500000,185373.3437500000,164126.2500000000,170343.4375000000,38848.5312500000,,,
1.8079999969,14,195581.9687500000,189994.0625000000,197266.4218750000,182880.7656250000,185384.0625000000,164111.7343750000,170335.6406250000,38835.3085937500,,,
1.8119999969,14,195564.5781250000,189963.6718750000,197257.4843750000,182848.8125000000,185380.2812500000,164104.8906250000,170330.6718750000,38825.7578125000,,,
1.8159999971,14,195555.7343750000,189963.5625000000,197247.9843750000,182820.1406250000,185367.8437500000,164106.6406250000,170335.5000000000,38824.2304687500,,,
1.8199999970,14,195556.2343750000,189982.7343750000,197234.6093750000,182819.4218750000,185352.8125000000,164108.7343750000,170327.6406250000,38825.3554687500,,,
1.8239999970,14,195567.0156250000,189991.8593750000,197239.5156250000,182832.5625000000,185356.1718750000,164116.2968750000,170332.3125000000,38830.7460937500,,,
1.8279999970,14,195577.3437500000,189987.0000000000,197252.9531250000,182850.6406250000,185369.1875000000,164119.8593750000,170337.2500000000,38835.4140625000,,,
1.8319999969,14,195560.0937500000,189956.2187500000,197244.9843750000,182838.8906250000,185362.2343750000,164106.7656250000,170338.3281250000,38822.8906250000,,,
1.8359999971,14,195555.6562500000,189964.3750000000,197237.7187500000,182835.8281250000,185354.8593750000,164109.8750000000,170331.9843750000,38825.5703125000,,,
1.8399999971,14,195565.5468750000,189994.0625000000,197238.7031250000,182841.5468750000,185352.7656250000,164113.2343750000,170322.4687500000,38832.1406250000,,,
1.8439999970,14,195569.4843750000,189995.5312500000,197237.4687500000,182854.6093750000,185352.5468750000,164111.5468750000,170316.0781250000,38827.3398437500,,,
1.8479999970,14,195574.5000000000,189984.5156250000,197245.9531250000,182851.2812500000,185363.8750000000,164114.0625000000,170334.6250000000,38831.2578125000,,,
1.8519999969,14,195575.2812500000,189975.0937500000,197254.3750000000,182852.8125000000,185374.5156250000,164123.5312500000,170349.5781250000,38839.9726562500,,,
1.8559999969,14,195576.3750000000,189990.3906250000,197253.8906250000,182853.0781250000,185371.2500000000,164125.9531250000,170347.9531250000,38848.8242187500,,,
1.8599999971,14,195581.5625000000,190012.5156250000,197251.1875000000,182837.1250000000,185361.1562500000,164122.6718750000,170336.5000000000,38850.3007812500,,,
1.8639999970,14,195578.6875000000,190007.2031250000,197245.7343750000,182830.5468750000,185354.8281250000,164113.6406250000,170322.1718750000,38838.7656250000,,,
1.8679999970,14,195577.4843750000,189986.0937500000,197247.3437500000,182857.5937500000,185359.5468750000,164110.7343750000,170327.6406250000,38833.2148437500,,,
1.8719999969,14,195579.9687500000,189973.2187500000,197259.7656250000,182874.6406250000,185374.7656250000,164119.7812500000,170342.3906250000,38843.3007812500,,,
1.8759999969,14,195587.9375000000,189991.0781250000,197264.3281250000,182873.5156250000,185378.0625000000,164130.4531250000,170352.3281250000,38859.4726562500,,,
1.8799999971,14,195614.5781250000,190038.7500000000,197280.6250000000,182859.5937500000,185392.0312500000,164159.2343750000,170367.9062500000,38888.8164062500,,,
1.8839999971,14,195636.4375000000,190059.0468750000,197300.9843750000,182874.6406250000,185411.8281250000,164170.3593750000,170392.0468750000,38900.1640625000,,,
1.8879999970,14,195632.0156250000,190029.0312500000,197305.2500000000,182902.1875000000,185421.7187500000,164160.8125000000,170395.4218750000,38890.3203125000,,,
1.8919999970,14,195604.5468750000,189994.9218750000,197283.7656250000,182878.9062500000,185407.0000000000,164142.3906250000,170366.6250000000,38873.1796875000,,,
1.8959999969,14,195602.4843750000,190012.6250000000,197276.8437500000,182873.0156250000,185399.0937500000,164151.7187500000,170362.2187500000,38882.7031250000,,,
1.8999999969,14,195594.0781250000,190021.1562500000,197255.9218750000,182867.4375000000,185372.4062500000,164138.4531250000,170341.8593750000,38869.1289062500,,,
1.9039999971,14,195597.8593750000,190014.0937500000,197257.0781250000,182854.3750000000,185371.5468750000,164132.1406250000,170337.6562500000,38858.5351562500,,,
1.9079999970,14,195584.9062500000,189984.6718750000,197249.3906250000,182845.7812500000,185367.5156250000,164119.2500000000,170329.1718750000,38839.4101562500,,,
1.9119999970,14,195574.7968750000,189968.1250000000,197246.0000000000,182844.8437500000,185366.9531250000,164116.4531250000,170327.8593750000,38841.6367187500,,,
1.9159999969,14,195590.2500000000,189994.9531250000,197260.8593750000,182843.2656250000,185380.1250000000,164131.4687500000,170346.1718750000,38866.1523437500,,,
1.9199999969,15,195590.1406250000,190007.7343750000,197248.7968750000,182848.9843750000,185365.1093750000,164123.4843750000,170334.3750000000,38859.7968750000,,,
1.9239999969,15,195606.3750000000,190021.5312500000,197261.3750000000,182867.6406250000,185377.9218750000,164137.8906250000,170344.7031250000,38865.8320312500,,,
1.9279999968,15,195606.4218750000,190005.6406250000,197272.9531250000,182873.2187500000,185392.8125000000,164138.9843750000,170355.9218750000,38862.7734375000,,,
1.9319999968,15,195577.7500000000,189971.5781250000,197253.3281250000,182856.1093750000,185377.7343750000,164122.0781250000,170344.1718750000,38846.4648437500,,,
1.9359999967,15,195566.2656250000,189972.3281250000,197238.0156250000,182846.2343750000,185361.7500000000,164121.1718750000,170335.0000000000,38847.9960937500,,,
1.9399999967,15,195570.9375000000,189986.8437500000,197234.4375000000,182849.3750000000,185354.3281250000,164120.1875000000,170325.9218750000,38847.6171875000,,,
1.9439999969,15,195588.6718750000,190005.9687500000,197247.6875000000,182859.1718750000,185366.9218750000,164123.7187500000,170327.5312500000,38853.4921875000,,,
1.9479999968,15,195594.7500000000,189999.2031250000,197258.8281250000,182861.8437500000,185380.4218750000,164127.9375000000,170342.0781250000,38854.9414062500,,,
1.9519999968,15,195576.5625000000,189968.7656250000,197250.5937500000,182856.0781250000,185374.8125000000,164116.8281250000,170332.8437500000,38841.6640625000,,,
1.9559999967,15,195573.2500000000,189978.5781250000,197246.1093750000,182854.4218750000,185366.5468750000,164120.3125000000,170336.0625000000,38847.4023437500,,,
1.9599999967,15,195588.7187500000,190008.1093750000,197255.6562500000,182857.0156250000,185370.3125000000,164129.2500000000,170352.0312500000,38855.8007812500,,,
1.9639999969,15,195605.1562500000,190017.7187500000,197270.2812500000,182872.2812500000,185382.0625000000,164130.0312500000,170357.4375000000,38854.9140625000,,,
1.9679999969,15,195622.7031250000,190019.1406250000,197292.1718750000,182890.6875000000,185404.5781250000,164138.3906250000,170364.1250000000,38868.5117187500,,,
1.9719999968,15,195622.1875000000,190004.3281250000,197297.5000000000,182898.4062500000,185415.7187500000,164151.6093750000,170370.1093750000,38874.1718750000,,,
1.9759999968,15,195599.5312500000,189988.1875000000,197275.6718750000,182853.5156250000,185395.2187500000,164143.0000000000,170351.6250000000,38860.7070312500,,,
1.9799999967,15,195596.3593750000,190007.2500000000,197264.4375000000,182835.7031250000,185381.6250000000,164134.4218750000,170343.8125000000,38859.6601562500,,,
1.9839999967,15,195602.6093750000,190022.4062500000,197261.0781250000,182849.2656250000,185376.2656250000,164133.2187500000,170347.1718750000,38863.8203125000,,,
1.9879999969,15,195603.4218750000,190005.5156250000,197265.9375000000,182865.3593750000,185383.0156250000,164132.7031250000,170352.5937500000,38862.9335937500,,,
1.9919999968,15,195600.8125000000,189992.2656250000,197269.7656250000,182870.5468750000,185390.5312500000,164141.3125000000,170360.1250000000,38871.5429687500,,,
1.9959999968,15,195593.7031250000,190002.7812500000,197258.7968750000,182841.1406250000,185378.1875000000,164146.6250000000,170346.9062500000,38877.2578125000,,,
1.9999999967,15,195610.8750000000,190041.8593750000,197271.3281250000,182840.6093750000,185380.7343750000,164155.7187500000,170349.7187500000,38889.0039062500,,,
2.0039999967,15,195581.9687500000,190007.6250000000,197234.0156250000,182863.1718750000,185343.7031250000,164122.7343750000,170316.3593750000,38848.9335937500,,,
2.0079999969,15,195578.3437500000,189984.8593750000,197236.6406250000,182876.5000000000,185349.2187500000,164120.0937500000,170316.2500000000,38845.0703125000,,,
2.0119999968,15,195564.9062500000,189961.0156250000,197232.7031250000,182854.5312500000,185348.9375000000,164119.7187500000,170307.1875000000,38840.6992187500,,,
2.0159999968,15,195553.2656250000,189954.6875000000,197222.8906250000,182815.7500000000,185338.8125000000,164118.7031250000,170303.5625000000,38833.7773437500,,,
2.0199999968,15,195560.5781250000,189977.4062500000,197225.4062500000,182818.2343750000,185337.5625000000,164120.7968750000,170304.1718750000,38834.3164062500,,,
2.0239999967,15,195577.6406250000,189993.1250000000,197234.7343750000,182842.1093750000,185346.7031250000,164122.8593750000,170309.2187500000,38838.3632812500,,,
2.0279999967,15,195589.3437500000,189976.4843750000,197256.3281250000,182873.6875000000,185368.5156250000,164120.5781250000,170330.1406250000,38840.5664062500,,,
2.0319999969,15,195571.4687500000,189947.6562500000,197251.3125000000,182855.0312500000,185367.0937500000,164109.9687500000,170331.2343750000,38834.2890625000,,,
2.0359999968,15,195575.0468750000,189965.6562500000,197258.2031250000,182840.9531250000,185377.1250000000,164128.5156250000,170335.3437500000,38853.3320312500,,,
2.0399999968,15,195584.5312500000,189997.2187500000,197258.9531250000,182852.3281250000,185376.8593750000,164141.1093750000,170321.6562500000,38866.8242187500,,,
2.0439999967,15,195605.1562500000,190027.7187500000,197271.7500000000,182892.1875000000,185384.8750000000,164152.0468750000,170335.6875000000,38881.6015625000,,,
2.0479999967,16,195600.8906250000,190010.9375000000,197271.2968750000,182885.4843750000,185381.7656250000,164151.2343750000,170348.5937500000,38874.0390625000,,,
2.0519999966,16,195571.9218750000,189975.3906250000,197252.5000000000,182845.8906250000,185365.4843750000,164138.4218750000,170348.2656250000,38853.6523437500,,,
2.0559999966,16,195570.4218750000,189984.9687500000,197249.6250000000,182850.6875000000,185366.4687500000,164142.6093750000,170358.4375000000,38863.2304687500,,,
2.0599999966,16,195576.0625000000,190011.5000000000,197241.6875000000,182836.7656250000,185358.0000000000,164141.2343750000,170348.6406250000,38869.3164062500,,,
2.0639999965,16,195590.8906250000,190024.5625000000,197247.5625000000,182857.1093750000,185359.9218750000,164141.1250000000,170342.3125000000,38874.5195312500,,,
2.0679999965,16,195587.1406250000,189998.4843750000,197250.3281250000,182858.3125000000,185362.4687500000,164134.5000000000,170339.1718750000,38867.9492187500,,,
2.0719999967,16,195573.0000000000,189979.5781250000,197247.5625000000,182832.9375000000,185363.6875000000,164131.6875000000,170328.5781250000,38864.6523437500,,,
2.0759999966,16,195576.9218750000,189992.7968750000,197253.7812500000,182833.6406250000,185373.1562500000,164145.9375000000,170329.3125000000,38877.3125000000,,,
2.0799999966,16,195570.3750000000,189990.7031250000,197244.2812500000,182820.2500000000,185362.5312500000,164131.5781250000,170313.1875000000,38864.5156250000,,,
2.0839999965,16,195571.9531250000,189996.0156250000,197236.7500000000,182838.0000000000,185354.9062500000,164123.4843750000,170309.5468750000,38857.6757812500,,,
2.0879999965,16,195590.8125000000,189995.2187500000,197262.6093750000,182885.7031250000,185381.6250000000,164137.8593750000,170342.3437500000,38872.5351562500,,,
2.0919999967,16,195566.0000000000,189964.2656250000,197241.9531250000,182864.6875000000,185366.9531250000,164128.7656250000,170330.7500000000,38857.5156250000,,,
2.0959999966,16,195556.6875000000,189968.7656250000,197232.6250000000,182829.8750000000,185356.6562500000,164133.0625000000,170319.3906250000,38861.6718750000,,,
2.0999999966,16,195555.8437500000,189986.3906250000,197217.4843750000,182811.1562500000,185338.4375000000,164128.6562500000,170303.9687500000,38859.7968750000,,,
2.1039999966,16,195559.1093750000,189991.4062500000,197217.9687500000,182804.0000000000,185337.8750000000,164116.3125000000,170295.5156250000,38851.1054687500,,,
2.1079999965,16,195566.2187500000,189979.4218750000,197234.4687500000,182842.3437500000,185356.7812500000,164124.3593750000,170297.4218750000,38855.2617187500,,,
2.1119999965,16,195565.6875000000,189973.6718750000,197240.5312500000,182854.2031250000,185363.0156250000,164132.2812500000,170323.9687500000,38866.8242187500,,,
2.1159999967,16,195565.5937500000,189983.8906250000,197241.7187500000,182847.7656250000,185362.9062500000,164143.5468750000,170338.3750000000,38878.9218750000,,,
2.1199999966,16,195568.7968750000,190004.4375000000,197235.2187500000,182836.0781250000,185353.5156250000,164146.4687500000,170333.4687500000,38874.4414062500,,,
2.1239999966,16,195568.4375000000,190009.7187500000,197231.0937500000,182812.3437500000,185346.2500000000,164134.7656250000,170326.9218750000,38860.6796875000,,,
2.1279999965,16,195576.2187500000,189988.8281250000,197244.5625000000,182834.4062500000,185360.2187500000,164134.5781250000,170333.6562500000,38856.1484375000,,,
2.1319999965,16,195566.4843750000,189967.7187500000,197237.5781250000,182828.8281250000,185356.2812500000,164130.2656250000,170325.0937500000,38850.2734375000,,,
2.1359999967,16,195567.8750000000,189976.7343750000,197235.7500000000,182823.3281250000,185354.4531250000,164141.5312500000,170328.3125000000,38857.3554687500,,,
2.1399999966,16,195570.4218750000,189994.7656250000,197231.5156250000,182820.1093750000,185347.7500000000,164139.4375000000,170325.9843750000,38856.1210937500,,,
2.1439999966,16,195593.3281250000,190019.7500000000,197249.8906250000,182838.1406250000,185363.8437500000,164148.8281250000,170337.8593750000,38872.4843750000,,,
2.1479999966,16,195615.3593750000,190035.7968750000,197276.0468750000,182859.1093750000,185391.2031250000,164165.7812500000,170350.8125000000,38896.2734375000,,,
2.1519999965,16,195619.2500000000,190028.7968750000,197292.6718750000,182869.7656250000,185412.7187500000,164180.7968750000,170354.6562500000,38908.6132812500,,,
2.1559999965,16,195615.7812500000,190034.3750000000,197289.3750000000,182866.6562500000,185409.8437500000,164177.2656250000,170355.3750000000,38910.5703125000,,,
2.1599999967,16,195598.8125000000,190028.3906250000,197257.4375000000,182866.9531250000,185374.9687500000,164152.8750000000,170336.2343750000,38890.3984375000,,,
2.1639999966,16,195577.9062500000,190014.6406250000,197229.2343750000,182842.0312500000,185345.5781250000,164133.7031250000,170318.6562500000,38864.4882812500,,,
2.1679999966,16,195580.2187500000,190006.0156250000,197238.9687500000,182847.6875000000,185356.8125000000,164137.1406250000,170332.6093750000,38868.0039062500,,,
2.1719999965,16,195579.6562500000,189993.6875000000,197249.2500000000,182869.0468750000,185370.9531250000,164143.6562500000,170339.0156250000,38876.6953125000,,,
2.1759999965,17,195585.5312500000,190000.9218750000,197255.9218750000,182879.3437500000,185377.3593750000,164160.7031250000,170342.3437500000,38887.5585937500,,,
2.1799999964,17,195580.9218750000,190015.9218750000,197240.5000000000,182862.2500000000,185357.7031250000,164153.7343750000,170323.8125000000,38880.8789062500,,,
2.1839999964,17,195574.6406250000,190016.7187500000,197232.8593750000,182845.0000000000,185347.0468750000,164144.3437500000,170312.8125000000,38866.6093750000,,,
2.1879999964,17,195580.7031250000,190003.6875000000,197246.1718750000,182840.5000000000,185363.7343750000,164150.3281250000,170331.5625000000,38867.8437500000,,,
2.1919999963,17,195580.7031250000,189989.0781250000,197250.2656250000,182844.2343750000,185370.0625000000,164150.0937500000,170335.7656250000,38870.3359375000,,,
2.1959999963,17,195578.8437500000,189990.1250000000,197248.0468750000,182845.8906250000,185366.9062500000,164148.9687500000,170338.9375000000,38875.2460937500,,,
2.1999999965,17,195576.9375000000,190000.3125000000,197241.2500000000,182849.6406250000,185355.1718750000,164137.9062500000,170333.5781250000,38869.8828125000,,,
2.2039999964,17,195589.5312500000,190014.6562500000,197255.2031250000,182859.0156250000,185366.7968750000,164140.9687500000,170346.0781250000,38874.2265625000,,,
2.2079999964,17,195603.7187500000,190012.2187500000,197282.6093750000,182861.3437500000,185395.8906250000,164149.5312500000,170365.4062500000,38883.3476562500,,,
2.2119999963,17,195597.4687500000,189994.4843750000,197287.3125000000,182885.4843750000,185401.2031250000,164148.8281250000,170371.9843750000,38881.3867187500,,,
2.2159999963,17,195587.6406250000,189993.3125000000,197275.2343750000,182885.0000000000,185388.2812500000,164148.1250000000,170365.2187500000,38878.7578125000,,,
2.2199999965,17,195587.2656250000,190013.1562500000,197262.2343750000,182869.9843750000,185370.6875000000,164147.7812500000,170351.2187500000,38879.0273437500,,,
2.2239999964,17,195601.8906250000,190037.7343750000,197269.4218750000,182875.5625000000,185376.0937500000,164160.2031250000,170358.2031250000,38890.2109375000,,,
2.2279999964,17,195589.0468750000,190008.3906250000,197262.2656250000,182869.0156250000,185372.5000000000,164146.1406250000,170350.8437500000,38869.7460937500,,,
2.2319999964,17,195545.7812500000,189953.6093750000,197221.7343750000,182804.5625000000,185339.5625000000,164118.8437500000,170319.7812500000,38832.9726562500,,,
2.2359999963,17,195538.4531250000,189953.2656250000,197214.7500000000,182803.6250000000,185330.7656250000,164121.2812500000,170324.7968750000,38838.6601562500,,,
2.2399999963,17,195563.5312500000,189987.8437500000,197231.4375000000,182836.5000000000,185341.0156250000,164145.5625000000,170342.1093750000,38860.8164062500,,,
2.2439999965,17,195567.7500000000,189994.7031250000,197229.4531250000,182834.2500000000,185337.5312500000,164139.0937500000,170325.5000000000,38851.6406250000,,,
2.2479999964,17,195573.3750000000,189983.9218750000,197241.0625000000,182839.7968750000,185353.0937500000,164140.4531250000,170314.0781250000,38851.8281250000,,,
2.2519999964,17,195564.9218750000,189963.8593750000,197238.5781250000,182844.6562500000,185354.1093750000,164134.7500000000,170315.7656250000,38851.0000000000,,,
2.2559999963,17,195556.1093750000,189970.3281250000,197223.1718750000,182838.2500000000,185339.4843750000,164134.2031250000,170319.0312500000,38856.6562500000,,,
2.2599999963,17,195566.0625000000,189997.8125000000,197225.1562500000,182844.1718750000,185340.0781250000,164145.5312500000,170323.5937500000,38869.4257812500,,,
2.2639999965,17,195551.1718750000,189984.5625000000,197212.0156250000,182811.7812500000,185325.7500000000,164117.6093750000,170309.1406250000,38844.3203125000,,,
2.2679999964,17,195547.6875000000,189968.2500000000,197214.1093750000,182824.0312500000,185330.6406250000,164109.8750000000,170309.5937500000,38837.5351562500,,,
2.2719999964,17,195541.2187500000,189949.7187500000,197214.6562500000,182833.6406250000,185334.3437500000,164112.6406250000,170308.4687500000,38839.8671875000,,,
2.2759999963,17,195544.2968750000,189959.7500000000,197217.7031250000,182846.7031250000,185338.8437500000,164129.1718750000,170315.4218750000,38854.1914062500,,,
2.2799999963,17,195546.4687500000,189982.7343750000,197208.8750000000,182820.2500000000,185327.4218750000,164127.6875000000,170312.2187500000,38857.6250000000,,,
2.2839999963,17,195559.5156250000,189993.6250000000,197215.2343750000,182821.5625000000,185333.8593750000,164132.3906250000,170322.8750000000,38860.9492187500,,,
2.2879999964,17,195571.0468750000,189981.7031250000,197233.2031250000,182840.5000000000,185353.6250000000,164134.9843750000,170334.4843750000,38861.6992187500,,,
2.2919999964,17,195570.1875000000,189967.2187500000,197248.1562500000,182845.0000000000,185366.1718750000,164138.4687500000,170337.3750000000,38867.5195312500,,,
2.2959999964,17,195572.4687500000,189975.9531250000,197255.6562500000,182844.4375000000,185370.4218750000,164148.3750000000,170342.6406250000,38876.2109375000,,,
2.2999999963,17,195582.3437500000,189996.7968750000,197255.7187500000,182842.4843750000,185366.9062500000,164151.3750000000,170342.7500000000,38879.5898437500,,,
2.3039999963,18,195594.5156250000,190013.9375000000,197257.4062500000,182857.5937500000,185366.2500000000,164149.6562500000,170346.8750000000,38882.4609375000,,,
2.3079999962,18,195607.0468750000,190011.5156250000,197274.7031250000,182875.2031250000,185386.8906250000,164161.1875000000,170360.3125000000,38894.7460937500,,,
2.3119999962,18,195587.2656250000,189983.5781250000,197264.0000000000,182851.3437500000,185381.5937500000,164150.2187500000,170338.7500000000,38885.1445312500,,,
2.3159999961,18,195572.7031250000,189978.4843750000,197248.0468750000,182827.4062500000,185368.0000000000,164143.4687500000,170328.9531250000,38881.1718750000,,,
2.3199999961,18,195573.1875000000,189991.1406250000,197243.2656250000,182825.1250000000,185361.3437500000,164138.6406250000,170327.1093750000,38880.5312500000,,,
2.3239999961,18,195590.0625000000,189999.5625000000,197258.0156250000,182845.3593750000,185376.6875000000,164142.6250000000,170344.1718750000,38886.5117187500,,,
2.3279999963,18,195620.2343750000,190010.3437500000,197289.2187500000,182863.7500000000,185410.5937500000,164165.5312500000,170374.5781250000,38910.5703125000,,,
2.3319999962,18,195616.3125000000,189998.9375000000,197282.9843750000,182860.1406250000,185409.9843750000,164170.7187500000,170376.6562500000,38912.0468750000,,,
2.3359999962,18,195602.6093750000,189992.7656250000,197264.4843750000,182853.2656250000,185394.2656250000,164166.0000000000,170361.8906250000,38907.2695312500,,,
2.3399999961,18,195613.6718750000,190017.0468750000,197269.8437500000,182863.9218750000,185395.9218750000,164171.3593750000,170361.9531250000,38915.9335937500,,,
2.3439999961,18,195624.1562500000,190032.2812500000,197275.5312500000,182861.1875000000,185396.3281250000,164173.3750000000,170357.8125000000,38920.6835937500,,,
2.3479999963,18,195630.5625000000,190027.0781250000,197288.2187500000,182858.9218750000,185406.5468750000,164178.0156250000,170369.4062500000,38925.1328125000,,,
2.3519999962,18,195647.0625000000,190024.4843750000,197314.5312500000,182873.6562500000,185432.2343750000,164202.2343750000,170396.8437500000,38943.4531250000,,,
2.3559999962,18,195642.8750000000,190035.4687500000,197305.3593750000,182863.4843750000,185425.1875000000,164202.2343750000,170387.8281250000,38950.8828125000,,,
2.3599999961,18,195617.2656250000,190030.8593750000,197269.0156250000,182847.7968750000,185389.7812500000,164172.8593750000,170356.0468750000,38927.0117187500,,,
2.3639999961,18,195627.9062500000,190039.8750000000,197276.1718750000,182864.7812500000,185396.9375000000,164172.1562500000,170356.7500000000,38930.9531250000,,,
2.3679999961,18,195636.5468750000,190029.0625000000,197290.4218750000,182874.8906250000,185413.1093750000,164177.5312500000,170358.2812500000,38935.2460937500,,,
2.3719999962,18,195615.9218750000,189999.2968750000,197276.2031250000,182859.9218750000,185401.1250000000,164171.1093750000,170347.5000000000,38920.6289062500,,,
2.3759999962,18,195613.3750000000,190002.9687500000,197277.8906250000,182860.3281250000,185400.8281250000,164176.5312500000,170355.1875000000,38923.4726562500,,,
2.3799999962,18,195632.5468750000,190044.7031250000,197293.0468750000,182862.5468750000,185409.4062500000,164189.2500000000,170367.4531250000,38940.4765625000,,,
2.3839999961,18,195634.0781250000,190044.6718750000,197295.6250000000,182849.2968750000,185409.9843750000,164179.9375000000,170351.4843750000,38930.7656250000,,,
2.3879999961,18,195627.1250000000,190021.9531250000,197294.6250000000,182850.0000000000,185413.4687500000,164171.4843750000,170355.7812500000,38922.6406250000,,,
2.3919999963,18,195624.7968750000,190006.2656250000,197297.2031250000,182860.5625000000,185418.9062500000,164175.8593750000,170378.0468750000,38930.0703125000,,,
2.3959999962,18,195616.1250000000,190005.9375000000,197283.6406250000,182845.1093750000,185405.6093750000,164178.1718750000,170385.1562500000,38933.5820312500,,,
2.3999999962,18,195615.6562500000,190026.0625000000,197269.5468750000,182833.6406250000,185387.5312500000,164173.9375000000,170369.6718750000,38929.7734375000,,,
2.4039999961,18,195623.8281250000,190034.6406250000,197270.9687500000,182849.7031250000,185386.7500000000,164171.7656250000,170357.0625000000,38927.9257812500,,,
2.4079999961,18,195641.1250000000,190038.1875000000,197292.4062500000,182871.6718750000,185409.1718750000,164182.5156250000,170377.6718750000,38939.6718750000,,,
2.4119999961,18,195619.4062500000,189995.6093750000,197284.5156250000,182868.1562500000,185404.4843750000,164167.2031250000,170376.0000000000,38917.6796875000,,,
2.4159999962,18,195605.6406250000,189999.5781250000,197273.2500000000,182865.6406250000,185396.6250000000,164170.8281250000,170365.7343750000,38920.0664062500,,,
2.4199999962,18,195620.5781250000,190036.7031250000,197281.1718750000,182886.0156250000,185402.0625000000,164183.8281250000,170369.6562500000,38936.6679687500,,,
2.4239999962,18,195622.8593750000,190036.6562500000,197275.5312500000,182876.7656250000,185394.5312500000,164177.3437500000,170358.0937500000,38923.2304687500,,,
2.4279999961,18,195633.4531250000,190026.2187500000,197288.9687500000,182870.8593750000,185409.6250000000,164181.8125000000,170373.1093750000,38924.6796875000,,,
2.4319999961,19,195632.7343750000,190017.6093750000,197298.4687500000,182857.9375000000,185422.0468750000,164187.7968750000,170385.8281250000,38931.8671875000,,,
2.4359999960,19,195625.7343750000,190010.1875000000,197300.7500000000,182854.4218750000,185425.5000000000,164185.1250000000,170383.8593750000,38929.9375000000,,,
2.4399999960,19,195619.0781250000,190021.9062500000,197279.8750000000,182841.5156250000,185407.5156250000,164179.1406250000,170362.0312500000,38925.5351562500,,,
2.4439999959,19,195616.0468750000,190030.6406250000,197267.4375000000,182845.7656250000,185392.5625000000,164176.6718750000,170352.4218750000,38920.8437500000,,,
2.4479999959,19,195632.7812500000,190032.8750000000,197295.2812500000,182880.7656250000,185416.7968750000,164186.1875000000,170382.7968750000,38932.6171875000,,,
2.4519999959,19,195650.2812500000,190043.4687500000,197327.8125000000,182875.3125000000,185446.4218750000,164209.5781250000,170410.7656250000,38954.1289062500,,,
2.4559999960,19,195655.7500000000,190067.3125000000,197334.4062500000,182877.3281250000,185452.4062500000,164226.1250000000,170408.1093750000,38973.1992187500,,,
2.4599999960,19,195598.7500000000,190029.3906250000,197262.0625000000,182843.8281250000,185387.5781250000,164175.0625000000,170330.2500000000,38921.2460937500,,,
2.4639999960,19,195599.8437500000,190019.4843750000,197272.3750000000,182829.9375000000,185392.3750000000,164159.5000000000,170335.6093750000,38905.9296875000,,,
2.4679999959,19,195630.9062500000,190041.0312500000,197304.9531250000,182855.6562500000,185422.2031250000,164189.5937500000,170366.0468750000,38929.3437500000,,,
2.4719999959,19,195601.4062500000,189983.4062500000,197281.2812500000,182868.7187500000,185405.3437500000,164163.9843750000,170353.4531250000,38898.7148437500,,,
2.4759999961,19,195573.1562500000,189960.4843750000,197249.3593750000,182833.3125000000,185373.6562500000,164150.0937500000,170341.4375000000,38884.8750000000,,,
2.4799999960,19,195579.7656250000,189988.1875000000,197249.6562500000,182805.9843750000,185366.9843750000,164155.1250000000,170347.4375000000,38895.2265625000,,,
2.4839999960,19,195605.7812500000,190016.0000000000,197272.9062500000,182826.0468750000,185384.0625000000,164165.0000000000,170359.6250000000,38907.5937500000,,,
2.4879999959,19,195628.7656250000,190022.5781250000,197302.6718750000,182854.3437500000,185416.8906250000,164180.4843750000,170381.5781250000,38926.3398437500,,,
2.4919999959,19,195627.9843750000,190009.5625000000,197311.2343750000,182859.4375000000,185430.0156250000,164186.3750000000,170390.0000000000,38930.4726562500,,,
2.4959999959,19,195595.7968750000,189993.5312500000,197270.0312500000,182838.5937500000,185394.2343750000,164168.7343750000,170355.2656250000,38912.1250000000,,,
2.4999999960,19,195593.9531250000,190013.1875000000,197255.2500000000,182826.8750000000,185377.6093750000,164166.0937500000,170338.9687500000,38912.5820312500,,,
2.5039999960,19,195594.7031250000,190017.8750000000,197251.5312500000,182839.3437500000,185373.9843750000,164168.5937500000,170336.2031250000,38904.0273437500,,,
2.5079999960,19,195602.7968750000,190006.5937500000,197263.8750000000,182874.7812500000,185388.3593750000,164171.9687500000,170352.8906250000,38905.1796875000,,,
2.5119999959,19,195610.2343750000,190001.2500000000,197275.3125000000,182881.6406250000,185403.3281250000,164183.1875000000,170365.5781250000,38917.3281250000,,,
2.5159999959,19,195602.4062500000,189994.8906250000,197269.2031250000,182866.1406250000,185396.8593750000,164183.8906250000,170357.9218750000,38912.3671875000,,,
2.5199999961,19,195597.6718750000,190007.5000000000,197255.1562500000,182842.0312500000,185380.0781250000,164170.8750000000,170327.5625000000,38905.3125000000,,,
2.5239999960,19,195627.9062500000,190043.7343750000,197274.3750000000,182870.3281250000,185392.8593750000,164184.1718750000,170341.2500000000,38926.5546875000,,,
2.5279999960,19,195650.7812500000,190058.3281250000,197296.0781250000,182910.8750000000,185412.0937500000,164203.6718750000,170375.7968750000,38948.3359375000,,,
2.5319999959,19,195609.6718750000,190002.0312500000,197269.9531250000,182854.6875000000,185392.7500000000,164178.0312500000,170364.0625000000,38919.2343750000,,,
2.5359999959,19,195590.5156250000,189989.2656250000,197256.4062500000,182807.0312500000,185382.3437500000,164166.3906250000,170344.1093750000,38912.1250000000,,,
2.5399999958,19,195589.1562500000,190004.9218750000,197253.0312500000,182802.2500000000,185376.3750000000,164161.5937500000,170336.6875000000,38910.3007812500,,,
2.5439999960,19,195583.3593750000,190005.0000000000,197239.4375000000,182821.4375000000,185356.1250000000,164146.5937500000,170320.0781250000,38893.0820312500,,,
2.5479999960,19,195600.5781250000,190005.0781250000,197260.4843750000,182849.3750000000,185376.1875000000,164157.0156250000,170336.6250000000,38906.1992187500,,,
2.5519999960,19,195608.1093750000,189994.4375000000,197283.3593750000,182860.4843750000,185402.1250000000,164168.7500000000,170359.0312500000,38919.9023437500,,,
2.5559999959,19,195609.7500000000,189998.6406250000,197289.9843750000,182843.3437500000,185408.8281250000,164182.9687500000,170357.0156250000,38931.0078125000,,,
2.5599999959,20,195594.5156250000,190007.5312500000,197267.2812500000,182807.3750000000,185383.3437500000,164169.7187500000,170324.9375000000,38913.3867187500,,,
2.5639999958,20,195600.4687500000,190020.2968750000,197270.0312500000,182830.2500000000,185382.4375000000,164167.0625000000,170332.7343750000,38910.7578125000,,,
2.5679999958,20,195622.9218750000,190028.2031250000,197295.6250000000,182864.1093750000,185407.3437500000,164188.0937500000,170375.6250000000,38928.4882812500,,,
2.5719999957,20,195614.1250000000,190003.0781250000,197291.3281250000,182870.3750000000,185404.9687500000,164185.4375000000,170383.5625000000,38924.1679687500,,,
2.5759999957,20,195599.3437500000,189984.5156250000,197279.6093750000,182866.0156250000,185393.6718750000,164173.2968750000,170373.4843750000,38913.9492187500,,,
2.5799999957,20,195621.0156250000,190026.4375000000,197292.6250000000,182852.2500000000,185405.3437500000,164193.2968750000,170376.0312500000,38938.9765625000,,,
2.5839999958,20,195621.5781250000,190031.9375000000,197289.0468750000,182838.7812500000,185401.7187500000,164174.3281250000,170357.8125000000,38931.2500000000,,,
2.5879999958,20,195636.7343750000,190029.8125000000,197308.2500000000,182868.1875000000,185424.2968750000,164184.2812500000,170362.9375000000,38939.0000000000,,,
2.5919999958,20,195636.2968750000,190015.0156250000,197311.6718750000,182888.4062500000,185432.9062500000,164183.7500000000,170380.3437500000,38943.6132812500,,,
2.5959999957,20,195614.1718750000,190002.9062500000,197283.9843750000,182869.3593750000,185409.8125000000,164181.9062500000,170379.0937500000,38937.0976562500,,,
2.5999999957,20,195608.8125000000,190031.7656250000,197267.3281250000,182854.3125000000,185391.2031250000,164190.6718750000,170369.2187500000,38942.9726562500,,,
2.6039999959,20,195610.9843750000,190037.6406250000,197267.6250000000,182859.0156250000,185387.4531250000,164189.2812500000,170364.9843750000,38936.1328125000,,,
2.6079999958,20,195621.6093750000,190026.1875000000,197285.6718750000,182888.4843750000,185404.8593750000,164188.1250000000,170369.5468750000,38936.5625000000,,,
2.6119999958,20,195624.0156250000,190020.3437500000,197295.5468750000,182897.4218750000,185420.1406250000,164194.6093750000,170366.5312500000,38944.5546875000,,,
2.6159999957,20,195601.1718750000,190011.1250000000,197273.6250000000,182860.2968750000,185400.5156250000,164186.6406250000,170350.4375000000,38932.7265625000,,,
2.6199999957,20,195593.1250000000,190016.0781250000,197254.4062500000,182823.3906250000,185379.2187500000,164176.6093750000,170340.6250000000,38921.9414062500,,,
2.6239999956,20,195599.4218750000,190021.2343750000,197259.1406250000,182835.5312500000,185378.5156250000,164172.4843750000,170345.5312500000,38916.7656250000,,,
2.6279999958,20,195614.0625000000,190015.7812500000,197282.4843750000,182872.6093750000,185400.8281250000,164176.3125000000,170365.9218750000,38920.3593750000,,,
2.6319999958,20,195611.5468750000,189999.2343750000,197296.9687500000,182879.5468750000,185417.7500000000,164181.6875000000,170382.7343750000,38924.0351562500,,,
2.6359999957,20,195596.9843750000,189988.2343750000,197292.3750000000,182855.6875000000,185415.8750000000,164178.8750000000,170381.2031250000,38921.3789062500,,,
2.6399999957,20,195616.9062500000,190032.5468750000,197304.1875000000,182851.2031250000,185424.6562500000,164188.0468750000,170378.9843750000,38946.7812500000,,,
2.6439999957,20,195634.9375000000,190061.8593750000,197306.9218750000,182842.2500000000,185426.3437500000,164196.1718750000,170374.5312500000,38955.8710937500,,,
2.6479999959,20,195603.1718750000,189998.2656250000,197275.7968750000,182838.6562500000,185401.0937500000,164168.7343750000,170356.1562500000,38915.0507812500,,,
2.6519999958,20,195590.8125000000,189977.8593750000,197267.8593750000,182843.6875000000,185397.7656250000,164166.1250000000,170356.1875000000,38913.4414062500,,,
2.6559999958,20,195588.1875000000,189981.5156250000,197268.6093750000,182841.1406250000,185396.2968750000,164169.3750000000,170362.8906250000,38920.4140625000,,,
2.6599999957,20,195596.1250000000,190008.2812500000,197270.6562500000,182840.9843750000,185393.5937500000,164175.5468750000,170361.9531250000,38927.2539062500,,,
2.6639999957,20,195598.2343750000,190020.4218750000,197271.0312500000,182835.5625000000,185391.2343750000,164171.2968750000,170356.1875000000,38924.6523437500,,,
2.6679999956,20,195601.2187500000,190011.7343750000,197280.0156250000,182850.4843750000,185402.3906250000,164176.0312500000,170366.3281250000,38926.8515625000,,,
2.6719999958,20,195611.8125000000,190015.2187500000,197296.3281250000,182873.2812500000,185422.6093750000,164200.6250000000,170386.8906250000,38948.9257812500,,,
2.6759999958,20,195619.1093750000,190030.8593750000,197304.0000000000,182883.3125000000,185431.6250000000,164218.2500000000,170401.1875000000,38966.9765625000,,,
2.6799999957,20,195619.9375000000,190045.9062500000,197298.0156250000,182883.0468750000,185424.2500000000,164217.2968750000,170394.6718750000,38964.6445312500,,,
2.6839999957,20,195636.4062500000,190067.2812500000,197307.5625000000,182874.3437500000,185428.8125000000,164223.0468750000,170394.6718750000,38969.1757812500,,,
2.6879999957,21,195613.1250000000,190028.1250000000,197282.7812500000,182847.6406250000,185407.4531250000,164193.2968750000,170364.2500000000,38937.3671875000,,,
2.6919999956,21,195608.9218750000,190010.5781250000,197286.3437500000,182856.4375000000,185415.3125000000,164188.1562500000,170357.4687500000,38937.3398437500,,,
2.6959999956,21,195598.5156250000,189996.9375000000,197278.0000000000,182861.2656250000,185409.2187500000,164183.3750000000,170349.0000000000,38933.2890625000,,,
2.6999999955,21,195593.9843750000,190014.7343750000,197262.4531250000,182850.5000000000,185391.1250000000,164182.4687500000,170346.5781250000,38929.5585937500,,,
2.7039999955,21,195599.0000000000,190026.0937500000,197263.9531250000,182854.3437500000,185388.7656250000,164182.8125000000,170354.2031250000,38926.6640625000,,,
2.7079999954,21,195609.6718750000,190024.0781250000,197281.2968750000,182867.7812500000,185406.5156250000,164186.7031250000,170364.1562500000,38932.7265625000,,,
2.7119999956,21,195610.3437500000,190015.5937500000,197289.3281250000,182872.9531250000,185415.6562500000,164187.5000000000,170370.1093750000,38939.3789062500,,,
2.7159999956,21,195595.0781250000,189997.5000000000,197278.8281250000,182862.1406250000,185405.1718750000,164176.6406250000,170363.6875000000,38930.6054687500,,,
2.7199999955,21,195603.8281250000,190024.0468750000,197281.7031250000,182864.9687500000,185406.6250000000,164184.4218750000,170366.7031250000,38942.9726562500,,,
2.7239999955,21,195632.0625000000,190057.8437500000,197304.2031250000,182894.6562500000,185426.0468750000,164204.1406250000,170383.4843750000,38965.1796875000,,,
2.7279999955,21,195630.0468750000,190033.7500000000,197306.5625000000,182893.3906250000,185428.0781250000,164199.3593750000,170381.8281250000,38953.9687500000,,,
2.7319999957,21,195618.5468750000,190011.3281250000,197299.8906250000,182881.9687500000,185421.6250000000,164194.0781250000,170376.0312500000,38947.7734375000,,,
2.7359999956,21,195618.1250000000,190020.9062500000,197300.5937500000,182872.4218750000,185419.5468750000,164204.8125000000,170376.8437500000,38958.0976562500,,,
2.7399999956,21,195613.8593750000,190029.5937500000,197296.3281250000,182863.6718750000,185409.5000000000,164199.6562500000,170380.0625000000,38952.8164062500,,,
2.7439999955,21,195623.1562500000,190047.6718750000,197302.4843750000,182874.1406250000,185413.5937500000,164206.5156250000,170383.6250000000,38957.3203125000,,,
2.7479999955,21,195652.1875000000,190051.4531250000,197336.0781250000,182915.1406250000,185453.2968750000,164230.1562500000,170402.0781250000,38973.6835937500,,,
2.7519999954,21,195637.1093750000,190018.9218750000,197326.7343750000,182902.8281250000,185453.4843750000,164223.0156250000,170393.7031250000,38961.5859375000,,,
2.7559999956,21,195619.2968750000,190012.2656250000,197308.9062500000,182878.1093750000,185437.3125000000,164214.4843750000,170395.5000000000,38956.0859375000,,,
2.7599999956,21,195619.7812500000,190035.3593750000,197299.3750000000,182886.5312500000,185422.7500000000,164212.0156250000,170389.7968750000,38955.3632812500,,,
2.7639999955,21,195646.0625000000,190065.9218750000,197317.9687500000,182908.4687500000,185434.5781250000,164221.1406250000,170397.2812500000,38970.4101562500,,,
2.7679999955,21,195641.5625000000,190049.8437500000,197319.2343750000,182851.9218750000,185437.4218750000,164218.7500000000,170397.8125000000,38963.8671875000,,,
2.7719999955,21,195630.5937500000,190031.4218750000,197316.5781250000,182842.9687500000,185439.8906250000,164216.0156250000,170392.6875000000,38964.4570312500,,,
2.7759999956,21,195618.1718750000,190021.3593750000,197299.8125000000,182866.0156250000,185424.8125000000,164208.1093750000,170385.3593750000,38962.8750000000,,,
2.7799999956,21,195607.5781250000,190028.9218750000,197276.0468750000,182858.7656250000,185398.0156250000,164201.3437500000,170367.4531250000,38953.3789062500,,,
2.7839999956,21,195612.2968750000,190046.2031250000,197271.7031250000,182870.4843750000,185391.5781250000,164195.0625000000,170367.8593750000,38953.2968750000,,,
2.7879999955,21,195626.8125000000,190046.2343750000,197289.1875000000,182882.3125000000,185410.6250000000,164199.2812500000,170382.4687500000,38961.0781250000,,,
2.7919999955,21,195619.9375000000,190028.1250000000,197291.3593750000,182874.7031250000,185416.4687500000,164202.3125000000,170381.4843750000,38954.9335937500,,,
2.7959999954,21,195604.5156250000,190007.7968750000,197280.5312500000,182848.2812500000,185407.1406250000,164193.8906250000,170370.7968750000,38941.5507812500,,,
2.7999999956,21,195611.5781250000,190022.5468750000,197282.0000000000,182856.2968750000,185406.3281250000,164190.3281250000,170372.0156250000,38944.1523437500,,,
2.8039999956,21,195625.8125000000,190039.9843750000,197294.5312500000,182862.0625000000,185414.8281250000,164195.1718750000,170369.8906250000,38948.8437500000,,,
2.8079999955,21,195638.0781250000,190038.5312500000,197309.9218750000,182884.8437500000,185432.2968750000,164199.1718750000,170370.7968750000,38954.3984375000,,,
2.8119999955,21,195629.2500000000,190022.4843750000,197310.5625000000,182880.3125000000,185437.3125000000,164202.6250000000,170379.0625000000,38956.7031250000,,,
2.8159999955,22,195604.4843750000,190011.5468750000,197288.7656250000,182848.8906250000,185415.9843750000,164197.6406250000,170377.7031250000,38949.9726562500,,,
2.8199999954,22,195595.4531250000,190022.3593750000,197274.2500000000,182836.1875000000,185398.0937500000,164194.8593750000,170374.8750000000,38948.4960937500,,,
2.8239999954,22,195600.7343750000,190036.8906250000,197272.1250000000,182835.8281250000,185395.0625000000,164199.2812500000,170369.0625000000,38950.5351562500,,,
2.8279999953,22,195599.4687500000,190020.1250000000,197275.1093750000,182848.2812500000,185397.7187500000,164185.0312500000,170363.4218750000,38938.7851562500,,,
2.8319999953,22,195595.2343750000,189997.9531250000,197281.6718750000,182856.2187500000,185404.3750000000,164180.1562500000,170360.1562500000,38936.8007812500,,,
2.8359999952,22,195596.3125000000,190005.0000000000,197289.2968750000,182836.0000000000,185409.4375000000,164186.7343750000,170358.2187500000,38946.9960937500,,,
2.8399999954,22,195589.2812500000,190013.6406250000,197272.1875000000,182834.2187500000,185389.2500000000,164174.5156250000,170351.2187500000,38938.6796875000,,,
2.8439999954,22,195591.2343750000,190022.6875000000,197262.2031250000,182828.1875000000,185379.7968750000,164174.3125000000,170347.1406250000,38935.3007812500,,,
2.8479999953,22,195600.8125000000,190021.7343750000,197269.5000000000,182849.5625000000,185388.7812500000,164181.5468750000,170347.9687500000,38940.6093750000,,,
2.8519999953,22,195593.3906250000,189998.6718750000,197270.4375000000,182845.4687500000,185392.9218750000,164175.7031250000,170354.0625000000,38940.3945312500,,,
2.8559999953,22,195584.5312500000,189990.0312500000,197265.5312500000,182843.3750000000,185390.8593750000,164176.5937500000,170356.1250000000,38943.0234375000,,,
2.8599999954,22,195599.1562500000,190025.7968750000,197273.3125000000,182865.8281250000,185396.0000000000,164190.0000000000,170355.9687500000,38958.6367187500,,,
2.8639999954,22,195611.3281250000,190042.9531250000,197280.4218750000,182867.0781250000,185402.0312500000,164188.8125000000,170351.3906250000,38958.7695312500,,,
2.8679999954,22,195612.1093750000,190036.7812500000,197276.6093750000,182850.8281250000,185407.6718750000,164199.0312500000,170359.7031250000,38957.6953125000,,,
2.8719999953,22,195596.4375000000,190005.6718750000,197269.0937500000,182835.6406250000,185401.2812500000,164190.3437500000,170368.2343750000,38945.1718750000,,,
2.8759999953,22,195579.3125000000,189980.5156250000,197259.4218750000,182829.4218750000,185388.1093750000,164175.6562500000,170367.5000000000,38932.0273437500,,,
2.8799999952,22,195575.6250000000,189990.2187500000,197252.1250000000,182823.5000000000,185374.1093750000,164174.8437500000,170354.8750000000,38929.2656250000,,,
2.8839999954,22,195596.0156250000,190020.6718750000,197266.7343750000,182819.5000000000,185384.5156250000,164181.7187500000,170354.7031250000,38944.4179687500,,,
2.8879999954,22,195613.5625000000,190023.7812500000,197282.2968750000,182836.1875000000,185400.5625000000,164189.3593750000,170365.2968750000,38953.4843750000,,,
2.8919999953,22,195606.5000000000,189995.3281250000,197282.5625000000,182839.3437500000,185403.0625000000,164182.9375000000,170362.9687500000,38945.6250000000,,,
2.8959999953,22,195600.2031250000,189995.2187500000,197276.9218750000,182834.7656250000,185402.5781250000,164187.9531250000,170360.5000000000,38951.6601562500,,,
2.8999999953,22,195607.3125000000,190013.9375000000,197278.7343750000,182852.4687500000,185401.7968750000,164189.5156250000,170359.8906250000,38955.6328125000,,,
2.9039999954,22,195611.9531250000,190021.0156250000,197281.9218750000,182845.0625000000,185401.4531250000,164181.5468750000,170347.8906250000,38946.1914062500,,,
2.9079999954,22,195634.8750000000,190032.5000000000,197314.3437500000,182867.5625000000,185435.2187500000,164200.3281250000,170373.3437500000,38961.9335937500,,,
2.9119999954,22,195632.6562500000,190022.0937500000,197317.1875000000,182886.0781250000,185440.4687500000,164207.4531250000,170394.0000000000,38967.0312500000,,,
2.9159999953,22,195606.2031250000,190017.9843750000,197282.9843750000,182846.7968750000,185408.2656250000,164206.8125000000,170381.3437500000,38960.2460937500,,,
2.9199999953,22,195576.4375000000,190008.6250000000,197249.0937500000,182813.7031250000,185368.5625000000,164179.4531250000,170353.7656250000,38933.0742187500,,,
2.9239999952,22,195573.0781250000,190001.9218750000,197244.3906250000,182836.2343750000,185356.5468750000,164155.3125000000,170338.9062500000,38917.0625000000,,,
2.9279999954,22,195601.3593750000,190015.0625000000,197271.7500000000,182867.5937500000,185382.2656250000,164180.3437500000,170360.5000000000,38937.2578125000,,,
2.9319999954,22,195585.2031250000,189985.3437500000,197259.5781250000,182836.4843750000,185374.8906250000,164180.6875000000,170349.3750000000,38928.3515625000,,,
2.9359999953,22,195567.6093750000,189971.9843750000,197251.3125000000,182812.8750000000,185367.0625000000,164172.5156250000,170343.4687500000,38922.3710937500,,,
2.9399999953,22,195560.7656250000,189985.5625000000,197240.6718750000,182807.8281250000,185353.2187500000,164163.4531250000,170333.3906250000,38918.4296875000,,,
2.9439999952,23,195577.2656250000,190010.9531250000,197249.4375000000,182836.0468750000,185360.5781250000,164166.9375000000,170339.1718750000,38929.2929687500,,,
2.9479999952,23,195597.7031250000,190014.7968750000,197272.9843750000,182872.8437500000,185391.3906250000,164182.3593750000,170360.9531250000,38945.4101562500,,,
2.9519999952,23,195596.7343750000,190010.1875000000,197278.5156250000,182856.0781250000,185404.6093750000,164186.2187500000,170366.7187500000,38954.2382812500,,,
2.9559999951,23,195596.2812500000,190021.9531250000,197280.0156250000,182837.3906250000,185408.0937500000,164194.2968750000,170378.5312500000,38967.0859375000,,,
2.9599999951,23,195577.4218750000,190003.5312500000,197259.7656250000,182810.3750000000,185384.4687500000,164171.2968750000,170363.6718750000,38937.9570312500,,,
