Time:250Hz,Epoch,Channel 1,Channel 2,Channel 3,Channel 4,Channel 5,Channel 6,Channel 7,Channel 8,Event Id,Event Date,Event Duration
0.0000000000,0,105763.3750000000,97835.2734375000,162646.2500000000,147124.8125000000,0.0000000000,0.0000000000,0.0000000000,0.0000000000,,,
0.0040000000,0,105774.1640625000,97849.9453125000,162664.6875000000,147145.0156250000,0.0000000000,0.0000000000,0.0000000000,0.0000000000,,,
0.0079999999,0,105796.2656250000,97874.8906250000,162690.6718750000,147141.5468750000,0.0000000000,0.0000000000,0.0000000000,0.0000000000,,,
0.0119999999,0,105795.8046875000,97878.3281250000,162686.8281250000,147150.8593750000,0.0000000000,0.0000000000,0.0000000000,0.0000000000,,,
0.0159999998,0,105777.1406250000,97860.7578125000,162666.9843750000,147148.5625000000,0.0000000000,0.0000000000,0.0000000000,0.0000000000,,,
0.0199999998,0,105770.6718750000,97851.2343750000,162660.4218750000,147138.6093750000,0.0000000000,0.0000000000,0.0000000000,0.0000000000,,,
0.0240000000,0,105782.4765625000,97859.0156250000,162677.1562500000,147130.1250000000,0.0000000000,0.0000000000,0.0000000000,0.0000000000,,,
0.0279999999,0,105784.0078125000,97858.6093750000,162686.0312500000,147133.3750000000,0.0000000000,0.0000000000,0.0000000000,0.0000000000,,,
0.0319999999,0,105815.5234375000,97882.5078125000,162701.7500000000,147171.0781250000,0.0000000000,0.0000000000,0.0000000000,0.0000000000,,,
0.0359999998,0,105786.1250000000,97853.3046875000,162665.9375000000,147164.3593750000,0.0000000000,0.0000000000,0.0000000000,0.0000000000,,,
0.0399999998,0,105735.0312500000,97812.5625000000,162616.9375000000,147152.9843750000,0.0000000000,0.0000000000,0.0000000000,0.0000000000,,,
0.0440000000,0,105739.9062500000,97816.8750000000,162634.2031250000,147142.3593750000,0.0000000000,0.0000000000,0.0000000000,0.0000000000,,,
0.0480000000,0,105746.6171875000,97816.5546875000,162637.3281250000,147114.0312500000,0.0000000000,0.0000000000,0.0000000000,0.0000000000,,,
0.0519999999,0,105748.5703125000,97822.2109375000,162638.5000000000,147101.2343750000,0.0000000000,0.0000000000,0.0000000000,0.0000000000,,,
0.0559999999,0,105727.4921875000,97816.2343750000,162624.6093750000,147127.9062500000,0.0000000000,0.0000000000,0.0000000000,0.0000000000,,,
0.0599999998,0,105729.1015625000,97816.7968750000,162625.0312500000,147141.5781250000,0.0000000000,0.0000000000,0.0000000000,0.0000000000,,,
0.0639999998,0,105777.2421875000,97868.2968750000,162669.7968750000,147170.7343750000,0.0000000000,0.0000000000,0.0000000000,0.0000000000,,,
0.0680000000,0,105786.8515625000,97866.5234375000,162681.1250000000,147185.3750000000,0.0000000000,0.0000000000,0.0000000000,0.0000000000,,,
0.0719999999,0,105802.9687500000,97868.3515625000,162696.3593750000,147172.9375000000,0.0000000000,0.0000000000,0.0000000000,0.0000000000,,,
0.0759999999,0,105745.9453125000,97815.8046875000,162640.5468750000,147143.5156250000,0.0000000000,0.0000000000,0.0000000000,0.0000000000,,,
0.0799999998,0,105712.0390625000,97788.3359375000,162603.3906250000,147116.8437500000,0.0000000000,0.0000000000,0.0000000000,0.0000000000,,,
0.0839999998,0,105740.2343750000,97815.6718750000,162626.0000000000,147114.1093750000,0.0000000000,0.0000000000,0.0000000000,0.0000000000,,,
0.0880000000,0,105771.5312500000,97846.3515625000,162669.4531250000,147141.4218750000,0.0000000000,0.0000000000,0.0000000000,0.0000000000,,,
0.0919999999,0,105753.6171875000,97828.7031250000,162660.9531250000,147147.3281250000,0.0000000000,0.0000000000,0.0000000000,0.0000000000,,,
0.0959999999,0,105750.5078125000,97833.4765625000,162650.5468750000,147140.5312500000,0.0000000000,0.0000000000,0.0000000000,0.0000000000,,,
0.0999999999,0,105765.7890625000,97851.1796875000,162670.6875000000,147147.1093750000,0.0000000000,0.0000000000,0.0000000000,0.0000000000,,,
0.1039999998,0,105807.1015625000,97887.4453125000,162718.3437500000,147154.8906250000,0.0000000000,0.0000000000,0.0000000000,0.0000000000,,,
0.1079999998,0,105774.1640625000,97863.8671875000,162689.2500000000,147167.5937500000,0.0000000000,0.0000000000,0.0000000000,0.0000000000,,,
0.1120000000,0,105725.1562500000,97816.5312500000,162627.2968750000,147141.0781250000,0.0000000000,0.0000000000,0.0000000000,0.0000000000,,,
0.1159999999,0,105674.6796875000,97763.5312500000,162571.2031250000,147099.9062500000,0.0000000000,0.0000000000,0.0000000000,0.0000000000,,,
0.1199999999,0,105683.1250000000,97780.2890625000,162574.0156250000,147100.3750000000,0.0000000000,0.0000000000,0.0000000000,0.0000000000,,,
0.1239999998,0,105717.3750000000,97808.9921875000,162619.4843750000,147106.5468750000,0.0000000000,0.0000000000,0.0000000000,0.0000000000,,,
0.1279999998,1,105746.5312500000,97842.1406250000,162643.5781250000,147121.5937500000,0.0000000000,0.0000000000,0.0000000000,0.0000000000,,,
0.1319999998,1,105756.1093750000,97852.3359375000,162647.1406250000,147126.0781250000,0.0000000000,0.0000000000,0.0000000000,0.0000000000,,,
0.1359999997,1,105744.4921875000,97844.7968750000,162614.3125000000,147148.2031250000,0.0000000000,0.0000000000,0.0000000000,0.0000000000,,,
0.1399999997,1,105738.7812500000,97838.2265625000,162600.3593750000,147141.7187500000,0.0000000000,0.0000000000,0.0000000000,0.0000000000,,,
0.1439999996,1,105727.3828125000,97826.8828125000,162610.7656250000,147111.1406250000,0.0000000000,0.0000000000,0.0000000000,0.0000000000,,,
0.1479999996,1,105722.9843750000,97815.8828125000,162606.5000000000,147087.2968750000,0.0000000000,0.0000000000,0.0000000000,0.0000000000,,,
0.1519999998,1,105731.0859375000,97833.6640625000,162611.4375000000,147107.2968750000,0.0000000000,0.0000000000,0.0000000000,0.0000000000,,,
0.1559999997,1,105705.4453125000,97819.3437500000,162575.1406250000,147092.1250000000,0.0000000000,0.0000000000,0.0000000000,0.0000000000,,,
0.1599999997,1,105709.2265625000,97829.7265625000,162514.5000000000,147089.1250000000,0.0000000000,0.0000000000,0.0000000000,0.0000000000,,,
0.1639999996,1,105695.4375000000,97806.3593750000,162535.1250000000,147055.8281250000,0.0000000000,0.0000000000,0.0000000000,0.0000000000,,,
0.1679999996,1,105665.6953125000,97787.5312500000,162546.0468750000,147055.2343750000,0.0000000000,0.0000000000,0.0000000000,0.0000000000,,,
0.1719999998,1,105691.4687500000,97795.1250000000,162551.7812500000,147063.3437500000,0.0000000000,0.0000000000,0.0000000000,0.0000000000,,,
0.1759999997,1,105700.0546875000,97778.4687500000,162601.7031250000,147054.1406250000,0.0000000000,0.0000000000,0.0000000000,0.0000000000,,,
0.1799999997,1,105686.2343750000,97748.1015625000,162592.9062500000,147027.1093750000,0.0000000000,0.0000000000,0.0000000000,0.0000000000,,,
0.1839999997,1,105714.0234375000,97762.1328125000,162592.6093750000,147047.0937500000,0.0000000000,0.0000000000,0.0000000000,0.0000000000,,,
0.1879999996,1,105760.8593750000,97791.1796875000,162661.7343750000,147075.4375000000,0.0000000000,0.0000000000,0.0000000000,0.0000000000,,,
0.1919999996,1,105725.8515625000,97770.3125000000,162696.3281250000,147072.3593750000,0.0000000000,0.0000000000,0.0000000000,0.0000000000,,,
0.1959999998,1,105689.4062500000,97736.5468750000,162675.0312500000,147041.3437500000,0.0000000000,0.0000000000,0.0000000000,0.0000000000,,,
0.1999999997,1,105697.6875000000,97747.4062500000,162654.7812500000,147041.2968750000,0.0000000000,0.0000000000,0.0000000000,0.0000000000,,,
0.2039999997,1,105741.4375000000,97780.8515625000,162724.0312500000,147075.8750000000,0.0000000000,0.0000000000,0.0000000000,0.0000000000,,,
0.2079999996,1,105742.3750000000,97724.9062500000,162770.2187500000,147083.1093750000,0.0000000000,0.0000000000,0.0000000000,0.0000000000,,,
0.2119999996,1,105650.1875000000,97621.6953125000,162647.7500000000,147032.1718750000,0.0000000000,0.0000000000,0.0000000000,0.0000000000,,,
0.2159999998,1,105651.2343750000,97627.7578125000,162515.1718750000,147047.7343750000,0.0000000000,0.0000000000,0.0000000000,0.0000000000,,,
0.2199999997,1,105673.8203125000,97626.7890625000,162644.8906250000,147076.8906250000,0.0000000000,0.0000000000,0.0000000000,0.0000000000,,,
0.2239999997,1,105701.1250000000,97672.3593750000,162806.9375000000,147113.6562500000,0.0000000000,0.0000000000,0.0000000000,0.0000000000,,,
0.2279999997,1,105693.1875000000,97676.6484375000,162701.5000000000,147082.4687500000,0.0000000000,0.0000000000,0.0000000000,0.0000000000,,,
0.2319999996,1,105681.3828125000,97656.3750000000,162599.1250000000,147068.4062500000,0.0000000000,0.0000000000,0.0000000000,0.0000000000,,,
0.2359999996,1,105650.4062500000,97633.7343750000,162558.7656250000,147064.8437500000,0.0000000000,0.0000000000,0.0000000000,0.0000000000,,,
0.2399999998,1,105625.1875000000,97618.8750000000,162529.0156250000,147025.5000000000,0.0000000000,0.0000000000,0.0000000000,0.0000000000,,,
0.2439999997,1,105632.7265625000,97642.7734375000,162551.8437500000,147025.8125000000,0.0000000000,0.0000000000,0.0000000000,0.0000000000,,,
0.2479999997,1,105639.8359375000,97673.7265625000,162609.2656250000,147036.6562500000,0.0000000000,0.0000000000,0.0000000000,0.0000000000,,,
0.2519999996,1,105615.7265625000,97646.8515625000,162675.2500000000,147006.1562500000,0.0000000000,0.0000000000,0.0000000000,0.0000000000,,,
0.2559999996,2,105585.7109375000,97585.8828125000,162651.1406250000,146982.6406250000,0.0000000000,0.0000000000,0.0000000000,0.0000000000,,,
0.2599999995,2,105580.9375000000,97606.3750000000,162625.7031250000,146990.6250000000,0.0000000000,0.0000000000,0.0000000000,0.0000000000,,,
0.2639999995,2,105577.7968750000,97639.3437500000,162595.4843750000,146984.9687500000,0.0000000000,0.0000000000,0.0000000000,0.0000000000,,,
0.2679999995,2,105558.9140625000,97637.6484375000,162566.8906250000,146965.7343750000,0.0000000000,0.0000000000,0.0000000000,0.0000000000,,,
0.2719999994,2,105577.7734375000,97663.2109375000,162356.3281250000,146980.2968750000,0.0000000000,0.0000000000,0.0000000000,0.0000000000,,,
0.2759999994,2,105561.9453125000,97630.7578125000,162282.6875000000,146954.4687500000,0.0000000000,0.0000000000,0.0000000000,0.0000000000,,,
0.2799999996,2,105502.5859375000,97577.1953125000,162312.8281250000,146921.7500000000,0.0000000000,0.0000000000,0.0000000000,0.0000000000,,,
0.2839999995,2,105498.6171875000,97579.9843750000,162442.0000000000,146928.6718750000,0.0000000000,0.0000000000,0.0000000000,0.0000000000,,,
0.2879999995,2,105485.9609375000,97576.8437500000,162454.0937500000,146910.6718750000,0.0000000000,0.0000000000,0.0000000000,0.0000000000,,,
0.2919999994,2,105427.6718750000,97514.5390625000,162320.8750000000,146835.8906250000,0.0000000000,0.0000000000,0.0000000000,0.0000000000,,,
0.2959999994,2,105397.1250000000,97483.7500000000,162250.9687500000,146823.3125000000,0.0000000000,0.0000000000,0.0000000000,0.0000000000,,,
0.2999999996,2,105377.6484375000,97477.1484375000,162180.4062500000,146835.3281250000,0.0000000000,0.0000000000,0.0000000000,0.0000000000,,,
0.3039999995,2,105414.3984375000,97525.3984375000,162222.3906250000,146862.5781250000,0.0000000000,0.0000000000,0.0000000000,0.0000000000,,,
0.3079999995,2,105440.0078125000,97545.1406250000,162210.7656250000,146877.7656250000,0.0000000000,0.0000000000,0.0000000000,0.0000000000,,,
0.3119999995,2,105468.0937500000,97548.1484375000,162227.4843750000,146896.6718750000,0.0000000000,0.0000000000,0.0000000000,0.0000000000,,,
0.3159999994,2,105545.7187500000,97635.6171875000,162392.0625000000,146981.2187500000,0.0000000000,0.0000000000,0.0000000000,0.0000000000,,,
0.3199999994,2,105693.0781250000,97710.5546875000,162415.1875000000,147069.6718750000,0.0000000000,0.0000000000,0.0000000000,0.0000000000,,,
0.3239999996,2,105814.4218750000,97745.0468750000,162423.2500000000,147113.5312500000,0.0000000000,0.0000000000,0.0000000000,0.0000000000,,,
0.3279999995,2,105756.8906250000,97790.6171875000,162351.6406250000,147138.4687500000,0.0000000000,0.0000000000,0.0000000000,0.0000000000,,,
0.3319999995,2,105765.4453125000,97813.8984375000,162301.0468750000,147176.8750000000,0.0000000000,0.0000000000,0.0000000000,0.0000000000,,,
0.3359999994,2,105732.3984375000,97801.7265625000,162356.8750000000,147173.0937500000,0.0000000000,0.0000000000,0.0000000000,0.0000000000,,,
0.3399999994,2,105737.4687500000,97822.0234375000,162423.9843750000,147186.3437500000,0.0000000000,0.0000000000,0.0000000000,0.0000000000,,,
0.3439999996,2,105752.7578125000,97849.3828125000,162507.3125000000,147222.9062500000,0.0000000000,0.0000000000,0.0000000000,0.0000000000,,,
0.3479999995,2,105728.9921875000,97819.1328125000,162479.9843750000,147210.7343750000,0.0000000000,0.0000000000,0.0000000000,0.0000000000,,,
0.3519999995,2,105682.3203125000,97772.6718750000,162400.2343750000,147165.6093750000,0.0000000000,0.0000000000,0.0000000000,0.0000000000,,,
0.3559999994,2,105667.0078125000,97768.9218750000,162354.7812500000,147155.0781250000,0.0000000000,0.0000000000,0.0000000000,0.0000000000,,,
0.3599999994,2,105672.6093750000,97792.0156250000,162364.9687500000,147170.7968750000,0.0000000000,0.0000000000,0.0000000000,0.0000000000,,,
0.3639999994,2,105671.4843750000,97809.8750000000,162336.3281250000,147161.2656250000,0.0000000000,0.0000000000,0.0000000000,0.0000000000,,,
0.3679999996,2,105684.9531250000,97820.9296875000,162210.6093750000,147169.4218750000,0.0000000000,0.0000000000,0.0000000000,0.0000000000,,,
0.3719999995,2,105697.8515625000,97810.2812500000,162297.7500000000,147170.9218750000,0.0000000000,0.0000000000,0.0000000000,0.0000000000,,,
0.3759999995,2,105698.0156250000,97806.9765625000,162463.5156250000,147172.5000000000,0.0000000000,0.0000000000,0.0000000000,0.0000000000,,,
0.3799999994,2,105723.0937500000,97831.4140625000,162489.2656250000,147183.6406250000,0.0000000000,0.0000000000,0.0000000000,0.0000000000,,,
0.3839999994,3,105751.6875000000,97846.4375000000,162460.7500000000,147198.6093750000,0.0000000000,0.0000000000,0.0000000000,0.0000000000,,,
0.3879999993,3,105726.7656250000,97826.6406250000,162474.3750000000,147191.4218750000,0.0000000000,0.0000000000,0.0000000000,0.0000000000,,,
0.3919999993,3,105679.0781250000,97776.9375000000,162523.7343750000,147164.4843750000,0.0000000000,0.0000000000,0.0000000000,0.0000000000,,,
0.3959999993,3,105713.4062500000,97779.0078125000,162551.0937500000,147154.6718750000,0.0000000000,0.0000000000,0.0000000000,0.0000000000,,,
0.3999999992,3,105714.8828125000,97799.6328125000,162559.8906250000,147174.7031250000,0.0000000000,0.0000000000,0.0000000000,0.0000000000,,,
0.4039999992,3,105731.4843750000,97820.8750000000,162570.4218750000,147184.9218750000,0.0000000000,0.0000000000,0.0000000000,0.0000000000,,,
0.4079999994,3,105731.5156250000,97817.2812500000,162571.9843750000,147180.3125000000,0.0000000000,0.0000000000,0.0000000000,0.0000000000,,,
0.4119999993,3,105721.1640625000,97808.9609375000,162440.8281250000,147181.3125000000,0.0000000000,0.0000000000,0.0000000000,0.0000000000,,,
0.4159999993,3,105720.3046875000,97803.6562500000,162447.5000000000,147174.6562500000,0.0000000000,0.0000000000,0.0000000000,0.0000000000,,,
0.4199999992,3,105735.4531250000,97817.4687500000,162521.6093750000,147180.0156250000,0.0000000000,0.0000000000,0.0000000000,0.0000000000,,,
0.4239999992,3,105772.2031250000,97856.4687500000,162528.6718750000,147215.0156250000,0.0000000000,0.0000000000,0.0000000000,0.0000000000,,,
0.4279999994,3,105755.4140625000,97836.5390625000,162486.5781250000,147202.9531250000,0.0000000000,0.0000000000,0.0000000000,0.0000000000,,,
0.4319999993,3,105725.5625000000,97803.3828125000,162501.3906250000,147186.0000000000,0.0000000000,0.0000000000,0.0000000000,0.0000000000,,,
0.4359999993,3,105734.0625000000,97812.4765625000,162519.9531250000,147198.3906250000,0.0000000000,0.0000000000,0.0000000000,0.0000000000,,,
0.4399999992,3,105751.6015625000,97829.8359375000,162526.0312500000,147206.5156250000,0.0000000000,0.0000000000,0.0000000000,0.0000000000,,,
0.4439999992,3,105756.0859375000,97831.8984375000,162586.5156250000,147202.9843750000,0.0000000000,0.0000000000,0.0000000000,0.0000000000,,,
0.4479999992,3,105762.6796875000,97840.3203125000,162616.4218750000,147199.6250000000,0.0000000000,0.0000000000,0.0000000000,0.0000000000,,,
0.4519999993,3,105759.8125000000,97836.9687500000,162560.9375000000,147185.1093750000,0.0000000000,0.0000000000,0.0000000000,0.0000000000,,,
0.4559999993,3,105751.4140625000,97840.4843750000,162392.4843750000,147184.5781250000,0.0000000000,0.0000000000,0.0000000000,0.0000000000,,,
0.4599999993,3,105735.9375000000,97821.0859375000,162444.6250000000,147180.8437500000,0.0000000000,0.0000000000,0.0000000000,0.0000000000,,,
0.4639999992,3,105740.2578125000,97819.0468750000,162537.5937500000,147178.4375000000,0.0000000000,0.0000000000,0.0000000000,0.0000000000,,,
0.4679999992,3,105776.4921875000,97845.9218750000,162590.2812500000,147203.8281250000,0.0000000000,0.0000000000,0.0000000000,0.0000000000,,,
0.4719999994,3,105787.6015625000,97856.9765625000,162619.7812500000,147214.0468750000,0.0000000000,0.0000000000,0.0000000000,0.0000000000,,,
0.4759999993,3,105758.1250000000,97826.1328125000,162593.6562500000,147199.0625000000,0.0000000000,0.0000000000,0.0000000000,0.0000000000,,,
0.4799999993,3,105751.2265625000,97807.8906250000,162578.1250000000,147164.8906250000,0.0000000000,0.0000000000,0.0000000000,0.0000000000,,,
0.4839999992,3,105773.4609375000,97825.3828125000,162605.8281250000,147170.7968750000,0.0000000000,0.0000000000,0.0000000000,0.0000000000,,,
0.4879999992,3,105803.2109375000,97853.0312500000,162639.3281250000,147191.7656250000,0.0000000000,0.0000000000,0.0000000000,0.0000000000,,,
0.4919999992,3,105800.6328125000,97850.8593750000,162639.3125000000,147205.9218750000,0.0000000000,0.0000000000,0.0000000000,0.0000000000,,,
0.4959999993,3,105774.3203125000,97828.7890625000,162613.4531250000,147199.4843750000,0.0000000000,0.0000000000,0.0000000000,0.0000000000,,,
0.4999999993,3,105738.0312500000,97789.1953125000,162580.3281250000,147146.0937500000,0.0000000000,0.0000000000,0.0000000000,0.0000000000,,,
0.5039999993,3,105753.2968750000,97806.0703125000,162599.6562500000,147154.8906250000,0.0000000000,0.0000000000,0.0000000000,0.0000000000,,,
0.5079999992,3,105778.6953125000,97826.2890625000,162622.3750000000,147174.6562500000,0.0000000000,0.0000000000,0.0000000000,0.0000000000,,,
0.5119999992,4,105803.2890625000,97850.7031250000,162643.8906250000,147187.9375000000,0.0000000000,0.0000000000,0.0000000000,0.0000000000,,,
0.5159999991,4,105802.6484375000,97852.2265625000,162638.3906250000,147175.7812500000,0.0000000000,0.0000000000,0.0000000000,0.0000000000,,,
0.5199999991,4,105804.2031250000,97857.6171875000,162647.9375000000,147194.9375000000,0.0000000000,0.0000000000,0.0000000000,0.0000000000,,,
0.5239999990,4,105811.7890625000,97865.5859375000,162734.3593750000,147190.1250000000,0.0000000000,0.0000000000,0.0000000000,0.0000000000,,,
0.5279999990,4,105786.3125000000,97838.0390625000,162705.4218750000,147158.0781250000,0.0000000000,0.0000000000,0.0000000000,0.0000000000,,,
0.5319999990,4,105792.0000000000,97846.4375000000,162651.0000000000,147171.8593750000,0.0000000000,0.0000000000,0.0000000000,0.0000000000,,,
0.5359999991,4,105786.1484375000,97834.7421875000,162632.8437500000,147175.9375000000,0.0000000000,0.0000000000,0.0000000000,0.0000000000,,,
0.5399999991,4,105805.6484375000,97855.2031250000,162646.5156250000,147179.3437500000,0.0000000000,0.0000000000,0.0000000000,0.0000000000,,,
0.5439999991,4,105831.3750000000,97884.2578125000,162678.3125000000,147196.0312500000,0.0000000000,0.0000000000,0.0000000000,0.0000000000,,,
0.5479999990,4,105821.5859375000,97866.3671875000,162670.2343750000,147182.8593750000,0.0000000000,0.0000000000,0.0000000000,0.0000000000,,,
0.5519999990,4,105809.0546875000,97844.0781250000,162651.5312500000,147169.7187500000,0.0000000000,0.0000000000,0.0000000000,0.0000000000,,,
0.5559999992,4,105788.9687500000,97828.1171875000,162634.5000000000,147156.7343750000,0.0000000000,0.0000000000,0.0000000000,0.0000000000,,,
0.5599999991,4,105783.2812500000,97829.3203125000,162634.0781250000,147168.7812500000,0.0000000000,0.0000000000,0.0000000000,0.0000000000,,,
0.5639999991,4,105794.8671875000,97841.0703125000,162651.5625000000,147173.2343750000,0.0000000000,0.0000000000,0.0000000000,0.0000000000,,,
0.5679999990,4,105817.6093750000,97857.7031250000,162680.5312500000,147181.5937500000,0.0000000000,0.0000000000,0.0000000000,0.0000000000,,,
0.5719999990,4,105833.2500000000,97868.5078125000,162698.2812500000,147194.7500000000,0.0000000000,0.0000000000,0.0000000000,0.0000000000,,,
0.5759999990,4,105821.0156250000,97863.1953125000,162679.2500000000,147180.4531250000,0.0000000000,0.0000000000,0.0000000000,0.0000000000,,,
0.5799999991,4,105808.6796875000,97850.8359375000,162661.2812500000,147172.7968750000,0.0000000000,0.0000000000,0.0000000000,0.0000000000,,,
0.5839999991,4,105830.5937500000,97869.1796875000,162679.5625000000,147191.1718750000,0.0000000000,0.0000000000,0.0000000000,0.0000000000,,,
0.5879999991,4,105833.1406250000,97871.6484375000,162709.7343750000,147185.8125000000,0.0000000000,0.0000000000,0.0000000000,0.0000000000,,,
0.5919999990,4,105833.1718750000,97873.5000000000,162717.9218750000,147185.6250000000,0.0000000000,0.0000000000,0.0000000000,0.0000000000,,,
0.5959999990,4,105802.2968750000,97851.2656250000,162675.7031250000,147162.4531250000,0.0000000000,0.0000000000,0.0000000000,0.0000000000,,,
0.5999999992,4,105815.5234375000,97860.6250000000,162683.7500000000,147158.4062500000,0.0000000000,0.0000000000,0.0000000000,0.0000000000,,,
0.6039999991,4,105817.2109375000,97855.7421875000,162679.4843750000,147165.9062500000,0.0000000000,0.0000000000,0.0000000000,0.0000000000,,,
0.6079999991,4,105822.4921875000,97866.4140625000,162675.3750000000,147177.0625000000,0.0000000000,0.0000000000,0.0000000000,0.0000000000,,,
0.6119999990,4,105832.9843750000,97873.9843750000,162694.8750000000,147173.8750000000,0.0000000000,0.0000000000,0.0000000000,0.0000000000,,,
0.6159999990,4,105828.4218750000,97874.3828125000,162675.3281250000,147180.1250000000,0.0000000000,0.0000000000,0.0000000000,0.0000000000,,,
0.6199999989,4,105803.7421875000,97851.1562500000,162638.5625000000,147175.5937500000,0.0000000000,0.0000000000,0.0000000000,0.0000000000,,,
0.6239999991,4,105814.2578125000,97860.6796875000,162660.7343750000,147174.2031250000,0.0000000000,0.0000000000,0.0000000000,0.0000000000,,,
0.6279999991,4,105824.5859375000,97864.1640625000,162672.1093750000,147179.5000000000,0.0000000000,0.0000000000,0.0000000000,0.0000000000,,,
0.6319999991,4,105826.3593750000,97863.4687500000,162662.5625000000,147165.2656250000,0.0000000000,0.0000000000,0.0000000000,0.0000000000,,,
0.6359999990,4,105808.3046875000,97849.5703125000,162645.3125000000,147165.8750000000,0.0000000000,0.0000000000,0.0000000000,0.0000000000,,,
0.6399999990,5,105801.3281250000,97849.3828125000,162640.7812500000,147164.6718750000,0.0000000000,0.0000000000,0.0000000000,0.0000000000,,,
0.6439999989,5,105813.8828125000,97867.1406250000,162653.3906250000,147172.5625000000,0.0000000000,0.0000000000,0.0000000000,0.0000000000,,,
0.6479999989,5,105848.4843750000,97902.8671875000,162694.7812500000,147185.0000000000,0.0000000000,0.0000000000,0.0000000000,0.0000000000,,,
0.6519999988,5,105861.4687500000,97910.5390625000,162708.1250000000,147180.1250000000,0.0000000000,0.0000000000,0.0000000000,0.0000000000,,,
0.6559999988,5,105859.2109375000,97900.8828125000,162686.5468750000,147183.7968750000,0.0000000000,0.0000000000,0.0000000000,0.0000000000,,,
0.6599999988,5,105837.9140625000,97875.3515625000,162657.8437500000,147185.8437500000,0.0000000000,0.0000000000,0.0000000000,0.0000000000,,,
0.6639999989,5,105832.5546875000,97875.9375000000,162660.9531250000,147174.4375000000,0.0000000000,0.0000000000,0.0000000000,0.0000000000,,,
0.6679999989,5,105845.2109375000,97886.5312500000,162678.6562500000,147184.9843750000,0.0000000000,0.0000000000,0.0000000000,0.0000000000,,,
0.6719999989,5,105848.4843750000,97889.9921875000,162683.1406250000,147174.4687500000,0.0000000000,0.0000000000,0.0000000000,0.0000000000,,,
0.6759999988,5,105845.9062500000,97890.7187500000,162675.6562500000,147179.8906250000,0.0000000000,0.0000000000,0.0000000000,0.0000000000,,,
0.6799999988,5,105838.3984375000,97889.0000000000,162659.9531250000,147189.1562500000,0.0000000000,0.0000000000,0.0000000000,0.0000000000,,,
0.6839999990,5,105852.1328125000,97894.3671875000,162671.2812500000,147167.4062500000,0.0000000000,0.0000000000,0.0000000000,0.0000000000,,,
0.6879999989,5,105869.5937500000,97899.5390625000,162687.8281250000,147167.0312500000,0.0000000000,0.0000000000,0.0000000000,0.0000000000,,,
0.6919999989,5,105864.6562500000,97902.6250000000,162683.7031250000,147183.3750000000,0.0000000000,0.0000000000,0.0000000000,0.0000000000,,,
0.6959999988,5,105834.2421875000,97875.4531250000,162654.4843750000,147177.0156250000,0.0000000000,0.0000000000,0.0000000000,0.0000000000,,,
0.6999999988,5,105835.3125000000,97874.2734375000,162639.8750000000,147164.8906250000,0.0000000000,0.0000000000,0.0000000000,0.0000000000,,,
0.7039999987,5,105854.8125000000,97889.9687500000,162656.7968750000,147165.7187500000,0.0000000000,0.0000000000,0.0000000000,0.0000000000,,,
0.7079999989,5,105856.0468750000,97893.1875000000,162680.6875000000,147170.2500000000,0.0000000000,0.0000000000,0.0000000000,0.0000000000,,,
0.7119999989,5,105834.7500000000,97878.0078125000,162666.1562500000,147157.8593750000,0.0000000000,0.0000000000,0.0000000000,0.0000000000,,,
0.7159999989,5,105820.6406250000,97876.5000000000,162646.5781250000,147158.8750000000,0.0000000000,0.0000000000,0.0000000000,0.0000000000,,,
0.7199999988,5,105834.0546875000,97892.4921875000,162653.0468750000,147158.6406250000,0.0000000000,0.0000000000,0.0000000000,0.0000000000,,,
0.7239999988,5,105829.4375000000,97871.1406250000,162653.4218750000,147167.1718750000,0.0000000000,0.0000000000,0.0000000000,0.0000000000,,,
0.7279999990,5,105824.9609375000,97869.5546875000,162656.3593750000,147168.6250000000,0.0000000000,0.0000000000,0.0000000000,0.0000000000,,,
0.7319999989,5,105805.6796875000,97852.7656250000,162640.5468750000,147144.1093750000,0.0000000000,0.0000000000,0.0000000000,0.0000000000,,,
0.7359999989,5,105804.1250000000,97854.8046875000,162637.9375000000,147149.8750000000,0.0000000000,0.0000000000,0.0000000000,0.0000000000,,,
0.7399999988,5,105800.4453125000,97849.1718750000,162633.1718750000,147145.6093750000,0.0000000000,0.0000000000,0.0000000000,0.0000000000,,,
0.7439999988,5,105821.4453125000,97863.8671875000,162649.2343750000,147153.9687500000,0.0000000000,0.0000000000,0.0000000000,0.0000000000,,,
0.7479999987,5,105864.3671875000,97912.9531250000,162691.0937500000,147198.1250000000,0.0000000000,0.0000000000,0.0000000000,0.0000000000,,,
0.7519999989,5,105868.2812500000,97920.4609375000,162706.0468750000,147208.8750000000,0.0000000000,0.0000000000,0.0000000000,0.0000000000,,,
0.7559999989,5,105831.1328125000,97878.2187500000,162665.0000000000,147175.7031250000,0.0000000000,0.0000000000,0.0000000000,0.0000000000,,,
0.7599999988,5,105807.2343750000,97849.4687500000,162639.6875000000,147134.8750000000,0.0000000000,0.0000000000,0.0000000000,0.0000000000,,,
0.7639999988,5,105813.0781250000,97849.3046875000,162643.5781250000,147144.2343750000,0.0000000000,0.0000000000,0.0000000000,0.0000000000,,,
0.7679999988,6,105821.1796875000,97863.7343750000,162652.3437500000,147154.5312500000,0.0000000000,0.0000000000,0.0000000000,0.0000000000,,,
0.7719999987,6,105811.0390625000,97864.0546875000,162644.3281250000,147146.4843750000,0.0000000000,0.0000000000,0.0000000000,0.0000000000,,,
0.7759999987,6,105802.5625000000,97852.8750000000,162627.8281250000,147135.0625000000,0.0000000000,0.0000000000,0.0000000000,0.0000000000,,,
0.7799999986,6,105810.3984375000,97853.2500000000,162602.1250000000,147133.9843750000,0.0000000000,0.0000000000,0.0000000000,0.0000000000,,,
0.7839999986,6,105830.6250000000,97871.1406250000,162631.9062500000,147163.6093750000,0.0000000000,0.0000000000,0.0000000000,0.0000000000,,,
0.7879999985,6,105855.3515625000,97897.3671875000,162672.8125000000,147178.0000000000,0.0000000000,0.0000000000,0.0000000000,0.0000000000,,,
0.7919999987,6,105849.6953125000,97881.4140625000,162664.5000000000,147174.5468750000,0.0000000000,0.0000000000,0.0000000000,0.0000000000,,,
0.7959999987,6,105807.3437500000,97842.3281250000,162623.0000000000,147160.8437500000,0.0000000000,0.0000000000,0.0000000000,0.0000000000,,,
0.7999999986,6,105819.0312500000,97860.0312500000,162635.4375000000,147168.4843750000,0.0000000000,0.0000000000,0.0000000000,0.0000000000,,,
0.8039999986,6,105813.6718750000,97856.5468750000,162633.0781250000,147169.2812500000,0.0000000000,0.0000000000,0.0000000000,0.0000000000,,,
0.8079999986,6,105787.3046875000,97819.6406250000,162604.5781250000,147141.5781250000,0.0000000000,0.0000000000,0.0000000000,0.0000000000,,,
0.8119999988,6,105805.1953125000,97832.7265625000,162621.2812500000,147137.5000000000,0.0000000000,0.0000000000,0.0000000000,0.0000000000,,,
0.8159999987,6,105785.6171875000,97826.4296875000,162607.9531250000,147129.6406250000,0.0000000000,0.0000000000,0.0000000000,0.0000000000,,,
0.8199999987,6,105778.9375000000,97823.0156250000,162600.1250000000,147134.6875000000,0.0000000000,0.0000000000,0.0000000000,0.0000000000,,,
0.8239999986,6,105800.7968750000,97844.2656250000,162622.9375000000,147154.0000000000,0.0000000000,0.0000000000,0.0000000000,0.0000000000,,,
0.8279999986,6,105836.3046875000,97883.2109375000,162663.2031250000,147171.5625000000,0.0000000000,0.0000000000,0.0000000000,0.0000000000,,,
0.8319999985,6,105890.7578125000,97941.1171875000,162717.7656250000,147211.3437500000,0.0000000000,0.0000000000,0.0000000000,0.0000000000,,,
0.8359999987,6,105871.6562500000,97919.0703125000,162696.5468750000,147220.2500000000,0.0000000000,0.0000000000,0.0000000000,0.0000000000,,,
0.8399999987,6,105806.9375000000,97852.3125000000,162627.0156250000,147154.8906250000,0.0000000000,0.0000000000,0.0000000000,0.0000000000,,,
0.8439999986,6,105795.2421875000,97843.4062500000,162614.9531250000,147142.1718750000,0.0000000000,0.0000000000,0.0000000000,0.0000000000,,,
0.8479999986,6,105815.7109375000,97860.8671875000,162637.2656250000,147152.3437500000,0.0000000000,0.0000000000,0.0000000000,0.0000000000,,,
0.8519999986,6,105804.2578125000,97850.3750000000,162628.5468750000,147141.0781250000,0.0000000000,0.0000000000,0.0000000000,0.0000000000,,,
0.8559999987,6,105787.3593750000,97836.8046875000,162609.8593750000,147135.2031250000,0.0000000000,0.0000000000,0.0000000000,0.0000000000,,,
0.8599999987,6,105800.3359375000,97856.5468750000,162623.6406250000,147152.9531250000,0.0000000000,0.0000000000,0.0000000000,0.0000000000,,,
0.8639999987,6,105821.9609375000,97870.3593750000,162642.3593750000,147158.5937500000,0.0000000000,0.0000000000,0.0000000000,0.0000000000,,,
0.8679999986,6,105837.6484375000,97873.8437500000,162656.7968750000,147165.0781250000,0.0000000000,0.0000000000,0.0000000000,0.0000000000,,,
0.8719999986,6,105845.4843750000,97879.3437500000,162665.5625000000,147168.7500000000,0.0000000000,0.0000000000,0.0000000000,0.0000000000,,,
0.8759999985,6,105805.9453125000,97842.2812500000,162623.1093750000,147151.0781250000,0.0000000000,0.0000000000,0.0000000000,0.0000000000,,,
0.8799999987,6,105788.1640625000,97828.2500000000,162602.5312500000,147141.3593750000,0.0000000000,0.0000000000,0.0000000000,0.0000000000,,,
0.8839999987,6,105809.2734375000,97850.1640625000,162625.4687500000,147162.8750000000,0.0000000000,0.0000000000,0.0000000000,0.0000000000,,,
0.8879999986,6,105803.3671875000,97845.7343750000,162623.7968750000,147158.9062500000,0.0000000000,0.0000000000,0.0000000000,0.0000000000,,,
0.8919999986,6,105811.4453125000,97853.5703125000,162630.8281250000,147162.2812500000,0.0000000000,0.0000000000,0.0000000000,0.0000000000,,,
0.8959999986,7,105805.2187500000,97847.8046875000,162623.0468750000,147155.5000000000,0.0000000000,0.0000000000,0.0000000000,0.0000000000,,,
0.8999999985,7,105801.4375000000,97848.7968750000,162620.3125000000,147157.3750000000,0.0000000000,0.0000000000,0.0000000000,0.0000000000,,,
0.9039999985,7,105824.9062500000,97872.9062500000,162645.5000000000,147167.5468750000,0.0000000000,0.0000000000,0.0000000000,0.0000000000,,,
0.9079999984,7,105801.1171875000,97837.7187500000,162618.6562500000,147133.9062500000,0.0000000000,0.0000000000,0.0000000000,0.0000000000,,,
0.9119999984,7,105773.9765625000,97818.5703125000,162594.7500000000,147127.7343750000,0.0000000000,0.0000000000,0.0000000000,0.0000000000,,,
0.9159999983,7,105785.0781250000,97835.0859375000,162608.5156250000,147141.9062500000,0.0000000000,0.0000000000,0.0000000000,0.0000000000,,,
0.9199999985,7,105774.7500000000,97829.1093750000,162599.2656250000,147132.4843750000,0.0000000000,0.0000000000,0.0000000000,0.0000000000,,,
0.9239999985,7,105783.0937500000,97839.9453125000,162607.6875000000,147126.7968750000,0.0000000000,0.0000000000,0.0000000000,0.0000000000,,,
0.9279999984,7,105803.8515625000,97862.0468750000,162629.9531250000,147141.1562500000,0.0000000000,0.0000000000,0.0000000000,0.0000000000,,,
0.9319999984,7,105805.5937500000,97860.2500000000,162628.9531250000,147151.5312500000,0.0000000000,0.0000000000,0.0000000000,0.0000000000,,,
0.9359999984,7,105793.6093750000,97846.9453125000,162613.5000000000,147148.0781250000,0.0000000000,0.0000000000,0.0000000000,0.0000000000,,,
0.9399999985,7,105791.2968750000,97842.0937500000,162608.5937500000,147136.4531250000,0.0000000000,0.0000000000,0.0000000000,0.0000000000,,,
0.9439999985,7,105811.3125000000,97856.8671875000,162627.0000000000,147147.1093750000,0.0000000000,0.0000000000,0.0000000000,0.0000000000,,,
0.9479999985,7,105818.7656250000,97861.6953125000,162637.4843750000,147157.0781250000,0.0000000000,0.0000000000,0.0000000000,0.0000000000,,,
0.9519999984,7,105830.3281250000,97879.7734375000,162652.6406250000,147172.1250000000,0.0000000000,0.0000000000,0.0000000000,0.0000000000,,,
0.9559999984,7,105839.8515625000,97893.8281250000,162661.1406250000,147182.9375000000,0.0000000000,0.0000000000,0.0000000000,0.0000000000,,,
0.9599999983,7,105802.2968750000,97848.7421875000,162619.1093750000,147145.4375000000,0.0000000000,0.0000000000,0.0000000000,0.0000000000,,,
0.9639999985,7,105785.9609375000,97829.8828125000,162603.4687500000,147132.0937500000,0.0000000000,0.0000000000,0.0000000000,0.0000000000,,,
0.9679999985,7,105808.1718750000,97852.7421875000,162628.0937500000,147139.4062500000,0.0000000000,0.0000000000,0.0000000000,0.0000000000,,,
0.9719999984,7,105799.4531250000,97835.7343750000,162610.3906250000,147125.9218750000,0.0000000000,0.0000000000,0.0000000000,0.0000000000,,,
0.9759999984,7,105794.3281250000,97832.8906250000,162600.0937500000,147129.2656250000,0.0000000000,0.0000000000,0.0000000000,0.0000000000,,,
0.9799999984,7,105782.9609375000,97827.3906250000,162592.6093750000,147130.4531250000,0.0000000000,0.0000000000,0.0000000000,0.0000000000,,,
0.9839999985,7,105801.3046875000,97846.8359375000,162609.4843750000,147137.4531250000,0.0000000000,0.0000000000,0.0000000000,0.0000000000,,,
0.9879999985,7,105797.1484375000,97844.4765625000,162607.4218750000,147139.8437500000,0.0000000000,0.0000000000,0.0000000000,0.0000000000,,,
0.9919999985,7,105808.1953125000,97858.0781250000,162623.2187500000,147163.4375000000,0.0000000000,0.0000000000,0.0000000000,0.0000000000,,,
0.9959999984,7,105799.2109375000,97849.3828125000,162621.3906250000,147157.2500000000,0.0000000000,0.0000000000,0.0000000000,0.0000000000,,,
0.9999999984,7,105782.7421875000,97839.4609375000,162606.6875000000,147126.8593750000,0.0000000000,0.0000000000,0.0000000000,0.0000000000,,,
1.0039999983,7,105792.7187500000,97852.9296875000,162621.2031250000,147135.1250000000,0.0000000000,0.0000000000,0.0000000000,0.0000000000,,,
1.0079999985,7,105793.6640625000,97855.9062500000,162633.1093750000,147135.2187500000,0.0000000000,0.0000000000,0.0000000000,0.0000000000,,,
1.0119999985,7,105783.8984375000,97847.9140625000,162622.4062500000,147132.4375000000,0.0000000000,0.0000000000,0.0000000000,0.0000000000,,,
1.0159999984,7,105775.8515625000,97840.3750000000,162607.0625000000,147133.5625000000,0.0000000000,0.0000000000,0.0000000000,0.0000000000,,,
1.0199999984,7,105797.0156250000,97853.9453125000,162604.3906250000,147139.8593750000,0.0000000000,0.0000000000,0.0000000000,0.0000000000,,,
1.0239999983,8,105798.8359375000,97852.3593750000,162614.5468750000,147130.9062500000,0.0000000000,0.0000000000,0.0000000000,0.0000000000,,,
1.0279999983,8,105781.2187500000,97830.3984375000,162602.8750000000,147115.4375000000,0.0000000000,0.0000000000,0.0000000000,0.0000000000,,,
1.0319999983,8,105780.8671875000,97837.3671875000,162611.7031250000,147116.3125000000,0.0000000000,0.0000000000,0.0000000000,0.0000000000,,,
1.0359999982,8,105779.6093750000,97835.6796875000,162603.5468750000,147114.7656250000,0.0000000000,0.0000000000,0.0000000000,0.0000000000,,,
1.0399999982,8,105769.6562500000,97818.8046875000,162590.7812500000,147108.8125000000,0.0000000000,0.0000000000,0.0000000000,0.0000000000,,,
1.0439999981,8,105785.2656250000,97835.4921875000,162616.6718750000,147135.8906250000,0.0000000000,0.0000000000,0.0000000000,0.0000000000,,,
1.0479999983,8,105862.6171875000,97922.6640625000,162709.7343750000,147179.1093750000,0.0000000000,0.0000000000,0.0000000000,0.0000000000,,,
1.0519999983,8,105842.0234375000,97899.0078125000,162697.4843750000,147153.7656250000,0.0000000000,0.0000000000,0.0000000000,0.0000000000,,,
1.0559999982,8,105802.7265625000,97877.1171875000,162656.7968750000,147189.1562500000,0.0000000000,0.0000000000,0.0000000000,0.0000000000,,,
1.0599999982,8,105753.6953125000,97820.5234375000,162563.5625000000,147153.0937500000,0.0000000000,0.0000000000,0.0000000000,0.0000000000,,,
1.0639999982,8,105729.0703125000,97797.9140625000,162573.8125000000,147112.2968750000,0.0000000000,0.0000000000,0.0000000000,0.0000000000,,,
1.0679999983,8,105760.0000000000,97828.7890625000,162656.1718750000,147109.6562500000,0.0000000000,0.0000000000,0.0000000000,0.0000000000,,,
1.0719999983,8,105760.1875000000,97831.9218750000,162629.7031250000,147129.0625000000,0.0000000000,0.0000000000,0.0000000000,0.0000000000,,,
1.0759999983,8,105732.3750000000,97819.8046875000,162567.6718750000,147138.4375000000,0.0000000000,0.0000000000,0.0000000000,0.0000000000,,,
1.0799999982,8,105723.4687500000,97821.8125000000,162570.0468750000,147144.5000000000,0.0000000000,0.0000000000,0.0000000000,0.0000000000,,,
1.0839999982,8,105743.1562500000,97836.2968750000,162608.6250000000,147142.0156250000,0.0000000000,0.0000000000,0.0000000000,0.0000000000,,,
1.0879999981,8,105760.0000000000,97846.1406250000,162603.5468750000,147152.6250000000,0.0000000000,0.0000000000,0.0000000000,0.0000000000,,,
1.0919999983,8,105777.5703125000,97859.0937500000,162593.6562500000,147167.2812500000,0.0000000000,0.0000000000,0.0000000000,0.0000000000,,,
1.0959999983,8,105791.0078125000,97872.2343750000,162637.7812500000,147177.8125000000,0.0000000000,0.0000000000,0.0000000000,0.0000000000,,,
1.0999999982,8,105777.1093750000,97859.8984375000,162610.3125000000,147169.7187500000,0.0000000000,0.0000000000,0.0000000000,0.0000000000,,,
1.1039999982,8,105780.4921875000,97863.0937500000,162616.4218750000,147179.5000000000,0.0000000000,0.0000000000,0.0000000000,0.0000000000,,,
1.1079999981,8,105790.4687500000,97870.9531250000,162658.3750000000,147179.2656250000,0.0000000000,0.0000000000,0.0000000000,0.0000000000,,,
1.1119999983,8,105796.7968750000,97870.0390625000,162647.7812500000,147156.2500000000,0.0000000000,0.0000000000,0.0000000000,0.0000000000,,,
1.1159999983,8,105775.1796875000,97845.0703125000,162600.5000000000,147120.3906250000,0.0000000000,0.0000000000,0.0000000000,0.0000000000,,,
1.1199999982,8,105783.6796875000,97860.6250000000,162586.1718750000,147141.6406250000,0.0000000000,0.0000000000,0.0000000000,0.0000000000,,,
1.1239999982,8,105779.5781250000,97854.8828125000,162588.7812500000,147156.8437500000,0.0000000000,0.0000000000,0.0000000000,0.0000000000,,,
1.1279999982,8,105767.5390625000,97842.0390625000,162597.2187500000,147136.4531250000,0.0000000000,0.0000000000,0.0000000000,0.0000000000,,,
1.1319999981,8,105791.6796875000,97875.0000000000,162618.0312500000,147165.0000000000,0.0000000000,0.0000000000,0.0000000000,0.0000000000,,,
1.1359999983,8,105753.7734375000,97853.5703125000,162593.5468750000,147140.7187500000,0.0000000000,0.0000000000,0.0000000000,0.0000000000,,,
1.1399999983,8,105694.2343750000,97834.3359375000,162582.8750000000,147126.6875000000,0.0000000000,0.0000000000,0.0000000000,0.0000000000,,,
1.1439999982,8,105676.0703125000,97863.4375000000,162605.5312500000,147143.4843750000,0.0000000000,0.0000000000,0.0000000000,0.0000000000,,,
1.1479999982,8,105711.0781250000,97904.7500000000,162655.1093750000,147164.6406250000,0.0000000000,0.0000000000,0.0000000000,0.0000000000,,,
1.1519999981,9,105735.2187500000,97889.4296875000,162644.0468750000,147164.6718750000,0.0000000000,0.0000000000,0.0000000000,0.0000000000,,,
1.1559999981,9,105747.8984375000,97852.3359375000,162607.2343750000,147150.2500000000,0.0000000000,0.0000000000,0.0000000000,0.0000000000,,,
1.1599999981,9,105707.2109375000,97795.7968750000,162524.7500000000,147118.7343750000,0.0000000000,0.0000000000,0.0000000000,0.0000000000,,,
1.1639999980,9,105703.4062500000,97807.4609375000,162564.9062500000,147128.4062500000,0.0000000000,0.0000000000,0.0000000000,0.0000000000,,,
1.1679999980,9,105713.6796875000,97821.7343750000,162587.4375000000,147142.7812500000,0.0000000000,0.0000000000,0.0000000000,0.0000000000,,,
1.1719999979,9,105728.2109375000,97838.8984375000,162568.9531250000,147150.8281250000,0.0000000000,0.0000000000,0.0000000000,0.0000000000,,,
1.1759999981,9,105743.6875000000,97848.5546875000,162586.0625000000,147157.1875000000,0.0000000000,0.0000000000,0.0000000000,0.0000000000,,,
1.1799999981,9,105756.2968750000,97853.6796875000,162616.2968750000,147164.6406250000,0.0000000000,0.0000000000,0.0000000000,0.0000000000,,,
1.1839999980,9,105739.8828125000,97823.2890625000,162587.4531250000,147151.7500000000,0.0000000000,0.0000000000,0.0000000000,0.0000000000,,,
1.1879999980,9,105747.2031250000,97820.7421875000,162583.4062500000,147154.9062500000,0.0000000000,0.0000000000,0.0000000000,0.0000000000,,,
1.1919999979,9,105759.7578125000,97824.7343750000,162594.4843750000,147158.3125000000,0.0000000000,0.0000000000,0.0000000000,0.0000000000,,,
1.1959999981,9,105768.1250000000,97833.0781250000,162611.4375000000,147154.1562500000,0.0000000000,0.0000000000,0.0000000000,0.0000000000,,,
1.1999999981,9,105765.5234375000,97836.2734375000,162602.1875000000,147152.6875000000,0.0000000000,0.0000000000,0.0000000000,0.0000000000,,,
1.2039999980,9,105765.4453125000,97839.0312500000,162585.6406250000,147137.5000000000,0.0000000000,0.0000000000,0.0000000000,0.0000000000,,,
1.2079999980,9,105776.8125000000,97849.0390625000,162598.1406250000,147144.6406250000,0.0000000000,0.0000000000,0.0000000000,0.0000000000,,,
1.2119999980,9,105769.0625000000,97842.2500000000,162597.7343750000,147139.8906250000,0.0000000000,0.0000000000,0.0000000000,0.0000000000,,,
1.2159999979,9,105751.3593750000,97835.4375000000,162570.9375000000,147121.0937500000,0.0000000000,0.0000000000,0.0000000000,0.0000000000,,,
1.2199999981,9,105742.2421875000,97828.4609375000,162567.5000000000,147114.9218750000,0.0000000000,0.0000000000,0.0000000000,0.0000000000,,,
1.2239999981,9,105756.0546875000,97831.4687500000,162588.2343750000,147117.1250000000,0.0000000000,0.0000000000,0.0000000000,0.0000000000,,,
1.2279999980,9,105782.0234375000,97856.0390625000,162610.7656250000,147140.7187500000,0.0000000000,0.0000000000,0.0000000000,0.0000000000,,,
1.2319999980,9,105775.3671875000,97843.6171875000,162605.3437500000,147132.7500000000,0.0000000000,0.0000000000,0.0000000000,0.0000000000,,,
1.2359999979,9,105752.3828125000,97831.2812500000,162593.0937500000,147130.9375000000,0.0000000000,0.0000000000,0.0000000000,0.0000000000,,,
1.2399999981,9,105730.7656250000,97821.1953125000,162571.7656250000,147133.7031250000,0.0000000000,0.0000000000,0.0000000000,0.0000000000,,,
1.2439999981,9,105765.3906250000,97854.2656250000,162606.6406250000,147157.3750000000,0.0000000000,0.0000000000,0.0000000000,0.0000000000,,,
1.2479999980,9,105748.3593750000,97832.2187500000,162594.8281250000,147141.7968750000,0.0000000000,0.0000000000,0.0000000000,0.0000000000,,,
1.2519999980,9,105729.0468750000,97812.7734375000,162573.1093750000,147124.4375000000,0.0000000000,0.0000000000,0.0000000000,0.0000000000,,,
1.2559999980,9,105734.5468750000,97808.3203125000,162572.2812500000,147125.3750000000,0.0000000000,0.0000000000,0.0000000000,0.0000000000,,,
1.2599999979,9,105735.2421875000,97808.3203125000,162575.5312500000,147123.3750000000,0.0000000000,0.0000000000,0.0000000000,0.0000000000,,,
1.2639999981,9,105743.4765625000,97820.3671875000,162584.5312500000,147134.5781250000,0.0000000000,0.0000000000,0.0000000000,0.0000000000,,,
1.2679999981,9,105745.3281250000,97824.9765625000,162592.7187500000,147139.2187500000,0.0000000000,0.0000000000,0.0000000000,0.0000000000,,,
1.2719999980,9,105741.7343750000,97810.3046875000,162584.7968750000,147128.5937500000,0.0000000000,0.0000000000,0.0000000000,0.0000000000,,,
1.2759999980,9,105739.4531250000,97804.5937500000,162578.7968750000,147133.0000000000,0.0000000000,0.0000000000,0.0000000000,0.0000000000,,,
1.2799999979,10,105749.2734375000,97817.5781250000,162589.4687500000,147136.2500000000,0.0000000000,0.0000000000,0.0000000000,0.0000000000,,,
1.2839999979,10,105759.1406250000,97831.3046875000,162604.4062500000,147142.2812500000,0.0000000000,0.0000000000,0.0000000000,0.0000000000,,,
1.2879999978,10,105760.1562500000,97827.9296875000,162604.5781250000,147149.5781250000,0.0000000000,0.0000000000,0.0000000000,0.0000000000,,,
1.2919999978,10,105762.8437500000,97829.1328125000,162605.2500000000,147142.7812500000,0.0000000000,0.0000000000,0.0000000000,0.0000000000,,,
1.2959999978,10,105785.6171875000,97850.6484375000,162624.2656250000,147162.2343750000,0.0000000000,0.0000000000,0.0000000000,0.0000000000,,,
1.2999999977,10,105758.7890625000,97824.9765625000,162592.8750000000,147131.3906250000,0.0000000000,0.0000000000,0.0000000000,0.0000000000,,,
1.3039999979,10,105741.7343750000,97812.4218750000,162575.5000000000,147114.7656250000,0.0000000000,0.0000000000,0.0000000000,0.0000000000,,,
1.3079999979,10,105746.8046875000,97817.7890625000,162581.6093750000,147117.3593750000,0.0000000000,0.0000000000,0.0000000000,0.0000000000,,,
1.3119999978,10,105745.1093750000,97816.3671875000,162577.0781250000,147109.4218750000,0.0000000000,0.0000000000,0.0000000000,0.0000000000,,,
1.3159999978,10,105738.4062500000,97815.5078125000,162567.4843750000,147100.0625000000,0.0000000000,0.0000000000,0.0000000000,0.0000000000,,,
1.3199999977,10,105746.3203125000,97829.4062500000,162576.8437500000,147115.1093750000,0.0000000000,0.0000000000,0.0000000000,0.0000000000,,,
1.3239999979,10,105753.8593750000,97832.9140625000,162582.2343750000,147119.3437500000,0.0000000000,0.0000000000,0.0000000000,0.0000000000,,,
1.3279999979,10,105769.1718750000,97837.2109375000,162591.7031250000,147122.5625000000,0.0000000000,0.0000000000,0.0000000000,0.0000000000,,,
1.3319999978,10,105774.0234375000,97834.8984375000,162592.5312500000,147117.9843750000,0.0000000000,0.0000000000,0.0000000000,0.0000000000,,,
1.3359999978,10,105770.7812500000,97835.9765625000,162587.9687500000,147113.9843750000,0.0000000000,0.0000000000,0.0000000000,0.0000000000,,,
1.3399999978,10,105768.9296875000,97834.7421875000,162583.6718750000,147118.2187500000,0.0000000000,0.0000000000,0.0000000000,0.0000000000,,,
1.3439999977,10,105792.9921875000,97857.2968750000,162606.5000000000,147137.5312500000,0.0000000000,0.0000000000,0.0000000000,0.0000000000,,,
1.3479999979,10,105819.2734375000,97872.3984375000,162627.2656250000,147139.0312500000,0.0000000000,0.0000000000,0.0000000000,0.0000000000,,,
1.3519999979,10,105817.0468750000,97868.8281250000,162626.6250000000,147141.6875000000,0.0000000000,0.0000000000,0.0000000000,0.0000000000,,,
1.3559999978,10,105780.5468750000,97832.2500000000,162589.9218750000,147131.1718750000,0.0000000000,0.0000000000,0.0000000000,0.0000000000,,,
1.3599999978,10,105755.3281250000,97817.0625000000,162568.1406250000,147114.9687500000,0.0000000000,0.0000000000,0.0000000000,0.0000000000,,,
1.3639999977,10,105746.8281250000,97818.4843750000,162565.1718750000,147111.8906250000,0.0000000000,0.0000000000,0.0000000000,0.0000000000,,,
1.3679999979,10,105755.3593750000,97827.9843750000,162577.0781250000,147118.0625000000,0.0000000000,0.0000000000,0.0000000000,0.0000000000,,,
1.3719999979,10,105759.2187500000,97831.1718750000,162581.3125000000,147118.6718750000,0.0000000000,0.0000000000,0.0000000000,0.0000000000,,,
1.3759999978,10,105756.0000000000,97830.1250000000,162574.1562500000,147116.0781250000,0.0000000000,0.0000000000,0.0000000000,0.0000000000,,,
1.3799999978,10,105747.5000000000,97817.9765625000,162561.6875000000,147110.6875000000,0.0000000000,0.0000000000,0.0000000000,0.0000000000,,,
1.3839999977,10,105754.7656250000,97829.8046875000,162568.2812500000,147120.3437500000,0.0000000000,0.0000000000,0.0000000000,0.0000000000,,,
1.3879999977,10,105770.1640625000,97838.4921875000,162586.4375000000,147127.4531250000,0.0000000000,0.0000000000,0.0000000000,0.0000000000,,,
1.3919999979,10,105757.9609375000,97818.5390625000,162572.7656250000,147118.0000000000,0.0000000000,0.0000000000,0.0000000000,0.0000000000,,,
1.3959999979,10,105753.3984375000,97818.4296875000,162566.2500000000,147114.7812500000,0.0000000000,0.0000000000,0.0000000000,0.0000000000,,,
1.3999999978,10,105744.4921875000,97809.7421875000,162551.2031250000,147108.6718750000,0.0000000000,0.0000000000,0.0000000000,0.0000000000,,,
1.4039999978,10,105758.8750000000,97825.1093750000,162564.7187500000,147117.2031250000,0.0000000000,0.0000000000,0.0000000000,0.0000000000,,,
1.4079999977,11,105765.6015625000,97822.6171875000,162572.6875000000,147119.1250000000,0.0000000000,0.0000000000,0.0000000000,0.0000000000,,,
1.4119999977,11,105746.4296875000,97803.8984375000,162557.7656250000,147114.2500000000,0.0000000000,0.0000000000,0.0000000000,0.0000000000,,,
1.4159999976,11,105740.7109375000,97804.5156250000,162554.9843750000,147117.3906250000,0.0000000000,0.0000000000,0.0000000000,0.0000000000,,,
1.4199999976,11,105756.6718750000,97823.2578125000,162575.6250000000,147137.6875000000,0.0000000000,0.0000000000,0.0000000000,0.0000000000,33029,1.4229955953,0.0000000000
1.4239999976,11,105805.4062500000,97876.4765625000,162631.9375000000,147178.3281250000,0.0000000000,0.0000000000,0.0000000000,0.0000000000,,,
1.4279999975,11,105792.0000000000,97857.4843750000,162621.3125000000,147151.2656250000,0.0000000000,0.0000000000,0.0000000000,0.0000000000,,,
1.4319999977,11,105756.4062500000,97824.8437500000,162588.2031250000,147130.0468750000,0.0000000000,0.0000000000,0.0000000000,0.0000000000,,,
1.4359999977,11,105737.0625000000,97802.1015625000,162566.5156250000,147117.9218750000,0.0000000000,0.0000000000,0.0000000000,0.0000000000,,,
1.4399999976,11,105726.2812500000,97790.3515625000,162549.2343750000,147106.4375000000,0.0000000000,0.0000000000,0.0000000000,0.0000000000,,,
1.4439999976,11,105747.0703125000,97808.1328125000,162563.4843750000,147116.3125000000,0.0000000000,0.0000000000,0.0000000000,0.0000000000,,,
1.4479999975,11,105782.6093750000,97840.6171875000,162600.8437500000,147139.9218750000,0.0000000000,0.0000000000,0.0000000000,0.0000000000,,,
1.4519999977,11,105765.9765625000,97826.5859375000,162589.5312500000,147122.5156250000,0.0000000000,0.0000000000,0.0000000000,0.0000000000,,,
1.4559999977,11,105751.2265625000,97818.8046875000,162571.4531250000,147122.4843750000,0.0000000000,0.0000000000,0.0000000000,0.0000000000,,,
1.4599999976,11,105736.1250000000,97794.8593750000,162544.1093750000,147120.0625000000,0.0000000000,0.0000000000,0.0000000000,0.0000000000,,,
1.4639999976,11,105734.1171875000,97795.9296875000,162545.6718750000,147121.8437500000,0.0000000000,0.0000000000,0.0000000000,0.0000000000,,,
1.4679999975,11,105752.1640625000,97817.8125000000,162569.3281250000,147132.3593750000,0.0000000000,0.0000000000,0.0000000000,0.0000000000,,,
1.4719999975,11,105755.3281250000,97816.1796875000,162568.3906250000,147134.5000000000,0.0000000000,0.0000000000,0.0000000000,0.0000000000,,,
1.4759999977,11,105738.4062500000,97799.2812500000,162557.5781250000,147124.0468750000,0.0000000000,0.0000000000,0.0000000000,0.0000000000,,,
1.4799999977,11,105744.3046875000,97811.9453125000,162562.8437500000,147122.0000000000,0.0000000000,0.0000000000,0.0000000000,0.0000000000,,,
1.4839999976,11,105789.5859375000,97867.7343750000,162614.4218750000,147161.6718750000,0.0000000000,0.0000000000,0.0000000000,0.0000000000,,,
1.4879999976,11,105774.2968750000,97840.9375000000,162596.3593750000,147144.3750000000,0.0000000000,0.0000000000,0.0000000000,0.0000000000,,,
1.4919999975,11,105766.9218750000,97827.2812500000,162578.5468750000,147129.6718750000,0.0000000000,0.0000000000,0.0000000000,0.0000000000,,,
1.4959999977,11,105765.7656250000,97823.4218750000,162571.4687500000,147111.1718750000,0.0000000000,0.0000000000,0.0000000000,0.0000000000,,,
1.4999999977,11,105772.6875000000,97829.3750000000,162568.8750000000,147106.5312500000,0.0000000000,0.0000000000,0.0000000000,0.0000000000,,,
1.5039999976,11,105785.5312500000,97832.8593750000,162575.6250000000,147104.1406250000,0.0000000000,0.0000000000,0.0000000000,0.0000000000,,,
1.5079999976,11,105802.9921875000,97846.1640625000,162602.2343750000,147121.0156250000,0.0000000000,0.0000000000,0.0000000000,0.0000000000,,,
1.5119999975,11,105826.1406250000,97873.9843750000,162620.1093750000,147138.0156250000,0.0000000000,0.0000000000,0.0000000000,0.0000000000,,,
1.5159999975,11,105822.4375000000,97877.2500000000,162617.2812500000,147142.5000000000,0.0000000000,0.0000000000,0.0000000000,0.0000000000,,,
1.5199999977,11,105776.6015625000,97820.6875000000,162557.8750000000,147121.8125000000,0.0000000000,0.0000000000,0.0000000000,0.0000000000,,,
1.5239999976,11,105778.2890625000,97824.4921875000,162557.1562500000,147117.7031250000,0.0000000000,0.0000000000,0.0000000000,0.0000000000,,,
1.5279999976,11,105783.7890625000,97835.2265625000,162572.8906250000,147132.7031250000,0.0000000000,0.0000000000,0.0000000000,0.0000000000,,,
1.5319999976,11,105786.2812500000,97840.3984375000,162579.5156250000,147125.2812500000,0.0000000000,0.0000000000,0.0000000000,0.0000000000,,,
1.5359999975,12,105773.0312500000,97827.3906250000,162570.6718750000,147124.6875000000,0.0000000000,0.0000000000,0.0000000000,0.0000000000,,,
1.5399999975,12,105770.2187500000,97831.0390625000,162568.9218750000,147121.6250000000,0.0000000000,0.0000000000,0.0000000000,0.0000000000,,,
1.5439999974,12,105774.9687500000,97831.6562500000,162573.5312500000,147118.7500000000,0.0000000000,0.0000000000,0.0000000000,0.0000000000,,,
1.5479999974,12,105771.8515625000,97823.6328125000,162575.3593750000,147106.7187500000,0.0000000000,0.0000000000,0.0000000000,0.0000000000,,,
1.5519999973,12,105775.2109375000,97824.2812500000,162576.3750000000,147115.9062500000,0.0000000000,0.0000000000,0.0000000000,0.0000000000,,,
1.5559999973,12,105763.2734375000,97816.8515625000,162560.8593750000,147114.7656250000,0.0000000000,0.0000000000,0.0000000000,0.0000000000,,,
1.5599999975,12,105753.5625000000,97813.7421875000,162554.8906250000,147116.9062500000,0.0000000000,0.0000000000,0.0000000000,0.0000000000,,,
1.5639999975,12,105749.4062500000,97804.7031250000,162550.0468750000,147106.5468750000,0.0000000000,0.0000000000,0.0000000000,0.0000000000,,,
1.5679999974,12,105762.3593750000,97815.3515625000,162570.6093750000,147110.8437500000,0.0000000000,0.0000000000,0.0000000000,0.0000000000,,,
1.5719999974,12,105762.7109375000,97815.6406250000,162571.5312500000,147103.3281250000,0.0000000000,0.0000000000,0.0000000000,0.0000000000,,,
1.5759999973,12,105774.4843750000,97830.7187500000,162577.7968750000,147112.3750000000,0.0000000000,0.0000000000,0.0000000000,0.0000000000,,,
1.5799999975,12,105792.9062500000,97846.6796875000,162595.2656250000,147123.1250000000,0.0000000000,0.0000000000,0.0000000000,0.0000000000,,,
1.5839999975,12,105790.2578125000,97840.2109375000,162591.1875000000,147118.4531250000,0.0000000000,0.0000000000,0.0000000000,0.0000000000,,,
1.5879999974,12,105789.5000000000,97834.9296875000,162591.1406250000,147111.6250000000,0.0000000000,0.0000000000,0.0000000000,0.0000000000,,,
1.5919999974,12,105803.1250000000,97846.0078125000,162607.1718750000,147121.4062500000,0.0000000000,0.0000000000,0.0000000000,0.0000000000,,,
1.5959999973,12,105794.8906250000,97839.7812500000,162594.2187500000,147107.0000000000,0.0000000000,0.0000000000,0.0000000000,0.0000000000,,,
1.5999999973,12,105769.8984375000,97816.3906250000,162565.8125000000,147103.7656250000,0.0000000000,0.0000000000,0.0000000000,0.0000000000,,,
1.6039999975,12,105785.8828125000,97835.3046875000,162580.7500000000,147108.5625000000,0.0000000000,0.0000000000,0.0000000000,0.0000000000,,,
1.6079999974,12,105804.2578125000,97854.9375000000,162603.2656250000,147115.3437500000,0.0000000000,0.0000000000,0.0000000000,0.0000000000,,,
1.6119999974,12,105789.8281250000,97839.7031250000,162588.2343750000,147117.8750000000,0.0000000000,0.0000000000,0.0000000000,0.0000000000,,,
1.6159999974,12,105789.1796875000,97841.7109375000,162583.2812500000,147121.2500000000,0.0000000000,0.0000000000,0.0000000000,0.0000000000,,,
1.6199999973,12,105768.3125000000,97817.8125000000,162556.9687500000,147100.7812500000,0.0000000000,0.0000000000,0.0000000000,0.0000000000,,,
1.6239999975,12,105767.3203125000,97818.6718750000,162557.9843750000,147107.0312500000,0.0000000000,0.0000000000,0.0000000000,0.0000000000,,,
1.6279999975,12,105774.0234375000,97826.2343750000,162564.7968750000,147107.7343750000,0.0000000000,0.0000000000,0.0000000000,0.0000000000,,,
1.6319999974,12,105770.9921875000,97828.3281250000,162562.3750000000,147106.3437500000,0.0000000000,0.0000000000,0.0000000000,0.0000000000,,,
1.6359999974,12,105768.9296875000,97822.1640625000,162555.5468750000,147103.2031250000,0.0000000000,0.0000000000,0.0000000000,0.0000000000,,,
1.6399999973,12,105751.0937500000,97808.2656250000,162535.6093750000,147097.1406250000,0.0000000000,0.0000000000,0.0000000000,0.0000000000,,,
1.6439999973,12,105742.3750000000,97802.7656250000,162530.5468750000,147093.5156250000,0.0000000000,0.0000000000,0.0000000000,0.0000000000,,,
1.6479999975,12,105766.2500000000,97824.2812500000,162555.7500000000,147098.9375000000,0.0000000000,0.0000000000,0.0000000000,0.0000000000,,,
1.6519999974,12,105769.1953125000,97823.9609375000,162559.2656250000,147097.7343750000,0.0000000000,0.0000000000,0.0000000000,0.0000000000,,,
1.6559999974,12,105773.3046875000,97825.2968750000,162560.1562500000,147086.3593750000,0.0000000000,0.0000000000,0.0000000000,0.0000000000,,,
1.6599999974,12,105798.4921875000,97851.7421875000,162580.0000000000,147098.2343750000,0.0000000000,0.0000000000,0.0000000000,0.0000000000,,,
1.6639999973,13,105771.5859375000,97825.2734375000,162553.2812500000,147082.9531250000,0.0000000000,0.0000000000,0.0000000000,0.0000000000,,,
1.6679999973,13,105770.7578125000,97819.6640625000,162550.9218750000,147079.4375000000,0.0000000000,0.0000000000,0.0000000000,0.0000000000,,,
1.6719999972,13,105772.4453125000,97818.1406250000,162550.5468750000,147075.8437500000,0.0000000000,0.0000000000,0.0000000000,0.0000000000,,,
1.6759999972,13,105772.1484375000,97822.2109375000,162551.4843750000,147082.4687500000,0.0000000000,0.0000000000,0.0000000000,0.0000000000,,,
1.6799999971,13,105797.5468750000,97852.0703125000,162576.3750000000,147099.9531250000,0.0000000000,0.0000000000,0.0000000000,0.0000000000,,,
1.6839999971,13,105771.5625000000,97825.2187500000,162549.8750000000,147081.3437500000,0.0000000000,0.0000000000,0.0000000000,0.0000000000,,,
1.6879999973,13,105769.7109375000,97821.0078125000,162546.2656250000,147083.9062500000,0.0000000000,0.0000000000,0.0000000000,0.0000000000,,,
1.6919999972,13,105767.5390625000,97819.8828125000,162547.0156250000,147081.7343750000,0.0000000000,0.0000000000,0.0000000000,0.0000000000,,,
1.6959999972,13,105759.1640625000,97817.2500000000,162538.2343750000,147080.7187500000,0.0000000000,0.0000000000,0.0000000000,0.0000000000,,,
1.6999999972,13,105774.8828125000,97833.9609375000,162551.1718750000,147097.0781250000,0.0000000000,0.0000000000,0.0000000000,0.0000000000,,,
1.7039999971,13,105782.7187500000,97834.8750000000,162558.0625000000,147095.0156250000,0.0000000000,0.0000000000,0.0000000000,0.0000000000,,,
1.7079999973,13,105774.3750000000,97826.9921875000,162551.9687500000,147081.8437500000,0.0000000000,0.0000000000,0.0000000000,0.0000000000,,,
1.7119999973,13,105764.2109375000,97823.7421875000,162547.8125000000,147075.9531250000,0.0000000000,0.0000000000,0.0000000000,0.0000000000,,,
1.7159999972,13,105752.1640625000,97818.4843750000,162542.3750000000,147072.7500000000,0.0000000000,0.0000000000,0.0000000000,0.0000000000,,,
1.7199999972,13,105744.5468750000,97809.7421875000,162532.4531250000,147061.5156250000,0.0000000000,0.0000000000,0.0000000000,0.0000000000,,,
1.7239999971,13,105757.0781250000,97826.0468750000,162546.2812500000,147069.4531250000,0.0000000000,0.0000000000,0.0000000000,0.0000000000,,,
1.7279999971,13,105780.3593750000,97857.6171875000,162575.6093750000,147080.7500000000,0.0000000000,0.0000000000,0.0000000000,0.0000000000,,,
1.7319999973,13,105789.6640625000,97865.4765625000,162585.7187500000,147097.4375000000,0.0000000000,0.0000000000,0.0000000000,0.0000000000,,,
1.7359999972,13,105797.0937500000,97863.4687500000,162585.5000000000,147099.3125000000,0.0000000000,0.0000000000,0.0000000000,0.0000000000,,,
1.7399999972,13,105776.8984375000,97841.9843750000,162561.7031250000,147079.1406250000,0.0000000000,0.0000000000,0.0000000000,0.0000000000,,,
1.7439999972,13,105766.6484375000,97829.4531250000,162550.4218750000,147070.3125000000,0.0000000000,0.0000000000,0.0000000000,0.0000000000,,,
1.7479999971,13,105767.1093750000,97829.9375000000,162553.7187500000,147071.0625000000,0.0000000000,0.0000000000,0.0000000000,0.0000000000,,,
1.7519999973,13,105783.0390625000,97844.9296875000,162569.9687500000,147082.0156250000,0.0000000000,0.0000000000,0.0000000000,0.0000000000,,,
1.7559999973,13,105786.1250000000,97846.6250000000,162567.0156250000,147077.6406250000,0.0000000000,0.0000000000,0.0000000000,0.0000000000,,,
1.7599999972,13,105795.7265625000,97858.6093750000,162574.5781250000,147086.3593750000,0.0000000000,0.0000000000,0.0000000000,0.0000000000,,,
1.7639999972,13,105777.9687500000,97839.0625000000,162556.8593750000,147081.4687500000,0.0000000000,0.0000000000,0.0000000000,0.0000000000,,,
1.7679999971,13,105774.7812500000,97840.2656250000,162556.9375000000,147082.5000000000,0.0000000000,0.0000000000,0.0000000000,0.0000000000,,,
1.7719999971,13,105788.4609375000,97853.2734375000,162569.3750000000,147084.7968750000,0.0000000000,0.0000000000,0.0000000000,0.0000000000,,,
1.7759999973,13,105792.3984375000,97852.4687500000,162571.3593750000,147089.5156250000,0.0000000000,0.0000000000,0.0000000000,0.0000000000,,,
1.7799999972,13,105781.7500000000,97842.2812500000,162560.0156250000,147094.1562500000,0.0000000000,0.0000000000,0.0000000000,0.0000000000,,,
1.7839999972,13,105788.9687500000,97850.9687500000,162567.1875000000,147091.8593750000,0.0000000000,0.0000000000,0.0000000000,0.0000000000,,,
1.7879999971,13,105803.7421875000,97857.1406250000,162578.2343750000,147085.9843750000,0.0000000000,0.0000000000,0.0000000000,0.0000000000,,,
1.7919999971,14,105808.2265625000,97856.6015625000,162580.0781250000,147089.8906250000,0.0000000000,0.0000000000,0.0000000000,0.0000000000,,,
1.7959999971,14,105786.1484375000,97839.1093750000,162560.6093750000,147083.6718750000,0.0000000000,0.0000000000,0.0000000000,0.0000000000,,,
1.7999999970,14,105772.0390625000,97831.3359375000,162551.0937500000,147075.5468750000,0.0000000000,0.0000000000,0.0000000000,0.0000000000,,,
1.8039999970,14,105767.3984375000,97831.7343750000,162551.8437500000,147066.3125000000,0.0000000000,0.0000000000,0.0000000000,0.0000000000,,,
1.8079999969,14,105778.6640625000,97843.9375000000,162566.2500000000,147072.7812500000,0.0000000000,0.0000000000,0.0000000000,0.0000000000,,,
1.8119999969,14,105796.9062500000,97861.5625000000,162583.9687500000,147096.5781250000,0.0000000000,0.0000000000,0.0000000000,0.0000000000,,,
1.8159999971,14,105801.5703125000,97871.5390625000,162584.9375000000,147098.6093750000,0.0000000000,0.0000000000,0.0000000000,0.0000000000,,,
1.8199999970,14,105774.5078125000,97846.4921875000,162556.0781250000,147072.0781250000,0.0000000000,0.0000000000,0.0000000000,0.0000000000,,,
1.8239999970,14,105781.0546875000,97855.9296875000,162564.0156250000,147079.7812500000,0.0000000000,0.0000000000,0.0000000000,0.0000000000,,,
1.8279999970,14,105791.2734375000,97856.9765625000,162572.2187500000,147081.4687500000,0.0000000000,0.0000000000,0.0000000000,0.0000000000,,,
1.8319999969,14,105783.4687500000,97842.1171875000,162560.5625000000,147074.0625000000,0.0000000000,0.0000000000,0.0000000000,0.0000000000,,,
1.8359999971,14,105781.2656250000,97841.0468750000,162555.5937500000,147067.7968750000,0.0000000000,0.0000000000,0.0000000000,0.0000000000,,,
1.8399999971,14,105778.1875000000,97839.5937500000,162551.8906250000,147076.5937500000,0.0000000000,0.0000000000,0.0000000000,0.0000000000,,,
1.8439999970,14,105775.1562500000,97839.0312500000,162554.8750000000,147070.3125000000,0.0000000000,0.0000000000,0.0000000000,0.0000000000,,,
1.8479999970,14,105789.5312500000,97852.0390625000,162579.6562500000,147081.4218750000,0.0000000000,0.0000000000,0.0000000000,0.0000000000,,,
1.8519999969,14,105798.2187500000,97858.1796875000,162591.2968750000,147078.7656250000,0.0000000000,0.0000000000,0.0000000000,0.0000000000,,,
1.8559999969,14,105790.8437500000,97853.7343750000,162576.0625000000,147071.3906250000,0.0000000000,0.0000000000,0.0000000000,0.0000000000,,,
1.8599999971,14,105783.0625000000,97849.7578125000,162564.2343750000,147071.4687500000,0.0000000000,0.0000000000,0.0000000000,0.0000000000,,,
1.8639999970,14,105785.1328125000,97854.8281250000,162565.4062500000,147073.8750000000,0.0000000000,0.0000000000,0.0000000000,0.0000000000,,,
1.8679999970,14,105824.6171875000,97888.1718750000,162604.9218750000,147091.2968750000,0.0000000000,0.0000000000,0.0000000000,0.0000000000,,,
1.8719999969,14,105832.4453125000,97891.2812500000,162612.0000000000,147105.6718750000,0.0000000000,0.0000000000,0.0000000000,0.0000000000,,,
1.8759999969,14,105820.4531250000,97887.6093750000,162598.6406250000,147106.3906250000,0.0000000000,0.0000000000,0.0000000000,0.0000000000,,,
1.8799999971,14,105817.8828125000,97882.7812500000,162590.2187500000,147109.7656250000,0.0000000000,0.0000000000,0.0000000000,0.0000000000,,,
1.8839999971,14,105826.1953125000,97889.5937500000,162595.1093750000,147114.0156250000,0.0000000000,0.0000000000,0.0000000000,0.0000000000,,,
1.8879999970,14,105831.1875000000,97891.5781250000,162598.7187500000,147101.5937500000,0.0000000000,0.0000000000,0.0000000000,0.0000000000,,,
1.8919999970,14,105843.4140625000,97906.2187500000,162611.2187500000,147097.0781250000,0.0000000000,0.0000000000,0.0000000000,0.0000000000,,,
1.8959999969,14,105830.4062500000,97894.1484375000,162592.1875000000,147083.4531250000,0.0000000000,0.0000000000,0.0000000000,0.0000000000,,,
1.8999999969,14,105821.0468750000,97887.0468750000,162581.0156250000,147080.2656250000,0.0000000000,0.0000000000,0.0000000000,0.0000000000,,,
1.9039999971,14,105831.0234375000,97897.8515625000,162594.0312500000,147083.4531250000,0.0000000000,0.0000000000,0.0000000000,0.0000000000,,,
1.9079999970,14,105841.4296875000,97902.0078125000,162605.8281250000,147083.6406250000,0.0000000000,0.0000000000,0.0000000000,0.0000000000,,,
1.9119999970,14,105838.0546875000,97899.9453125000,162604.0312500000,147074.6875000000,0.0000000000,0.0000000000,0.0000000000,0.0000000000,,,
1.9159999969,14,105862.8359375000,97923.2031250000,162621.9218750000,147094.1406250000,0.0000000000,0.0000000000,0.0000000000,0.0000000000,,,
1.9199999969,15,105844.9453125000,97906.1171875000,162599.7968750000,147074.5468750000,0.0000000000,0.0000000000,0.0000000000,0.0000000000,,,
1.9239999969,15,105827.8828125000,97889.6171875000,162582.5000000000,147069.9062500000,0.0000000000,0.0000000000,0.0000000000,0.0000000000,,,
1.9279999968,15,105839.2031250000,97906.9218750000,162597.6562500000,147076.1093750000,0.0000000000,0.0000000000,0.0000000000,0.0000000000,,,
1.9319999968,15,105832.2343750000,97890.6953125000,162588.2656250000,147062.7187500000,0.0000000000,0.0000000000,0.0000000000,0.0000000000,,,
1.9359999967,15,105819.3593750000,97870.0937500000,162581.2031250000,147054.8593750000,0.0000000000,0.0000000000,0.0000000000,0.0000000000,,,
1.9399999967,15,105817.2343750000,97872.2343750000,162579.2187500000,147060.7187500000,0.0000000000,0.0000000000,0.0000000000,0.0000000000,,,
1.9439999969,15,105839.0468750000,97899.0078125000,162597.4687500000,147079.7031250000,0.0000000000,0.0000000000,0.0000000000,0.0000000000,,,
1.9479999968,15,105868.9765625000,97926.9531250000,162628.9843750000,147097.8906250000,0.0000000000,0.0000000000,0.0000000000,0.0000000000,,,
1.9519999968,15,105867.2890625000,97919.2578125000,162623.0468750000,147086.1718750000,0.0000000000,0.0000000000,0.0000000000,0.0000000000,,,
1.9559999967,15,105852.7734375000,97910.6484375000,162606.3437500000,147068.7343750000,0.0000000000,0.0000000000,0.0000000000,0.0000000000,,,
1.9599999967,15,105837.5937500000,97895.6562500000,162588.5312500000,147075.5781250000,0.0000000000,0.0000000000,0.0000000000,0.0000000000,,,
1.9639999969,15,105825.4453125000,97891.2265625000,162580.1406250000,147069.5937500000,0.0000000000,0.0000000000,0.0000000000,0.0000000000,,,
1.9679999969,15,105853.4453125000,97915.4765625000,162612.2656250000,147083.2656250000,0.0000000000,0.0000000000,0.0000000000,0.0000000000,,,
1.9719999968,15,105847.3281250000,97906.9687500000,162609.8906250000,147071.5156250000,0.0000000000,0.0000000000,0.0000000000,0.0000000000,,,
1.9759999968,15,105830.5703125000,97897.7968750000,162595.6718750000,147066.5937500000,0.0000000000,0.0000000000,0.0000000000,0.0000000000,,,
1.9799999967,15,105831.8281250000,97903.2734375000,162589.2343750000,147064.4218750000,0.0000000000,0.0000000000,0.0000000000,0.0000000000,,,
1.9839999967,15,105825.7656250000,97890.6640625000,162581.3906250000,147052.8593750000,0.0000000000,0.0000000000,0.0000000000,0.0000000000,,,
1.9879999969,15,105828.2109375000,97889.0546875000,162583.5468750000,147053.4687500000,0.0000000000,0.0000000000,0.0000000000,0.0000000000,,,
1.9919999968,15,105849.1796875000,97909.7890625000,162603.0625000000,147063.2031250000,0.0000000000,0.0000000000,0.0000000000,0.0000000000,,,
1.9959999968,15,105831.8828125000,97903.7031250000,162590.7343750000,147067.2500000000,0.0000000000,0.0000000000,0.0000000000,0.0000000000,,,
1.9999999967,15,105819.2734375000,97895.8437500000,162583.1406250000,147069.2968750000,0.0000000000,0.0000000000,0.0000000000,0.0000000000,,,
2.0039999967,15,105808.2812500000,97877.7343750000,162573.7812500000,147060.5312500000,0.0000000000,0.0000000000,0.0000000000,0.0000000000,,,
2.0079999969,15,105792.8046875000,97854.6406250000,162560.1562500000,147039.7968750000,0.0000000000,0.0000000000,0.0000000000,0.0000000000,,,
2.0119999968,15,105795.2734375000,97854.8828125000,162562.3750000000,147042.1250000000,0.0000000000,0.0000000000,0.0000000000,0.0000000000,,,
2.0159999968,15,105791.8359375000,97852.2265625000,162555.2656250000,147035.4531250000,0.0000000000,0.0000000000,0.0000000000,0.0000000000,,,
2.0199999968,15,105802.5390625000,97865.5078125000,162565.7031250000,147043.1250000000,0.0000000000,0.0000000000,0.0000000000,0.0000000000,,,
2.0239999967,15,105806.6171875000,97871.3828125000,162570.3437500000,147051.2187500000,0.0000000000,0.0000000000,0.0000000000,0.0000000000,,,
2.0279999967,15,105826.9218750000,97892.8906250000,162590.2500000000,147056.8750000000,0.0000000000,0.0000000000,0.0000000000,0.0000000000,,,
2.0319999969,15,105834.9140625000,97890.0234375000,162594.5468750000,147065.5625000000,0.0000000000,0.0000000000,0.0000000000,0.0000000000,,,
2.0359999968,15,105824.7500000000,97884.7109375000,162585.0781250000,147068.2187500000,0.0000000000,0.0000000000,0.0000000000,0.0000000000,,,
2.0399999968,15,105803.3437500000,97862.3906250000,162563.1562500000,147060.7968750000,0.0000000000,0.0000000000,0.0000000000,0.0000000000,,,
2.0439999967,15,105796.7187500000,97857.1640625000,162555.4531250000,147048.6093750000,0.0000000000,0.0000000000,0.0000000000,0.0000000000,,,
2.0479999967,16,105822.6562500000,97880.8203125000,162582.9843750000,147060.1562500000,0.0000000000,0.0000000000,0.0000000000,0.0000000000,,,
2.0519999966,16,105810.9375000000,97871.2734375000,162574.8281250000,147047.4687500000,0.0000000000,0.0000000000,0.0000000000,0.0000000000,,,
2.0559999966,16,105801.0625000000,97866.2031250000,162565.0156250000,147041.1250000000,0.0000000000,0.0000000000,0.0000000000,0.0000000000,,,
2.0599999966,16,105793.8515625000,97866.1484375000,162557.0625000000,147025.5468750000,0.0000000000,0.0000000000,0.0000000000,0.0000000000,,,
2.0639999965,16,105808.6015625000,97883.3671875000,162572.1718750000,147035.5000000000,0.0000000000,0.0000000000,0.0000000000,0.0000000000,,,
2.0679999965,16,105800.9843750000,97859.5781250000,162559.0625000000,147024.4531250000,0.0000000000,0.0000000000,0.0000000000,0.0000000000,,,
2.0719999967,16,105797.1171875000,97856.8984375000,162541.4531250000,147023.1406250000,0.0000000000,0.0000000000,0.0000000000,0.0000000000,,,
2.0759999966,16,105795.0312500000,97852.8203125000,162443.9843750000,147015.3906250000,0.0000000000,0.0000000000,0.0000000000,0.0000000000,,,
2.0799999966,16,105787.7031250000,97845.6562500000,162488.2187500000,147009.6718750000,0.0000000000,0.0000000000,0.0000000000,0.0000000000,,,
2.0839999965,16,105801.7890625000,97862.2031250000,162540.0625000000,147030.9062500000,0.0000000000,0.0000000000,0.0000000000,0.0000000000,,,
2.0879999965,16,105848.4609375000,97903.9687500000,162600.3906250000,147071.2031250000,0.0000000000,0.0000000000,0.0000000000,0.0000000000,,,
2.0919999967,16,105840.1718750000,97883.6875000000,162597.6250000000,147061.2187500000,0.0000000000,0.0000000000,0.0000000000,0.0000000000,,,
2.0959999966,16,105805.6484375000,97859.8437500000,162570.4062500000,147046.7968750000,0.0000000000,0.0000000000,0.0000000000,0.0000000000,,,
2.0999999966,16,105800.1484375000,97850.8359375000,162558.9218750000,147043.4375000000,0.0000000000,0.0000000000,0.0000000000,0.0000000000,,,
2.1039999966,16,105806.7734375000,97860.0859375000,162566.4531250000,147056.4687500000,0.0000000000,0.0000000000,0.0000000000,0.0000000000,,,
2.1079999965,16,105808.7109375000,97867.2500000000,162573.0781250000,147053.4375000000,0.0000000000,0.0000000000,0.0000000000,0.0000000000,,,
2.1119999965,16,105793.0156250000,97849.4375000000,162557.4687500000,147034.4531250000,0.0000000000,0.0000000000,0.0000000000,0.0000000000,,,
2.1159999967,16,105773.1406250000,97832.5937500000,162534.7812500000,147026.4062500000,0.0000000000,0.0000000000,0.0000000000,0.0000000000,,,
2.1199999966,16,105772.0390625000,97834.7421875000,162528.3125000000,147026.0781250000,0.0000000000,0.0000000000,0.0000000000,0.0000000000,,,
2.1239999966,16,105771.1875000000,97835.1406250000,162528.4531250000,147034.1875000000,0.0000000000,0.0000000000,0.0000000000,0.0000000000,,,
2.1279999965,16,105780.2265625000,97840.0000000000,162539.7187500000,147053.9843750000,0.0000000000,0.0000000000,0.0000000000,0.0000000000,,,
2.1319999965,16,105799.5625000000,97859.7656250000,162564.9843750000,147063.2812500000,0.0000000000,0.0000000000,0.0000000000,0.0000000000,,,
2.1359999967,16,105793.8203125000,97856.6250000000,162561.6875000000,147052.9062500000,0.0000000000,0.0000000000,0.0000000000,0.0000000000,,,
2.1399999966,16,105782.1562500000,97848.5000000000,162548.2187500000,147046.0468750000,0.0000000000,0.0000000000,0.0000000000,0.0000000000,,,
2.1439999966,16,105777.9140625000,97841.6875000000,162545.1406250000,147044.0781250000,0.0000000000,0.0000000000,0.0000000000,0.0000000000,,,
2.1479999966,16,105766.9218750000,97817.2265625000,162533.8906250000,147039.7656250000,0.0000000000,0.0000000000,0.0000000000,0.0000000000,,,
2.1519999965,16,105763.7812500000,97808.7734375000,162529.2500000000,147033.5937500000,0.0000000000,0.0000000000,0.0000000000,0.0000000000,,,
2.1559999965,16,105775.2890625000,97827.2578125000,162542.5000000000,147041.5937500000,0.0000000000,0.0000000000,0.0000000000,0.0000000000,,,
2.1599999967,16,105777.1406250000,97833.0000000000,162541.7343750000,147038.2343750000,0.0000000000,0.0000000000,0.0000000000,0.0000000000,,,
2.1639999966,16,105772.4687500000,97825.8906250000,162535.7500000000,147031.6406250000,0.0000000000,0.0000000000,0.0000000000,0.0000000000,,,
2.1679999966,16,105769.7109375000,97828.1171875000,162537.6562500000,147029.2968750000,0.0000000000,0.0000000000,0.0000000000,0.0000000000,,,
2.1719999965,16,105777.2187500000,97838.9765625000,162545.2968750000,147036.0312500000,0.0000000000,0.0000000000,0.0000000000,0.0000000000,,,
2.1759999965,17,105776.9218750000,97838.4453125000,162541.5468750000,147034.4218750000,0.0000000000,0.0000000000,0.0000000000,0.0000000000,,,
2.1799999964,17,105769.6015625000,97837.2890625000,162534.8906250000,147038.6093750000,0.0000000000,0.0000000000,0.0000000000,0.0000000000,,,
2.1839999964,17,105789.2656250000,97860.7812500000,162553.4531250000,147061.9218750000,0.0000000000,0.0000000000,0.0000000000,0.0000000000,,,
2.1879999964,17,105805.0312500000,97868.1328125000,162569.8437500000,147068.5781250000,0.0000000000,0.0000000000,0.0000000000,0.0000000000,,,
2.1919999963,17,105810.0234375000,97866.2812500000,162574.7656250000,147066.0468750000,0.0000000000,0.0000000000,0.0000000000,0.0000000000,,,
2.1959999963,17,105776.6250000000,97829.7500000000,162540.1718750000,147037.4843750000,0.0000000000,0.0000000000,0.0000000000,0.0000000000,,,
2.1999999965,17,105742.4296875000,97802.6875000000,162509.0625000000,147021.5000000000,0.0000000000,0.0000000000,0.0000000000,0.0000000000,,,
2.2039999964,17,105746.5312500000,97817.2500000000,162520.4531250000,147032.8906250000,0.0000000000,0.0000000000,0.0000000000,0.0000000000,,,
2.2079999964,17,105756.9140625000,97826.8046875000,162534.1406250000,147042.9218750000,0.0000000000,0.0000000000,0.0000000000,0.0000000000,,,
2.2119999963,17,105768.0703125000,97834.9531250000,162547.8750000000,147041.9062500000,0.0000000000,0.0000000000,0.0000000000,0.0000000000,,,
2.2159999963,17,105770.3281250000,97838.5468750000,162549.1093750000,147034.7968750000,0.0000000000,0.0000000000,0.0000000000,0.0000000000,,,
2.2199999965,17,105759.8906250000,97834.6093750000,162536.2812500000,147024.2656250000,0.0000000000,0.0000000000,0.0000000000,0.0000000000,,,
2.2239999964,17,105749.1093750000,97825.5156250000,162523.0937500000,147015.2031250000,0.0000000000,0.0000000000,0.0000000000,0.0000000000,,,
2.2279999964,17,105763.9140625000,97837.1562500000,162533.5468750000,147018.1250000000,0.0000000000,0.0000000000,0.0000000000,0.0000000000,,,
2.2319999964,17,105770.4296875000,97843.4062500000,162538.0312500000,147017.9531250000,0.0000000000,0.0000000000,0.0000000000,0.0000000000,,,
2.2359999963,17,105759.8671875000,97838.5781250000,162524.6718750000,147009.8593750000,0.0000000000,0.0000000000,0.0000000000,0.0000000000,,,
2.2399999963,17,105754.3359375000,97833.7500000000,162515.6875000000,147002.3437500000,0.0000000000,0.0000000000,0.0000000000,0.0000000000,,,
2.2439999965,17,105751.4140625000,97820.7968750000,162517.7812500000,146999.2343750000,0.0000000000,0.0000000000,0.0000000000,0.0000000000,,,
2.2479999964,17,105750.6953125000,97816.5546875000,162525.8750000000,147008.7031250000,0.0000000000,0.0000000000,0.0000000000,0.0000000000,,,
2.2519999964,17,105744.3046875000,97817.7890625000,162521.7968750000,147020.0781250000,0.0000000000,0.0000000000,0.0000000000,0.0000000000,,,
2.2559999963,17,105742.7500000000,97813.2031250000,162518.1718750000,147025.0937500000,0.0000000000,0.0000000000,0.0000000000,0.0000000000,,,
2.2599999963,17,105732.1562500000,97803.5234375000,162505.6250000000,147024.6875000000,0.0000000000,0.0000000000,0.0000000000,0.0000000000,,,
2.2639999965,17,105742.3750000000,97813.5234375000,162514.3750000000,147031.7968750000,0.0000000000,0.0000000000,0.0000000000,0.0000000000,,,
2.2679999964,17,105763.0859375000,97831.7890625000,162541.2968750000,147046.2812500000,0.0000000000,0.0000000000,0.0000000000,0.0000000000,,,
2.2719999964,17,105750.4765625000,97812.3750000000,162531.5937500000,147038.2656250000,0.0000000000,0.0000000000,0.0000000000,0.0000000000,,,
2.2759999963,17,105729.1015625000,97794.5078125000,162509.5937500000,147021.5000000000,0.0000000000,0.0000000000,0.0000000000,0.0000000000,,,
2.2799999963,17,105721.8593750000,97786.5390625000,162497.1718750000,147021.8437500000,0.0000000000,0.0000000000,0.0000000000,0.0000000000,,,
2.2839999963,17,105725.4765625000,97784.4765625000,162499.0000000000,147030.4843750000,0.0000000000,0.0000000000,0.0000000000,0.0000000000,,,
2.2879999964,17,105781.9921875000,97846.6796875000,162554.7968750000,147069.3281250000,0.0000000000,0.0000000000,0.0000000000,0.0000000000,,,
2.2919999964,17,105824.3984375000,97901.5312500000,162596.9062500000,147098.9062500000,0.0000000000,0.0000000000,0.0000000000,0.0000000000,,,
2.2959999964,17,105777.4609375000,97850.4296875000,162546.2812500000,147053.2343750000,0.0000000000,0.0000000000,0.0000000000,0.0000000000,,,
2.2999999963,17,105740.9531250000,97820.7421875000,162509.1093750000,147040.2968750000,0.0000000000,0.0000000000,0.0000000000,0.0000000000,,,
2.3039999963,18,105748.3828125000,97828.1953125000,162514.7500000000,147050.9218750000,0.0000000000,0.0000000000,0.0000000000,0.0000000000,,,
2.3079999962,18,105763.2421875000,97839.9140625000,162530.4843750000,147056.3750000000,0.0000000000,0.0000000000,0.0000000000,0.0000000000,,,
2.3119999962,18,105768.1796875000,97841.4453125000,162535.9375000000,147054.4062500000,0.0000000000,0.0000000000,0.0000000000,0.0000000000,,,
2.3159999961,18,105751.0156250000,97822.3750000000,162516.7812500000,147031.9062500000,0.0000000000,0.0000000000,0.0000000000,0.0000000000,,,
2.3199999961,18,105753.6718750000,97848.4765625000,162520.3750000000,147033.7812500000,0.0000000000,0.0000000000,0.0000000000,0.0000000000,,,
2.3239999961,18,105759.1953125000,97849.1406250000,162526.6250000000,147041.8906250000,0.0000000000,0.0000000000,0.0000000000,0.0000000000,,,
2.3279999963,18,105771.8828125000,97846.5703125000,162539.6875000000,147046.5468750000,0.0000000000,0.0000000000,0.0000000000,0.0000000000,,,
2.3319999962,18,105771.1015625000,97840.5859375000,162540.3125000000,147035.5781250000,0.0000000000,0.0000000000,0.0000000000,0.0000000000,,,
2.3359999962,18,105768.3437500000,97827.9296875000,162531.4218750000,147019.7343750000,0.0000000000,0.0000000000,0.0000000000,0.0000000000,,,
2.3399999961,18,105768.3906250000,97832.4375000000,162533.5781250000,147032.6250000000,0.0000000000,0.0000000000,0.0000000000,0.0000000000,,,
2.3439999961,18,105761.8750000000,97824.7656250000,162529.9062500000,147043.8906250000,0.0000000000,0.0000000000,0.0000000000,0.0000000000,,,
2.3479999963,18,105741.4140625000,97800.7812500000,162514.8281250000,147029.4687500000,0.0000000000,0.0000000000,0.0000000000,0.0000000000,,,
2.3519999962,18,105732.0781250000,97794.3437500000,162503.9687500000,147030.2187500000,0.0000000000,0.0000000000,0.0000000000,0.0000000000,,,
2.3559999962,18,105735.9375000000,97802.3125000000,162503.5625000000,147025.7031250000,0.0000000000,0.0000000000,0.0000000000,0.0000000000,,,
2.3599999961,18,105742.3750000000,97807.7812500000,162508.6875000000,147022.4062500000,0.0000000000,0.0000000000,0.0000000000,0.0000000000,,,
2.3639999961,18,105747.0937500000,97815.7812500000,162515.5468750000,147033.2812500000,0.0000000000,0.0000000000,0.0000000000,0.0000000000,,,
2.3679999961,18,105751.6328125000,97821.2187500000,162521.3437500000,147034.5937500000,0.0000000000,0.0000000000,0.0000000000,0.0000000000,,,
2.3719999962,18,105771.1015625000,97837.4218750000,162541.4375000000,147036.0156250000,0.0000000000,0.0000000000,0.0000000000,0.0000000000,,,
2.3759999962,18,105766.1718750000,97833.8046875000,162535.8750000000,147025.5781250000,0.0000000000,0.0000000000,0.0000000000,0.0000000000,,,
2.3799999962,18,105743.9843750000,97821.1953125000,162513.4375000000,147030.7500000000,0.0000000000,0.0000000000,0.0000000000,0.0000000000,,,
2.3839999961,18,105756.6484375000,97838.1484375000,162526.0312500000,147040.2968750000,0.0000000000,0.0000000000,0.0000000000,0.0000000000,,,
2.3879999961,18,105772.1250000000,97852.6015625000,162549.2343750000,147053.1562500000,0.0000000000,0.0000000000,0.0000000000,0.0000000000,,,
2.3919999963,18,105771.2109375000,97840.5859375000,162540.4375000000,147049.5000000000,0.0000000000,0.0000000000,0.0000000000,0.0000000000,,,
2.3959999962,18,105772.4453125000,97842.6250000000,162531.9843750000,147045.2656250000,0.0000000000,0.0000000000,0.0000000000,0.0000000000,,,
2.3999999962,18,105772.9296875000,97848.7656250000,162532.0937500000,147050.5156250000,0.0000000000,0.0000000000,0.0000000000,0.0000000000,,,
2.4039999961,18,105764.6953125000,97848.0468750000,162528.9531250000,147041.4218750000,0.0000000000,0.0000000000,0.0000000000,0.0000000000,,,
2.4079999961,18,105781.2656250000,97869.5546875000,162549.0000000000,147048.8593750000,0.0000000000,0.0000000000,0.0000000000,0.0000000000,,,
2.4119999961,18,105774.0781250000,97855.9843750000,162544.4687500000,147040.4062500000,0.0000000000,0.0000000000,0.0000000000,0.0000000000,,,
2.4159999962,18,105754.7968750000,97828.7890625000,162521.4843750000,147024.5000000000,0.0000000000,0.0000000000,0.0000000000,0.0000000000,,,
2.4199999962,18,105741.7890625000,97817.8984375000,162505.7031250000,147010.0468750000,0.0000000000,0.0000000000,0.0000000000,0.0000000000,,,
2.4239999962,18,105757.4765625000,97835.9218750000,162520.2187500000,147012.9375000000,0.0000000000,0.0000000000,0.0000000000,0.0000000000,,,
2.4279999961,18,105800.5234375000,97886.1562500000,162567.3125000000,147050.2031250000,0.0000000000,0.0000000000,0.0000000000,0.0000000000,,,
2.4319999961,19,105807.9843750000,97886.9062500000,162573.9687500000,147068.0312500000,0.0000000000,0.0000000000,0.0000000000,0.0000000000,,,
2.4359999960,19,105786.5546875000,97851.3203125000,162543.3125000000,147045.7187500000,0.0000000000,0.0000000000,0.0000000000,0.0000000000,,,
2.4399999960,19,105756.0000000000,97820.3359375000,162506.5625000000,147033.5937500000,0.0000000000,0.0000000000,0.0000000000,0.0000000000,,,
2.4439999959,19,105732.4765625000,97803.3046875000,162486.2656250000,147009.0312500000,0.0000000000,0.0000000000,0.0000000000,0.0000000000,,,
2.4479999959,19,105742.6953125000,97812.2343750000,162498.4687500000,147016.7031250000,0.0000000000,0.0000000000,0.0000000000,0.0000000000,,,
2.4519999959,19,105753.9921875000,97819.3984375000,162514.2812500000,147018.7656250000,0.0000000000,0.0000000000,0.0000000000,0.0000000000,,,
2.4559999960,19,105766.1406250000,97831.8671875000,162533.8906250000,147030.5625000000,0.0000000000,0.0000000000,0.0000000000,0.0000000000,,,
2.4599999960,19,105759.7343750000,97830.8750000000,162526.0937500000,147027.8750000000,0.0000000000,0.0000000000,0.0000000000,0.0000000000,,,
2.4639999960,19,105762.8984375000,97839.7265625000,162531.7812500000,147034.5625000000,0.0000000000,0.0000000000,0.0000000000,0.0000000000,,,
2.4679999959,19,105784.8359375000,97865.3984375000,162563.7812500000,147055.1562500000,0.0000000000,0.0000000000,0.0000000000,0.0000000000,,,
2.4719999959,19,105788.4843750000,97868.8593750000,162572.1406250000,147056.4218750000,0.0000000000,0.0000000000,0.0000000000,0.0000000000,,,
2.4759999961,19,105783.7656250000,97866.4140625000,162569.8125000000,147041.7500000000,0.0000000000,0.0000000000,0.0000000000,0.0000000000,,,
2.4799999960,19,105778.8281250000,97857.9453125000,162556.7500000000,147034.8281250000,0.0000000000,0.0000000000,0.0000000000,0.0000000000,,,
2.4839999960,19,105764.3203125000,97843.4062500000,162536.2812500000,147023.3437500000,0.0000000000,0.0000000000,0.0000000000,0.0000000000,,,
2.4879999959,19,105762.4921875000,97842.5468750000,162536.0625000000,147014.0937500000,0.0000000000,0.0000000000,0.0000000000,0.0000000000,,,
2.4919999959,19,105761.5546875000,97848.0156250000,162537.0000000000,147022.2968750000,0.0000000000,0.0000000000,0.0000000000,0.0000000000,,,
2.4959999959,19,105760.5625000000,97851.1796875000,162534.4843750000,147018.3125000000,0.0000000000,0.0000000000,0.0000000000,0.0000000000,,,
2.4999999960,19,105756.4062500000,97850.7500000000,162524.9375000000,147010.9062500000,0.0000000000,0.0000000000,0.0000000000,0.0000000000,,,
2.5039999960,19,105766.2500000000,97857.4296875000,162531.5156250000,147018.0156250000,0.0000000000,0.0000000000,0.0000000000,0.0000000000,,,
2.5079999960,19,105781.1093750000,97870.4375000000,162545.5312500000,147033.5625000000,0.0000000000,0.0000000000,0.0000000000,0.0000000000,,,
2.5119999959,19,105782.7187500000,97868.6718750000,162548.2968750000,147029.7656250000,0.0000000000,0.0000000000,0.0000000000,0.0000000000,,,
2.5159999959,19,105765.7656250000,97851.9609375000,162532.6093750000,147021.9062500000,0.0000000000,0.0000000000,0.0000000000,0.0000000000,,,
2.5199999961,19,105769.1171875000,97856.4921875000,162533.7031250000,147025.1406250000,0.0000000000,0.0000000000,0.0000000000,0.0000000000,,,
2.5239999960,19,105791.5390625000,97884.3046875000,162560.2812500000,147047.1406250000,0.0000000000,0.0000000000,0.0000000000,0.0000000000,,,
2.5279999960,19,105806.5859375000,97891.8750000000,162576.0937500000,147055.2968750000,0.0000000000,0.0000000000,0.0000000000,0.0000000000,,,
2.5319999959,19,105806.1875000000,97874.7031250000,162571.2812500000,147040.4843750000,0.0000000000,0.0000000000,0.0000000000,0.0000000000,,,
2.5359999959,19,105761.1484375000,97832.3515625000,162530.1875000000,147005.9687500000,0.0000000000,0.0000000000,0.0000000000,0.0000000000,,,
2.5399999958,19,105727.7031250000,97813.3125000000,162501.7031250000,147010.6093750000,0.0000000000,0.0000000000,0.0000000000,0.0000000000,,,
2.5439999960,19,105724.5937500000,97816.7968750000,162499.1562500000,147003.5000000000,0.0000000000,0.0000000000,0.0000000000,0.0000000000,,,
2.5479999960,19,105741.0390625000,97827.7656250000,162513.6250000000,147001.4062500000,0.0000000000,0.0000000000,0.0000000000,0.0000000000,,,
2.5519999960,19,105771.1562500000,97848.2343750000,162541.1406250000,147005.4843750000,0.0000000000,0.0000000000,0.0000000000,0.0000000000,,,
2.5559999959,19,105795.2187500000,97879.2890625000,162567.3125000000,147027.6093750000,0.0000000000,0.0000000000,0.0000000000,0.0000000000,,,
2.5599999959,20,105770.9921875000,97861.8281250000,162545.7500000000,147031.7187500000,0.0000000000,0.0000000000,0.0000000000,0.0000000000,,,
2.5639999958,20,105736.2890625000,97832.4609375000,162513.9687500000,147008.4375000000,0.0000000000,0.0000000000,0.0000000000,0.0000000000,,,
2.5679999958,20,105754.0468750000,97852.6015625000,162535.3906250000,147022.3281250000,0.0000000000,0.0000000000,0.0000000000,0.0000000000,,,
2.5719999957,20,105764.3437500000,97849.4375000000,162538.7812500000,147018.4375000000,0.0000000000,0.0000000000,0.0000000000,0.0000000000,,,
2.5759999957,20,105735.7500000000,97815.2421875000,162505.5156250000,146992.1875000000,0.0000000000,0.0000000000,0.0000000000,0.0000000000,,,
2.5799999957,20,105733.7968750000,97819.5078125000,162503.7968750000,147007.7187500000,0.0000000000,0.0000000000,0.0000000000,0.0000000000,,,
2.5839999958,20,105754.9843750000,97836.0781250000,162521.9843750000,147026.5937500000,0.0000000000,0.0000000000,0.0000000000,0.0000000000,,,
2.5879999958,20,105761.9531250000,97831.4687500000,162526.2500000000,147028.0468750000,0.0000000000,0.0000000000,0.0000000000,0.0000000000,,,
2.5919999958,20,105764.2890625000,97829.3203125000,162533.3593750000,147028.5000000000,0.0000000000,0.0000000000,0.0000000000,0.0000000000,,,
2.5959999957,20,105762.4140625000,97838.4453125000,162538.2968750000,147034.0468750000,0.0000000000,0.0000000000,0.0000000000,0.0000000000,,,
2.5999999957,20,105759.3281250000,97849.9218750000,162540.0312500000,147024.6875000000,0.0000000000,0.0000000000,0.0000000000,0.0000000000,,,
2.6039999959,20,105758.9296875000,97855.0156250000,162543.5781250000,147029.2031250000,0.0000000000,0.0000000000,0.0000000000,0.0000000000,,,
2.6079999958,20,105752.1406250000,97851.2656250000,162540.7031250000,147014.6875000000,0.0000000000,0.0000000000,0.0000000000,0.0000000000,,,
2.6119999958,20,105751.7109375000,97849.3593750000,162537.0937500000,147010.7968750000,0.0000000000,0.0000000000,0.0000000000,0.0000000000,,,
2.6159999957,20,105756.5625000000,97850.3281250000,162540.2187500000,147018.9843750000,0.0000000000,0.0000000000,0.0000000000,0.0000000000,,,
2.6199999957,20,105755.6562500000,97851.9843750000,162537.7812500000,147018.6093750000,0.0000000000,0.0000000000,0.0000000000,0.0000000000,,,
2.6239999956,20,105757.4765625000,97852.3359375000,162534.3281250000,147011.6562500000,0.0000000000,0.0000000000,0.0000000000,0.0000000000,,,
2.6279999958,20,105768.4765625000,97857.0859375000,162544.4062500000,147014.9218750000,0.0000000000,0.0000000000,0.0000000000,0.0000000000,,,
2.6319999958,20,105786.5546875000,97870.9218750000,162563.5000000000,147025.5156250000,0.0000000000,0.0000000000,0.0000000000,0.0000000000,,,
2.6359999957,20,105786.4687500000,97864.7812500000,162559.5937500000,147027.4843750000,0.0000000000,0.0000000000,0.0000000000,0.0000000000,,,
2.6399999957,20,105776.8437500000,97854.2421875000,162548.1718750000,147025.6562500000,0.0000000000,0.0000000000,0.0000000000,0.0000000000,,,
2.6439999957,20,105755.8437500000,97839.6796875000,162534.6718750000,147017.7500000000,0.0000000000,0.0000000000,0.0000000000,0.0000000000,,,
2.6479999959,20,105745.1406250000,97829.5625000000,162524.7500000000,147004.7343750000,0.0000000000,0.0000000000,0.0000000000,0.0000000000,,,
2.6519999958,20,105755.2812500000,97839.6484375000,162539.5781250000,147017.6093750000,0.0000000000,0.0000000000,0.0000000000,0.0000000000,,,
2.6559999958,20,105772.3125000000,97857.6171875000,162555.8593750000,147027.0312500000,0.0000000000,0.0000000000,0.0000000000,0.0000000000,,,
2.6599999957,20,105764.1015625000,97846.5703125000,162543.0468750000,147018.8437500000,0.0000000000,0.0000000000,0.0000000000,0.0000000000,,,
2.6639999957,20,105735.6718750000,97816.3906250000,162511.3593750000,146997.9218750000,0.0000000000,0.0000000000,0.0000000000,0.0000000000,,,
2.6679999956,20,105748.8125000000,97829.0312500000,162521.7656250000,147005.1718750000,0.0000000000,0.0000000000,0.0000000000,0.0000000000,,,
2.6719999958,20,105763.3750000000,97839.2968750000,162531.8593750000,147010.3750000000,0.0000000000,0.0000000000,0.0000000000,0.0000000000,,,
2.6759999958,20,105759.1953125000,97830.4218750000,162522.9218750000,147001.9218750000,0.0000000000,0.0000000000,0.0000000000,0.0000000000,,,
2.6799999957,20,105752.8359375000,97828.8125000000,162516.1093750000,147000.1250000000,0.0000000000,0.0000000000,0.0000000000,0.0000000000,,,
2.6839999957,20,105765.0390625000,97843.9375000000,162529.5468750000,147008.7343750000,0.0000000000,0.0000000000,0.0000000000,0.0000000000,,,
2.6879999957,21,105781.0546875000,97863.1171875000,162548.7500000000,147009.0312500000,0.0000000000,0.0000000000,0.0000000000,0.0000000000,,,
2.6919999956,21,105777.2968750000,97860.4062500000,162552.2968750000,147015.8906250000,0.0000000000,0.0000000000,0.0000000000,0.0000000000,,,
2.6959999956,21,105764.3671875000,97851.7968750000,162544.8437500000,147014.7968750000,0.0000000000,0.0000000000,0.0000000000,0.0000000000,,,
2.6999999955,21,105781.8828125000,97873.2578125000,162560.2656250000,147032.2500000000,0.0000000000,0.0000000000,0.0000000000,0.0000000000,,,
2.7039999955,21,105766.1718750000,97857.5390625000,162541.2500000000,147013.2656250000,0.0000000000,0.0000000000,0.0000000000,0.0000000000,,,
2.7079999954,21,105750.6406250000,97842.1718750000,162529.2500000000,147000.6093750000,0.0000000000,0.0000000000,0.0000000000,0.0000000000,,,
2.7119999956,21,105751.1484375000,97843.5937500000,162537.1093750000,146997.2031250000,0.0000000000,0.0000000000,0.0000000000,0.0000000000,,,
2.7159999956,21,105756.4296875000,97851.5078125000,162543.7968750000,147004.1406250000,0.0000000000,0.0000000000,0.0000000000,0.0000000000,,,
2.7199999955,21,105742.8046875000,97835.3593750000,162525.3437500000,146997.0312500000,0.0000000000,0.0000000000,0.0000000000,0.0000000000,,,
2.7239999955,21,105745.6250000000,97835.3046875000,162521.6875000000,146998.8593750000,0.0000000000,0.0000000000,0.0000000000,0.0000000000,,,
2.7279999955,21,105773.1406250000,97859.4453125000,162547.5781250000,147012.9375000000,0.0000000000,0.0000000000,0.0000000000,0.0000000000,,,
2.7319999957,21,105792.6171875000,97874.2500000000,162568.9531250000,147028.3437500000,0.0000000000,0.0000000000,0.0000000000,0.0000000000,,,
2.7359999956,21,105769.0390625000,97852.4453125000,162546.2812500000,147022.0312500000,0.0000000000,0.0000000000,0.0000000000,0.0000000000,,,
2.7399999956,21,105737.4140625000,97828.8437500000,162514.9531250000,146999.3750000000,0.0000000000,0.0000000000,0.0000000000,0.0000000000,,,
2.7439999955,21,105741.2500000000,97844.0781250000,162519.5000000000,147009.7187500000,0.0000000000,0.0000000000,0.0000000000,0.0000000000,,,
2.7479999955,21,105764.1796875000,97863.4375000000,162545.3750000000,147038.4218750000,0.0000000000,0.0000000000,0.0000000000,0.0000000000,,,
2.7519999954,21,105760.2109375000,97848.5546875000,162544.9687500000,147021.9062500000,0.0000000000,0.0000000000,0.0000000000,0.0000000000,,,
2.7559999956,21,105749.0000000000,97836.6484375000,162527.8906250000,147008.3281250000,0.0000000000,0.0000000000,0.0000000000,0.0000000000,,,
2.7599999956,21,105730.4687500000,97826.5859375000,162510.7187500000,146997.6875000000,0.0000000000,0.0000000000,0.0000000000,0.0000000000,,,
2.7639999955,21,105710.1093750000,97817.0078125000,162496.5937500000,146984.8593750000,0.0000000000,0.0000000000,0.0000000000,0.0000000000,,,
2.7679999955,21,105722.5546875000,97834.6875000000,162513.0781250000,146992.3906250000,0.0000000000,0.0000000000,0.0000000000,0.0000000000,,,
2.7719999955,21,105729.5000000000,97843.5937500000,162521.1250000000,146999.2343750000,0.0000000000,0.0000000000,0.0000000000,0.0000000000,,,
2.7759999956,21,105730.5234375000,97842.7343750000,162523.0937500000,147000.2343750000,0.0000000000,0.0000000000,0.0000000000,0.0000000000,,,
2.7799999956,21,105735.4062500000,97853.9218750000,162529.7656250000,147005.5156250000,0.0000000000,0.0000000000,0.0000000000,0.0000000000,,,
2.7839999956,21,105759.6796875000,97879.8828125000,162544.6718750000,147019.1718750000,0.0000000000,0.0000000000,0.0000000000,0.0000000000,,,
2.7879999955,21,105778.5312500000,97887.3906250000,162556.4531250000,147028.5468750000,0.0000000000,0.0000000000,0.0000000000,0.0000000000,,,
2.7919999955,21,105794.2265625000,97887.5234375000,162568.3281250000,147021.0937500000,0.0000000000,0.0000000000,0.0000000000,0.0000000000,,,
2.7959999954,21,105771.2656250000,97865.3437500000,162543.6562500000,147023.8593750000,0.0000000000,0.0000000000,0.0000000000,0.0000000000,,,
2.7999999956,21,105736.7421875000,97825.2187500000,162501.6875000000,146994.6250000000,0.0000000000,0.0000000000,0.0000000000,0.0000000000,,,
2.8039999956,21,105736.1796875000,97820.6875000000,162496.2968750000,146989.0937500000,0.0000000000,0.0000000000,0.0000000000,0.0000000000,,,
2.8079999955,21,105766.8359375000,97848.4218750000,162527.3750000000,147002.7187500000,0.0000000000,0.0000000000,0.0000000000,0.0000000000,,,
2.8119999955,21,105779.6093750000,97855.6875000000,162541.3593750000,147012.2187500000,0.0000000000,0.0000000000,0.0000000000,0.0000000000,,,
2.8159999955,22,105762.0937500000,97833.9375000000,162521.8750000000,146999.0781250000,0.0000000000,0.0000000000,0.0000000000,0.0000000000,,,
2.8199999954,22,105747.5546875000,97814.4375000000,162501.0937500000,146980.8906250000,0.0000000000,0.0000000000,0.0000000000,0.0000000000,,,
2.8239999954,22,105760.4296875000,97831.9218750000,162514.1562500000,146999.7656250000,0.0000000000,0.0000000000,0.0000000000,0.0000000000,,,
2.8279999953,22,105766.5156250000,97846.0078125000,162529.7343750000,147011.7343750000,0.0000000000,0.0000000000,0.0000000000,0.0000000000,,,
2.8319999953,22,105763.0546875000,97837.9062500000,162528.5625000000,147007.4687500000,0.0000000000,0.0000000000,0.0000000000,0.0000000000,,,
2.8359999952,22,105762.7578125000,97832.2500000000,162525.8281250000,147002.0781250000,0.0000000000,0.0000000000,0.0000000000,0.0000000000,,,
2.8399999954,22,105742.2187500000,97811.5390625000,162500.0781250000,146992.5781250000,0.0000000000,0.0000000000,0.0000000000,0.0000000000,,,
2.8439999954,22,105736.7187500000,97814.6484375000,162493.0937500000,146986.6562500000,0.0000000000,0.0000000000,0.0000000000,0.0000000000,,,
2.8479999953,22,105755.6250000000,97844.8828125000,162515.7968750000,146999.7968750000,0.0000000000,0.0000000000,0.0000000000,0.0000000000,,,
2.8519999953,22,105774.4843750000,97863.8125000000,162534.6718750000,147008.4687500000,0.0000000000,0.0000000000,0.0000000000,0.0000000000,,,
2.8559999953,22,105766.2187500000,97861.0234375000,162525.0781250000,147004.2812500000,0.0000000000,0.0000000000,0.0000000000,0.0000000000,,,
2.8599999954,22,105750.9843750000,97853.1640625000,162509.0625000000,146999.7187500000,0.0000000000,0.0000000000,0.0000000000,0.0000000000,,,
2.8639999954,22,105751.7109375000,97857.0000000000,162507.1875000000,147000.0937500000,0.0000000000,0.0000000000,0.0000000000,0.0000000000,,,
2.8679999954,22,105763.3515625000,97866.6875000000,162521.0781250000,146992.1875000000,0.0000000000,0.0000000000,0.0000000000,0.0000000000,,,
2.8719999953,22,105769.9218750000,97864.4296875000,162523.9687500000,146997.8437500000,0.0000000000,0.0000000000,0.0000000000,0.0000000000,,,
2.8759999953,22,105767.9140625000,97860.1171875000,162521.6718750000,146994.1093750000,0.0000000000,0.0000000000,0.0000000000,0.0000000000,,,
2.8799999952,22,105757.3203125000,97850.7265625000,162509.2500000000,146989.3593750000,0.0000000000,0.0000000000,0.0000000000,0.0000000000,,,
2.8839999954,22,105759.4921875000,97852.6562500000,162511.0625000000,146992.8281250000,0.0000000000,0.0000000000,0.0000000000,0.0000000000,,,
2.8879999954,22,105784.3515625000,97872.3750000000,162538.6093750000,147015.0156250000,0.0000000000,0.0000000000,0.0000000000,0.0000000000,,,
2.8919999953,22,105793.1796875000,97875.1875000000,162550.7343750000,147017.2656250000,0.0000000000,0.0000000000,0.0000000000,0.0000000000,,,
2.8959999953,22,105775.5859375000,97850.1093750000,162530.0000000000,146996.1562500000,0.0000000000,0.0000000000,0.0000000000,0.0000000000,,,
2.8999999953,22,105758.2265625000,97831.2500000000,162513.1406250000,146989.2656250000,0.0000000000,0.0000000000,0.0000000000,0.0000000000,,,
2.9039999954,22,105765.1484375000,97833.8828125000,162510.1562500000,147000.2343750000,0.0000000000,0.0000000000,0.0000000000,0.0000000000,,,
2.9079999954,22,105780.0859375000,97842.6796875000,162516.6718750000,147013.5937500000,0.0000000000,0.0000000000,0.0000000000,0.0000000000,,,
2.9119999954,22,105804.5234375000,97864.9921875000,162554.9218750000,147021.3125000000,0.0000000000,0.0000000000,0.0000000000,0.0000000000,,,
2.9159999953,22,105804.4687500000,97864.8593750000,162558.7343750000,147025.8750000000,0.0000000000,0.0000000000,0.0000000000,0.0000000000,,,
2.9199999953,22,105766.9218750000,97839.7578125000,162522.3906250000,147014.6093750000,0.0000000000,0.0000000000,0.0000000000,0.0000000000,,,
2.9239999952,22,105766.1718750000,97851.7421875000,162526.0312500000,147009.7812500000,0.0000000000,0.0000000000,0.0000000000,0.0000000000,,,
2.9279999954,22,105766.2187500000,97853.6250000000,162526.9687500000,147012.6718750000,0.0000000000,0.0000000000,0.0000000000,0.0000000000,,,
2.9319999954,22,105763.5156250000,97847.0234375000,162521.5781250000,147000.2812500000,0.0000000000,0.0000000000,0.0000000000,0.0000000000,,,
2.9359999953,22,105777.3828125000,97867.0625000000,162536.4218750000,147008.5781250000,0.0000000000,0.0000000000,0.0000000000,0.0000000000,,,
2.9399999953,22,105779.6875000000,97877.0390625000,162540.5781250000,147020.1562500000,0.0000000000,0.0000000000,0.0000000000,0.0000000000,,,
2.9439999952,23,105769.6015625000,97865.2109375000,162526.8906250000,147012.8281250000,0.0000000000,0.0000000000,0.0000000000,0.0000000000,,,
2.9479999952,23,105762.9765625000,97856.1953125000,162519.4375000000,147004.6250000000,0.0000000000,0.0000000000,0.0000000000,0.0000000000,,,
2.9519999952,23,105755.7890625000,97840.0000000000,162509.8125000000,146996.2812500000,0.0000000000,0.0000000000,0.0000000000,0.0000000000,,,
2.9559999951,23,105746.7187500000,97828.7031250000,162499.3750000000,146985.9531250000,0.0000000000,0.0000000000,0.0000000000,0.0000000000,,,
2.9599999951,23,105747.1250000000,97833.4765625000,162500.0156250000,146986.6250000000,0.0000000000,0.0000000000,0.0000000000,0.0000000000,,,
2.9639999950,23,105760.6953125000,97848.4218750000,162516.2500000000,146996.0781250000,0.0000000000,0.0000000000,0.0000000000,0.0000000000,,,
2.9679999952,23,105786.5781250000,97863.7343750000,162541.6250000000,147017.7968750000,0.0000000000,0.0000000000,0.0000000000,0.0000000000,,,
2.9719999952,23,105797.0703125000,97865.2109375000,162550.8437500000,147017.9843750000,0.0000000000,0.0000000000,0.0000000000,0.0000000000,,,
2.9759999951,23,105785.0781250000,97846.8359375000,162537.3750000000,146998.8281250000,0.0000000000,0.0000000000,0.0000000000,0.0000000000,,,
2.9799999951,23,105777.1406250000,97848.8515625000,162531.9062500000,147009.8906250000,0.0000000000,0.0000000000,0.0000000000,0.0000000000,,,
2.9839999950,23,105747.7656250000,97824.8437500000,162503.2656250000,146983.4375000000,0.0000000000,0.0000000000,0.0000000000,0.0000000000,,,
2.9879999952,23,105747.2031250000,97825.1093750000,162504.0468750000,146985.9062500000,0.0000000000,0.0000000000,0.0000000000,0.0000000000,,,
2.9919999952,23,105789.8515625000,97867.5468750000,162549.3750000000,147014.9218750000,0.0000000000,0.0000000000,0.0000000000,0.0000000000,,,
2.9959999952,23,105782.3984375000,97861.1640625000,162542.1875000000,147003.6562500000,0.0000000000,0.0000000000,0.0000000000,0.0000000000,,,
2.9999999951,23,105754.4453125000,97833.3984375000,162507.4531250000,146982.0781250000,0.0000000000,0.0000000000,0.0000000000,0.0000000000,,,
3.0039999951,23,105754.7656250000,97841.1250000000,162507.7187500000,146990.5156250000,0.0000000000,0.0000000000,0.0000000000,0.0000000000,,,
3.0079999950,23,105761.3125000000,97847.9609375000,162520.8281250000,146990.3281250000,0.0000000000,0.0000000000,0.0000000000,0.0000000000,,,
3.0119999952,23,105776.3046875000,97855.7656250000,162534.5937500000,147004.4062500000,0.0000000000,0.0000000000,0.0000000000,0.0000000000,,,
3.0159999952,23,105775.0156250000,97854.3203125000,162525.8750000000,147000.0468750000,0.0000000000,0.0000000000,0.0000000000,0.0000000000,,,
3.0199999951,23,105786.0156250000,97868.3515625000,162531.7968750000,147010.2812500000,0.0000000000,0.0000000000,0.0000000000,0.0000000000,,,
3.0239999951,23,105789.0468750000,97872.5312500000,162533.8125000000,147008.3906250000,0.0000000000,0.0000000000,0.0000000000,0.0000000000,,,
3.0279999950,23,105775.3671875000,97858.1796875000,162524.4843750000,147012.5468750000,0.0000000000,0.0000000000,0.0000000000,0.0000000000,,,
3.0319999952,23,105769.1171875000,97849.2812500000,162518.9843750000,146993.9531250000,0.0000000000,0.0000000000,0.0000000000,0.0000000000,,,
3.0359999952,23,105765.9531250000,97851.1015625000,162514.9843750000,146986.8750000000,0.0000000000,0.0000000000,0.0000000000,0.0000000000,,,
3.0399999951,23,105761.2031250000,97851.6406250000,162514.3750000000,146983.8906250000,0.0000000000,0.0000000000,0.0000000000,0.0000000000,,,
3.0439999951,23,105761.9531250000,97854.8828125000,162518.5000000000,146988.7812500000,0.0000000000,0.0000000000,0.0000000000,0.0000000000,,,
3.0479999951,23,105784.3515625000,97879.0546875000,162543.8437500000,147014.6562500000,0.0000000000,0.0000000000,0.0000000000,0.0000000000,,,
3.0519999950,23,105776.8125000000,97866.9296875000,162536.0156250000,147000.0625000000,0.0000000000,0.0000000000,0.0000000000,0.0000000000,,,
3.0559999952,23,105745.2500000000,97829.9375000000,162498.2968750000,146969.5781250000,0.0000000000,0.0000000000,0.0000000000,0.0000000000,,,
3.0599999952,23,105734.4140625000,97821.5468750000,162486.7187500000,146965.5000000000,0.0000000000,0.0000000000,0.0000000000,0.0000000000,,,
3.0639999951,23,105738.2968750000,97829.7812500000,162487.3593750000,146971.4687500000,0.0000000000,0.0000000000,0.0000000000,0.0000000000,,,
3.0679999951,23,105756.5625000000,97848.3906250000,162507.0937500000,146989.8281250000,0.0000000000,0.0000000000,0.0000000000,0.0000000000,,,
3.0719999950,24,105778.4765625000,97864.2734375000,162531.9375000000,147001.3593750000,0.0000000000,0.0000000000,0.0000000000,0.0000000000,,,
3.0759999950,24,105787.2500000000,97867.1171875000,162537.5468750000,146992.5625000000,0.0000000000,0.0000000000,0.0000000000,0.0000000000,,,
3.0799999950,24,105785.9609375000,97866.7109375000,162528.1250000000,146991.3750000000,0.0000000000,0.0000000000,0.0000000000,0.0000000000,,,
3.0839999949,24,105772.8750000000,97852.6015625000,162510.7187500000,146981.6875000000,0.0000000000,0.0000000000,0.0000000000,0.0000000000,,,
3.0879999949,24,105791.0312500000,97870.0625000000,162536.3437500000,147001.0000000000,0.0000000000,0.0000000000,0.0000000000,0.0000000000,,,
3.0919999948,24,105797.7109375000,97872.6406250000,162543.9218750000,147002.7187500000,0.0000000000,0.0000000000,0.0000000000,0.0000000000,,,
3.0959999950,24,105792.7500000000,97869.0703125000,162542.6406250000,147006.1093750000,0.0000000000,0.0000000000,0.0000000000,0.0000000000,,,
3.0999999950,24,105767.8281250000,97841.0468750000,162517.3125000000,146990.0312500000,0.0000000000,0.0000000000,0.0000000000,0.0000000000,,,
3.1039999949,24,105758.7656250000,97833.8281250000,162508.3281250000,146990.3906250000,0.0000000000,0.0000000000,0.0000000000,0.0000000000,,,
3.1079999949,24,105771.8828125000,97848.6875000000,162524.9687500000,146997.3906250000,0.0000000000,0.0000000000,0.0000000000,0.0000000000,,,
3.1119999948,24,105778.6406250000,97852.8437500000,162534.7343750000,146995.2656250000,0.0000000000,0.0000000000,0.0000000000,0.0000000000,,,
3.1159999950,24,105774.2968750000,97854.7734375000,162531.9375000000,146978.7187500000,0.0000000000,0.0000000000,0.0000000000,0.0000000000,,,
3.1199999950,24,105774.7812500000,97858.2109375000,162526.8125000000,146982.6406250000,0.0000000000,0.0000000000,0.0000000000,0.0000000000,,,
3.1239999949,24,105790.0390625000,97876.0234375000,162539.9531250000,146997.8125000000,0.0000000000,0.0000000000,0.0000000000,0.0000000000,,,
3.1279999949,24,105804.8437500000,97882.9687500000,162555.3750000000,147003.3593750000,0.0000000000,0.0000000000,0.0000000000,0.0000000000,,,
3.1319999949,24,105790.3906250000,97863.9765625000,162543.8750000000,146988.2343750000,0.0000000000,0.0000000000,0.0000000000,0.0000000000,,,
3.1359999948,24,105772.8984375000,97854.1875000000,162529.5312500000,146974.5000000000,0.0000000000,0.0000000000,0.0000000000,0.0000000000,,,
3.1399999950,24,105756.1093750000,97845.2812500000,162513.4062500000,146973.3750000000,0.0000000000,0.0000000000,0.0000000000,0.0000000000,,,
3.1439999950,24,105749.2734375000,97834.2343750000,162501.5468750000,146973.6718750000,0.0000000000,0.0000000000,0.0000000000,0.0000000000,,,
3.1479999949,24,105762.7578125000,97845.0156250000,162515.5781250000,146979.6562500000,0.0000000000,0.0000000000,0.0000000000,0.0000000000,,,
3.1519999949,24,105782.7968750000,97865.8828125000,162541.0625000000,146999.5000000000,0.0000000000,0.0000000000,0.0000000000,0.0000000000,,,
3.1559999948,24,105774.3750000000,97861.1875000000,162534.4843750000,146986.3125000000,0.0000000000,0.0000000000,0.0000000000,0.0000000000,,,
3.1599999950,24,105750.3437500000,97843.0546875000,162513.9375000000,146968.8750000000,0.0000000000,0.0000000000,0.0000000000,0.0000000000,,,
3.1639999950,24,105750.5078125000,97849.3828125000,162516.9218750000,146970.7031250000,0.0000000000,0.0000000000,0.0000000000,0.0000000000,,,
3.1679999949,24,105758.7890625000,97863.3359375000,162527.1093750000,146977.0000000000,0.0000000000,0.0000000000,0.0000000000,0.0000000000,,,
3.1719999949,24,105770.0546875000,97864.5390625000,162533.7343750000,146981.5000000000,0.0000000000,0.0000000000,0.0000000000,0.0000000000,,,
3.1759999949,24,105758.8437500000,97846.8906250000,162518.2656250000,146970.7187500000,0.0000000000,0.0000000000,0.0000000000,0.0000000000,,,
3.1799999948,24,105753.6406250000,97845.3359375000,162510.5312500000,146975.2500000000,0.0000000000,0.0000000000,0.0000000000,0.0000000000,,,
3.1839999950,24,105748.3828125000,97843.4843750000,162504.6562500000,146974.2968750000,0.0000000000,0.0000000000,0.0000000000,0.0000000000,,,
3.1879999950,24,105765.5781250000,97858.2343750000,162526.1718750000,146994.0000000000,0.0000000000,0.0000000000,0.0000000000,0.0000000000,,,
3.1919999949,24,105793.9296875000,97873.8437500000,162556.0468750000,147009.5156250000,0.0000000000,0.0000000000,0.0000000000,0.0000000000,,,
3.1959999949,24,105800.3359375000,97869.9062500000,162558.3281250000,147011.1718750000,0.0000000000,0.0000000000,0.0000000000,0.0000000000,,,
3.1999999948,25,105780.0625000000,97843.9375000000,162529.8437500000,146994.2500000000,0.0000000000,0.0000000000,0.0000000000,0.0000000000,,,
3.2039999948,25,105763.2187500000,97834.2031250000,162513.2500000000,146981.2656250000,0.0000000000,0.0000000000,0.0000000000,0.0000000000,,,
3.2079999947,25,105748.8125000000,97828.2265625000,162505.3281250000,146973.8437500000,0.0000000000,0.0000000000,0.0000000000,0.0000000000,,,
3.2119999947,25,105749.6718750000,97831.7109375000,162513.7500000000,146976.7343750000,0.0000000000,0.0000000000,0.0000000000,0.0000000000,,,
3.2159999947,25,105761.3437500000,97847.6171875000,162525.1718750000,146985.7500000000,0.0000000000,0.0000000000,0.0000000000,0.0000000000,,,
3.2199999946,25,105775.2343750000,97855.8750000000,162529.2812500000,146986.6562500000,0.0000000000,0.0000000000,0.0000000000,0.0000000000,,,
3.2239999948,25,105763.5625000000,97845.1718750000,162518.7968750000,146996.3906250000,0.0000000000,0.0000000000,0.0000000000,0.0000000000,,,
3.2279999948,25,105747.7109375000,97833.2421875000,162503.6718750000,146986.8750000000,0.0000000000,0.0000000000,0.0000000000,0.0000000000,,,
3.2319999947,25,105767.3984375000,97853.1406250000,162523.2968750000,146996.6093750000,0.0000000000,0.0000000000,0.0000000000,0.0000000000,,,
3.2359999947,25,105779.6875000000,97860.0312500000,162534.3281250000,147002.0468750000,0.0000000000,0.0000000000,0.0000000000,0.0000000000,,,
3.2399999946,25,105770.2734375000,97855.9609375000,162526.9687500000,146997.0312500000,0.0000000000,0.0000000000,0.0000000000,0.0000000000,,,
3.2439999948,25,105755.6796875000,97844.2890625000,162511.3437500000,146981.2187500000,0.0000000000,0.0000000000,0.0000000000,0.0000000000,,,
3.2479999948,25,105751.1718750000,97839.6250000000,162507.9062500000,146975.2031250000,0.0000000000,0.0000000000,0.0000000000,0.0000000000,,,
3.2519999947,25,105764.1796875000,97853.5937500000,162528.6093750000,146983.2812500000,0.0000000000,0.0000000000,0.0000000000,0.0000000000,,,
3.2559999947,25,105760.2421875000,97849.6250000000,162526.8125000000,146981.4843750000,0.0000000000,0.0000000000,0.0000000000,0.0000000000,,,
3.2599999947,25,105757.5312500000,97852.7656250000,162517.1562500000,146975.3906250000,0.0000000000,0.0000000000,0.0000000000,0.0000000000,,,
3.2639999946,25,105753.2968750000,97847.4531250000,162508.6875000000,146974.8750000000,0.0000000000,0.0000000000,0.0000000000,0.0000000000,,,
3.2679999948,25,105775.9062500000,97863.6562500000,162530.7812500000,146990.5156250000,0.0000000000,0.0000000000,0.0000000000,0.0000000000,,,
3.2719999948,25,105773.4375000000,97846.8671875000,162530.3281250000,146982.9531250000,0.0000000000,0.0000000000,0.0000000000,0.0000000000,,,
3.2759999947,25,105760.5390625000,97829.9140625000,162518.6406250000,146978.3750000000,0.0000000000,0.0000000000,0.0000000000,0.0000000000,,,
3.2799999947,25,105745.9453125000,97815.8281250000,162502.9375000000,146973.2187500000,0.0000000000,0.0000000000,0.0000000000,0.0000000000,,,
3.2839999946,25,105751.0937500000,97822.4062500000,162504.9062500000,146980.4375000000,0.0000000000,0.0000000000,0.0000000000,0.0000000000,,,
3.2879999948,25,105755.7109375000,97825.2187500000,162507.1250000000,146982.3593750000,0.0000000000,0.0000000000,0.0000000000,0.0000000000,,,
3.2919999948,25,105756.8359375000,97821.3593750000,162507.1250000000,146978.0156250000,0.0000000000,0.0000000000,0.0000000000,0.0000000000,,,
3.2959999947,25,105760.4531250000,97830.9609375000,162514.2656250000,146980.1718750000,0.0000000000,0.0000000000,0.0000000000,0.0000000000,,,
3.2999999947,25,105765.8203125000,97848.2890625000,162522.1406250000,146991.1562500000,0.0000000000,0.0000000000,0.0000000000,0.0000000000,,,
3.3039999946,25,105763.1093750000,97849.8984375000,162510.8750000000,146990.3125000000,0.0000000000,0.0000000000,0.0000000000,0.0000000000,,,
3.3079999946,25,105774.1093750000,97864.2968750000,162516.0937500000,146994.7031250000,0.0000000000,0.0000000000,0.0000000000,0.0000000000,,,
3.3119999948,25,105770.8906250000,97860.0312500000,162517.0468750000,146983.7656250000,0.0000000000,0.0000000000,0.0000000000,0.0000000000,,,
3.3159999948,25,105765.8984375000,97851.9062500000,162513.7187500000,146984.9687500000,0.0000000000,0.0000000000,0.0000000000,0.0000000000,,,
3.3199999947,25,105748.5468750000,97833.3203125000,162494.2187500000,146975.0625000000,0.0000000000,0.0000000000,0.0000000000,0.0000000000,,,
3.3239999947,25,105729.5000000000,97819.3437500000,162476.7968750000,146959.5468750000,0.0000000000,0.0000000000,0.0000000000,0.0000000000,,,
3.3279999946,26,105751.8203125000,97842.1953125000,162502.0625000000,146971.6875000000,0.0000000000,0.0000000000,0.0000000000,0.0000000000,,,
3.3319999946,26,105779.8203125000,97860.3828125000,162530.1875000000,146978.6406250000,0.0000000000,0.0000000000,0.0000000000,0.0000000000,,,
3.3359999945,26,105775.2890625000,97854.6406250000,162524.9687500000,146980.1406250000,0.0000000000,0.0000000000,0.0000000000,0.0000000000,,,
3.3399999945,26,105774.0781250000,97852.8750000000,162521.4218750000,146982.6562500000,0.0000000000,0.0000000000,0.0000000000,0.0000000000,,,
3.3439999945,26,105750.0468750000,97825.8359375000,162494.0625000000,146966.1406250000,0.0000000000,0.0000000000,0.0000000000,0.0000000000,,,
3.3479999944,26,105735.6718750000,97815.4531250000,162479.8281250000,146955.1875000000,0.0000000000,0.0000000000,0.0000000000,0.0000000000,,,
3.3519999946,26,105757.0468750000,97838.5234375000,162503.8750000000,146968.1718750000,0.0000000000,0.0000000000,0.0000000000,0.0000000000,,,
3.3559999946,26,105752.9687500000,97835.0390625000,162503.4843750000,146968.7968750000,0.0000000000,0.0000000000,0.0000000000,0.0000000000,,,
3.3599999945,26,105732.3750000000,97817.8984375000,162482.2343750000,146954.1250000000,0.0000000000,0.0000000000,0.0000000000,0.0000000000,,,
3.3639999945,26,105739.2890625000,97827.9843750000,162489.8281250000,146964.0468750000,0.0000000000,0.0000000000,0.0000000000,0.0000000000,,,
3.3679999944,26,105768.4218750000,97857.3515625000,162521.6718750000,146991.1093750000,0.0000000000,0.0000000000,0.0000000000,0.0000000000,,,
3.3719999946,26,105790.9218750000,97872.5078125000,162546.4218750000,146998.3281250000,0.0000000000,0.0000000000,0.0000000000,0.0000000000,,,
3.3759999946,26,105754.2343750000,97830.0234375000,162506.9062500000,146964.0000000000,0.0000000000,0.0000000000,0.0000000000,0.0000000000,,,
3.3799999945,26,105732.1875000000,97813.0703125000,162480.5781250000,146953.4531250000,0.0000000000,0.0000000000,0.0000000000,0.0000000000,,,
