Time:250Hz,Epoch,Channel 1,Channel 2,Channel 3,Channel 4,Channel 5,Channel 6,Channel 7,Channel 8,Event Id,Event Date,Event Duration
0.0000000000,0,160314.2031250000,161828.5781250000,185019.6093750000,183110.8906250000,168401.4687500000,169202.1562500000,28215.3398437500,176211.5312500000,,,
0.0040000000,0,160302.9218750000,161817.5781250000,185008.4218750000,183092.3906250000,168390.6562500000,169194.9218750000,28205.4433593750,176211.8281250000,,,
0.0079999999,0,160298.8125000000,161810.7968750000,185006.0156250000,183079.4062500000,168387.4687500000,169193.2656250000,28196.0820312500,176217.2343750000,,,
0.0119999999,0,160298.7343750000,161808.6875000000,185005.2812500000,183086.5156250000,168386.3906250000,169193.4531250000,28191.5234375000,176220.0625000000,,,
0.0159999998,0,160295.6406250000,161808.2031250000,185001.8593750000,183087.7812500000,168381.6718750000,169195.6718750000,28192.4082031250,176217.7968750000,,,
0.0199999998,0,160287.5156250000,161801.9531250000,184995.0156250000,183093.8593750000,168374.8437500000,169195.0312500000,28192.0058593750,176211.8281250000,,,
0.0240000000,0,160276.8750000000,161792.1093750000,184983.9843750000,183079.5468750000,168367.0312500000,169189.7656250000,28184.4414062500,176209.5937500000,,,
0.0279999999,0,160270.0000000000,161786.9218750000,184977.9843750000,183072.4375000000,168363.1406250000,169184.9375000000,28181.0625000000,176209.1718750000,,,
0.0319999999,0,160260.9687500000,161774.6093750000,184974.1718750000,183059.3750000000,168359.0625000000,169174.7500000000,28179.1582031250,176197.4218750000,,,
0.0359999998,0,160262.6250000000,161774.7031250000,184977.9843750000,183053.4218750000,168360.6406250000,169172.7968750000,28181.7597656250,176189.6093750000,,,
0.0399999998,0,160261.3593750000,161772.0156250000,184975.1093750000,183053.5156250000,168357.2968750000,169167.9843750000,28178.9160156250,176184.1406250000,,,
0.0440000000,0,160262.1406250000,161771.1093750000,184973.9375000000,183058.2187500000,168358.0468750000,169165.1718750000,28174.0878906250,176185.4375000000,,,
0.0480000000,0,160263.0625000000,161771.2343750000,184975.5937500000,183065.1875000000,168360.1718750000,169165.0156250000,28169.8496093750,176186.8750000000,,,
0.0519999999,0,160264.2031250000,161773.2500000000,184974.2812500000,183059.9062500000,168360.0000000000,169166.7031250000,28174.3574218750,176185.1406250000,,,
0.0559999999,0,160273.0312500000,161783.1718750000,184979.2656250000,183068.9218750000,168363.0937500000,169172.7968750000,28182.8867187500,176185.8593750000,,,
0.0599999998,0,160278.9687500000,161789.0781250000,184983.8750000000,183063.7968750000,168367.1093750000,169180.2031250000,28186.6406250000,176185.5312500000,,,
0.0639999998,0,160280.9687500000,161789.6406250000,184986.8281250000,183061.4375000000,168372.9843750000,169185.1875000000,28193.1328125000,176186.8281250000,,,
0.0680000000,0,160286.2031250000,161794.1093750000,184993.9375000000,183060.6562500000,168380.4218750000,169186.4531250000,28197.6640625000,176191.9687500000,,,
0.0719999999,0,160294.3281250000,161807.1250000000,185001.2656250000,183068.0937500000,168387.3906250000,169192.9375000000,28203.4589843750,176199.5937500000,,,
0.0759999999,0,160300.8750000000,161816.3750000000,185009.7031250000,183078.8437500000,168393.4218750000,169198.0312500000,28211.2636718750,176199.6718750000,,,
0.0799999998,0,160304.8750000000,161820.6093750000,185016.6875000000,183078.7343750000,168399.3281250000,169199.6093750000,28217.8886718750,176198.7812500000,,,
0.0839999998,0,160294.9687500000,161811.4687500000,185003.5468750000,183059.3906250000,168388.9687500000,169194.3593750000,28207.2949218750,176194.9531250000,,,
0.0880000000,0,160292.3125000000,161807.7343750000,184997.5625000000,183057.1718750000,168384.1406250000,169190.6562500000,28199.8906250000,176194.4218750000,,,
0.0919999999,0,160295.4062500000,161811.2812500000,184998.2031250000,183065.2500000000,168385.1875000000,169190.6562500000,28199.7031250000,176195.2656250000,,,
0.0959999999,0,160307.2343750000,161824.7187500000,185009.7656250000,183070.8750000000,168395.8906250000,169201.7343750000,28208.6347656250,176199.8125000000,,,
0.0999999999,0,160313.6718750000,161829.4062500000,185017.2968750000,183075.6562500000,168402.1718750000,169211.1250000000,28219.0429687500,176200.7500000000,,,
0.1039999998,0,160314.6406250000,161828.3125000000,185018.3750000000,183085.5468750000,168403.4843750000,169214.7656250000,28224.7011718750,176205.0312500000,,,
0.1079999998,0,160308.5156250000,161823.1406250000,185010.5625000000,183086.4375000000,168396.0312500000,169210.2968750000,28215.0996093750,176206.2968750000,,,
0.1120000000,0,160311.7343750000,161823.3281250000,185015.3125000000,183088.3593750000,168399.1875000000,169209.4375000000,28212.6582031250,176202.9375000000,,,
0.1159999999,0,160310.4531250000,161820.8906250000,185014.2500000000,183079.3750000000,168396.9687500000,169208.0156250000,28210.9687500000,176194.4375000000,,,
0.1199999999,0,160307.5000000000,161819.1875000000,185009.1718750000,183061.5156250000,168391.4687500000,169205.8125000000,28211.5585937500,176189.7968750000,,,
0.1239999998,0,160306.2343750000,161817.9375000000,185005.1562500000,183070.9062500000,168388.3750000000,169203.9531250000,28209.3867187500,176192.8281250000,,,
0.1279999998,1,160299.6718750000,161810.9375000000,184999.8437500000,183064.9687500000,168383.9062500000,169198.6562500000,28202.3593750000,176196.2968750000,,,
0.1319999998,1,160296.6718750000,161806.5625000000,184998.0468750000,183060.8750000000,168382.6875000000,169194.8750000000,28199.8906250000,176194.9843750000,,,
0.1359999997,1,160291.4062500000,161801.0312500000,184994.5625000000,183060.6875000000,168377.6718750000,169191.9218750000,28200.5625000000,176185.5625000000,,,
0.1399999997,1,160293.9531250000,161805.0937500000,184997.5937500000,183063.5781250000,168379.2812500000,169195.0000000000,28203.3242187500,176183.7187500000,,,
0.1439999996,1,160293.9218750000,161804.5000000000,184998.0937500000,183067.1718750000,168380.2343750000,169191.6718750000,28202.5996093750,176184.6718750000,,,
0.1479999996,1,160295.2187500000,161804.7968750000,184998.9062500000,183072.5625000000,168383.3593750000,169193.5312500000,28208.6347656250,176190.5312500000,,,
0.1519999998,1,160290.5156250000,161800.3125000000,184992.7343750000,183063.9531250000,168379.0156250000,169193.3906250000,28206.4628906250,176189.8593750000,,,
0.1559999997,1,160296.0000000000,161805.2187500000,184995.9531250000,183063.0937500000,168382.0468750000,169195.3437500000,28207.0800781250,176189.7968750000,,,
0.1599999997,1,160301.8750000000,161810.9531250000,185000.8593750000,183077.1250000000,168387.2812500000,169195.9062500000,28211.1562500000,176193.6093750000,,,
0.1639999996,1,160302.8593750000,161812.8125000000,185003.6250000000,183079.5937500000,168391.0312500000,169194.4375000000,28214.8574218750,176201.0625000000,,,
0.1679999996,1,160299.6406250000,161810.2968750000,185000.2656250000,183064.0937500000,168389.3437500000,169190.5000000000,28213.1679687500,176205.4062500000,,,
0.1719999998,1,160304.0625000000,161815.8906250000,185001.6718750000,183068.0000000000,168390.7968750000,169191.5625000000,28215.6367187500,176212.1250000000,,,
0.1759999997,1,160311.3906250000,161820.9843750000,185008.7656250000,183076.0312500000,168395.9218750000,169195.7500000000,28220.0078125000,176215.3593750000,,,
0.1799999997,1,160312.3750000000,161821.2812500000,185008.6875000000,183070.5312500000,168396.5156250000,169197.0937500000,28220.2753906250,176216.2187500000,,,
0.1839999997,1,160310.6718750000,161820.2968750000,185009.2812500000,183076.6406250000,168396.6406250000,169195.6250000000,28218.3710937500,176220.9375000000,,,
0.1879999996,1,160311.9531250000,161820.0781250000,185011.5625000000,183081.1562500000,168398.3125000000,169193.3593750000,28216.6542968750,176228.1093750000,,,
0.1919999996,1,160314.0937500000,161819.2812500000,185014.3437500000,183082.0625000000,168402.2500000000,169194.2968750000,28220.8398437500,176230.3593750000,,,
0.1959999998,1,160309.5937500000,161812.4843750000,185009.7968750000,183068.6562500000,168397.5781250000,169190.5000000000,28217.1386718750,176222.2500000000,,,
0.1999999997,1,160313.4843750000,161815.7343750000,185012.8437500000,183059.7968750000,168400.0000000000,169195.4531250000,28219.1503906250,176223.9218750000,,,
0.2039999997,1,160321.5781250000,161820.8593750000,185022.1875000000,183065.9375000000,168407.9687500000,169199.5312500000,28222.9589843750,176233.7343750000,,,
0.2079999996,1,160322.1718750000,161820.7031250000,185025.5937500000,183067.6875000000,168411.0468750000,169198.2187500000,28224.8886718750,176239.0468750000,,,
0.2119999996,1,160319.8437500000,161821.5625000000,185021.2968750000,183080.3750000000,168407.4531250000,169202.3750000000,28227.2226562500,176238.6718750000,,,
0.2159999998,1,160320.8125000000,161824.0156250000,185021.6406250000,183088.3593750000,168406.5937500000,169205.5937500000,28231.0039062500,176234.0312500000,,,
0.2199999997,1,160318.1562500000,161821.7500000000,185020.3906250000,183081.9062500000,168405.0312500000,169206.3281250000,28230.5214843750,176230.5781250000,,,
0.2239999997,1,160314.3125000000,161819.7031250000,185019.6406250000,183079.1875000000,168405.4062500000,169205.4843750000,28230.2812500000,176234.5468750000,,,
0.2279999997,1,160303.5625000000,161811.0625000000,185010.4062500000,183067.7968750000,168398.5156250000,169197.6875000000,28222.5019531250,176235.0781250000,,,
0.2319999996,1,160300.5781250000,161809.6718750000,185007.0625000000,183054.1875000000,168396.9687500000,169196.7968750000,28218.4785156250,176234.6406250000,,,
0.2359999996,1,160305.1406250000,161815.2187500000,185010.5156250000,183060.5468750000,168399.0625000000,169200.5468750000,28221.2148437500,176235.7500000000,,,
0.2399999998,1,160302.6406250000,161813.2656250000,185008.9062500000,183064.7656250000,168395.8437500000,169196.9375000000,28218.7480468750,176231.0312500000,,,
0.2439999997,1,160301.6875000000,161810.9843750000,185007.4375000000,183067.2812500000,168394.5468750000,169193.1718750000,28219.2031250000,176232.1875000000,,,
0.2479999997,1,160298.5156250000,161808.4687500000,185003.3593750000,183064.5468750000,168391.5781250000,169190.4687500000,28219.7402343750,176234.4062500000,,,
0.2519999996,1,160296.4843750000,161808.0312500000,184997.9062500000,183059.1562500000,168386.6093750000,169192.1093750000,28215.6367187500,176236.3906250000,,,
0.2559999996,2,160300.4687500000,161811.3593750000,185000.4375000000,183081.2812500000,168387.2031250000,169197.5468750000,28216.2519531250,176236.0937500000,,,
0.2599999995,2,160301.8750000000,161813.3437500000,185002.0156250000,183071.5468750000,168387.3906250000,169200.3906250000,28217.6738281250,176236.7968750000,,,
0.2639999995,2,160296.3437500000,161809.5156250000,184999.7812500000,183045.6406250000,168384.7031250000,169196.9375000000,28213.5976562500,176237.8906250000,,,
0.2679999995,2,160288.5312500000,161802.8281250000,184992.9687500000,183038.0781250000,168380.1406250000,169191.9218750000,28206.3281250000,176236.3593750000,,,
0.2719999994,2,160286.7968750000,161801.7656250000,184991.5312500000,183039.3125000000,168379.2656250000,169189.0781250000,28203.0019531250,176234.0625000000,,,
0.2759999994,2,160284.6250000000,161796.2656250000,184987.7187500000,183044.8593750000,168373.3281250000,169182.0156250000,28198.1484375000,176224.9375000000,,,
0.2799999996,2,160280.2812500000,161791.4843750000,184981.6562500000,183040.9218750000,168366.2031250000,169178.3125000000,28195.4394531250,176217.7968750000,,,
0.2839999995,2,160284.0781250000,161797.0937500000,184985.2812500000,183049.5312500000,168368.9375000000,169179.1562500000,28198.9531250000,176225.2812500000,,,
0.2879999995,2,160281.8593750000,161793.7656250000,184984.9531250000,183046.7968750000,168370.0312500000,169176.5156250000,28200.5625000000,176231.2343750000,,,
0.2919999994,2,160280.8593750000,161793.5468750000,184982.9687500000,183043.8437500000,168370.0625000000,169176.8437500000,28199.7031250000,176234.5625000000,,,
0.2959999994,2,160278.9375000000,161791.3593750000,184980.1562500000,183036.3593750000,168367.4062500000,169173.1406250000,28196.6718750000,176228.2968750000,,,
0.2999999996,2,160283.0468750000,161793.0937500000,184981.7031250000,183045.8750000000,168368.6093750000,169170.1718750000,28197.5839843750,176226.6250000000,,,
0.3039999995,2,160279.8281250000,161788.7500000000,184977.3437500000,183035.1562500000,168365.1875000000,169165.0156250000,28191.7109375000,176228.2343750000,,,
0.3079999995,2,160278.1250000000,161787.4687500000,184976.6875000000,183028.0468750000,168365.9843750000,169166.6250000000,28193.5878906250,176234.6718750000,,,
0.3119999995,2,160279.2031250000,161787.7812500000,184980.5000000000,183030.8906250000,168369.1250000000,169169.8750000000,28194.9550781250,176235.0781250000,,,
0.3159999994,2,160288.8281250000,161796.7968750000,184988.8125000000,183045.3125000000,168374.4531250000,169181.8281250000,28196.1367187500,176235.9687500000,,,
0.3199999994,2,160288.9375000000,161796.7968750000,184989.8906250000,183062.9843750000,168374.5937500000,169186.3125000000,28195.5195312500,176232.3750000000,,,
0.3239999996,2,160283.0468750000,161792.2968750000,184982.4062500000,183073.3437500000,168368.4062500000,169178.2187500000,28193.8828125000,176230.3906250000,,,
0.3279999995,2,160273.5781250000,161785.4531250000,184971.7500000000,183045.0781250000,168359.5000000000,169172.7968750000,28187.7402343750,176229.0937500000,,,
0.3319999995,2,160265.2500000000,161778.8281250000,184963.5000000000,183026.9375000000,168351.6406250000,169167.4843750000,28178.9707031250,176222.5781250000,,,
0.3359999994,2,160263.4843750000,161775.1250000000,184959.8281250000,183034.0000000000,168347.9531250000,169160.0781250000,28171.5136718750,176213.0000000000,,,
0.3399999994,2,160265.4687500000,161774.3437500000,184960.2968750000,183046.2500000000,168348.8125000000,169157.6875000000,28166.8730468750,176208.2812500000,,,
0.3439999996,2,160262.2812500000,161771.6093750000,184956.9531250000,183045.2656250000,168346.6718750000,169156.5468750000,28167.1679687500,176209.0000000000,,,
0.3479999995,2,160253.0312500000,161763.0000000000,184948.2031250000,183020.1562500000,168340.1250000000,169150.9062500000,28164.4062500000,176207.6718750000,,,
0.3519999995,2,160250.8750000000,161759.3750000000,184947.5625000000,183032.8750000000,168339.2500000000,169146.7187500000,28162.9570312500,176201.9531250000,,,
0.3559999994,2,160258.0156250000,161765.8750000000,184955.0000000000,183029.2968750000,168343.7500000000,169149.6718750000,28168.8574218750,176196.1875000000,,,
0.3599999994,2,160261.0937500000,161767.1093750000,184957.1406250000,183017.0156250000,168345.7343750000,169151.7343750000,28173.9804687500,176190.5312500000,,,
0.3639999994,2,160253.5312500000,161756.3437500000,184952.9843750000,183000.0312500000,168341.2031250000,169145.2187500000,28167.4355468750,176181.4843750000,,,
0.3679999996,2,160253.2968750000,161754.7968750000,184953.5781250000,183007.4375000000,168341.5000000000,169145.1093750000,28166.7656250000,176179.3125000000,,,
0.3719999995,2,160253.3281250000,161756.4375000000,184951.9843750000,183012.4843750000,168340.6718750000,169144.7031250000,28167.1953125000,176178.9375000000,,,
0.3759999995,2,160259.8906250000,161762.4687500000,184956.7968750000,183008.8437500000,168346.2187500000,169149.7500000000,28171.5410156250,176175.8593750000,,,
0.3799999994,2,160258.7656250000,161760.2968750000,184955.6718750000,182999.1562500000,168345.9531250000,169149.0625000000,28169.0996093750,176169.0625000000,,,
0.3839999994,3,160260.5312500000,161760.5312500000,184959.6093750000,183003.8281250000,168350.8281250000,169147.4218750000,28170.5214843750,176169.3593750000,,,
0.3879999993,3,160264.7187500000,161766.6250000000,184963.5781250000,183015.7812500000,168357.8281250000,169151.3593750000,28179.1035156250,176176.7968750000,,,
0.3919999993,3,160267.7812500000,161771.1093750000,184965.7187500000,183027.1250000000,168359.8906250000,169154.9843750000,28183.9316406250,176182.0468750000,,,
0.3959999993,3,160274.2968750000,161777.5468750000,184973.6875000000,183013.0156250000,168366.3593750000,169158.4375000000,28188.5449218750,176181.4375000000,,,
0.3999999992,3,160277.0312500000,161781.5937500000,184977.6093750000,183004.2187500000,168368.4062500000,169161.6093750000,28192.0058593750,176179.4218750000,,,
0.4039999992,3,160275.0781250000,161781.0000000000,184975.9218750000,183026.2500000000,168365.3750000000,169163.0000000000,28192.3281250000,176182.6406250000,,,
0.4079999994,3,160271.0156250000,161776.7031250000,184971.2187500000,183038.1562500000,168360.5625000000,169159.0000000000,28187.3125000000,176185.9687500000,,,
0.4119999993,3,160265.4218750000,161773.9687500000,184965.2656250000,183028.6250000000,168355.9218750000,169154.1718750000,28179.6679687500,176186.2656250000,,,
0.4159999993,3,160269.5937500000,161778.1562500000,184968.4062500000,183027.2343750000,168358.2031250000,169154.2343750000,28183.5566406250,176183.7968750000,,,
0.4199999992,3,160275.4531250000,161783.5156250000,184972.3750000000,183038.8281250000,168360.4843750000,169158.0468750000,28189.6992187500,176181.2187500000,,,
0.4239999992,3,160277.1093750000,161785.3125000000,184976.5625000000,183036.7656250000,168364.3750000000,169163.3281250000,28193.6152343750,176185.0468750000,,,
0.4279999994,3,160275.4531250000,161785.7187500000,184973.9531250000,183030.6718750000,168362.9062500000,169164.3437500000,28191.3886718750,176187.7031250000,,,
0.4319999993,3,160278.8593750000,161787.7343750000,184975.9687500000,183038.6406250000,168363.4062500000,169166.0312500000,28191.9785156250,176187.3906250000,,,
0.4359999993,3,160273.5781250000,161779.7343750000,184971.6250000000,183043.4375000000,168356.2968750000,169158.8750000000,28186.1855468750,176172.1718750000,,,
0.4399999992,3,160272.1562500000,161777.0312500000,184971.8437500000,183047.8906250000,168354.8593750000,169156.7031250000,28187.9824218750,176162.3125000000,,,
0.4439999992,3,160270.8281250000,161775.4687500000,184972.5625000000,183027.7656250000,168355.7968750000,169159.0000000000,28189.1894531250,176162.5312500000,,,
0.4479999992,3,160265.4375000000,161771.2656250000,184966.4531250000,183017.1718750000,168353.0312500000,169159.0312500000,28186.5605468750,176166.4062500000,,,
0.4519999993,3,160263.8281250000,161770.1406250000,184966.4687500000,183025.7031250000,168354.6718750000,169159.9531250000,28189.0820312500,176166.8750000000,,,
0.4559999993,3,160264.6875000000,161768.0937500000,184968.6250000000,183040.1093750000,168356.4843750000,169157.7500000000,28189.9941406250,176159.8437500000,,,
0.4599999993,3,160270.2656250000,161771.7656250000,184974.5156250000,183034.0781250000,168362.3906250000,169165.7968750000,28199.7304687500,176158.4687500000,,,
0.4639999992,3,160266.6718750000,161768.9531250000,184973.3125000000,183020.0468750000,168361.6718750000,169166.7031250000,28203.2441406250,176157.0781250000,,,
0.4679999992,3,160267.0468750000,161770.5468750000,184975.5937500000,183027.8593750000,168363.6562500000,169165.2500000000,28204.8535156250,176161.3906250000,,,
0.4719999994,3,160263.1718750000,161769.1718750000,184970.7187500000,183028.4218750000,168359.8906250000,169162.0156250000,28201.0449218750,176159.2187500000,,,
0.4759999993,3,160259.4687500000,161769.1718750000,184965.4218750000,183008.6250000000,168354.7968750000,169160.2343750000,28194.7949218750,176150.9062500000,,,
0.4799999993,3,160254.2656250000,161762.3281250000,184959.9531250000,182999.3906250000,168349.0312500000,169150.4218750000,28185.3535156250,176140.5625000000,,,
0.4839999992,3,160245.5468750000,161754.0781250000,184949.0937500000,182998.3750000000,168338.8437500000,169139.5312500000,28173.9003906250,176134.6562500000,,,
0.4879999992,3,160241.1406250000,161750.9531250000,184942.1250000000,183009.1875000000,168332.9062500000,169131.9218750000,28164.3789062500,176135.5468750000,,,
0.4919999992,3,160248.4062500000,161757.9375000000,184948.0937500000,183018.8125000000,168339.1875000000,169134.5156250000,28170.7890625000,176141.6562500000,,,
0.4959999993,3,160261.3906250000,161768.0937500000,184959.8750000000,183037.7812500000,168348.8437500000,169139.9687500000,28182.5917968750,176142.7812500000,,,
0.4999999993,3,160268.2031250000,161773.6562500000,184966.2031250000,183042.6093750000,168354.5000000000,169143.7968750000,28190.2617187500,176143.7812500000,,,
0.5039999993,3,160272.6093750000,161778.3437500000,184973.3125000000,183041.1562500000,168361.1562500000,169147.9843750000,28194.8496093750,176153.1093750000,,,
0.5079999992,3,160271.3125000000,161777.1718750000,184974.9687500000,183051.0781250000,168362.4375000000,169150.0000000000,28196.8867187500,176162.1406250000,,,
0.5119999992,4,160272.7187500000,161779.3593750000,184977.3437500000,183042.5468750000,168364.1406250000,169154.2812500000,28198.6835937500,176167.7500000000,,,
0.5159999991,4,160274.7187500000,161782.3750000000,184978.1875000000,183043.4687500000,168363.6562500000,169156.3281250000,28198.8984375000,176166.3125000000,,,
0.5199999991,4,160272.8437500000,161779.0156250000,184974.3593750000,183045.1250000000,168358.5000000000,169152.5625000000,28194.0175781250,176159.2187500000,,,
0.5239999990,4,160269.2187500000,161771.9062500000,184971.2968750000,183041.5312500000,168355.4687500000,169149.0312500000,28192.1132812500,176156.6718750000,,,
0.5279999990,4,160275.7968750000,161775.6562500000,184978.8437500000,183045.3437500000,168363.0625000000,169152.6718750000,28193.8300781250,176168.9062500000,,,
0.5319999990,4,160283.6250000000,161781.9375000000,184988.0156250000,183061.2812500000,168371.3281250000,169157.3125000000,28198.8710937500,176179.7187500000,,,
0.5359999991,4,160292.4843750000,161792.3437500000,184997.5937500000,183089.2500000000,168378.2187500000,169161.0156250000,28208.8222656250,176185.6718750000,,,
0.5399999991,4,160281.5312500000,161784.4843750000,184985.6562500000,183061.7500000000,168367.1406250000,169154.7343750000,28201.9570312500,176179.6562500000,,,
0.5439999991,4,160262.6875000000,161766.6718750000,184965.9687500000,183017.5000000000,168350.7187500000,169144.6562500000,28189.1093750000,176170.8125000000,,,
0.5479999990,4,160261.2656250000,161765.4218750000,184962.7187500000,183018.6562500000,168349.2968750000,169142.6250000000,28185.6757812500,176173.2500000000,,,
0.5519999990,4,160268.0000000000,161772.6093750000,184968.2968750000,183032.2500000000,168354.0781250000,169148.6250000000,28190.3164062500,176177.8593750000,,,
0.5559999992,4,160270.0625000000,161776.2031250000,184971.4687500000,183031.2812500000,168355.0156250000,169155.3593750000,28196.4843750000,176175.7187500000,,,
0.5599999991,4,160271.1250000000,161779.6562500000,184971.9531250000,183029.7812500000,168354.9375000000,169160.0781250000,28199.5156250000,176172.6406250000,,,
0.5639999991,4,160266.7343750000,161775.1562500000,184967.3906250000,183031.0468750000,168352.3281250000,169158.2500000000,28195.8144531250,176171.5156250000,,,
0.5679999990,4,160262.2500000000,161768.0468750000,184965.1250000000,183037.0781250000,168351.2031250000,169154.3437500000,28191.3085937500,176171.9687500000,,,
0.5719999990,4,160269.0156250000,161772.0937500000,184971.5625000000,183038.7187500000,168359.0156250000,169156.5937500000,28197.8261718750,176173.6562500000,,,
0.5759999990,4,160275.8750000000,161777.8281250000,184976.4218750000,183038.1562500000,168362.3593750000,169160.1562500000,28200.1054687500,176172.1718750000,,,
0.5799999991,4,160278.4843750000,161779.7968750000,184977.5781250000,183037.9687500000,168362.4218750000,169161.0156250000,28198.5234375000,176169.1562500000,,,
0.5839999991,4,160278.4531250000,161780.7031250000,184977.6093750000,183024.3125000000,168363.3906250000,169163.2656250000,28203.3789062500,176171.6718750000,,,
0.5879999991,4,160271.0156250000,161775.7968750000,184967.0156250000,183028.1406250000,168355.3906250000,169158.7343750000,28197.8261718750,176173.3906250000,,,
0.5919999990,4,160273.4062500000,161778.7812500000,184965.1250000000,183042.2812500000,168354.2656250000,169156.8281250000,28195.4921875000,176175.1250000000,,,
0.5959999990,4,160276.8750000000,161780.7812500000,184968.6406250000,183050.2187500000,168355.6562500000,169156.4375000000,28196.2695312500,176170.0937500000,,,
0.5999999992,4,160280.4687500000,161782.3437500000,184974.4375000000,183043.3281250000,168358.8281250000,169158.5781250000,28198.0937500000,176164.5937500000,,,
0.6039999991,4,160276.2343750000,161776.8750000000,184974.5156250000,183035.9218750000,168358.7656250000,169153.1093750000,28195.7597656250,176160.1875000000,,,
0.6079999991,4,160272.5781250000,161774.9375000000,184974.2500000000,183023.0781250000,168359.6250000000,169153.9687500000,28196.4843750000,176164.3750000000,,,
0.6119999990,4,160278.2968750000,161781.8593750000,184979.1875000000,183025.7343750000,168365.1875000000,169160.0468750000,28203.5917968750,176172.0781250000,,,
0.6159999990,4,160282.0156250000,161787.2187500000,184981.4375000000,183036.4062500000,168367.0000000000,169163.6718750000,28208.7968750000,176172.9375000000,,,
0.6199999989,4,160285.6875000000,161792.6875000000,184984.3593750000,183041.7187500000,168368.0781250000,169167.9687500000,28210.4863281250,176174.4531250000,,,
0.6239999991,4,160290.6093750000,161795.7500000000,184989.3281250000,183048.4531250000,168372.7656250000,169167.5937500000,28209.5468750000,176180.1406250000,,,
0.6279999991,4,160291.4375000000,161797.4687500000,184986.7500000000,183056.2812500000,168372.1875000000,169164.1875000000,28201.9023437500,176187.5156250000,,,
0.6319999991,4,160286.9218750000,161796.7968750000,184982.2656250000,183046.9843750000,168368.3125000000,169164.0781250000,28197.7714843750,176187.2343750000,,,
0.6359999990,4,160286.3906250000,161797.4218750000,184982.8125000000,183037.1406250000,168368.3437500000,169168.4687500000,28200.1601562500,176181.2968750000,,,
0.6399999990,5,160279.0937500000,161787.7656250000,184977.3437500000,183030.8281250000,168362.9843750000,169163.9218750000,28194.2050781250,176167.3281250000,,,
0.6439999989,5,160274.2968750000,161777.7500000000,184974.3593750000,183039.8125000000,168361.3750000000,169159.5468750000,28197.4765625000,176160.4062500000,,,
0.6479999989,5,160270.2500000000,161771.1093750000,184969.5781250000,183028.2812500000,168358.3750000000,169155.0312500000,28200.4003906250,176161.4218750000,,,
0.6519999988,5,160271.7187500000,161772.3906250000,184970.5468750000,183020.0781250000,168359.3593750000,169155.7812500000,28201.4199218750,176164.7500000000,,,
0.6559999988,5,160272.2031250000,161772.9062500000,184971.8437500000,183027.4843750000,168359.4062500000,169155.5781250000,28200.5625000000,176161.1562500000,,,
0.6599999988,5,160275.3437500000,161777.9687500000,184975.0312500000,183023.0468750000,168362.0937500000,169160.1875000000,28206.0058593750,176160.1562500000,,,
0.6639999989,5,160269.3906250000,161770.9375000000,184972.1562500000,183011.9531250000,168359.7031250000,169156.4843750000,28206.0605468750,176155.7656250000,,,
0.6679999989,5,160269.7968750000,161770.7031250000,184973.6406250000,183018.7031250000,168361.0468750000,169156.1875000000,28203.2714843750,176160.2500000000,,,
0.6719999989,5,160274.2968750000,161776.6875000000,184976.6718750000,183031.9375000000,168364.3750000000,169159.3750000000,28206.0058593750,176169.2031250000,,,
0.6759999988,5,160277.0000000000,161780.8125000000,184979.2968750000,183036.5156250000,168366.2031250000,169163.7500000000,28209.5742187500,176170.3593750000,,,
0.6799999988,5,160285.5000000000,161790.5156250000,184985.6250000000,183043.4375000000,168372.0156250000,169170.8281250000,28215.7968750000,176175.3125000000,,,
0.6839999990,5,160285.6718750000,161791.1093750000,184984.7656250000,183042.2343750000,168372.9531250000,169171.6093750000,28215.1269531250,176181.2500000000,,,
0.6879999989,5,160281.7031250000,161790.4375000000,184979.8281250000,183031.9531250000,168369.2812500000,169172.0625000000,28207.5625000000,176187.6875000000,,,
0.6919999989,5,160267.9375000000,161776.7656250000,184966.2812500000,183002.9375000000,168357.4062500000,169165.9843750000,28197.0488281250,176180.7968750000,,,
0.6959999988,5,160265.5781250000,161775.6562500000,184963.3593750000,183009.1093750000,168353.3281250000,169163.5625000000,28196.5644531250,176174.7812500000,,,
0.6999999988,5,160269.7031250000,161779.5000000000,184970.0156250000,183024.2031250000,168358.3437500000,169162.2812500000,28203.6738281250,176171.9062500000,,,
0.7039999987,5,160265.3125000000,161771.7187500000,184968.6718750000,183005.2968750000,168358.8281250000,169155.7031250000,28205.8984375000,176167.0000000000,,,
0.7079999989,5,160261.9375000000,161768.0468750000,184965.3125000000,183003.5000000000,168357.0000000000,169153.0781250000,28202.7070312500,176169.0468750000,,,
0.7119999989,5,160256.5468750000,161766.3593750000,184957.6718750000,183009.2343750000,168349.5625000000,169151.5468750000,28194.0703125000,176171.6718750000,,,
0.7159999989,5,160256.2187500000,161768.4687500000,184956.6875000000,183007.2343750000,168346.8593750000,169155.1718750000,28195.2246093750,176169.8437500000,,,
0.7199999988,5,160258.6875000000,161771.8593750000,184958.6093750000,183017.0156250000,168345.9687500000,169158.7187500000,28193.9628906250,176168.3437500000,,,
0.7239999988,5,160258.0468750000,161770.3750000000,184960.5781250000,183011.6250000000,168347.4843750000,169159.5937500000,28194.7675781250,176170.3593750000,,,
0.7279999990,5,160253.3281250000,161766.2968750000,184957.7812500000,183012.8125000000,168345.3125000000,169156.6718750000,28190.1816406250,176173.4687500000,,,
0.7319999989,5,160252.6562500000,161764.3437500000,184957.3750000000,183013.6093750000,168343.0312500000,169154.6093750000,28188.3574218750,176173.9843750000,,,
0.7359999989,5,160255.0625000000,161764.5625000000,184960.2812500000,183002.7500000000,168344.7343750000,169156.2500000000,28196.4570312500,176169.2812500000,,,
0.7399999988,5,160256.8125000000,161765.2812500000,184961.3281250000,183008.9687500000,168346.5312500000,169154.8281250000,28201.4472656250,176164.1093750000,,,
0.7439999988,5,160258.0468750000,161764.3906250000,184963.3593750000,183016.8281250000,168349.0625000000,169153.4531250000,28206.0605468750,176164.1562500000,,,
0.7479999987,5,160255.3281250000,161761.0468750000,184962.8593750000,183016.1875000000,168348.3125000000,169148.5156250000,28204.7460937500,176167.6406250000,,,
0.7519999989,5,160247.4687500000,161755.0156250000,184952.6406250000,183005.0312500000,168339.1562500000,169146.7187500000,28197.3691406250,176166.6875000000,,,
0.7559999989,5,160242.7812500000,161752.0625000000,184946.6250000000,182997.3281250000,168333.3906250000,169147.2656250000,28192.9179687500,176159.8906250000,,,
0.7599999988,5,160246.0781250000,161755.4843750000,184948.7187500000,183004.0937500000,168335.1406250000,169150.6406250000,28193.6152343750,176159.0937500000,,,
0.7639999988,5,160252.1718750000,161759.8125000000,184953.1718750000,183010.9531250000,168340.2656250000,169153.8281250000,28198.1210937500,176163.6718750000,,,
0.7679999988,6,160252.8437500000,161759.3281250000,184955.4843750000,183008.4531250000,168343.6093750000,169153.1875000000,28201.6875000000,176169.5312500000,,,
0.7719999987,6,160249.5625000000,161756.8281250000,184953.0625000000,183002.6406250000,168340.6875000000,169149.0000000000,28197.4765625000,176168.3125000000,,,
0.7759999987,6,160253.0781250000,161757.9531250000,184957.4375000000,183002.9375000000,168342.2812500000,169148.4687500000,28200.5878906250,176161.4843750000,,,
0.7799999986,6,160258.8750000000,161766.2812500000,184961.9062500000,183010.3593750000,168344.9218750000,169153.4218750000,28207.4277343750,176162.6250000000,,,
0.7839999986,6,160259.9218750000,161768.0937500000,184960.7031250000,183015.0000000000,168344.7968750000,169151.5000000000,28210.7011718750,176167.1093750000,,,
0.7879999985,6,160258.6093750000,161763.8281250000,184959.4218750000,183007.0625000000,168343.7968750000,169147.0468750000,28204.8808593750,176170.3593750000,,,
0.7919999987,6,160255.5156250000,161760.9687500000,184954.8906250000,183006.0000000000,168338.5781250000,169142.3281250000,28194.7949218750,176171.1093750000,,,
0.7959999987,6,160259.8593750000,161766.2500000000,184959.3437500000,183012.1093750000,168341.2031250000,169146.7968750000,28197.3964843750,176170.3750000000,,,
0.7999999986,6,160263.1875000000,161771.7500000000,184963.6250000000,183017.7656250000,168344.0468750000,169150.5625000000,28203.2968750000,176169.4218750000,,,
0.8039999986,6,160259.2968750000,161770.0312500000,184960.1718750000,183019.8125000000,168341.1718750000,169149.6718750000,28199.5429687500,176170.4843750000,,,
0.8079999986,6,160251.5312500000,161761.8437500000,184953.5156250000,183018.4375000000,168336.2656250000,169146.2343750000,28191.6308593750,176169.6250000000,,,
0.8119999988,6,160251.9531250000,161760.1250000000,184953.3593750000,183021.7343750000,168336.6875000000,169145.5156250000,28192.2207031250,176168.2968750000,,,
0.8159999987,6,160256.4843750000,161763.2656250000,184955.2656250000,183026.0000000000,168337.4687500000,169145.2500000000,28195.2500000000,176163.1718750000,,,
0.8199999987,6,160254.0468750000,161761.0468750000,184954.1875000000,183013.1250000000,168336.2343750000,169142.5312500000,28197.8261718750,176154.2031250000,,,
0.8239999986,6,160253.9062500000,161762.8906250000,184956.3281250000,183011.2812500000,168339.5625000000,169143.7656250000,28202.5742187500,176156.3750000000,,,
0.8279999986,6,160251.4375000000,161760.5312500000,184953.4843750000,183016.0468750000,168338.5156250000,169142.9687500000,28199.0859375000,176160.7812500000,,,
0.8319999985,6,160247.9843750000,161756.5156250000,184948.0000000000,183007.7031250000,168333.1562500000,169140.7187500000,28193.5351562500,176158.3906250000,,,
0.8359999987,6,160255.6875000000,161764.8281250000,184953.6718750000,183007.8750000000,168338.8437500000,169148.5781250000,28200.3203125000,176161.5312500000,,,
0.8399999987,6,160254.9843750000,161764.0156250000,184953.6250000000,183017.6093750000,168337.5781250000,169149.0000000000,28200.8574218750,176157.9843750000,,,
0.8439999986,6,160247.6093750000,161756.3437500000,184946.5468750000,183011.7812500000,168331.2187500000,169146.4062500000,28193.6152343750,176152.8750000000,,,
0.8479999986,6,160247.6406250000,161756.2968750000,184944.9375000000,183012.5937500000,168331.1406250000,169150.6093750000,28192.3007812500,176157.8906250000,,,
0.8519999986,6,160246.6093750000,161752.5468750000,184945.0468750000,183011.8125000000,168332.1093750000,169151.6250000000,28194.7949218750,176158.9843750000,,,
0.8559999987,6,160247.0781250000,161750.5000000000,184947.1562500000,183012.2187500000,168333.9531250000,169151.1406250000,28196.1894531250,176153.9062500000,,,
0.8599999987,6,160265.4375000000,161767.7500000000,184966.7343750000,183034.3125000000,168352.3281250000,169163.0312500000,28212.2558593750,176162.2500000000,,,
0.8639999987,6,160276.0625000000,161778.9687500000,184976.9062500000,183052.0468750000,168364.0468750000,169169.9531250000,28222.2343750000,176176.3593750000,,,
0.8679999986,6,160266.6562500000,161767.9062500000,184968.7343750000,183036.4687500000,168358.1250000000,169163.8593750000,28219.0683593750,176177.2187500000,,,
0.8719999986,6,160258.0937500000,161757.5000000000,184962.6718750000,182995.3906250000,168352.2031250000,169156.5625000000,28215.3945312500,176171.0781250000,,,
0.8759999985,6,160256.0625000000,161756.6406250000,184959.4531250000,182993.7656250000,168347.3906250000,169153.0312500000,28210.4863281250,176162.5000000000,,,
0.8799999987,6,160258.7187500000,161762.1406250000,184960.6250000000,183007.5000000000,168347.6718750000,169153.0000000000,28214.0273437500,176160.5156250000,,,
0.8839999987,6,160258.0937500000,161761.8437500000,184959.8750000000,183008.8593750000,168346.5156250000,169148.8906250000,28214.1875000000,176160.4843750000,,,
0.8879999986,6,160259.7343750000,161764.6093750000,184961.9062500000,183005.3750000000,168349.2500000000,169147.6875000000,28213.1406250000,176167.2656250000,,,
0.8919999986,6,160265.0625000000,161770.3281250000,184965.5156250000,183010.9843750000,168353.8593750000,169152.8906250000,28217.2187500000,176173.6875000000,,,
0.8959999986,7,160267.5937500000,161773.3593750000,184966.9843750000,183023.4531250000,168355.6250000000,169154.0468750000,28220.6523437500,176173.3281250000,,,
0.8999999985,7,160268.0937500000,161774.0312500000,184968.1562500000,183022.3750000000,168355.8437500000,169153.9687500000,28222.4492187500,176170.3593750000,,,
0.9039999985,7,160263.2968750000,161770.4531250000,184964.0312500000,183019.8125000000,168352.5937500000,169151.2812500000,28218.2636718750,176169.4687500000,,,
0.9079999984,7,160260.2968750000,161769.3593750000,184959.5468750000,183009.2968750000,168349.5468750000,169153.4218750000,28217.2441406250,176172.6406250000,,,
0.9119999984,7,160259.7656250000,161768.5000000000,184957.8125000000,183016.7968750000,168347.4218750000,169153.4218750000,28218.1562500000,176173.2187500000,,,
0.9159999983,7,160264.6406250000,161769.5000000000,184962.6406250000,183048.5312500000,168349.9218750000,169155.4687500000,28218.9355468750,176169.4218750000,,,
0.9199999985,7,160261.8281250000,161765.3906250000,184960.5468750000,183029.2812500000,168346.8125000000,169152.3281250000,28214.9121093750,176161.2343750000,,,
0.9239999985,7,160259.3593750000,161763.4531250000,184960.4062500000,182997.1093750000,168347.2656250000,169151.6093750000,28214.9921875000,176159.8437500000,,,
0.9279999984,7,160260.8906250000,161765.5000000000,184962.1562500000,183009.4531250000,168349.1718750000,169156.7812500000,28214.5625000000,176165.8437500000,,,
0.9319999984,7,160261.0156250000,161764.1250000000,184963.1250000000,183017.6406250000,168349.3593750000,169156.1562500000,28210.2167968750,176165.6093750000,,,
0.9359999984,7,160257.2343750000,161760.1875000000,184958.2968750000,183018.2187500000,168343.5937500000,169151.5781250000,28202.5996093750,176159.1406250000,,,
0.9399999985,7,160254.7968750000,161759.2187500000,184956.2031250000,183020.7656250000,168339.7812500000,169151.0625000000,28203.3242187500,176153.6718750000,,,
0.9439999985,7,160254.7968750000,161757.6406250000,184955.4531250000,183015.0781250000,168339.5937500000,169151.2343750000,28205.8730468750,176154.2656250000,,,
0.9479999985,7,160256.7500000000,161757.9843750000,184956.0468750000,183008.4375000000,168340.7968750000,169151.1250000000,28207.0000000000,176159.4375000000,,,
0.9519999984,7,160262.1718750000,161765.7968750000,184961.4531250000,183003.4375000000,168346.2656250000,169157.8593750000,28213.9726562500,176167.0781250000,,,
0.9559999984,7,160265.9843750000,161769.7812500000,184965.8593750000,183003.1562500000,168351.0781250000,169161.5312500000,28219.8203125000,176166.0625000000,,,
0.9599999983,7,160265.3437500000,161771.2656250000,184963.9843750000,183007.6093750000,168349.2968750000,169160.3437500000,28220.5175781250,176160.8906250000,,,
0.9639999985,7,160264.2343750000,161769.7031250000,184963.6875000000,183010.5781250000,168349.1718750000,169156.9687500000,28220.7578125000,176161.6406250000,,,
0.9679999985,7,160263.8125000000,161770.2500000000,184961.0781250000,183018.2187500000,168347.8281250000,169154.4218750000,28214.1875000000,176168.5000000000,,,
0.9719999984,7,160263.9375000000,161771.0000000000,184958.5625000000,183032.7812500000,168345.1406250000,169150.9062500000,28205.6035156250,176169.8125000000,,,
0.9759999984,7,160265.7968750000,161776.6875000000,184959.7187500000,183016.5000000000,168346.4375000000,169154.5781250000,28210.5136718750,176169.0156250000,,,
0.9799999984,7,160267.5312500000,161780.1406250000,184959.9062500000,183007.5781250000,168345.4375000000,169157.2656250000,28214.2949218750,176167.1406250000,,,
0.9839999985,7,160263.8281250000,161776.8906250000,184955.9843750000,183004.2187500000,168342.5468750000,169156.4375000000,28212.0410156250,176163.8437500000,,,
0.9879999985,7,160266.6718750000,161777.4375000000,184959.3125000000,183012.8125000000,168346.5937500000,169157.4218750000,28214.4296875000,176168.6406250000,,,
0.9919999985,7,160269.0156250000,161775.5781250000,184961.5156250000,183020.6406250000,168348.5468750000,169154.4531250000,28216.1191406250,176167.2968750000,,,
0.9959999984,7,160275.9843750000,161780.3593750000,184967.7812500000,183032.0312500000,168353.9218750000,169156.2656250000,28221.9648437500,176164.9843750000,,,
0.9999999984,7,160278.0000000000,161783.4375000000,184971.3750000000,183018.7812500000,168356.7812500000,169159.4062500000,28226.0429687500,176163.4843750000,,,
1.0039999983,7,160280.4687500000,161786.5000000000,184974.9218750000,183025.7812500000,168361.1093750000,169160.1093750000,28229.6914062500,176168.1875000000,,,
1.0079999985,7,160276.8125000000,161782.1250000000,184974.3125000000,183036.8125000000,168361.7812500000,169153.7812500000,28228.8593750000,176172.7500000000,,,
1.0119999985,7,160276.5781250000,161781.9843750000,184975.1875000000,183039.0156250000,168362.7656250000,169152.4375000000,28225.3730468750,176177.7031250000,33029,1.0153216356,0.0000000000
1.0159999984,7,160279.1250000000,161783.2500000000,184976.2343750000,183035.3437500000,168364.5937500000,169156.3281250000,28223.9238281250,176176.6562500000,,,
1.0199999984,7,160283.5781250000,161787.8906250000,184979.8906250000,183026.1406250000,168368.4531250000,169161.8281250000,28230.3613281250,176176.3593750000,,,
1.0239999983,8,160277.8281250000,161783.0937500000,184976.3125000000,183026.9687500000,168365.9531250000,169158.0937500000,28229.8242187500,176171.4218750000,,,
1.0279999983,8,160279.8281250000,161783.7343750000,184980.0781250000,183032.6250000000,168370.8437500000,169160.5312500000,28235.9941406250,176177.1406250000,,,
1.0319999983,8,160273.7812500000,161775.1250000000,184973.4218750000,183003.0937500000,168365.9062500000,169155.2031250000,28232.2109375000,176174.4531250000,,,
1.0359999982,8,160273.3906250000,161770.0781250000,184971.1718750000,183002.9843750000,168361.1875000000,169149.1562500000,28228.2421875000,176164.0468750000,,,
1.0399999982,8,160282.6093750000,161778.2343750000,184978.6250000000,183000.4375000000,168365.4687500000,169154.2812500000,28235.3496093750,176161.7500000000,,,
1.0439999981,8,160292.5000000000,161787.2187500000,184988.2500000000,183006.3125000000,168373.1250000000,169161.7500000000,28240.4726562500,176169.0937500000,,,
1.0479999983,8,160297.6093750000,161794.9531250000,184991.7968750000,183009.7968750000,168379.6406250000,169170.0625000000,28242.9667968750,176182.5625000000,,,
1.0519999983,8,160290.9843750000,161791.0781250000,184982.8281250000,183014.5156250000,168374.6250000000,169171.2968750000,28237.9511718750,176185.2656250000,,,
1.0559999982,8,160285.1875000000,161787.2031250000,184973.8281250000,183024.7968750000,168366.5156250000,169169.0625000000,28229.6093750000,176180.2500000000,,,
1.0599999982,8,160285.6875000000,161791.5156250000,184973.1250000000,183018.9687500000,168365.2031250000,169170.2500000000,28228.1074218750,176179.7500000000,,,
1.0639999982,8,160276.4218750000,161785.3750000000,184965.1875000000,183006.3906250000,168357.5625000000,169166.3750000000,28223.9238281250,176177.3281250000,,,
1.0679999983,8,160272.3125000000,161781.1562500000,184963.9843750000,183002.0000000000,168356.4062500000,169162.8125000000,28224.4335937500,176179.3125000000,,,
1.0719999983,8,160272.2500000000,161783.2187500000,184963.9218750000,183010.6562500000,168356.1406250000,169160.0781250000,28225.3984375000,176182.5000000000,,,
1.0759999983,8,160268.7500000000,161780.0312500000,184960.8125000000,183006.9375000000,168352.0312500000,169157.7187500000,28224.8359375000,176173.7031250000,,,
1.0799999982,8,160260.9375000000,161770.4062500000,184954.3750000000,183000.7343750000,168342.8125000000,169149.0781250000,28219.0683593750,176161.2656250000,,,
1.0839999982,8,160261.7187500000,161767.2968750000,184956.9218750000,183010.0625000000,168341.9062500000,169145.7812500000,28217.2714843750,176158.7187500000,,,
1.0879999981,8,160266.3593750000,161769.5000000000,184960.7656250000,183021.7656250000,168343.6093750000,169149.0781250000,28217.3789062500,176166.7812500000,,,
1.0919999983,8,160268.6562500000,161771.1562500000,184961.6406250000,183019.9687500000,168342.7812500000,169151.3281250000,28218.9355468750,176171.0000000000,,,
1.0959999983,8,160270.5156250000,161774.7187500000,184962.5000000000,183025.4687500000,168342.1875000000,169153.2968750000,28219.5781250000,176168.4218750000,,,
1.0999999982,8,160274.9062500000,161778.5312500000,184969.3125000000,183037.8281250000,168346.7500000000,169158.1718750000,28226.7929687500,176166.1406250000,,,
1.1039999982,8,160267.7187500000,161772.7968750000,184966.4687500000,183026.5156250000,168345.1093750000,169153.0312500000,28226.2031250000,176165.7187500000,,,
1.1079999981,8,160259.8125000000,161763.2656250000,184964.2812500000,183010.6562500000,168346.2656250000,169149.3281250000,28226.0429687500,176166.6562500000,,,
1.1119999983,8,160257.4843750000,161759.3750000000,184963.4218750000,183002.4843750000,168348.1406250000,169147.2656250000,28227.7324218750,176165.5781250000,,,
1.1159999983,8,160260.4531250000,161759.5468750000,184965.1562500000,183014.9531250000,168350.9062500000,169145.6718750000,28231.0859375000,176160.3437500000,,,
1.1199999982,8,160264.6406250000,161764.2968750000,184968.8906250000,183040.2968750000,168354.8750000000,169149.3437500000,28233.7675781250,176160.0000000000,,,
1.1239999982,8,160261.2812500000,161764.6718750000,184964.9218750000,183011.4375000000,168352.6875000000,169151.3281250000,28234.4648437500,176162.0937500000,,,
1.1279999982,8,160261.0781250000,161764.8750000000,184963.4687500000,182994.9218750000,168353.6718750000,169153.9687500000,28235.0273437500,176166.8750000000,,,
1.1319999981,8,160260.0312500000,161763.0000000000,184959.7656250000,183008.3750000000,168349.8437500000,169155.0156250000,28230.1191406250,176167.8906250000,,,
1.1359999983,8,160265.2031250000,161766.3750000000,184963.0937500000,183020.2031250000,168349.6562500000,169156.6250000000,28228.4570312500,176163.4687500000,,,
1.1399999983,8,160267.7500000000,161770.5937500000,184961.3750000000,183018.0312500000,168347.4218750000,169157.6718750000,28228.3496093750,176157.9687500000,,,
1.1439999982,8,160260.3437500000,161765.0625000000,184953.1406250000,183006.8750000000,168339.8593750000,169150.8750000000,28222.6093750000,176151.9843750000,,,
1.1479999982,8,160257.9843750000,161763.4531250000,184951.5625000000,182998.0468750000,168340.0937500000,169148.8125000000,28220.3027343750,176155.4218750000,,,
1.1519999981,9,160257.2031250000,161762.5468750000,184949.9843750000,183007.6250000000,168341.2343750000,169146.9375000000,28217.8359375000,176159.2187500000,,,
1.1559999981,9,160254.2656250000,161759.3593750000,184948.6093750000,182997.2500000000,168339.5625000000,169143.5000000000,28216.7363281250,176155.0156250000,,,
1.1599999981,9,160257.8593750000,161764.5312500000,184953.9218750000,182991.4218750000,168344.3906250000,169147.3593750000,28224.1660156250,176154.5000000000,,,
1.1639999980,9,160262.4375000000,161770.7812500000,184957.4062500000,182996.3125000000,168348.2500000000,169156.4843750000,28231.2734375000,176161.4531250000,,,
1.1679999980,9,160258.2500000000,161765.8750000000,184951.2343750000,182985.6562500000,168344.2812500000,169155.1250000000,28225.2382812500,176165.3125000000,,,
1.1719999979,9,160260.1093750000,161766.2187500000,184951.7812500000,182991.9687500000,168345.5937500000,169155.6875000000,28220.1679687500,176168.6718750000,,,
1.1759999981,9,160261.3125000000,161767.7031250000,184953.5781250000,182994.0000000000,168344.8750000000,169157.9843750000,28222.2871093750,176168.0468750000,,,
1.1799999981,9,160264.2031250000,161770.1875000000,184957.2500000000,182993.0937500000,168347.5625000000,169160.2187500000,28230.0117187500,176164.5937500000,,,
1.1839999980,9,160264.0468750000,161767.8906250000,184959.8437500000,182999.7656250000,168350.8906250000,169161.0937500000,28232.7480468750,176162.2500000000,,,
1.1879999980,9,160257.8750000000,161761.2343750000,184956.0156250000,183010.6406250000,168347.2968750000,169156.5156250000,28229.7968750000,176161.8750000000,,,
1.1919999979,9,160260.7968750000,161763.6718750000,184959.9843750000,183021.7031250000,168349.3750000000,169156.9687500000,28233.2304687500,176164.1093750000,,,
1.1959999981,9,160259.4843750000,161762.4687500000,184955.8593750000,183019.5156250000,168343.3125000000,169152.3593750000,28228.1621093750,176157.6718750000,,,
1.1999999981,9,160255.4062500000,161758.2343750000,184950.1093750000,183009.3437500000,168335.1406250000,169144.5156250000,28222.8242187500,176147.4687500000,,,
1.2039999980,9,160254.6093750000,161756.6250000000,184949.8125000000,183014.5468750000,168334.5000000000,169141.8125000000,28219.0683593750,176142.9218750000,,,
1.2079999980,9,160257.7187500000,161757.9843750000,184953.8437500000,183024.9531250000,168339.3281250000,169144.3125000000,28218.2109375000,176149.8906250000,,,
1.2119999980,9,160264.6718750000,161763.3281250000,184963.0937500000,183015.9687500000,168349.0937500000,169150.6718750000,28227.3027343750,176156.5937500000,,,
1.2159999979,9,160273.6718750000,161770.7812500000,184970.4375000000,183018.1093750000,168358.0156250000,169156.9218750000,28237.1738281250,176159.5468750000,,,
1.2199999981,9,160275.9843750000,161770.1093750000,184970.4687500000,183013.9843750000,168359.2187500000,169159.8593750000,28238.9980468750,176155.3906250000,,,
1.2239999981,9,160278.1875000000,161771.6718750000,184972.4531250000,183029.5937500000,168361.9687500000,169160.0000000000,28239.3730468750,176154.7968750000,,,
1.2279999980,9,160279.4375000000,161774.4843750000,184973.0937500000,183036.0937500000,168363.3906250000,169161.2656250000,28240.7949218750,176160.1562500000,,,
1.2319999980,9,160275.8281250000,161771.9062500000,184970.1406250000,183030.2656250000,168360.6250000000,169159.1875000000,28240.6074218750,176159.2812500000,,,
1.2359999979,9,160275.6562500000,161774.1562500000,184971.2968750000,183028.5781250000,168360.2968750000,169159.9531250000,28241.8671875000,176155.1718750000,,,
1.2399999981,9,160275.3125000000,161777.6250000000,184972.1406250000,183018.0937500000,168360.4375000000,169163.7031250000,28244.0937500000,176152.4062500000,,,
1.2439999981,9,160268.5625000000,161774.0000000000,184965.2656250000,182997.2968750000,168354.7500000000,169163.2968750000,28239.8554687500,176150.2187500000,,,
1.2479999980,9,160260.6093750000,161767.3750000000,184955.4531250000,183002.2343750000,168346.6718750000,169156.7343750000,28229.9863281250,176153.3750000000,,,
1.2519999980,9,160257.5625000000,161765.2343750000,184949.7031250000,183004.7812500000,168342.2500000000,169154.3125000000,28225.1835937500,176156.7343750000,,,
1.2559999980,9,160259.3281250000,161766.6562500000,184952.7656250000,183002.2187500000,168344.2031250000,169158.5312500000,28227.2226562500,176156.0625000000,,,
1.2599999979,9,160262.4687500000,161769.2031250000,184955.8750000000,183000.8125000000,168346.3437500000,169163.0312500000,28230.9511718750,176153.2187500000,,,
1.2639999981,9,160264.5312500000,161769.8437500000,184955.9375000000,182999.9843750000,168346.6718750000,169166.7812500000,28232.8828125000,176154.5781250000,,,
1.2679999981,9,160268.2656250000,161771.1093750000,184959.0937500000,183008.3281250000,168349.8437500000,169168.9843750000,28236.7714843750,176159.8906250000,,,
1.2719999980,9,160272.0468750000,161776.3281250000,184961.2968750000,183017.0937500000,168352.1250000000,169169.3906250000,28236.7187500000,176164.9843750000,,,
1.2759999980,9,160271.8750000000,161777.5156250000,184959.3593750000,183019.2187500000,168349.7500000000,169166.7031250000,28233.9824218750,176160.9687500000,,,
1.2799999979,10,160272.8750000000,161779.7187500000,184960.0625000000,183019.8593750000,168348.3281250000,169166.2968750000,28232.3730468750,176156.2500000000,,,
1.2839999979,10,160272.4375000000,161777.8593750000,184961.7812500000,183007.0156250000,168350.2343750000,169165.0156250000,28231.1660156250,176155.1718750000,,,
1.2879999978,10,160270.1406250000,161772.8125000000,184961.6250000000,182993.8125000000,168351.9062500000,169161.6562500000,28232.7753906250,176157.0000000000,,,
1.2919999978,10,160270.1875000000,161771.1093750000,184962.2968750000,183001.4843750000,168351.9843750000,169157.0781250000,28230.9511718750,176157.9375000000,,,
1.2959999978,10,160278.6875000000,161779.9218750000,184971.7343750000,183015.0781250000,168359.7656250000,169161.5781250000,28235.8593750000,176162.1718750000,,,
1.2999999977,10,160282.4218750000,161784.5625000000,184977.6250000000,183022.8593750000,168362.5000000000,169164.7500000000,28238.8105468750,176162.6250000000,,,
1.3039999979,10,160278.4531250000,161781.0000000000,184976.0000000000,183011.0937500000,168361.0156250000,169162.0156250000,28238.4609375000,176161.5781250000,,,
1.3079999979,10,160274.1875000000,161778.7500000000,184972.4843750000,183003.3593750000,168360.3593750000,169160.3437500000,28237.1738281250,176165.6406250000,,,
1.3119999978,10,160277.9375000000,161782.4218750000,184977.1562500000,183002.2187500000,168365.0937500000,169163.4531250000,28240.5000000000,176173.0937500000,,,
1.3159999978,10,160285.6406250000,161787.0937500000,184985.6562500000,183013.7656250000,168371.9375000000,169168.6093750000,28246.8574218750,176175.2343750000,,,
1.3199999977,10,160285.5937500000,161784.3281250000,184984.0156250000,183015.0312500000,168370.4843750000,169166.9687500000,28242.9414062500,176170.2500000000,,,
1.3239999979,10,160287.0937500000,161786.1250000000,184985.0312500000,183021.7968750000,168373.6562500000,169169.5000000000,28244.6035156250,176174.0781250000,,,
1.3279999979,10,160289.2656250000,161787.7031250000,184988.3906250000,183024.2031250000,168378.6406250000,169171.2343750000,28249.0566406250,176183.0156250000,,,
1.3319999978,10,160290.5000000000,161790.5468750000,184987.6875000000,183018.7656250000,168379.1562500000,169169.7968750000,28250.9609375000,176188.7812500000,,,
1.3359999978,10,160292.2968750000,161790.8906250000,184989.5468750000,183006.3437500000,168380.6875000000,169169.7031250000,28256.9140625000,176188.8906250000,,,
1.3399999978,10,160290.3281250000,161788.3437500000,184987.2343750000,182996.9218750000,168377.7812500000,169166.7031250000,28257.0214843750,176181.8281250000,,,
1.3439999977,10,160292.9375000000,161790.7656250000,184989.0312500000,183004.0312500000,168379.7187500000,169168.5625000000,28259.7851562500,176183.5468750000,,,
1.3479999979,10,160291.0937500000,161789.9531250000,184986.4218750000,183004.2187500000,168379.1250000000,169169.8906250000,28260.5097656250,176187.7968750000,,,
1.3519999979,10,160290.1250000000,161790.5781250000,184984.7656250000,183003.3593750000,168377.4062500000,169171.0000000000,28259.6503906250,176189.9687500000,,,
1.3559999978,10,160293.5000000000,161794.2031250000,184986.1875000000,183013.5312500000,168378.1562500000,169172.6875000000,28255.3867187500,176187.0625000000,,,
1.3599999978,10,160290.2812500000,161790.6875000000,184983.6875000000,183013.6718750000,168374.4375000000,169168.7656250000,28246.5878906250,176178.2343750000,,,
1.3639999977,10,160285.3125000000,161788.0000000000,184979.0468750000,183007.9843750000,168370.6250000000,169168.6562500000,28246.6679687500,176175.3437500000,,,
1.3679999979,10,160278.6718750000,161780.8906250000,184973.6406250000,183006.4687500000,168367.1875000000,169167.4218750000,28245.5429687500,176175.4843750000,,,
1.3719999979,10,160268.9062500000,161771.4843750000,184966.8750000000,183003.3593750000,168360.2500000000,169159.3750000000,28242.0546875000,176170.1093750000,,,
1.3759999978,10,160267.0468750000,161773.1093750000,184961.1875000000,183000.6250000000,168354.6875000000,169159.7500000000,28238.8632812500,176168.2031250000,,,
1.3799999978,10,160273.3906250000,161782.6406250000,184963.3281250000,182998.4843750000,168355.7968750000,169166.9687500000,28243.6386718750,176171.6093750000,,,
1.3839999977,10,160274.1093750000,161781.9843750000,184963.2343750000,183011.2031250000,168353.7343750000,169164.9375000000,28241.4648437500,176173.6562500000,,,
1.3879999977,10,160268.7187500000,161775.6406250000,184960.1406250000,182990.8906250000,168349.2500000000,169158.4375000000,28233.0703125000,176176.6562500000,,,
1.3919999979,10,160265.4687500000,161772.7343750000,184957.6250000000,182976.4843750000,168346.0312500000,169155.9218750000,28227.1152343750,176177.5937500000,,,
1.3959999979,10,160264.7968750000,161770.3437500000,184957.4843750000,182979.5937500000,168344.6875000000,169155.1406250000,28225.6933593750,176172.5781250000,,,
1.3999999978,10,160266.0000000000,161767.6093750000,184962.2968750000,182985.0937500000,168348.1718750000,169155.3125000000,28229.5019531250,176163.7031250000,,,
1.4039999978,10,160264.2656250000,161764.2656250000,184963.7187500000,182994.9218750000,168350.2656250000,169153.4843750000,28232.1582031250,176159.5781250000,,,
1.4079999977,11,160272.6875000000,161770.8906250000,184974.4375000000,183005.1875000000,168361.9062500000,169158.0937500000,28242.1093750000,176169.3906250000,,,
1.4119999977,11,160279.3593750000,161777.0625000000,184978.2500000000,182991.7500000000,168368.8750000000,169163.6718750000,28244.4687500000,176177.2968750000,,,
1.4159999976,11,160278.3125000000,161772.8437500000,184975.7031250000,182983.1718750000,168366.6562500000,169162.5468750000,28244.0136718750,176170.7656250000,,,
1.4199999976,11,160275.3906250000,161768.1562500000,184971.1875000000,182973.9062500000,168360.0625000000,169155.7031250000,28241.0097656250,176158.9218750000,,,
1.4239999976,11,160274.0312500000,161768.4218750000,184967.1250000000,182977.9843750000,168355.8125000000,169155.9218750000,28241.1699218750,176156.7031250000,,,
1.4279999975,11,160271.0156250000,161766.7031250000,184964.0625000000,182980.2968750000,168354.1875000000,169153.5156250000,28240.7949218750,176159.5468750000,,,
1.4319999977,11,160270.5156250000,161765.7343750000,184964.5937500000,182989.1562500000,168353.9687500000,169149.1406250000,28241.2500000000,176160.6718750000,,,
1.4359999977,11,160266.0312500000,161762.5468750000,184963.3125000000,182984.6093750000,168350.5312500000,169146.3125000000,28241.1445312500,176151.3593750000,,,
1.4399999976,11,160266.5937500000,161768.1718750000,184963.7656250000,182979.2031250000,168349.1093750000,169153.7500000000,28242.1093750000,176149.8437500000,,,
1.4439999976,11,160267.2343750000,161771.6875000000,184962.9531250000,182995.5000000000,168347.1250000000,169155.7031250000,28239.8828125000,176153.2656250000,,,
1.4479999975,11,160260.2343750000,161768.0468750000,184953.2968750000,182981.0156250000,168338.7343750000,169150.8593750000,28233.7128906250,176157.5312500000,,,
1.4519999977,11,160256.2656250000,161764.6718750000,184949.5000000000,182964.0468750000,168335.0312500000,169149.0625000000,28233.0156250000,176157.1250000000,,,
1.4559999977,11,160255.2187500000,161764.2031250000,184946.3593750000,182965.3906250000,168331.8906250000,169148.7812500000,28231.5683593750,176153.9062500000,,,
1.4599999976,11,160260.3281250000,161769.2812500000,184949.7343750000,182969.9375000000,168334.7656250000,169151.0937500000,28235.9941406250,176151.5312500000,,,
1.4639999976,11,160264.2031250000,161773.2500000000,184952.4687500000,182975.3125000000,168339.1562500000,169152.8906250000,28240.7421875000,176153.9375000000,,,
1.4679999975,11,160267.7968750000,161776.7343750000,184957.6250000000,182982.3125000000,168346.4843750000,169156.1093750000,28245.8105468750,176163.0000000000,,,
1.4719999975,11,160266.1406250000,161773.9687500000,184958.5625000000,182977.0312500000,168346.2187500000,169152.0000000000,28244.2812500000,176162.4687500000,,,
1.4759999977,11,160270.0625000000,161777.5937500000,184961.7031250000,182972.2187500000,168346.4062500000,169155.0937500000,28244.9785156250,176160.7031250000,,,
1.4799999977,11,160270.2968750000,161776.8906250000,184959.3437500000,182973.3281250000,168343.3750000000,169154.9531250000,28245.5156250000,176155.6562500000,,,
1.4839999976,11,160272.6093750000,161775.4687500000,184963.5781250000,182977.9843750000,168347.6406250000,169155.7343750000,28251.8183593750,176155.2812500000,,,
1.4879999976,11,160274.4843750000,161778.0781250000,184964.6718750000,182986.0937500000,168349.5468750000,169155.8437500000,28251.9804687500,176162.8437500000,,,
1.4919999975,11,160278.7968750000,161783.3906250000,184966.7656250000,182985.8437500000,168352.7656250000,169157.7187500000,28253.6699218750,176172.3437500000,,,
1.4959999977,11,160271.3437500000,161774.0781250000,184961.1093750000,182975.6562500000,168348.1718750000,169153.3750000000,28247.2597656250,176164.0000000000,,,
1.4999999977,11,160260.8906250000,161763.7500000000,184955.0000000000,182957.8750000000,168341.3281250000,169147.6562500000,28242.4843750000,176149.8593750000,,,
1.5039999976,11,160262.5781250000,161765.5468750000,184956.7968750000,182970.5312500000,168343.1093750000,169145.5468750000,28243.8261718750,176149.3750000000,,,
1.5079999976,11,160270.2968750000,161772.7187500000,184964.5156250000,182976.2812500000,168350.5625000000,169147.2656250000,28248.1972656250,176158.2812500000,,,
1.5119999975,11,160273.8437500000,161774.3281250000,184967.3281250000,182968.6250000000,168353.9375000000,169146.6718750000,28247.7949218750,176164.7500000000,,,
1.5159999975,11,160271.9687500000,161773.8906250000,184963.1250000000,182942.9375000000,168351.9843750000,169147.7343750000,28244.4960937500,176163.1875000000,,,
1.5199999977,11,160273.6718750000,161778.1562500000,184962.6406250000,182953.7656250000,168350.0312500000,169148.5937500000,28247.9296875000,176162.3906250000,,,
1.5239999976,11,160274.0781250000,161778.7187500000,184963.3906250000,182958.0625000000,168349.9687500000,169150.6875000000,28253.6699218750,176163.7343750000,,,
1.5279999976,11,160273.6562500000,161777.8906250000,184962.2656250000,182966.6718750000,168350.3437500000,169155.1406250000,28252.5429687500,176171.0312500000,,,
1.5319999976,11,160268.8281250000,161773.9687500000,184958.1250000000,182961.3125000000,168348.5468750000,169156.6406250000,28248.5742187500,176173.5000000000,,,
1.5359999975,12,160271.8750000000,161777.2187500000,184961.9062500000,182959.3750000000,168351.5000000000,169159.7812500000,28253.2949218750,176172.0781250000,,,
1.5399999975,12,160280.7343750000,161784.0625000000,184968.6406250000,182977.3750000000,168355.3437500000,169163.8125000000,28259.7304687500,176172.7656250000,,,
1.5439999974,12,160278.8750000000,161782.5000000000,184967.5937500000,182976.0000000000,168354.3750000000,169163.8281250000,28263.0039062500,176173.8125000000,,,
1.5479999974,12,160273.1093750000,161777.2656250000,184961.9062500000,182981.2031250000,168349.8593750000,169160.1406250000,28259.8378906250,176174.9687500000,,,
1.5519999973,12,160270.4062500000,161773.7343750000,184957.4375000000,182972.4375000000,168346.2187500000,169156.1406250000,28256.8613281250,176174.9218750000,,,
1.5559999973,12,160268.4218750000,161772.3906250000,184956.1406250000,182960.7656250000,168343.3437500000,169153.4843750000,28254.6074218750,176168.7968750000,,,
1.5599999975,12,160262.9687500000,161767.7500000000,184951.7812500000,182965.9218750000,168336.6875000000,169150.6718750000,28248.4667968750,176159.3125000000,,,
1.5639999975,12,160256.7031250000,161760.7187500000,184947.1093750000,182951.1406250000,168332.4531250000,169145.4843750000,28243.4238281250,176152.7031250000,,,
1.5679999974,12,160255.4062500000,161757.0781250000,184949.6250000000,182940.0156250000,168336.7500000000,169144.4218750000,28245.4355468750,176153.0000000000,,,
1.5719999974,12,160253.3750000000,161755.4375000000,184950.6250000000,182947.5781250000,168339.4531250000,169145.1406250000,28243.8261718750,176152.7656250000,,,
1.5759999973,12,160251.2500000000,161753.5000000000,184947.5156250000,182948.7031250000,168337.0468750000,169146.2656250000,28242.1093750000,176146.4375000000,,,
1.5799999975,12,160257.8281250000,161759.8437500000,184953.0312500000,182951.5156250000,168341.7343750000,169152.5625000000,28253.4003906250,176144.8750000000,,,
1.5839999975,12,160268.4218750000,161771.3125000000,184961.9375000000,182966.8281250000,168351.7343750000,169161.8437500000,28264.2109375000,176155.1718750000,,,
1.5879999974,12,160268.6562500000,161770.6718750000,184960.5468750000,182973.6406250000,168351.8437500000,169162.2031250000,28263.4062500000,176160.7812500000,,,
1.5919999974,12,160263.6718750000,161764.6093750000,184952.2343750000,182966.0781250000,168345.3125000000,169155.0937500000,28254.0996093750,176157.8281250000,,,
1.5959999973,12,160265.4375000000,161766.3593750000,184951.3125000000,182958.1718750000,168342.5625000000,169152.5937500000,28250.5312500000,176153.8906250000,,,
1.5999999973,12,160276.3281250000,161776.5468750000,184960.8125000000,182967.0937500000,168348.8437500000,169158.1718750000,28257.5312500000,176154.1875000000,,,
1.6039999975,12,160285.7187500000,161785.8750000000,184968.7500000000,182984.2343750000,168355.5312500000,169162.8125000000,28261.5820312500,176161.9843750000,,,
1.6079999974,12,160281.5625000000,161782.7656250000,184964.7500000000,182980.6718750000,168353.9375000000,169159.2812500000,28257.0488281250,176165.9062500000,,,
1.6119999974,12,160276.3125000000,161777.6718750000,184961.1093750000,182967.1250000000,168352.8437500000,169157.5000000000,28256.0039062500,176164.4531250000,,,
1.6159999974,12,160277.8593750000,161777.8125000000,184964.6562500000,182964.6093750000,168355.8750000000,169159.0312500000,28260.8574218750,176159.4687500000,,,
1.6199999973,12,160277.9218750000,161779.9531250000,184965.3125000000,182953.4218750000,168356.0937500000,169161.3437500000,28264.2382812500,176156.4062500000,,,
1.6239999975,12,160274.0312500000,161776.6875000000,184961.5625000000,182944.0000000000,168352.5000000000,169160.7187500000,28263.5390625000,176153.2656250000,,,
1.6279999975,12,160275.6406250000,161778.2343750000,184963.3593750000,182958.7343750000,168353.4062500000,169163.1406250000,28261.6093750000,176161.1250000000,,,
1.6319999974,12,160280.1093750000,161781.1093750000,184967.3281250000,182969.2500000000,168355.9531250000,169165.3125000000,28260.8847656250,176168.3437500000,,,
1.6359999974,12,160281.0000000000,161783.5156250000,184967.5156250000,182961.3125000000,168356.1406250000,169169.7031250000,28262.6542968750,176168.0156250000,,,
1.6399999973,12,160277.3750000000,161778.1875000000,184965.0468750000,182951.2812500000,168353.0312500000,169164.7968750000,28260.9121093750,176160.6250000000,,,
1.6439999973,12,160279.3125000000,161777.2187500000,184968.2656250000,182956.1562500000,168356.8906250000,169162.7656250000,28263.5136718750,176161.1562500000,,,
1.6479999975,12,160283.0937500000,161778.6406250000,184974.5000000000,182969.7500000000,168363.7031250000,169162.8125000000,28267.2421875000,176168.6093750000,,,
1.6519999974,12,160279.1562500000,161772.6093750000,184973.1562500000,182971.0156250000,168361.6093750000,169156.1875000000,28266.1679687500,176166.0937500000,,,
1.6559999974,12,160275.9843750000,161771.2656250000,184969.2656250000,182973.3750000000,168356.8593750000,169154.8281250000,28265.9804687500,176159.3125000000,,,
1.6599999974,12,160277.8125000000,161773.8125000000,184970.5000000000,182977.5937500000,168356.0625000000,169156.4531250000,28266.6523437500,176152.5781250000,,,
1.6639999973,13,160278.5937500000,161772.4687500000,184970.5000000000,182984.3281250000,168354.2031250000,169156.7343750000,28264.4257812500,176150.6406250000,,,
1.6679999973,13,160271.9843750000,161766.4843750000,184963.3281250000,182973.2968750000,168347.6406250000,169155.7031250000,28256.4863281250,176152.5000000000,,,
1.6719999972,13,160273.4375000000,161768.7656250000,184964.0312500000,182982.0468750000,168349.8437500000,169159.0937500000,28259.1953125000,176155.5468750000,,,
1.6759999972,13,160273.0937500000,161767.4531250000,184962.0156250000,182963.5937500000,168348.6562500000,169158.3906250000,28263.5390625000,176152.1718750000,,,
1.6799999971,13,160277.5625000000,161773.6562500000,184963.5000000000,182963.9375000000,168349.2187500000,169161.5000000000,28266.7324218750,176150.5937500000,,,
1.6839999971,13,160282.0781250000,161779.9531250000,184970.8437500000,182964.5468750000,168355.3593750000,169164.8750000000,28272.5527343750,176155.3125000000,,,
1.6879999973,13,160277.1406250000,161777.8125000000,184968.5937500000,182962.9687500000,168355.0156250000,169163.0000000000,28268.9042968750,176160.3281250000,,,
1.6919999972,13,160271.3437500000,161773.8593750000,184963.3125000000,182965.9531250000,168352.5781250000,169158.0468750000,28263.8613281250,176158.9062500000,,,
1.6959999972,13,160267.1093750000,161771.3750000000,184956.3125000000,182958.7656250000,168346.8593750000,169154.5781250000,28263.0839843750,176151.7656250000,,,
1.6999999972,13,160270.6250000000,161775.4531250000,184957.6718750000,182966.0312500000,168347.3437500000,169156.5625000000,28267.7519531250,176149.6718750000,,,
1.7039999971,13,160276.1250000000,161779.7656250000,184962.8593750000,182973.0312500000,168351.6093750000,169161.9375000000,28272.2304687500,176154.6718750000,,,
1.7079999973,13,160275.0937500000,161777.1406250000,184961.7187500000,182965.9687500000,168353.0000000000,169164.2031250000,28272.0429687500,176159.8906250000,,,
1.7119999973,13,160279.3593750000,161778.7187500000,184967.7812500000,182964.5312500000,168358.6093750000,169167.1093750000,28274.5898437500,176166.0625000000,,,
1.7159999972,13,160281.2968750000,161779.6562500000,184969.7968750000,182966.7500000000,168358.3437500000,169168.5625000000,28273.8125000000,176163.8906250000,,,
1.7199999972,13,160276.0156250000,161773.8593750000,184964.5625000000,182968.6093750000,168349.4687500000,169165.4687500000,28265.7128906250,176153.7812500000,,,
1.7239999971,13,160273.8125000000,161772.1718750000,184962.8750000000,182966.8593750000,168346.0625000000,169164.8281250000,28261.6621093750,176151.6875000000,,,
1.7279999971,13,160277.9218750000,161777.2500000000,184966.7343750000,182967.8750000000,168351.6093750000,169168.0468750000,28266.9726562500,176161.1250000000,,,
1.7319999973,13,160277.8281250000,161780.9687500000,184964.6562500000,182963.7968750000,168351.7968750000,169169.8125000000,28270.3789062500,176168.3125000000,,,
1.7359999972,13,160282.2812500000,161784.5625000000,184969.3906250000,182973.5937500000,168356.7343750000,169172.1250000000,28279.0976562500,176170.0000000000,,,
1.7399999972,13,160283.6875000000,161782.8437500000,184970.2031250000,182976.2812500000,168358.1562500000,169169.0937500000,28280.5175781250,176162.1718750000,,,
1.7439999972,13,160286.1250000000,161780.9531250000,184972.5156250000,182979.5937500000,168361.8593750000,169167.7187500000,28283.4960937500,176160.0312500000,,,
1.7479999971,13,160285.6718750000,161775.1562500000,184973.4218750000,182975.9218750000,168363.6718750000,169163.1406250000,28282.1015625000,176159.3125000000,,,
1.7519999973,13,160287.9687500000,161773.0625000000,184975.9218750000,182980.2656250000,168366.7031250000,169161.8437500000,28280.8398437500,176159.4062500000,,,
1.7559999973,13,160291.0000000000,161775.4218750000,184981.7656250000,182982.7656250000,168370.3281250000,169164.6093750000,28282.0468750000,176158.3437500000,,,
1.7599999972,13,160294.3125000000,161779.7656250000,184988.1406250000,182985.3437500000,168373.9531250000,169166.8125000000,28284.1933593750,176155.1406250000,,,
1.7639999972,13,160291.2187500000,161779.7968750000,184983.7500000000,182987.9375000000,168370.1718750000,169164.4218750000,28281.2148437500,176153.1562500000,,,
1.7679999971,13,160280.7656250000,161770.7812500000,184971.4375000000,182983.5625000000,168359.9687500000,169156.7343750000,28276.0917968750,176151.0468750000,,,
1.7719999971,13,160276.6250000000,161767.6406250000,184967.2812500000,182985.6875000000,168356.3593750000,169152.7812500000,28275.9042968750,176151.2343750000,,,
1.7759999973,13,160281.0000000000,161776.7343750000,184970.7968750000,183001.4843750000,168358.3750000000,169156.6406250000,28279.1503906250,176154.9531250000,,,
1.7799999972,13,160277.4531250000,161776.2812500000,184966.9218750000,183006.2812500000,168352.3281250000,169153.4843750000,28275.5566406250,176149.1093750000,,,
1.7839999972,13,160276.0312500000,161777.2187500000,184964.1718750000,183006.6093750000,168349.4375000000,169153.5156250000,28275.8515625000,176149.1875000000,,,
1.7879999971,13,160274.4531250000,161775.4218750000,184958.6718750000,182987.9218750000,168345.8906250000,169153.7500000000,28275.3945312500,176154.0781250000,,,
1.7919999971,14,160275.0781250000,161776.5000000000,184954.7187500000,182973.1875000000,168342.5156250000,169154.2656250000,28272.3652343750,176158.6875000000,,,
1.7959999971,14,160282.8593750000,161783.3125000000,184960.9687500000,182974.7187500000,168347.9062500000,169159.6250000000,28277.3535156250,176162.6250000000,,,
1.7999999970,14,160291.1093750000,161788.6718750000,184970.3437500000,182988.0781250000,168355.3906250000,169166.9687500000,28282.9316406250,176163.5625000000,,,
1.8039999970,14,160294.3593750000,161790.8906250000,184975.0000000000,182994.9687500000,168360.0781250000,169170.1875000000,28280.5722656250,176165.7968750000,,,
1.8079999969,14,160294.4687500000,161790.4218750000,184978.5937500000,182987.1406250000,168365.1562500000,169170.9687500000,28276.2812500000,176172.4218750000,,,
1.8119999969,14,160288.6718750000,161782.2031250000,184977.2500000000,182967.1875000000,168364.0000000000,169167.5937500000,28276.1464843750,176172.4218750000,,,
1.8159999971,14,160286.2812500000,161779.3906250000,184976.1093750000,182968.6093750000,168362.2031250000,169165.0468750000,28278.5058593750,176166.4687500000,,,
1.8199999970,14,160292.4843750000,161788.2968750000,184981.4687500000,182989.1562500000,168366.5156250000,169171.2968750000,28285.5878906250,176167.8593750000,,,
1.8239999970,14,160289.2656250000,161786.6093750000,184979.0468750000,182974.7656250000,168365.3125000000,169173.5937500000,28284.4882812500,176168.8281250000,,,
1.8279999970,14,160283.6875000000,161781.5312500000,184973.6406250000,182977.9687500000,168361.7187500000,169171.1562500000,28280.6523437500,176168.8750000000,,,
1.8319999969,14,160281.7031250000,161778.5781250000,184971.8125000000,182989.4375000000,168359.5781250000,169167.8593750000,28275.4218750000,176168.0156250000,,,
1.8359999971,14,160278.5937500000,161773.8125000000,184966.9843750000,182981.9062500000,168353.7500000000,169162.9531250000,28269.7636718750,176160.2187500000,,,
1.8399999971,14,160283.4687500000,161775.6562500000,184970.2343750000,182978.4687500000,168356.0000000000,169164.3906250000,28277.4062500000,176154.2343750000,,,
1.8439999970,14,160285.8593750000,161776.7031250000,184971.9218750000,182986.3906250000,168355.2812500000,169166.6718750000,28282.5566406250,176152.4375000000,,,
1.8479999970,14,160282.8593750000,161775.9375000000,184966.6093750000,182986.9687500000,168349.9687500000,169166.6250000000,28276.9238281250,176156.4062500000,,,
1.8519999969,14,160284.5937500000,161780.1718750000,184965.6718750000,182983.0937500000,168349.1718750000,169169.1406250000,28274.3769531250,176162.9218750000,,,
1.8559999969,14,160285.5937500000,161782.7656250000,184966.3437500000,182985.6562500000,168348.3906250000,169169.7343750000,28272.9003906250,176162.0937500000,,,
1.8599999971,14,160289.0000000000,161786.3437500000,184970.2812500000,182986.0625000000,168350.7187500000,169170.5625000000,28274.4570312500,176158.9843750000,,,
1.8639999970,14,160292.0000000000,161789.3437500000,184971.9531250000,183000.6562500000,168355.6875000000,169170.9218750000,28275.7968750000,176160.2500000000,,,
1.8679999970,14,160289.8593750000,161787.2031250000,184971.3593750000,183005.6406250000,168357.7031250000,169166.7812500000,28274.1875000000,176164.8906250000,,,
1.8719999969,14,160281.5625000000,161780.2187500000,184964.9375000000,182997.7031250000,168353.6406250000,169161.7500000000,28270.0585937500,176161.5625000000,,,
1.8759999969,14,160280.0312500000,161780.1718750000,184964.5156250000,182986.9687500000,168353.1875000000,169163.9687500000,28272.9804687500,176158.4531250000,,,
1.8799999971,14,160279.3437500000,161780.4687500000,184963.9062500000,182982.4375000000,168352.2812500000,169163.8593750000,28275.9042968750,176153.4843750000,,,
1.8839999971,14,160276.8125000000,161781.9687500000,184961.9062500000,182988.2031250000,168351.5468750000,169165.4375000000,28275.7441406250,176153.5937500000,,,
1.8879999970,14,160271.7187500000,161776.3593750000,184958.0000000000,182987.7343750000,168349.1093750000,169162.5000000000,28269.4941406250,176156.5937500000,,,
1.8919999970,14,160270.4375000000,161770.3750000000,184962.3437500000,182974.1562500000,168352.0312500000,169158.3437500000,28273.1152343750,176156.3593750000,,,
1.8959999969,14,160267.7968750000,161764.2656250000,184960.5000000000,182969.5625000000,168350.3281250000,169155.3906250000,28273.2773437500,176150.6093750000,,,
1.8999999969,14,160267.5625000000,161763.3437500000,184957.2812500000,182974.8750000000,168346.2968750000,169154.9062500000,28269.5742187500,176143.8750000000,,,
1.9039999971,14,160266.8593750000,161761.8437500000,184954.7812500000,182976.1406250000,168344.1250000000,169151.4375000000,28265.1484375000,176140.6406250000,,,
1.9079999970,14,160268.8750000000,161765.0156250000,184957.7343750000,182982.7187500000,168348.4375000000,169153.5156250000,28268.2343750000,176150.3125000000,,,
1.9119999970,14,160280.6718750000,161778.0000000000,184971.8125000000,183004.0156250000,168362.3593750000,169165.7187500000,28283.7910156250,176166.4062500000,,,
1.9159999969,14,160285.0312500000,161783.3125000000,184977.3593750000,183016.6718750000,168366.6250000000,169170.1093750000,28287.0371093750,176168.9062500000,,,
1.9199999969,15,160282.2812500000,161783.6562500000,184973.5312500000,182996.5000000000,168362.2343750000,169170.2656250000,28283.6035156250,176161.7187500000,,,
1.9239999969,15,160289.9375000000,161789.6875000000,184980.3437500000,183005.4375000000,168368.3125000000,169174.4843750000,28291.2480468750,176164.4218750000,,,
1.9279999968,15,160289.0000000000,161788.2968750000,184982.0781250000,183006.7968750000,168370.5468750000,169173.9531250000,28292.5878906250,176169.1250000000,,,
1.9319999968,15,160281.7500000000,161782.0937500000,184975.9687500000,182988.7656250000,168364.3750000000,169168.9843750000,28287.9218750000,176168.1250000000,,,
1.9359999967,15,160281.4531250000,161780.0937500000,184972.7812500000,182994.5156250000,168359.6875000000,169165.3593750000,28286.0976562500,176163.9375000000,,,
1.9399999967,15,160280.3281250000,161778.1093750000,184967.9531250000,183002.2968750000,168353.4531250000,169162.1718750000,28279.6328125000,176155.7031250000,,,
1.9439999969,15,160279.8281250000,161776.7031250000,184968.4375000000,182988.7500000000,168353.9687500000,169164.4218750000,28283.6562500000,176153.7187500000,,,
1.9479999968,15,160273.2500000000,161773.3750000000,184961.2968750000,182974.5000000000,168349.7812500000,169161.8750000000,28280.4921875000,176155.5000000000,,,
1.9519999968,15,160272.2812500000,161775.6875000000,184958.1250000000,182974.9843750000,168346.9375000000,169159.1875000000,28276.4941406250,176159.3906250000,,,
1.9559999967,15,160272.3437500000,161776.0156250000,184958.0000000000,182981.2968750000,168346.1562500000,169157.9375000000,28278.4257812500,176156.4687500000,,,
1.9599999967,15,160269.9531250000,161770.8281250000,184955.5781250000,182983.9687500000,168342.9218750000,169153.8593750000,28278.1308593750,176145.4687500000,,,
1.9639999969,15,160268.5000000000,161767.3750000000,184956.6875000000,182985.3437500000,168342.7031250000,169151.6875000000,28277.5136718750,176139.4062500000,,,
1.9679999969,15,160270.0312500000,161772.7187500000,184959.4687500000,182991.2656250000,168345.4687500000,169154.1250000000,28278.7480468750,176146.1406250000,,,
1.9719999968,15,160275.0937500000,161778.2968750000,184963.9062500000,182997.8593750000,168349.9375000000,169158.0156250000,28281.2695312500,176156.1406250000,,,
1.9759999968,15,160275.4218750000,161779.2812500000,184962.3750000000,182999.7500000000,168348.6875000000,169160.0312500000,28279.2304687500,176156.7500000000,,,
1.9799999967,15,160272.6250000000,161774.6093750000,184961.1562500000,182987.0000000000,168346.6406250000,169161.2031250000,28279.0976562500,176149.0312500000,,,
1.9839999967,15,160270.0000000000,161771.2656250000,184960.1406250000,182968.9531250000,168346.1562500000,169162.6250000000,28279.6328125000,176145.5937500000,,,
1.9879999969,15,160271.2968750000,161770.4375000000,184961.7812500000,182974.5781250000,168350.3281250000,169164.6093750000,28280.2773437500,176149.7343750000,,,
1.9919999968,15,160271.2968750000,161768.3125000000,184961.5156250000,182986.1250000000,168352.1250000000,169162.8750000000,28275.3691406250,176153.1875000000,,,
1.9959999968,15,160271.0781250000,161765.3593750000,184961.2968750000,182982.5781250000,168351.9843750000,169160.6093750000,28276.5488281250,176148.9218750000,,,
1.9999999967,15,160281.1562500000,161775.5625000000,184970.2343750000,182983.6718750000,168359.0625000000,169165.5781250000,28279.6875000000,176149.9218750000,,,
2.0039999967,15,160288.0625000000,161782.5781250000,184974.5468750000,183003.0156250000,168362.8750000000,169170.5156250000,28287.1425781250,176155.3906250000,,,
2.0079999969,15,160281.1875000000,161776.8750000000,184967.0156250000,182991.2656250000,168356.4062500000,169168.5312500000,28288.1367187500,176156.0625000000,,,
2.0119999968,15,160267.3750000000,161762.9218750000,184956.1718750000,182963.9062500000,168345.2187500000,169153.8281250000,28277.0312500000,176149.0781250000,,,
2.0159999968,15,160263.7031250000,161760.1875000000,184953.7343750000,182947.5781250000,168341.8437500000,169148.2812500000,28266.1152343750,176145.6250000000,,,
2.0199999968,15,160268.0468750000,161764.7187500000,184959.2343750000,182964.6875000000,168345.5937500000,169153.2187500000,28259.6503906250,176143.6718750000,,,
2.0239999967,15,160271.3750000000,161768.4687500000,184965.3125000000,182970.2187500000,168350.1562500000,169158.0937500000,28280.2500000000,176146.4062500000,,,
2.0279999967,15,160262.8125000000,161759.0312500000,184956.3125000000,182969.2187500000,168342.2812500000,169151.1718750000,28278.7753906250,176146.2968750000,,,
2.0319999969,15,160256.5468750000,161753.6718750000,184948.0937500000,182972.5156250000,168336.3437500000,169146.3750000000,28272.9277343750,176145.3593750000,,,
2.0359999968,15,160260.1093750000,161757.7968750000,184949.2343750000,182980.6406250000,168337.7656250000,169149.2187500000,28274.1875000000,176143.6875000000,,,
2.0399999968,15,160271.3437500000,161768.3125000000,184956.7968750000,183009.9375000000,168344.8750000000,169158.0625000000,28278.6953125000,176145.7656250000,,,
2.0439999967,15,160265.0625000000,161763.2187500000,184951.9375000000,182996.2343750000,168342.3281250000,169156.2500000000,28275.5292968750,176140.0156250000,,,
2.0479999967,16,160256.6250000000,161754.5468750000,184945.8750000000,182975.8750000000,168338.1718750000,169149.5625000000,28267.6445312500,176136.2968750000,,,
2.0519999966,16,160253.7968750000,161751.1250000000,184943.1875000000,182973.1093750000,168334.9531250000,169145.1875000000,28262.8164062500,176134.8125000000,,,
2.0559999966,16,160254.9375000000,161755.3281250000,184942.5781250000,182981.1093750000,168331.7343750000,169145.5937500000,28263.7539062500,176133.1875000000,,,
2.0599999966,16,160258.2812500000,161758.8125000000,184943.5937500000,182989.7343750000,168329.2187500000,169145.5937500000,28263.5136718750,176128.8593750000,,,
2.0639999965,16,160260.9062500000,161761.4531250000,184947.2656250000,182991.5312500000,168331.8906250000,169148.0156250000,28267.4550781250,176129.8750000000,,,
2.0679999965,16,160253.6406250000,161756.1875000000,184941.5312500000,182968.4687500000,168329.6406250000,169145.0625000000,28266.2753906250,176131.4375000000,,,
2.0719999967,16,160247.8437500000,161750.0156250000,184937.6093750000,182972.1093750000,168328.5625000000,169141.8437500000,28266.2226562500,176130.2500000000,,,
2.0759999966,16,160248.3125000000,161751.5000000000,184938.7343750000,182964.7968750000,168330.9843750000,169146.8281250000,28267.5097656250,176131.5468750000,,,
2.0799999966,16,160254.0468750000,161756.6406250000,184942.2031250000,182962.7031250000,168332.1875000000,169151.1406250000,28264.8535156250,176130.7968750000,,,
2.0839999965,16,160257.3125000000,161757.8281250000,184942.8750000000,182976.7343750000,168332.4062500000,169150.9375000000,28264.8281250000,176130.7656250000,,,
2.0879999965,16,160261.2812500000,161760.8593750000,184947.3750000000,182986.7343750000,168336.3750000000,169151.4218750000,28267.6972656250,176138.8906250000,,,
2.0919999967,16,160255.8125000000,161756.7187500000,184940.7031250000,182975.7968750000,168331.6562500000,169146.9843750000,28260.1074218750,176141.1250000000,,,
2.0959999966,16,160253.0468750000,161753.1093750000,184933.2187500000,182955.2187500000,168325.7812500000,169145.5468750000,28252.8105468750,176137.9062500000,,,
2.0999999966,16,160256.2656250000,161753.1562500000,184936.8906250000,182950.4218750000,168328.2968750000,169149.9375000000,28256.7265625000,176133.0781250000,,,
2.1039999966,16,160257.8281250000,161754.7656250000,184940.2656250000,182958.0937500000,168331.2812500000,169152.4062500000,28265.9277343750,176132.8125000000,,,
2.1079999965,16,160257.4218750000,161753.9843750000,184942.3281250000,182961.9843750000,168335.2656250000,169153.7500000000,28270.9707031250,176138.9218750000,,,
2.1119999965,16,160259.2812500000,161754.7968750000,184945.1562500000,182981.4218750000,168338.9218750000,169153.1093750000,28269.5214843750,176142.4843750000,,,
2.1159999967,16,160260.7500000000,161752.0781250000,184948.2031250000,182974.7656250000,168340.2968750000,169148.9218750000,28268.3671875000,176136.5000000000,,,
2.1199999966,16,160259.4843750000,161749.9062500000,184947.9687500000,182963.4062500000,168337.1250000000,169146.8281250000,28267.8574218750,176127.4375000000,,,
2.1239999966,16,160266.8906250000,161756.8125000000,184954.4375000000,182968.4218750000,168341.5000000000,169150.8281250000,28270.5683593750,176130.2031250000,,,
2.1279999965,16,160271.6093750000,161762.8437500000,184961.0312500000,182974.2968750000,168347.6406250000,169150.6875000000,28274.9121093750,176140.0468750000,,,
2.1319999965,16,160268.0000000000,161764.0156250000,184953.9687500000,182986.9687500000,168341.1250000000,169146.9062500000,28267.7773437500,176145.9687500000,,,
2.1359999967,16,160263.2500000000,161761.2656250000,184948.3437500000,182970.6875000000,168337.4218750000,169142.7500000000,28265.2031250000,176142.2187500000,,,
2.1399999966,16,160263.6406250000,161764.0000000000,184947.1406250000,182966.3750000000,168336.2343750000,169143.8281250000,28271.1035156250,176138.4843750000,,,
2.1439999966,16,160273.9218750000,161774.3437500000,184957.5156250000,182987.1406250000,168344.7656250000,169150.5625000000,28287.0898437500,176144.3906250000,,,
2.1479999966,16,160280.1093750000,161780.0625000000,184964.8593750000,183000.7343750000,168351.5000000000,169151.3593750000,28292.2402343750,176152.4375000000,,,
2.1519999965,16,160278.1250000000,161776.2812500000,184962.5625000000,183001.2187500000,168349.8125000000,169147.6875000000,28285.2656250000,176154.1250000000,,,
2.1559999965,16,160274.5937500000,161771.3906250000,184957.4687500000,182974.6406250000,168346.7031250000,169147.4531250000,28284.6757812500,176149.0625000000,,,
2.1599999967,16,160276.5781250000,161771.4531250000,184958.4531250000,182976.7500000000,168349.0625000000,169148.9218750000,28290.3886718750,176145.2187500000,,,
2.1639999966,16,160276.7031250000,161772.1718750000,184958.0312500000,182984.5937500000,168348.9218750000,169150.2968750000,28290.4433593750,176143.2656250000,,,
2.1679999966,16,160273.3593750000,161768.4687500000,184954.8281250000,182971.2343750000,168347.5625000000,169148.0312500000,28284.7832031250,176145.8125000000,,,
2.1719999965,16,160278.7500000000,161774.4062500000,184959.1250000000,182981.4218750000,168350.9687500000,169151.7968750000,28287.1972656250,176155.3906250000,,,
2.1759999965,17,160280.1406250000,161776.4062500000,184962.4218750000,182982.5781250000,168352.3281250000,169154.4531250000,28290.9785156250,176156.1875000000,,,
2.1799999964,17,160281.9062500000,161780.0000000000,184964.0937500000,182979.2031250000,168352.9218750000,169160.0781250000,28293.8750000000,176153.5937500000,,,
2.1839999964,17,160276.4218750000,161777.2968750000,184955.4843750000,182965.4062500000,168343.9687500000,169159.3281250000,28286.6875000000,176149.3593750000,,,
2.1879999964,17,160273.7656250000,161775.8437500000,184951.3437500000,182961.5000000000,168340.6718750000,169162.5937500000,28285.6406250000,176154.7968750000,,,
2.1919999963,17,160279.6562500000,161782.0781250000,184955.0781250000,182969.8437500000,168346.2656250000,169169.2031250000,28289.4492187500,176163.7812500000,,,
2.1959999963,17,160283.9531250000,161780.2187500000,184960.0156250000,182977.1250000000,168351.5000000000,169165.4218750000,28292.2929687500,176159.6250000000,,,
2.1999999965,17,160281.7187500000,161772.0468750000,184958.5312500000,182968.6562500000,168351.2031250000,169159.0937500000,28291.4355468750,176145.7812500000,,,
2.2039999964,17,160288.1406250000,161774.1562500000,184968.2187500000,182971.0156250000,168359.7031250000,169162.2500000000,28300.1523437500,176142.6250000000,,,
2.2079999964,17,160292.8281250000,161778.9062500000,184975.9687500000,182987.8593750000,168367.0781250000,169162.0312500000,28305.6777343750,176148.9843750000,,,
2.2119999963,17,160292.8593750000,161782.8437500000,184976.5000000000,182999.7187500000,168367.7343750000,169159.0312500000,28301.0917968750,176157.1250000000,,,
2.2159999963,17,160280.4687500000,161772.0625000000,184963.3906250000,182975.6093750000,168353.6406250000,169145.8906250000,28287.3320312500,176147.6718750000,,,
2.2199999965,17,160280.3593750000,161773.7500000000,184962.2343750000,182980.3281250000,168349.7031250000,169145.8125000000,28285.5332031250,176143.8750000000,,,
2.2239999964,17,160285.1562500000,161777.8593750000,184967.1406250000,182989.8125000000,168352.2500000000,169147.7968750000,28286.7675781250,176148.6250000000,,,
2.2279999964,17,160281.1406250000,161773.5625000000,184963.0468750000,182988.7187500000,168349.4062500000,169143.1250000000,28282.9589843750,176153.4531250000,,,
2.2319999964,17,160279.9218750000,161776.1406250000,184960.2968750000,182984.6406250000,168345.7343750000,169144.5156250000,28281.9941406250,176160.5625000000,,,
2.2359999963,17,160281.6718750000,161780.8437500000,184958.9062500000,183002.8750000000,168343.2968750000,169148.8125000000,28285.0507812500,176163.0312500000,,,
2.2399999963,17,160279.0937500000,161778.9687500000,184951.7812500000,182986.7343750000,168338.1093750000,169149.8281250000,28285.1855468750,176156.8906250000,,,
2.2439999965,17,160277.7500000000,161776.4062500000,184947.0781250000,182966.4843750000,168335.2968750000,169150.1250000000,28286.2050781250,176150.5000000000,,,
2.2479999964,17,160281.2968750000,161778.6406250000,184948.8281250000,182975.5156250000,168340.0000000000,169152.5156250000,28290.4960937500,176155.4375000000,,,
2.2519999964,17,160284.7500000000,161780.6250000000,184952.3906250000,182991.4843750000,168344.7187500000,169153.4218750000,28290.2285156250,176161.4218750000,,,
2.2559999963,17,160283.7343750000,161780.2500000000,184954.2500000000,183001.3593750000,168345.5937500000,169152.0937500000,28288.2968750000,176162.1718750000,,,
2.2599999963,17,160282.5625000000,161779.2500000000,184955.4218750000,182989.6250000000,168344.3906250000,169150.6093750000,28286.7949218750,176156.4843750000,,,
2.2639999965,17,160283.7031250000,161779.7187500000,184955.3125000000,182979.0937500000,168344.5468750000,169153.4531250000,28285.6679687500,176157.0781250000,,,
2.2679999964,17,160282.9062500000,161777.5625000000,184956.6875000000,182987.6406250000,168346.8593750000,169154.0781250000,28286.1250000000,176162.3593750000,,,
2.2719999964,17,160282.3750000000,161774.9375000000,184960.6250000000,182994.4531250000,168350.3281250000,169155.3593750000,28291.8632812500,176166.1718750000,,,
2.2759999963,17,160281.8906250000,161773.7812500000,184964.7031250000,182980.8906250000,168353.2968750000,169158.4375000000,28297.8183593750,176164.9843750000,,,
2.2799999963,17,160286.5781250000,161775.1250000000,184970.2812500000,182976.1093750000,168357.1562500000,169161.9531250000,28303.4785156250,176162.3125000000,,,
2.2839999963,17,160294.7656250000,161779.8437500000,184974.8906250000,182991.9375000000,168362.9843750000,169172.5781250000,28311.0156250000,176166.2812500000,,,
2.2879999964,17,160294.3593750000,161778.3750000000,184973.9062500000,182986.7031250000,168363.0312500000,169177.6406250000,28311.3906250000,176168.2656250000,,,
2.2919999964,17,160289.4531250000,161772.9062500000,184967.9218750000,182962.7812500000,168357.7187500000,169177.6250000000,28308.2265625000,176167.9375000000,,,
2.2959999964,17,160291.8437500000,161774.1562500000,184969.1250000000,182956.7500000000,168359.6250000000,169179.5781250000,28308.1191406250,176166.2812500000,,,
2.2999999963,17,160303.4531250000,161784.8593750000,184979.4218750000,182961.8906250000,168370.9218750000,169183.8906250000,28315.7890625000,176166.7812500000,,,
2.3039999963,18,160317.4843750000,161798.4062500000,184993.3437500000,182972.9687500000,168386.4843750000,169191.4843750000,28328.6640625000,176176.5000000000,,,
2.3079999962,18,160317.1562500000,161799.8750000000,184996.4843750000,182974.9531250000,168389.8593750000,169189.9843750000,28328.5292968750,176184.0937500000,,,
2.3119999962,18,160307.2812500000,161791.7031250000,184988.6562500000,182971.7968750000,168381.9687500000,169179.5312500000,28319.8125000000,176180.4687500000,,,
2.3159999961,18,160304.6875000000,161793.7968750000,184987.0000000000,182976.9687500000,168379.5312500000,169178.2656250000,28318.5253906250,176179.4687500000,,,
2.3199999961,18,160306.7031250000,161800.1718750000,184988.3281250000,182988.4531250000,168379.0468750000,169180.2812500000,28318.5527343750,176178.3437500000,,,
2.3239999961,18,160304.6093750000,161798.6562500000,184987.4218750000,183006.5781250000,168377.6562500000,169178.7187500000,28318.8203125000,176176.5000000000,,,
2.3279999963,18,160289.7968750000,161787.0156250000,184971.4843750000,182996.9062500000,168364.9375000000,169169.4687500000,28310.1562500000,176171.4218750000,,,
2.3319999962,18,160279.3906250000,161777.4062500000,184962.6093750000,182982.9531250000,168355.6562500000,169164.2968750000,28304.8457031250,176166.5937500000,,,
2.3359999962,18,160279.9843750000,161778.2343750000,184961.8125000000,182987.4843750000,168353.1406250000,169164.7187500000,28302.7812500000,176164.4843750000,,,
2.3399999961,18,160280.8125000000,161778.3125000000,184961.5312500000,182980.3281250000,168348.3125000000,169163.0312500000,28302.1914062500,176156.5156250000,,,
2.3439999961,18,160279.5468750000,161774.8906250000,184959.0781250000,182981.9843750000,168342.4843750000,169159.0937500000,28296.8535156250,176151.5000000000,,,
2.3479999963,18,160287.3281250000,161782.9062500000,184965.5312500000,182999.2031250000,168348.0156250000,169164.8593750000,28300.0976562500,176162.6875000000,,,
2.3519999962,18,160288.2187500000,161785.9687500000,184966.8750000000,183000.0937500000,168350.0468750000,169168.1875000000,28302.2988281250,176170.4843750000,,,
2.3559999962,18,160283.7656250000,161784.2500000000,184962.1875000000,182996.7968750000,168348.1406250000,169169.9218750000,28303.5058593750,176170.9687500000,,,
2.3599999961,18,160279.5468750000,161781.4531250000,184959.2343750000,182991.6093750000,168345.8125000000,169169.6875000000,28302.2714843750,176165.5312500000,,,
2.3639999961,18,160275.7968750000,161779.0156250000,184957.6250000000,182988.3906250000,168345.1093750000,169169.3906250000,28302.5937500000,176163.0312500000,,,
2.3679999961,18,160270.7500000000,161770.8593750000,184955.5312500000,182988.2656250000,168346.0312500000,169165.2500000000,28301.7070312500,176162.0625000000,,,
2.3719999962,18,160270.0781250000,161766.3281250000,184958.6406250000,182979.8125000000,168351.6406250000,169162.3593750000,28307.9042968750,176163.4375000000,,,
2.3759999962,18,160273.7656250000,161766.8593750000,184963.3281250000,182971.5781250000,168359.1250000000,169163.7343750000,28313.9121093750,176162.0156250000,,,
2.3799999962,18,160274.6406250000,161765.0625000000,184963.6562500000,182969.0000000000,168361.3437500000,169161.7968750000,28316.3789062500,176153.2656250000,,,
2.3839999961,18,160274.0468750000,161763.2968750000,184960.2812500000,182966.5937500000,168357.8593750000,169157.2343750000,28316.2187500000,176146.1875000000,,,
2.3879999961,18,160277.0000000000,161767.6093750000,184960.3906250000,182967.5625000000,168358.2812500000,169157.4531250000,28315.2539062500,176149.6562500000,,,
2.3919999963,18,160281.2968750000,161775.8750000000,184964.4062500000,182959.4375000000,168361.8281250000,169161.9531250000,28317.3183593750,176158.3593750000,,,
2.3959999962,18,160287.2812500000,161782.2656250000,184969.9062500000,182964.0156250000,168363.7343750000,169164.6406250000,28317.5332031250,176163.5156250000,,,
2.3999999962,18,160292.0468750000,161786.5312500000,184972.8281250000,182983.8125000000,168362.3125000000,169165.1250000000,28316.4335937500,176162.1250000000,,,
2.4039999961,18,160288.2656250000,161784.2187500000,184967.3906250000,182985.2343750000,168354.2343750000,169161.7187500000,28312.1679687500,176157.5312500000,,,
2.4079999961,18,160280.1718750000,161780.3750000000,184956.9218750000,182956.1250000000,168344.2812500000,169159.4062500000,28305.5429687500,176157.5156250000,,,
2.4119999961,18,160283.4218750000,161784.2500000000,184958.7968750000,182974.4843750000,168346.6250000000,169160.4062500000,28306.4023437500,176163.0625000000,,,
2.4159999962,18,160286.7656250000,161785.0781250000,184961.4062500000,182985.9531250000,168348.5468750000,169158.3906250000,28304.9003906250,176162.0468750000,,,
2.4199999962,18,160284.4375000000,161780.3593750000,184958.9375000000,182974.0468750000,168346.9375000000,169152.2968750000,28301.3046875000,176150.5937500000,,,
2.4239999962,18,160284.3281250000,161776.4687500000,184961.2187500000,182974.2343750000,168347.6406250000,169146.9062500000,28302.1640625000,176143.8593750000,,,
2.4279999961,18,160283.0156250000,161772.6093750000,184962.4531250000,182992.0937500000,168348.1406250000,169143.3906250000,28303.0761718750,176144.2500000000,,,
2.4319999961,19,160280.0625000000,161767.5625000000,184962.5781250000,182997.9687500000,168349.6250000000,169142.4062500000,28303.2910156250,176143.9062500000,,,
2.4359999960,19,160277.0781250000,161764.2968750000,184961.7812500000,182992.2812500000,168349.1093750000,169139.4218750000,28303.0488281250,176139.5312500000,,,
2.4399999960,19,160274.2187500000,161765.4218750000,184958.0000000000,182990.5937500000,168345.6250000000,169142.8281250000,28304.4160156250,176136.1562500000,,,
2.4439999959,19,160275.7187500000,161769.2500000000,184956.3125000000,183003.2812500000,168343.0781250000,169144.5156250000,28305.5703125000,176137.7656250000,,,
2.4479999959,19,160282.4531250000,161775.5625000000,184962.8750000000,183017.3906250000,168349.0937500000,169146.9375000000,28308.7343750000,176146.6718750000,,,
2.4519999959,19,160276.4687500000,161769.3125000000,184957.6250000000,183008.5156250000,168343.9843750000,169142.3281250000,28302.2167968750,176148.0468750000,,,
2.4559999960,19,160265.8437500000,161756.0000000000,184947.4843750000,182975.8750000000,168334.0937500000,169134.0625000000,28294.3046875000,176136.8281250000,,,
2.4599999960,19,160267.3437500000,161753.8281250000,184946.5937500000,182976.2812500000,168332.9375000000,169135.2500000000,28293.3125000000,176127.7656250000,,,
2.4639999960,19,160270.1406250000,161757.6406250000,184947.1093750000,182978.2812500000,168335.3750000000,169143.0468750000,28296.1816406250,176128.9218750000,,,
2.4679999959,19,160270.3593750000,161758.2812500000,184947.4843750000,182975.4218750000,168339.2500000000,169147.2812500000,28300.0976562500,176137.4375000000,,,
2.4719999959,19,160268.6562500000,161756.2500000000,184945.1562500000,182980.8125000000,168339.8906250000,169146.7500000000,28298.0332031250,176142.5937500000,,,
2.4759999961,19,160272.6250000000,161761.2656250000,184947.0468750000,182977.5156250000,168343.0000000000,169150.7187500000,28299.8847656250,176148.0156250000,,,
2.4799999960,19,160273.5468750000,161765.8125000000,184948.9062500000,182951.4687500000,168345.5468750000,169154.0156250000,28306.7500000000,176148.5156250000,,,
2.4839999960,19,160269.1250000000,161762.3906250000,184947.5625000000,182934.7031250000,168344.7187500000,169153.1562500000,28311.4980468750,176145.8437500000,,,
2.4879999959,19,160272.0625000000,161765.0468750000,184952.3125000000,182941.7343750000,168349.5468750000,169156.9687500000,28317.3183593750,176153.1406250000,,,
2.4919999959,19,160271.9687500000,161765.4687500000,184954.6406250000,182947.4062500000,168350.2187500000,169156.4531250000,28316.4609375000,176157.4218750000,,,
2.4959999959,19,160276.4687500000,161772.3125000000,184959.7656250000,182953.1250000000,168353.0781250000,169162.7031250000,28319.4101562500,176161.7187500000,,,
2.4999999960,19,160278.6093750000,161777.5156250000,184960.0625000000,182958.6562500000,168353.4531250000,169167.6718750000,28320.9667968750,176161.5000000000,,,
2.5039999960,19,160282.2343750000,161779.6250000000,184962.5625000000,182960.4531250000,168356.1093750000,169167.9062500000,28323.4882812500,176161.4531250000,,,
2.5079999960,19,160285.9062500000,161780.9687500000,184967.4375000000,182972.7343750000,168361.0781250000,169170.8593750000,28329.5214843750,176167.5937500000,,,
2.5119999959,19,160284.1406250000,161778.2968750000,184966.5312500000,182983.8437500000,168361.7187500000,169171.6718750000,28329.7636718750,176169.6875000000,,,
2.5159999959,19,160286.6562500000,161780.8125000000,184968.5625000000,182985.3906250000,168363.4843750000,169176.3593750000,28331.1582031250,176170.7031250000,,,
2.5199999961,19,160285.3125000000,161778.9062500000,184967.2500000000,182970.6875000000,168361.0156250000,169178.9687500000,28333.0898437500,176163.7343750000,,,
2.5239999960,19,160285.9687500000,161777.9375000000,184967.5468750000,182972.1718750000,168360.6250000000,169183.7343750000,28336.5488281250,176158.9531250000,,,
2.5279999960,19,160290.0937500000,161782.7187500000,184972.0781250000,182983.0625000000,168365.8281250000,169191.4062500000,28342.0742187500,176167.5625000000,,,
2.5319999959,19,160295.4843750000,161790.0937500000,184977.0937500000,183006.0937500000,168371.5625000000,169197.1250000000,28347.1171875000,176178.2187500000,,,
2.5359999959,19,160299.5156250000,161795.2187500000,184978.5156250000,183002.6093750000,168372.8750000000,169202.7343750000,28346.4472656250,176182.1250000000,,,
2.5399999958,19,160297.4375000000,161793.2500000000,184975.2500000000,182987.5468750000,168366.8750000000,169200.4218750000,28341.6191406250,176175.1875000000,,,
2.5439999960,19,160292.6093750000,161786.3906250000,184973.0468750000,182979.0312500000,168365.1250000000,169197.6250000000,28350.6582031250,176165.6093750000,,,
2.5479999960,19,160298.7500000000,161789.1562500000,184981.7343750000,182981.1093750000,168375.1093750000,169200.5468750000,28363.3984375000,176170.8906250000,,,
2.5519999960,19,160302.0625000000,161788.2187500000,184986.7031250000,182981.2031250000,168382.0781250000,169197.3906250000,28367.9316406250,176175.3125000000,,,
2.5559999959,19,160305.6562500000,161792.1875000000,184988.7656250000,182984.1093750000,168385.4531250000,169201.5781250000,28373.1621093750,176177.1093750000,,,
2.5599999959,20,160304.9062500000,161795.4375000000,184985.4062500000,182975.5156250000,168383.2343750000,169206.5937500000,28372.4375000000,176175.6718750000,,,
2.5639999958,20,160307.6406250000,161799.9062500000,184988.3593750000,182978.6093750000,168386.1875000000,169211.8750000000,28374.6640625000,176177.9218750000,,,
2.5679999958,20,160303.8281250000,161800.8281250000,184986.2968750000,182978.9843750000,168384.4375000000,169210.1093750000,28372.4375000000,176184.7812500000,,,
2.5719999957,20,160307.4218750000,161805.3281250000,184990.0468750000,182986.3125000000,168387.7343750000,169208.7656250000,28371.6328125000,176193.1250000000,,,
2.5759999957,20,160308.3125000000,161806.7187500000,184989.8281250000,182987.5937500000,168386.8750000000,169208.1406250000,28371.3925781250,176194.3593750000,,,
2.5799999957,20,160303.6093750000,161800.3593750000,184982.4375000000,182980.4843750000,168378.7500000000,169202.3281250000,28364.7929687500,176184.0937500000,,,
2.5839999958,20,160306.3437500000,161801.3281250000,184985.8906250000,182974.6406250000,168380.1250000000,169202.2500000000,28364.9003906250,176181.6250000000,,,
2.5879999958,20,160311.5468750000,161804.2500000000,184989.6406250000,182978.5468750000,168384.1093750000,169204.2031250000,28367.1269531250,176188.7031250000,,,
2.5919999958,20,160311.5468750000,161801.9531250000,184990.4531250000,182974.7187500000,168384.7812500000,169204.3906250000,28365.2226562500,176194.8906250000,,,
2.5959999957,20,160313.7187500000,161802.7812500000,184992.9531250000,182984.8281250000,168387.2500000000,169201.8750000000,28364.5253906250,176195.3593750000,,,
2.5999999957,20,160316.4375000000,161804.6250000000,184997.9375000000,182988.0000000000,168391.8750000000,169202.5625000000,28370.6406250000,176189.9375000000,,,
2.6039999959,20,160313.0000000000,161803.2812500000,184996.4375000000,182979.1718750000,168390.9218750000,169202.5937500000,28371.2304687500,176185.0781250000,,,
2.6079999958,20,160306.2968750000,161798.1406250000,184991.8750000000,182979.4687500000,168387.3281250000,169199.1250000000,28365.2753906250,176185.5156250000,,,
2.6119999958,20,160293.0781250000,161785.8593750000,184978.8125000000,182977.6718750000,168375.6406250000,169190.3125000000,28351.2480468750,176180.2187500000,,,
2.6159999957,20,160283.6250000000,161775.1562500000,184968.2656250000,182969.1718750000,168366.1250000000,169182.0937500000,28341.1367187500,176167.2187500000,,,
2.6199999957,20,160281.9375000000,161770.7031250000,184964.6562500000,182973.7187500000,168359.9218750000,169173.2812500000,28333.8671875000,176153.3437500000,,,
2.6239999956,20,160287.0625000000,161774.7968750000,184964.2968750000,182984.9843750000,168357.2656250000,169170.5625000000,28330.3007812500,176150.1562500000,,,
2.6279999958,20,160299.2187500000,161786.4687500000,184972.1093750000,182996.6250000000,168363.6718750000,169178.1562500000,28336.4433593750,176162.5312500000,,,
2.6319999958,20,160307.6875000000,161794.3281250000,184976.7656250000,183017.2343750000,168368.9687500000,169181.9062500000,28339.0449218750,176177.0937500000,,,
2.6359999957,20,160308.0937500000,161793.9218750000,184978.7343750000,183027.9062500000,168371.6406250000,169181.2968750000,28340.4121093750,176178.6718750000,,,
2.6399999957,20,160308.6250000000,161795.0468750000,184982.8281250000,183003.5000000000,168377.3593750000,169180.4687500000,28347.8417968750,176174.8281250000,,,
2.6439999957,20,160310.7187500000,161799.0781250000,184986.1093750000,182997.4375000000,168382.5625000000,169183.7343750000,28352.7500000000,176176.4687500000,,,
2.6479999959,20,160310.9843750000,161799.1093750000,184988.4218750000,183005.1093750000,168384.6562500000,169182.7187500000,28353.6347656250,176180.2031250000,,,
2.6519999958,20,160309.9687500000,161796.9843750000,184989.6250000000,183001.5156250000,168386.2656250000,169180.1406250000,28354.8691406250,176181.9687500000,,,
2.6559999958,20,160304.1718750000,161790.5781250000,184985.8437500000,182993.8750000000,168382.8593750000,169174.4062500000,28354.2519531250,176173.7343750000,,,
2.6599999957,20,160301.6250000000,161790.8437500000,184981.5156250000,182996.9531250000,168379.3125000000,169176.9531250000,28355.5390625000,176167.3281250000,,,
2.6639999957,20,160301.4062500000,161790.6875000000,184979.0468750000,182995.8593750000,168377.2968750000,169179.5468750000,28353.9296875000,176165.1250000000,,,
2.6679999956,20,160302.0781250000,161790.0312500000,184976.6718750000,182986.6250000000,168375.2968750000,169180.4062500000,28351.1679687500,176170.1406250000,,,
2.6719999958,20,160303.1250000000,161791.5937500000,184977.9218750000,182983.2968750000,168375.2343750000,169183.5468750000,28352.4277343750,176176.3906250000,,,
2.6759999958,20,160303.2656250000,161791.5625000000,184979.6093750000,182999.2343750000,168374.5625000000,169183.4218750000,28353.8496093750,176176.6093750000,,,
2.6799999957,20,160303.4843750000,161793.1718750000,184981.1718750000,183001.7500000000,168374.5937500000,169183.6875000000,28355.8886718750,176174.0625000000,,,
2.6839999957,20,160306.6718750000,161798.1875000000,184983.7812500000,183002.9687500000,168375.8750000000,169185.0781250000,28357.3105468750,176174.0625000000,,,
2.6879999957,21,160307.3593750000,161799.6093750000,184984.5468750000,182981.6093750000,168378.0468750000,169185.3437500000,28357.2304687500,176176.4218750000,,,
2.6919999956,21,160305.8125000000,161794.8125000000,184983.8281250000,182987.4062500000,168379.8281250000,169178.8750000000,28354.7343750000,176175.5312500000,,,
2.6959999956,21,160304.0937500000,161791.0312500000,184982.0781250000,182983.4062500000,168379.2656250000,169177.2500000000,28353.4746093750,176170.8437500000,,,
2.6999999955,21,160300.0468750000,161784.9687500000,184979.8906250000,182980.2968750000,168376.3125000000,169174.8906250000,28353.3144531250,176158.9218750000,,,
2.7039999955,21,160303.7968750000,161786.2500000000,184986.7031250000,182993.7656250000,168381.6718750000,169179.5000000000,28358.8925781250,176155.2500000000,,,
2.7079999954,21,160301.1406250000,161785.0468750000,184987.4531250000,183001.2187500000,168381.9375000000,169183.8750000000,28358.3554687500,176161.3750000000,,,
2.7119999956,21,160295.5156250000,161780.3593750000,184984.5000000000,182994.4531250000,168379.0156250000,169182.5781250000,28356.5585937500,176164.7968750000,,,
2.7159999956,21,160299.0000000000,161787.7812500000,184984.7656250000,182989.3437500000,168379.6562500000,169187.2812500000,28359.9921875000,176170.1406250000,,,
2.7199999955,21,160297.7968750000,161789.3437500000,184979.4062500000,182991.6406250000,168371.8281250000,169188.2968750000,28358.3027343750,176167.0000000000,,,
2.7239999955,21,160292.2968750000,161785.7968750000,184972.7187500000,182991.7031250000,168363.1406250000,169183.6875000000,28355.8339843750,176161.4531250000,,,
2.7279999955,21,160288.7187500000,161783.7343750000,184969.2031250000,182991.5156250000,168360.7812500000,169179.6406250000,28352.6699218750,176163.5625000000,,,
2.7319999957,21,160283.5468750000,161777.7031250000,184965.0781250000,182986.7031250000,168358.3906250000,169172.6093750000,28347.8945312500,176163.3750000000,,,
2.7359999956,21,160279.3125000000,161771.7656250000,184960.1718750000,182981.3437500000,168354.5781250000,169165.6093750000,28343.5234375000,176158.3906250000,,,
2.7399999956,21,160282.0468750000,161774.8906250000,184963.2031250000,182982.1406250000,168356.6718750000,169165.1562500000,28344.2207031250,176155.9218750000,,,
2.7439999955,21,160284.3593750000,161777.7500000000,184966.0468750000,182990.1875000000,168360.1718750000,169168.7187500000,28343.9257812500,176157.0000000000,,,
2.7479999955,21,160285.2656250000,161778.7968750000,184969.0000000000,182990.2187500000,168363.1093750000,169172.6875000000,28344.5957031250,176164.4531250000,,,
2.7519999954,21,160278.7500000000,161771.9375000000,184963.0468750000,182982.6250000000,168356.7343750000,169165.4687500000,28337.8906250000,176164.7031250000,,,
2.7559999956,21,160277.1875000000,161770.1875000000,184960.3593750000,182972.8906250000,168352.8437500000,169164.3125000000,28335.5039062500,176161.7500000000,,,
2.7599999956,21,160277.7343750000,161769.9218750000,184959.8437500000,182973.2968750000,168350.4531250000,169164.9062500000,28336.1738281250,176152.8750000000,,,
2.7639999955,21,160286.2031250000,161776.7031250000,184965.1875000000,182987.0625000000,168354.5625000000,169170.6406250000,28341.5117187500,176152.7812500000,,,
2.7679999955,21,160297.2031250000,161788.7500000000,184973.7187500000,183002.3750000000,168362.1250000000,169177.4062500000,28346.2050781250,176164.9375000000,,,
2.7719999955,21,160296.3125000000,161787.1406250000,184971.7031250000,182984.8593750000,168360.7031250000,169174.1562500000,28343.5507812500,176168.9843750000,,,
2.7759999956,21,160291.9375000000,161782.0156250000,184968.8281250000,182977.3437500000,168356.6718750000,169167.7187500000,28339.8222656250,176163.5156250000,,,
2.7799999956,21,160291.0937500000,161781.7031250000,184967.2500000000,182973.8593750000,168353.8906250000,169164.8281250000,28336.0136718750,176156.8593750000,,,
2.7839999956,21,160293.2656250000,161784.4531250000,184969.5000000000,182971.2343750000,168355.6562500000,169168.1875000000,28339.5546875000,176156.1718750000,,,
2.7879999955,21,160293.9531250000,161783.5937500000,184972.7031250000,182977.5156250000,168359.7812500000,169168.0781250000,28340.3847656250,176158.5312500000,,,
2.7919999955,21,160292.0000000000,161780.1406250000,184971.6250000000,182983.9218750000,168359.6562500000,169165.9843750000,28333.8671875000,176157.9375000000,,,
2.7959999954,21,160291.6718750000,161778.6093750000,184972.3437500000,182981.7968750000,168361.5000000000,169163.2656250000,28334.8867187500,176153.8281250000,,,
2.7999999956,21,160291.2812500000,161778.5781250000,184971.4843750000,182975.3281250000,168360.7031250000,169160.4843750000,28340.1699218750,176146.4062500000,,,
2.8039999956,21,160298.7812500000,161786.5468750000,184974.7031250000,182982.2500000000,168364.0000000000,169163.2656250000,28346.3125000000,176148.8437500000,,,
2.8079999955,21,160298.0312500000,161787.4843750000,184969.9843750000,182977.5937500000,168359.7656250000,169160.3281250000,28340.6269531250,176156.7031250000,,,
2.8119999955,21,160294.4375000000,161785.3125000000,184963.7656250000,182966.0781250000,168354.5781250000,169154.9062500000,28335.0214843750,176162.6250000000,,,
2.8159999955,22,160291.4843750000,161783.9218750000,184960.5000000000,182978.2031250000,168350.4062500000,169152.2812500000,28330.8105468750,176163.4687500000,,,
2.8199999954,22,160292.3750000000,161784.4531250000,184962.5000000000,182982.6562500000,168351.4218750000,169151.6562500000,28332.1250000000,176158.7343750000,,,
2.8239999954,22,160290.3906250000,161781.2968750000,184961.5625000000,182976.0937500000,168351.6875000000,169148.4062500000,28332.7148437500,176151.7343750000,,,
2.8279999953,22,160285.6093750000,161777.0312500000,184958.4843750000,182968.2500000000,168350.3281250000,169146.7187500000,28332.2851562500,176150.6718750000,,,
2.8319999953,22,160287.7031250000,161778.5000000000,184962.2656250000,182976.2968750000,168353.1406250000,169149.4843750000,28332.9296875000,176156.0937500000,,,
2.8359999952,22,160289.6406250000,161779.3593750000,184962.5000000000,182988.0156250000,168352.9687500000,169148.5468750000,28332.1503906250,176157.5625000000,,,
2.8399999954,22,160294.3281250000,161788.1406250000,184964.3750000000,182987.9218750000,168353.5625000000,169152.1718750000,28334.4316406250,176157.4062500000,,,
2.8439999954,22,160293.4687500000,161787.6718750000,184964.2187500000,182977.6718750000,168352.9687500000,169152.4375000000,28335.2617187500,176153.9062500000,,,
2.8479999953,22,160286.9843750000,161778.4218750000,184960.1718750000,182980.8593750000,168349.8125000000,169149.8906250000,28335.4238281250,176151.3906250000,,,
2.8519999953,22,160278.9687500000,161770.2500000000,184953.5937500000,182976.0625000000,168343.1250000000,169143.6875000000,28331.2128906250,176148.2500000000,,,
2.8559999953,22,160279.5468750000,161768.4531250000,184955.3437500000,182960.2031250000,168343.8593750000,169142.4843750000,28336.1464843750,176146.5625000000,,,
2.8599999954,22,160289.3125000000,161776.8125000000,184965.8593750000,182979.1406250000,168352.0625000000,169150.7500000000,28343.6835937500,176148.9218750000,,,
2.8639999954,22,160298.8437500000,161785.4218750000,184976.0000000000,182995.9062500000,168361.0468750000,169158.6562500000,28348.6738281250,176154.4531250000,,,
2.8679999954,22,160298.9218750000,161783.1718750000,184976.7187500000,182991.4843750000,168363.2187500000,169160.0468750000,28347.1972656250,176157.9843750000,,,
2.8719999953,22,160287.3906250000,161770.7500000000,184967.6250000000,182962.7031250000,168357.5625000000,169155.6250000000,28340.7343750000,176153.7187500000,,,
2.8759999953,22,160289.7500000000,161773.4062500000,184973.7500000000,182962.1406250000,168363.6718750000,169159.5156250000,28346.4199218750,176156.1406250000,,,
2.8799999952,22,160289.9843750000,161773.0937500000,184972.8906250000,182965.5156250000,168361.4843750000,169157.6093750000,28345.9902343750,176148.8750000000,,,
2.8839999954,22,160290.5468750000,161774.3437500000,184969.7500000000,182960.4687500000,168357.4531250000,169154.6875000000,28342.6914062500,176144.0156250000,,,
2.8879999954,22,160292.1562500000,161777.4062500000,184969.0468750000,182967.0937500000,168357.5625000000,169153.7500000000,28344.5156250000,176150.5312500000,,,
2.8919999953,22,160288.5156250000,161774.9062500000,184965.6093750000,182969.7031250000,168355.0625000000,169153.9843750000,28346.8496093750,176155.3281250000,,,
2.8959999953,22,160288.6250000000,161775.9375000000,184963.2343750000,182975.1406250000,168353.6406250000,169155.7656250000,28350.0683593750,176156.0312500000,,,
2.8999999953,22,160295.1562500000,161781.7031250000,184967.3906250000,182978.2812500000,168357.1093750000,169161.3437500000,28355.4589843750,176155.7343750000,,,
2.9039999954,22,160297.4687500000,161784.6406250000,184970.5000000000,182970.0781250000,168359.7343750000,169164.7500000000,28359.1074218750,176156.2812500000,,,
2.9079999954,22,160294.8750000000,161782.5000000000,184968.6406250000,182966.7812500000,168359.5781250000,169162.8437500000,28360.2871093750,176158.6875000000,,,
2.9119999954,22,160293.0156250000,161781.5937500000,184967.3281250000,182964.7343750000,168359.4062500000,169160.4843750000,28359.6972656250,176161.7187500000,,,
2.9159999953,22,160292.9843750000,161781.1562500000,184967.7343750000,182976.1875000000,168360.0312500000,169158.9843750000,28358.7050781250,176160.0312500000,,,
2.9199999953,22,160293.6406250000,161780.7656250000,184970.2812500000,182972.1093750000,168361.7812500000,169161.2656250000,28358.9453125000,176156.4843750000,,,
2.9239999952,22,160287.1718750000,161774.4531250000,184964.0312500000,182964.1562500000,168354.6093750000,169157.8281250000,28354.0917968750,176149.4843750000,,,
2.9279999954,22,160281.1093750000,161770.7031250000,184958.6718750000,182967.8281250000,168348.8437500000,169157.3437500000,28351.5976562500,176148.4375000000,,,
2.9319999954,22,160276.9531250000,161767.0468750000,184954.8593750000,182971.6875000000,168345.0156250000,169156.6406250000,28351.2753906250,176150.3750000000,,,
2.9359999953,22,160277.7343750000,161769.6250000000,184953.4843750000,182983.6562500000,168343.5312500000,169158.7656250000,28352.5625000000,176153.7500000000,,,
2.9399999953,22,160284.0781250000,161776.6562500000,184958.2656250000,182985.1718750000,168347.1562500000,169164.3906250000,28357.2832031250,176156.5937500000,,,
2.9439999952,23,160289.2656250000,161780.5156250000,184964.2500000000,182975.4218750000,168353.0781250000,169168.2031250000,28363.7734375000,176157.0781250000,,,
2.9479999952,23,160291.5468750000,161783.0625000000,184967.9531250000,182982.5468750000,168358.3750000000,169173.2031250000,28367.1542968750,176162.5000000000,,,
2.9519999952,23,160289.6093750000,161779.5000000000,184967.2500000000,182973.7187500000,168360.7812500000,169171.8750000000,28365.7851562500,176165.8750000000,,,
2.9559999951,23,160286.5781250000,161772.8750000000,184965.3125000000,182954.9218750000,168361.2968750000,169168.0156250000,28364.8476562500,176161.3125000000,,,
2.9599999951,23,160287.5781250000,161772.6562500000,184965.9062500000,182951.3593750000,168362.1718750000,169168.4531250000,28363.9628906250,176155.6093750000,,,
