Time:250Hz,Epoch,Channel 1,Channel 2,Channel 3,Channel 4,Channel 5,Channel 6,Channel 7,Channel 8,Event Id,Event Date,Event Duration
0.0000000000,0,156372.8906250000,156901.3437500000,181163.0468750000,177098.9375000000,164705.2187500000,164987.5000000000,45455.0273437500,169267.0937500000,,,
0.0040000000,0,156367.8125000000,156900.8281250000,181152.5625000000,177088.3125000000,164695.1093750000,164988.3593750000,45447.8398437500,169265.8906250000,,,
0.0079999999,0,156366.1093750000,156901.9062500000,181146.8750000000,177091.8281250000,164690.8281250000,164989.2968750000,45443.6796875000,169261.8437500000,,,
0.0119999999,0,156368.0937500000,156901.9062500000,181152.3437500000,177097.5937500000,164696.8281250000,164990.6406250000,45447.7304687500,169261.2500000000,,,
0.0159999998,0,156377.2656250000,156906.0625000000,181166.5937500000,177096.5781250000,164711.4687500000,164997.1093750000,45459.2656250000,169266.6093750000,,,
0.0199999998,0,156374.7656250000,156902.4375000000,181163.0000000000,177105.9687500000,164708.8125000000,164994.3593750000,45459.3203125000,169261.8750000000,,,
0.0240000000,0,156370.1250000000,156902.6250000000,181153.5000000000,177107.9687500000,164699.8125000000,164991.3437500000,45458.1132812500,169264.0156250000,,,
0.0279999999,0,156369.3281250000,156903.0312500000,181152.3750000000,177107.2031250000,164699.4062500000,164993.9375000000,45461.4101562500,169264.2500000000,,,
0.0319999999,0,156370.4687500000,156902.0625000000,181154.9687500000,177105.2343750000,164702.3750000000,164994.5312500000,45461.4101562500,169266.6406250000,,,
0.0359999998,0,156379.7031250000,156909.6250000000,181165.6250000000,177110.5468750000,164711.6406250000,165001.3906250000,45467.5546875000,169273.4062500000,,,
0.0399999998,0,156387.1562500000,156914.0781250000,181179.4375000000,177112.4843750000,164721.9375000000,165005.6093750000,45477.2890625000,169275.4375000000,,,
0.0440000000,0,156389.0156250000,156917.2968750000,181182.7343750000,177096.4687500000,164724.8906250000,165010.1875000000,45482.3320312500,169273.3750000000,,,
0.0480000000,0,156383.7968750000,156912.7656250000,181174.3593750000,177103.9843750000,164718.4687500000,165007.7500000000,45476.9687500000,169267.2812500000,,,
0.0519999999,0,156375.7812500000,156902.2500000000,181162.5312500000,177115.1406250000,164710.0000000000,164998.3593750000,45451.6757812500,169261.3125000000,,,
0.0559999999,0,156379.5937500000,156903.2343750000,181168.2812500000,177117.4375000000,164715.6250000000,164998.0937500000,45461.1171875000,169264.8750000000,,,
0.0599999998,0,156386.3281250000,156908.4687500000,181178.0468750000,177123.0468750000,164722.3593750000,165004.9062500000,45479.6484375000,169270.6875000000,,,
0.0639999998,0,156388.3437500000,156912.2812500000,181178.6562500000,177115.4062500000,164722.2031250000,165008.3437500000,45481.2578125000,169270.8750000000,,,
0.0680000000,0,156389.8593750000,156916.3906250000,181177.1093750000,177107.5937500000,164721.6093750000,165013.3906250000,45482.9765625000,169272.8437500000,,,
0.0719999999,0,156384.4531250000,156909.5781250000,181168.6562500000,177105.9375000000,164713.1093750000,165009.7343750000,45476.8320312500,169271.5000000000,,,
0.0759999999,0,156380.8281250000,156905.7031250000,181163.6093750000,177095.5000000000,164708.1250000000,165007.2656250000,45474.2578125000,169270.2968750000,,,
0.0799999998,0,156387.2031250000,156911.9531250000,181171.2500000000,177096.0468750000,164714.2031250000,165012.2343750000,45480.4023437500,169273.2343750000,,,
0.0839999998,0,156389.7031250000,156909.8906250000,181178.0937500000,177094.2656250000,164718.8750000000,165010.8906250000,45487.1601562500,169267.8281250000,,,
0.0880000000,0,156381.0937500000,156901.5000000000,181167.1718750000,177093.3593750000,164710.5625000000,165005.7968750000,45479.1132812500,169261.0625000000,,,
0.0919999999,0,156380.6718750000,156903.2968750000,181164.3125000000,177094.7500000000,164710.1562500000,165006.2500000000,45477.1562500000,169265.8593750000,,,
0.0959999999,0,156389.5468750000,156913.8906250000,181172.3750000000,177119.2656250000,164717.8906250000,165013.6718750000,45481.2851562500,169278.8281250000,,,
0.0999999999,0,156391.8437500000,156915.9062500000,181174.9062500000,177131.0937500000,164720.1406250000,165013.0937500000,45481.9843750000,169279.6718750000,,,
0.1039999998,0,156385.7968750000,156907.1250000000,181170.2656250000,177113.4218750000,164715.3906250000,165008.5625000000,45480.8828125000,169271.6875000000,,,
0.1079999998,0,156380.7968750000,156902.3750000000,181163.8750000000,177092.0937500000,164709.6250000000,165007.0000000000,45478.7656250000,169267.7968750000,,,
0.1120000000,0,156380.0156250000,156906.6250000000,181162.0468750000,177081.4218750000,164708.6875000000,165010.0312500000,45475.3593750000,169276.1875000000,,,
0.1159999999,0,156373.0781250000,156901.4218750000,181154.7343750000,177081.1562500000,164701.9531250000,165005.2812500000,45469.1640625000,169276.0781250000,,,
0.1199999999,0,156370.7656250000,156903.9375000000,181148.4531250000,177084.0312500000,164695.6562500000,165007.1093750000,45464.8984375000,169274.0000000000,,,
0.1239999998,0,156370.2343750000,156904.5000000000,181145.6718750000,177083.5468750000,164691.8437500000,165007.5312500000,45465.1640625000,169268.9531250000,,,
0.1279999998,1,156372.4843750000,156905.0625000000,181149.0468750000,177078.8750000000,164695.1093750000,165006.2031250000,45468.3828125000,169268.5000000000,,,
0.1319999998,1,156386.9687500000,156914.5937500000,181165.5625000000,177097.2500000000,164710.3750000000,165009.7031250000,45478.2265625000,169277.9843750000,,,
0.1359999997,1,156394.8281250000,156915.5000000000,181173.3750000000,177105.0312500000,164718.1250000000,165013.5468750000,45487.6953125000,169280.5156250000,,,
0.1399999997,1,156389.4687500000,156911.7656250000,181166.9843750000,177102.0781250000,164712.5781250000,165010.4375000000,45485.3632812500,169275.1406250000,,,
0.1439999996,1,156379.5625000000,156905.7968750000,181156.5625000000,177091.6406250000,164700.9531250000,165003.4531250000,45475.7070312500,169264.1718750000,,,
0.1479999996,1,156380.8281250000,156912.0312500000,181159.7812500000,177081.7656250000,164703.5312500000,165011.5937500000,45479.4882812500,169267.6093750000,,,
0.1519999998,1,156377.1250000000,156906.2500000000,181159.0312500000,177078.8125000000,164703.5937500000,165009.8750000000,45481.9296875000,169269.3281250000,,,
0.1559999997,1,156373.2968750000,156900.0000000000,181155.9062500000,177077.8593750000,164701.7187500000,165005.0468750000,45480.7773437500,169266.6718750000,,,
0.1599999997,1,156383.3750000000,156911.3750000000,181162.1562500000,177084.7968750000,164708.5000000000,165012.6093750000,45488.5546875000,169273.5156250000,,,
0.1639999996,1,156387.4531250000,156913.1093750000,181167.2343750000,177087.5156250000,164712.9687500000,165015.0468750000,45494.6953125000,169272.9218750000,,,
0.1679999996,1,156387.5312500000,156910.7812500000,181171.3906250000,177089.3281250000,164714.9843750000,165009.6250000000,45497.1914062500,169270.1562500000,,,
0.1719999998,1,156387.5937500000,156914.2656250000,181171.4218750000,177091.6718750000,164716.7812500000,165013.8437500000,45498.8281250000,169276.4531250000,,,
0.1759999997,1,156383.1093750000,156911.3906250000,181164.8125000000,177099.4218750000,164712.5781250000,165015.3437500000,45493.4101562500,169281.1875000000,,,
0.1799999997,1,156378.7812500000,156906.0000000000,181160.4218750000,177093.5781250000,164707.9375000000,165012.8750000000,45493.0351562500,169276.3281250000,,,
0.1839999997,1,156386.6718750000,156915.2500000000,181170.3437500000,177096.5156250000,164715.3437500000,165019.5468750000,45503.5742187500,169278.9531250000,,,
0.1879999996,1,156382.8906250000,156913.8281250000,181163.8593750000,177081.5625000000,164709.7500000000,165023.4375000000,45497.7539062500,169280.8906250000,,,
0.1919999996,1,156374.6250000000,156903.1093750000,181158.7343750000,177072.5937500000,164705.2812500000,165017.7812500000,45494.3203125000,169277.4062500000,,,
0.1959999998,1,156374.4218750000,156902.7812500000,181159.5625000000,177075.2500000000,164707.0468750000,165017.5625000000,45494.7226562500,169280.5937500000,,,
0.1999999997,1,156379.5468750000,156909.4062500000,181163.9531250000,177091.2968750000,164710.7187500000,165016.3593750000,45494.8046875000,169282.2500000000,,,
0.2039999997,1,156380.3437500000,156905.5781250000,181167.3906250000,177087.5312500000,164712.4375000000,165015.1562500000,45496.4140625000,169275.2812500000,,,
0.2079999996,1,156382.5156250000,156906.4531250000,181168.0625000000,177088.8437500000,164713.1718750000,165014.5156250000,45499.7382812500,169272.2812500000,,,
0.2119999996,1,156379.9218750000,156904.2343750000,181163.0781250000,177085.7968750000,164710.5312500000,165012.5312500000,45497.9960937500,169273.6250000000,,,
0.2159999998,1,156381.2812500000,156906.3750000000,181164.5781250000,177090.8437500000,164711.4218750000,165012.8437500000,45497.1093750000,169278.9531250000,,,
0.2199999997,1,156387.2656250000,156914.1093750000,181170.7187500000,177102.9062500000,164716.3593750000,165020.1406250000,45504.3242187500,169284.1875000000,,,
0.2239999997,1,156395.9062500000,156923.4843750000,181178.5781250000,177099.2812500000,164722.7968750000,165030.2500000000,45512.4257812500,169288.8281250000,,,
0.2279999997,1,156402.1250000000,156927.9218750000,181185.7968750000,177107.2500000000,164729.1562500000,165031.6250000000,45519.3203125000,169292.6562500000,,,
0.2319999996,1,156408.4531250000,156933.1250000000,181194.5312500000,177093.6250000000,164738.8593750000,165036.2968750000,45528.0351562500,169302.9062500000,,,
0.2359999996,1,156389.8437500000,156911.3906250000,181176.4843750000,177081.7656250000,164724.2968750000,165021.1093750000,45512.0781250000,169289.5156250000,,,
0.2399999998,1,156387.7812500000,156909.3281250000,181172.3281250000,177084.9375000000,164723.1718750000,165021.1406250000,45510.9492187500,169285.3437500000,,,
0.2439999997,1,156400.4062500000,156922.8750000000,181183.0625000000,177088.9531250000,164732.4218750000,165031.4375000000,45520.7148437500,169291.8281250000,,,
0.2479999997,1,156404.2656250000,156926.5156250000,181186.2187500000,177100.8750000000,164734.5156250000,165033.3437500000,45524.9804687500,169293.5000000000,,,
0.2519999996,1,156406.5000000000,156928.9843750000,181188.4687500000,177110.4687500000,164736.3593750000,165037.2343750000,45524.9257812500,169298.9843750000,,,
0.2559999996,2,156408.9687500000,156932.2031250000,181191.5625000000,177100.0625000000,164738.5625000000,165044.2812500000,45528.4648437500,169305.9687500000,,,
0.2599999995,2,156408.8281250000,156932.0468750000,181193.8906250000,177098.3437500000,164739.0937500000,165041.7812500000,45533.5351562500,169303.0937500000,,,
0.2639999995,2,156405.1875000000,156927.5937500000,181188.0468750000,177101.7031250000,164734.2187500000,165040.9375000000,45533.0781250000,169293.3906250000,,,
0.2679999995,2,156409.0468750000,156930.5468750000,181190.0000000000,177103.6875000000,164737.3906250000,165046.1875000000,45538.0937500000,169293.7656250000,,,
0.2719999994,2,156413.6250000000,156933.9062500000,181198.8593750000,177096.6093750000,164744.9218750000,165046.0781250000,45545.8203125000,169301.9218750000,,,
0.2759999994,2,156419.4531250000,156940.2812500000,181207.7343750000,177098.0468750000,164752.6406250000,165049.5625000000,45548.1015625000,169311.8437500000,,,
0.2799999996,2,156423.3125000000,156940.1250000000,181213.0937500000,177105.0000000000,164755.4375000000,165045.9687500000,45550.1093750000,169310.5312500000,,,
0.2839999995,2,156420.4375000000,156941.1875000000,181203.5781250000,177098.8593750000,164747.7187500000,165046.2968750000,45548.3671875000,169305.9062500000,,,
0.2879999995,2,156414.3750000000,156940.0156250000,181189.1718750000,177102.6406250000,164736.9531250000,165045.9218750000,45542.1992187500,169304.0937500000,,,
0.2919999994,2,156420.6875000000,156947.7187500000,181196.9843750000,177121.5781250000,164745.4843750000,165050.2031250000,45549.9765625000,169313.0937500000,,,
0.2959999994,2,156418.7500000000,156946.0156250000,181197.2656250000,177117.1562500000,164745.1875000000,165049.7343750000,45549.1445312500,169314.4375000000,,,
0.2999999996,2,156417.2812500000,156943.2656250000,181198.7187500000,177094.7031250000,164745.5625000000,165051.4375000000,45551.3984375000,169311.2500000000,,,
0.3039999995,2,156417.1406250000,156940.9843750000,181201.0468750000,177090.3593750000,164747.6250000000,165054.5781250000,45556.6015625000,169304.5625000000,,,
0.3079999995,2,156416.5000000000,156941.0000000000,181201.1093750000,177096.9843750000,164747.5468750000,165056.8125000000,45557.8906250000,169303.7187500000,,,
0.3119999995,2,156402.8281250000,156929.3593750000,181186.9531250000,177095.9375000000,164734.1718750000,165050.3125000000,45546.0078125000,169300.1718750000,,,
0.3159999994,2,156401.7500000000,156926.9218750000,181184.5625000000,177108.5156250000,164732.5625000000,165049.6406250000,45543.8867187500,169302.9062500000,,,
0.3199999994,2,156407.1093750000,156932.9375000000,181190.4531250000,177115.9687500000,164737.0312500000,165054.2656250000,45546.8945312500,169306.5000000000,,,
0.3239999996,2,156411.4062500000,156939.7656250000,181194.4531250000,177101.3437500000,164738.5156250000,165057.7500000000,45545.8750000000,169306.5781250000,,,
0.3279999995,2,156408.2968750000,156936.4218750000,181190.0625000000,177100.5468750000,164732.6875000000,165048.5781250000,45541.3671875000,169299.6406250000,,,
0.3319999995,2,156397.5937500000,156927.1875000000,181178.7343750000,177092.7656250000,164724.4843750000,165042.5468750000,45536.1093750000,169293.2187500000,,,
0.3359999994,2,156390.9062500000,156917.4062500000,181173.1875000000,177090.3281250000,164719.2812500000,165029.1250000000,45528.6250000000,169286.2031250000,,,
0.3399999994,2,156394.8750000000,156918.9062500000,181176.5625000000,177099.4218750000,164721.7500000000,165033.8281250000,45530.9609375000,169281.9531250000,,,
0.3439999996,2,156405.4531250000,156932.6093750000,181185.9531250000,177103.1406250000,164728.5000000000,165044.4687500000,45538.0664062500,169287.1562500000,,,
0.3479999995,2,156416.7968750000,156945.0000000000,181196.9531250000,177114.4062500000,164738.4531250000,165054.3125000000,45550.5937500000,169298.0312500000,,,
0.3519999995,2,156410.7031250000,156935.7031250000,181189.7031250000,177125.2500000000,164734.1718750000,165052.8906250000,45549.5195312500,169298.2656250000,,,
0.3559999994,2,156406.0937500000,156932.2968750000,181185.5781250000,177112.7812500000,164730.7031250000,165050.7187500000,45547.0273437500,169301.0000000000,,,
0.3599999994,2,156414.6250000000,156943.7968750000,181193.8125000000,177117.8125000000,164737.6718750000,165057.7968750000,45555.8242187500,169307.8125000000,,,
0.3639999994,2,156417.5156250000,156948.2187500000,181196.2812500000,177116.6718750000,164739.2656250000,165060.7031250000,45557.9179687500,169306.7656250000,,,
0.3679999996,2,156421.7343750000,156954.7968750000,181199.7343750000,177111.3281250000,164743.7343750000,165064.6093750000,45561.6171875000,169311.3593750000,,,
0.3719999995,2,156422.1406250000,156948.0312500000,181205.0000000000,177119.7187500000,164748.4843750000,165056.1718750000,45564.8085937500,169308.6406250000,,,
0.3759999995,2,156421.8906250000,156948.5156250000,181204.4062500000,177128.2500000000,164749.2656250000,165056.2968750000,45570.0937500000,169312.3437500000,,,
0.3799999994,2,156408.8906250000,156937.7656250000,181189.9531250000,177112.0781250000,164735.9687500000,165048.9843750000,45561.8593750000,169305.1406250000,,,
0.3839999994,3,156408.1562500000,156938.3281250000,181190.3593750000,177082.2500000000,164735.1562500000,165052.4687500000,45561.2421875000,169302.5000000000,,,
0.3879999993,3,156408.0312500000,156937.6562500000,181193.3281250000,177063.5781250000,164738.1562500000,165061.1875000000,45563.3085937500,169303.5000000000,,,
0.3919999993,3,156409.1718750000,156933.6562500000,181196.0625000000,177067.5625000000,164742.4531250000,165056.1875000000,45561.8593750000,169304.2500000000,,,
0.3959999993,3,156408.8593750000,156933.7343750000,181196.8125000000,177072.3281250000,164743.1250000000,165054.1562500000,45563.8710937500,169305.8593750000,,,
0.3999999992,3,156411.0312500000,156934.3750000000,181200.6250000000,177070.6718750000,164745.8906250000,165056.8281250000,45574.2773437500,169304.6250000000,,,
0.4039999992,3,156413.6562500000,156936.3593750000,181202.0937500000,177074.4687500000,164747.0156250000,165055.6562500000,45580.2851562500,169300.0625000000,,,
0.4079999994,3,156413.6093750000,156939.5312500000,181200.6562500000,177085.7187500000,164744.8750000000,165055.7656250000,45575.9687500000,169300.4062500000,,,
0.4119999993,3,156406.8437500000,156935.6718750000,181193.9531250000,177079.4062500000,164739.5312500000,165055.2812500000,45567.7343750000,169301.5625000000,,,
0.4159999993,3,156407.6250000000,156939.1093750000,181194.6718750000,177068.3593750000,164740.8906250000,165062.2031250000,45569.1562500000,169308.6406250000,,,
0.4199999992,3,156411.0000000000,156941.0312500000,181201.1875000000,177061.8437500000,164745.7500000000,165062.3125000000,45574.6523437500,169309.9687500000,,,
0.4239999992,3,156415.2343750000,156940.0156250000,181205.3437500000,177070.7187500000,164747.5781250000,165059.0312500000,45576.2890625000,169304.6718750000,,,
0.4279999994,3,156413.7343750000,156938.1562500000,181199.8750000000,177071.2812500000,164743.3125000000,165055.0937500000,45570.7382812500,169302.4843750000,,,
0.4319999993,3,156406.8906250000,156931.1875000000,181190.2187500000,177063.3906250000,164734.8593750000,165047.0781250000,45559.1250000000,169300.8125000000,,,
0.4359999993,3,156409.0156250000,156933.2031250000,181192.4375000000,177071.0468750000,164736.3593750000,165052.0625000000,45558.1054687500,169306.6406250000,,,
0.4399999992,3,156412.6875000000,156936.1562500000,181196.4375000000,177073.4062500000,164740.5781250000,165057.6093750000,45565.4531250000,169309.0000000000,,,
0.4439999992,3,156413.3906250000,156935.3750000000,181197.0781250000,177081.9843750000,164741.3593750000,165059.1093750000,45571.2460937500,169307.6875000000,,,
0.4479999992,3,156405.4843750000,156927.8593750000,181188.6875000000,177085.4375000000,164732.2656250000,165050.4531250000,45562.3671875000,169301.2656250000,,,
0.4519999993,3,156403.5781250000,156925.9062500000,181187.4531250000,177082.8906250000,164731.1406250000,165047.3906250000,45560.4375000000,169303.9218750000,,,
0.4559999993,3,156406.5156250000,156929.7656250000,181193.2968750000,177081.0781250000,164735.6093750000,165047.8281250000,45564.7812500000,169312.2656250000,,,
0.4599999993,3,156404.2968750000,156928.9062500000,181189.6875000000,177093.9218750000,164732.0468750000,165046.6406250000,45564.0312500000,169310.7968750000,,,
0.4639999992,3,156398.7656250000,156924.2968750000,181182.6562500000,177080.7500000000,164725.1562500000,165047.6562500000,45562.7695312500,169303.3125000000,,,
0.4679999992,3,156397.6406250000,156923.7031250000,181181.2656250000,177083.8593750000,164724.3437500000,165045.8125000000,45560.7578125000,169300.2500000000,,,
0.4719999994,3,156393.2656250000,156918.0000000000,181178.6093750000,177081.5781250000,164723.1406250000,165042.8593750000,45559.6875000000,169297.9375000000,,,
0.4759999993,3,156386.4843750000,156914.9687500000,181173.4062500000,177071.9531250000,164718.9531250000,165042.7500000000,45549.8437500000,169298.1406250000,,,
0.4799999993,3,156384.0468750000,156915.8281250000,181171.2500000000,177060.4531250000,164716.1718750000,165045.5468750000,45551.3164062500,169299.9062500000,,,
0.4839999992,3,156385.8750000000,156918.0468750000,181172.4843750000,177052.2968750000,164717.9375000000,165047.3437500000,45565.0781250000,169298.5156250000,,,
0.4879999992,3,156392.4375000000,156918.3750000000,181180.0312500000,177071.7968750000,164723.5468750000,165041.8125000000,45570.1484375000,169293.6250000000,,,
0.4919999992,3,156390.4531250000,156916.9218750000,181177.5000000000,177083.9687500000,164721.4218750000,165039.8906250000,45567.4101562500,169291.4843750000,,,
0.4959999993,3,156387.2343750000,156914.3750000000,181176.4375000000,177068.6875000000,164720.8906250000,165040.6093750000,45564.7812500000,169290.4375000000,,,
0.4999999993,3,156381.9218750000,156909.8906250000,181170.1250000000,177067.9843750000,164714.6875000000,165035.7343750000,45559.9023437500,169282.3906250000,,,
0.5039999993,3,156385.2187500000,156912.2812500000,181171.7968750000,177063.5781250000,164714.5781250000,165037.3906250000,45561.0546875000,169275.7343750000,,,
0.5079999992,3,156389.8593750000,156917.2187500000,181174.6406250000,177070.7968750000,164716.7656250000,165038.3281250000,45563.8984375000,169276.7343750000,,,
0.5119999992,4,156391.8281250000,156921.2187500000,181178.4375000000,177074.4687500000,164720.4843750000,165043.0468750000,45567.1718750000,169284.8593750000,,,
0.5159999991,4,156397.5937500000,156927.6718750000,181186.2968750000,177068.3906250000,164728.2656250000,165044.0625000000,45573.4726562500,169294.5312500000,,,
0.5199999991,4,156392.6875000000,156924.3750000000,181179.0312500000,177063.8750000000,164722.8750000000,165041.2031250000,45568.0820312500,169289.8125000000,,,
0.5239999990,4,156387.9843750000,156918.8437500000,181174.3593750000,177073.3750000000,164717.5625000000,165038.9218750000,45564.4335937500,169281.7656250000,,,
0.5279999990,4,156395.9218750000,156925.4531250000,181183.5468750000,177086.4062500000,164725.0937500000,165043.4843750000,45570.8164062500,169284.0000000000,,,
0.5319999990,4,156401.9375000000,156929.2812500000,181190.8281250000,177089.6093750000,164732.9843750000,165044.5312500000,45575.1093750000,169290.5468750000,,,
0.5359999991,4,156399.2812500000,156928.7812500000,181189.0312500000,177080.8125000000,164733.2031250000,165045.4843750000,45574.8398437500,169292.8281250000,,,
0.5399999991,4,156388.4687500000,156919.7656250000,181176.3750000000,177066.8281250000,164722.5312500000,165039.3750000000,45568.2695312500,169284.1250000000,,,
0.5439999991,4,156376.1093750000,156904.2812500000,181165.1718750000,177049.7968750000,164711.2812500000,165031.6562500000,45561.1601562500,169267.3125000000,,,
0.5479999990,4,156375.8437500000,156900.8750000000,181167.3437500000,177044.6718750000,164711.6093750000,165030.0625000000,45563.2539062500,169259.1093750000,,,
0.5519999990,4,156391.2343750000,156915.5312500000,181182.9218750000,177060.0468750000,164727.2500000000,165042.4375000000,45577.9257812500,169275.0156250000,,,
0.5559999992,4,156403.4687500000,156932.5781250000,181195.7968750000,177057.8125000000,164739.7968750000,165061.4687500000,45589.5937500000,169295.5625000000,,,
0.5599999991,4,156400.7812500000,156930.5000000000,181193.6562500000,177054.2031250000,164737.2187500000,165050.4218750000,45586.1328125000,169293.5468750000,,,
0.5639999991,4,156395.9843750000,156926.8906250000,181183.6718750000,177056.8281250000,164729.7187500000,165047.1875000000,45577.7382812500,169282.9531250000,,,
0.5679999990,4,156406.1250000000,156937.5000000000,181193.9531250000,177065.5625000000,164739.2812500000,165056.2968750000,45586.9921875000,169288.2968750000,,,
0.5719999990,4,156414.0000000000,156944.3906250000,181202.6406250000,177072.4687500000,164746.9531250000,165061.9843750000,45592.7304687500,169297.2500000000,,,
0.5759999990,4,156414.0312500000,156940.9218750000,181201.8281250000,177083.8906250000,164748.2968750000,165062.5468750000,45592.4375000000,169296.5781250000,,,
0.5799999991,4,156408.0312500000,156931.9062500000,181195.3125000000,177072.2968750000,164743.2343750000,165057.6093750000,45588.9218750000,169290.0000000000,,,
0.5839999991,4,156412.5781250000,156936.0468750000,181201.4218750000,177066.7968750000,164745.7031250000,165055.9218750000,45591.3359375000,169289.2812500000,,,
0.5879999991,4,156420.7656250000,156944.0312500000,181207.8593750000,177081.9062500000,164750.7968750000,165066.2812500000,45598.7382812500,169292.9843750000,,,
0.5919999990,4,156412.0468750000,156934.2187500000,181197.3593750000,177079.3281250000,164741.6562500000,165060.8593750000,45594.7695312500,169290.6250000000,,,
0.5959999990,4,156406.2500000000,156929.3125000000,181191.0781250000,177075.9843750000,164736.7968750000,165059.5468750000,45590.2656250000,169292.1562500000,,,
0.5999999992,4,156411.1093750000,156934.1093750000,181194.4531250000,177081.6093750000,164740.3125000000,165063.0312500000,45590.1562500000,169294.6718750000,,,
0.6039999991,4,156428.8906250000,156951.2187500000,181209.5000000000,177088.4218750000,164753.5312500000,165083.4218750000,45603.4335937500,169306.0781250000,,,
0.6079999991,4,156436.0468750000,156957.5000000000,181215.5312500000,177104.4375000000,164759.0625000000,165085.6406250000,45605.8476562500,169311.4687500000,,,
0.6119999990,4,156431.0312500000,156949.6406250000,181212.4531250000,177103.2343750000,164759.1718750000,165078.8906250000,45605.5781250000,169312.3281250000,,,
0.6159999990,4,156419.5781250000,156941.4375000000,181199.8437500000,177088.6093750000,164748.0937500000,165076.3593750000,45601.5546875000,169309.9375000000,,,
0.6199999989,4,156422.4843750000,156944.5937500000,181202.6875000000,177086.3906250000,164749.3750000000,165075.9531250000,45607.8593750000,169310.9218750000,,,
0.6239999991,4,156427.0937500000,156946.9062500000,181208.8281250000,177101.9062500000,164754.7968750000,165079.9062500000,45613.2773437500,169309.8281250000,,,
0.6279999991,4,156428.2812500000,156952.4531250000,181209.0781250000,177112.9375000000,164753.2031250000,165085.1406250000,45612.3125000000,169312.2968750000,,,
0.6319999991,4,156414.4843750000,156943.0156250000,181196.5781250000,177099.7968750000,164740.9843750000,165076.3593750000,45601.5273437500,169312.2656250000,,,
0.6359999990,4,156408.4062500000,156939.1875000000,181190.9218750000,177082.6875000000,164737.7812500000,165073.8437500000,45601.3945312500,169312.8281250000,,,
0.6399999990,5,156412.0156250000,156943.2812500000,181194.0781250000,177089.6562500000,164740.7031250000,165076.0625000000,45605.6875000000,169316.5312500000,,,
0.6439999989,5,156406.2812500000,156939.5000000000,181186.2500000000,177084.0468750000,164732.2812500000,165075.2968750000,45601.3398437500,169308.1875000000,,,
0.6479999989,5,156405.6093750000,156938.0625000000,181184.3906250000,177098.6406250000,164729.9843750000,165074.5156250000,45601.3671875000,169301.0000000000,,,
0.6519999988,5,156411.3281250000,156944.8906250000,181190.9218750000,177099.4687500000,164737.3281250000,165078.9843750000,45601.7421875000,169310.3593750000,,,
0.6559999988,5,156413.0468750000,156946.8281250000,181193.8437500000,177095.5625000000,164740.2812500000,165073.6562500000,45605.3632812500,169318.3593750000,,,
0.6599999988,5,156413.0156250000,156941.8125000000,181195.1875000000,177089.5781250000,164741.6250000000,165072.3125000000,45608.1289062500,169316.7187500000,,,
0.6639999989,5,156432.7031250000,156957.2656250000,181214.5937500000,177105.0468750000,164758.8906250000,165084.3750000000,45621.0546875000,169326.2187500000,,,
0.6679999989,5,156431.0312500000,156958.2187500000,181207.7656250000,177111.8906250000,164754.9218750000,165089.9375000000,45618.9375000000,169328.9218750000,,,
0.6719999989,5,156419.2968750000,156945.0312500000,181193.5937500000,177110.5468750000,164741.9687500000,165075.0468750000,45610.3789062500,169322.1093750000,,,
0.6759999988,5,156419.6718750000,156941.2812500000,181194.7187500000,177112.7031250000,164741.6718750000,165072.6093750000,45611.0507812500,169321.1718750000,,,
0.6799999988,5,156418.0312500000,156941.5156250000,181195.9375000000,177103.0937500000,164741.7031250000,165070.3750000000,45613.1445312500,169318.7812500000,,,
0.6839999990,5,156414.5156250000,156935.2343750000,181195.8750000000,177102.4218750000,164740.6250000000,165069.1406250000,45614.8593750000,169306.3906250000,,,
0.6879999989,5,156416.6875000000,156939.2031250000,181196.8437500000,177110.5468750000,164742.7187500000,165077.1718750000,45615.8242187500,169308.7343750000,,,
0.6919999989,5,156414.4843750000,156935.1093750000,181194.9375000000,177106.3437500000,164741.7343750000,165077.4062500000,45611.5078125000,169311.5937500000,,,
0.6959999988,5,156415.6093750000,156934.9687500000,181197.7500000000,177105.3437500000,164743.3906250000,165072.6562500000,45611.9648437500,169316.3750000000,,,
0.6999999988,5,156415.3125000000,156936.1562500000,181198.8281250000,177100.7812500000,164743.1250000000,165075.9843750000,45609.9257812500,169319.3750000000,,,
0.7039999987,5,156415.4843750000,156936.7187500000,181197.5156250000,177100.4062500000,164741.2812500000,165070.2968750000,45606.8398437500,169313.0156250000,,,
0.7079999989,5,156417.2812500000,156936.8281250000,181199.7968750000,177106.1718750000,164744.4062500000,165072.5468750000,45610.6757812500,169311.8593750000,,,
0.7119999989,5,156415.5312500000,156934.0625000000,181202.5781250000,177109.2656250000,164748.1406250000,165078.0312500000,45619.0976562500,169315.7812500000,,,
0.7159999989,5,156402.8281250000,156923.3593750000,181191.0468750000,177091.6093750000,164738.1093750000,165073.5156250000,45613.6250000000,169314.3125000000,,,
0.7199999988,5,156399.5468750000,156921.6718750000,181183.6406250000,177088.8750000000,164731.0781250000,165072.6875000000,45611.0507812500,169309.3906250000,,,
0.7239999988,5,156400.0000000000,156921.5625000000,181182.7343750000,177092.5468750000,164728.4531250000,165069.0625000000,45613.6523437500,169301.0781250000,,,
0.7279999990,5,156405.7968750000,156926.5468750000,181186.7812500000,177083.8281250000,164733.0156250000,165070.6562500000,45621.1093750000,169302.7968750000,,,
0.7319999989,5,156405.5625000000,156927.8125000000,181183.7343750000,177080.7031250000,164732.3906250000,165073.2812500000,45617.4335937500,169308.0000000000,,,
0.7359999989,5,156401.9375000000,156925.9062500000,181178.3125000000,177085.9531250000,164727.6406250000,165069.5468750000,45608.5820312500,169311.1093750000,,,
0.7399999988,5,156405.9531250000,156927.0781250000,181185.4218750000,177092.9843750000,164732.3906250000,165071.3125000000,45612.8750000000,169313.9062500000,,,
0.7439999988,5,156405.0937500000,156926.6093750000,181185.4687500000,177088.6875000000,164730.7812500000,165072.2343750000,45613.3320312500,169308.7031250000,,,
0.7479999987,5,156402.8750000000,156924.4062500000,181183.8593750000,177091.8750000000,164730.1093750000,165068.5000000000,45613.8125000000,169303.5000000000,,,
0.7519999989,5,156403.6718750000,156926.7343750000,181182.9531250000,177101.5625000000,164730.7343750000,165073.2500000000,45614.6992187500,169306.9062500000,,,
0.7559999989,5,156399.1718750000,156919.3906250000,181179.4375000000,177100.0312500000,164726.9218750000,165060.3437500000,45611.1328125000,169302.2031250000,,,
0.7599999988,5,156390.1875000000,156908.4687500000,181167.9843750000,177103.0468750000,164715.7656250000,165052.6250000000,45602.8710937500,169289.8437500000,,,
0.7639999988,5,156390.8906250000,156908.6562500000,181167.9218750000,177107.5781250000,164715.5000000000,165054.2031250000,45606.4375000000,169283.1093750000,,,
0.7679999988,6,156400.7343750000,156918.2031250000,181178.5000000000,177111.1406250000,164724.9375000000,165060.9062500000,45616.4414062500,169288.4531250000,,,
0.7719999987,6,156400.0625000000,156921.7968750000,181177.9843750000,177100.4687500000,164726.5781250000,165068.0000000000,45613.1445312500,169298.1875000000,,,
0.7759999987,6,156394.3437500000,156913.7031250000,181174.6875000000,177095.5312500000,164725.0781250000,165059.8906250000,45610.9453125000,169297.1093750000,,,
0.7799999986,6,156392.5156250000,156907.8593750000,181174.9062500000,177095.1562500000,164724.2968750000,165055.4218750000,45610.0859375000,169293.5000000000,,,
0.7839999986,6,156398.6562500000,156914.6718750000,181181.8750000000,177078.0468750000,164729.6406250000,165060.4375000000,45616.4140625000,169295.1875000000,,,
0.7879999985,6,156396.2968750000,156915.5312500000,181175.5468750000,177083.4375000000,164723.0156250000,165067.3281250000,45611.6132812500,169295.5000000000,,,
0.7919999987,6,156383.5625000000,156901.7656250000,181161.8437500000,177082.6250000000,164710.9687500000,165056.0781250000,45597.0507812500,169288.1562500000,,,
0.7959999987,6,156388.7343750000,156910.8125000000,181167.7968750000,177086.9218750000,164717.8906250000,165064.0312500000,45600.3203125000,169298.3281250000,,,
0.7999999986,6,156393.8125000000,156915.8437500000,181170.7968750000,177098.4531250000,164722.3125000000,165069.8125000000,45611.7226562500,169300.2187500000,,,
0.8039999986,6,156389.2031250000,156910.1093750000,181163.7187500000,177100.4062500000,164714.9843750000,165064.0781250000,45611.2382812500,169287.1093750000,,,
0.8079999986,6,156385.5468750000,156908.2500000000,181161.0312500000,177093.4062500000,164710.7500000000,165061.9531250000,45606.7578125000,169283.4375000000,,,
0.8119999988,6,156384.3750000000,156910.5625000000,181158.5468750000,177094.4843750000,164710.8593750000,165062.5156250000,45605.8476562500,169288.7187500000,,,
0.8159999987,6,156380.8750000000,156907.2656250000,181157.2500000000,177099.1718750000,164709.7343750000,165054.4687500000,45601.1523437500,169290.4375000000,,,
0.8199999987,6,156374.1718750000,156899.0000000000,181153.5468750000,177099.4218750000,164704.9843750000,165046.9062500000,45594.3671875000,169280.9687500000,,,
0.8239999986,6,156377.0781250000,156903.9843750000,181158.7031250000,177091.1562500000,164708.3437500000,165056.1406250000,45598.6054687500,169277.0468750000,,,
0.8279999986,6,156377.4218750000,156905.5781250000,181159.3437500000,177087.2656250000,164708.0468750000,165054.7500000000,45596.7265625000,169275.0937500000,,,
0.8319999985,6,156378.0625000000,156906.1875000000,181159.5937500000,177090.4375000000,164709.0312500000,165051.9843750000,45598.0976562500,169279.8125000000,,,
0.8359999987,6,156378.4687500000,156908.0156250000,181162.4062500000,177092.2812500000,164712.6562500000,165060.2968750000,45603.0312500000,169286.6562500000,,,
0.8399999987,6,156382.3593750000,156910.4843750000,181167.3593750000,177098.2968750000,164716.6562500000,165064.0468750000,45603.1367187500,169289.4218750000,,,
0.8439999986,6,156377.4687500000,156902.4375000000,181157.4218750000,177099.9843750000,164706.1406250000,165051.9218750000,45596.2734375000,169277.4062500000,,,
0.8479999986,6,156382.8125000000,156905.2812500000,181160.4687500000,177099.3437500000,164707.3125000000,165056.0625000000,45600.7226562500,169279.7343750000,,,
0.8519999986,6,156380.1250000000,156903.1093750000,181155.9062500000,177097.6562500000,164703.4218750000,165056.0781250000,45595.9218750000,169284.3125000000,,,
0.8559999987,6,156376.3750000000,156896.7500000000,181152.3437500000,177084.8281250000,164701.4375000000,165053.2343750000,45593.2695312500,169285.0781250000,,,
0.8599999987,6,156394.2968750000,156914.1250000000,181169.0625000000,177095.0468750000,164718.9531250000,165066.5937500000,45609.0390625000,169296.6875000000,,,
0.8639999987,6,156401.2187500000,156919.0937500000,181178.5156250000,177098.2968750000,164726.8906250000,165069.6250000000,45619.8476562500,169297.3281250000,,,
0.8679999986,6,156403.3281250000,156922.2031250000,181180.4062500000,177092.8437500000,164728.6718750000,165075.2031250000,45623.8710937500,169299.2812500000,,,
0.8719999986,6,156410.2812500000,156926.7031250000,181186.4375000000,177103.6875000000,164736.8437500000,165082.0156250000,45630.8203125000,169307.3125000000,,,
0.8759999985,6,156402.5468750000,156918.3906250000,181179.0625000000,177107.2500000000,164730.1406250000,165079.7343750000,45626.8750000000,169305.9062500000,,,
0.8799999987,6,156392.5000000000,156908.5000000000,181170.3437500000,177098.0312500000,164720.5937500000,165065.4687500000,45618.9921875000,169294.2656250000,,,
0.8839999987,6,156396.5937500000,156911.4531250000,181174.9843750000,177099.7656250000,164725.0468750000,165065.0937500000,45622.8007812500,169290.1718750000,33029,0.8867198478,0.0000000000
0.8879999986,6,156402.0156250000,156917.1406250000,181180.6406250000,177101.6406250000,164733.4687500000,165068.9375000000,45628.9687500000,169293.3281250000,,,
0.8919999986,6,156406.9531250000,156920.9375000000,181186.0625000000,177096.4375000000,164739.2656250000,165073.2031250000,45633.3945312500,169302.2656250000,,,
0.8959999986,7,156407.4375000000,156921.3437500000,181186.8125000000,177095.2656250000,164740.3281250000,165071.7968750000,45634.6796875000,169308.5937500000,,,
0.8999999985,7,156409.2812500000,156924.0000000000,181190.8125000000,177086.8593750000,164743.9218750000,165075.6718750000,45638.1679687500,169309.0781250000,,,
0.9039999985,7,156421.1093750000,156934.6250000000,181204.1875000000,177093.4375000000,164755.4843750000,165085.7187500000,45649.4062500000,169312.1406250000,,,
0.9079999984,7,156429.1875000000,156939.3906250000,181212.5000000000,177103.1718750000,164763.1562500000,165088.0000000000,45657.4804687500,169314.4687500000,,,
0.9119999984,7,156429.0312500000,156935.6406250000,181213.8750000000,177106.8437500000,164764.3125000000,165085.7812500000,45659.0898437500,169316.6406250000,,,
0.9159999983,7,156428.1718750000,156938.9218750000,181211.1406250000,177109.6718750000,164762.0937500000,165089.5000000000,45659.3828125000,169324.6875000000,,,
0.9199999985,7,156426.6718750000,156940.1250000000,181207.5781250000,177100.0625000000,164758.7656250000,165087.7656250000,45658.1250000000,169323.9375000000,,,
0.9239999985,7,156428.4062500000,156941.7812500000,181206.2500000000,177106.2812500000,164758.4375000000,165086.2343750000,45656.9179687500,169318.3906250000,,,
0.9279999984,7,156433.7187500000,156947.5000000000,181210.9843750000,177114.1250000000,164761.6093750000,165086.3906250000,45653.3750000000,169319.5625000000,,,
0.9319999984,7,156432.6718750000,156945.9687500000,181209.9531250000,177111.7343750000,164759.8125000000,165083.9218750000,45652.7578125000,169323.9687500000,,,
0.9359999984,7,156425.7343750000,156941.5468750000,181201.5156250000,177099.4687500000,164750.9375000000,165082.3906250000,45654.3164062500,169323.6406250000,,,
0.9399999985,7,156421.6250000000,156941.4375000000,181195.3906250000,177098.9062500000,164745.5625000000,165083.3906250000,45650.1054687500,169320.6093750000,,,
0.9439999985,7,156421.8437500000,156940.2812500000,181195.6562500000,177107.8750000000,164746.0781250000,165084.5937500000,45648.6015625000,169318.2187500000,,,
0.9479999985,7,156418.0781250000,156937.8437500000,181192.3906250000,177099.5312500000,164742.4062500000,165086.6562500000,45646.1328125000,169314.8750000000,,,
0.9519999984,7,156419.5781250000,156940.3437500000,181191.5312500000,177102.9531250000,164742.0781250000,165089.9375000000,45647.7421875000,169320.6093750000,,,
0.9559999984,7,156419.1875000000,156939.6718750000,181189.6875000000,177108.1562500000,164741.9687500000,165088.8593750000,45645.1679687500,169323.8281250000,,,
0.9599999983,7,156419.5000000000,156939.0000000000,181191.7812500000,177103.1406250000,164744.7656250000,165087.5468750000,45647.7421875000,169323.8281250000,,,
0.9639999985,7,156416.6093750000,156938.8906250000,181192.4375000000,177089.8906250000,164743.4531250000,165088.3593750000,45651.6875000000,169319.3281250000,,,
0.9679999985,7,156414.7812500000,156939.7968750000,181190.5625000000,177086.8906250000,164738.9375000000,165088.4062500000,45651.5507812500,169315.6250000000,,,
0.9719999984,7,156403.7656250000,156926.6250000000,181179.3750000000,177086.9218750000,164727.2968750000,165076.9531250000,45641.8984375000,169306.3750000000,,,
0.9759999984,7,156404.3281250000,156925.0468750000,181181.5468750000,177089.0625000000,164730.1406250000,165077.0937500000,45644.0703125000,169305.7812500000,,,
0.9799999984,7,156409.3593750000,156931.4062500000,181185.7343750000,177093.2031250000,164732.9531250000,165084.8437500000,45646.6445312500,169309.9375000000,,,
0.9839999985,7,156409.9843750000,156930.1718750000,181186.4062500000,177095.8593750000,164731.6718750000,165086.3125000000,45645.9179687500,169305.2343750000,,,
0.9879999985,7,156409.7187500000,156931.4062500000,181188.2812500000,177094.9687500000,164732.3437500000,165090.3906250000,45646.8320312500,169301.8281250000,,,
0.9919999985,7,156402.6875000000,156928.0312500000,181182.0937500000,177087.1875000000,164727.2187500000,165091.0000000000,45641.6835937500,169301.1875000000,,,
0.9959999984,7,156407.2500000000,156931.8593750000,181190.3593750000,177096.5156250000,164735.9062500000,165098.8437500000,45648.4414062500,169310.4218750000,,,
0.9999999984,7,156405.8593750000,156928.2343750000,181188.5000000000,177109.7187500000,164733.8437500000,165098.8593750000,45650.1835937500,169310.2812500000,,,
1.0039999983,7,156408.8281250000,156930.4375000000,181188.1718750000,177104.6250000000,164733.1406250000,165101.7031250000,45651.1484375000,169306.0156250000,,,
1.0079999985,7,156416.7343750000,156939.9531250000,181194.9062500000,177101.3750000000,164740.1406250000,165110.9843750000,45655.8164062500,169311.4062500000,,,
1.0119999985,7,156418.7812500000,156945.4062500000,181197.7031250000,177098.2968750000,164743.5468750000,165117.1562500000,45661.2890625000,169320.1250000000,,,
1.0159999984,7,156411.4531250000,156938.8906250000,181184.2031250000,177108.7812500000,164733.8437500000,165110.3750000000,45654.8242187500,169318.5937500000,,,
1.0199999984,7,156415.0312500000,156937.5781250000,181189.9531250000,177117.9218750000,164737.2031250000,165102.2187500000,45656.1640625000,169315.7812500000,,,
1.0239999983,8,156421.3750000000,156944.5156250000,181195.5625000000,177115.7500000000,164740.9843750000,165102.0000000000,45658.6328125000,169313.6093750000,,,
1.0279999983,8,156430.4687500000,156960.7968750000,181201.1562500000,177111.2812500000,164744.4687500000,165108.3125000000,45659.1445312500,169323.6093750000,,,
1.0319999983,8,156427.7656250000,156957.5000000000,181197.1406250000,177118.6562500000,164740.4375000000,165105.2968750000,45651.4726562500,169326.0781250000,,,
1.0359999982,8,156431.8125000000,156961.7968750000,181201.1562500000,177120.9531250000,164744.4375000000,165109.5156250000,45651.5507812500,169334.1562500000,,,
1.0399999982,8,156431.8437500000,156955.2812500000,181201.9375000000,177120.7187500000,164745.1562500000,165105.4843750000,45650.7734375000,169330.8593750000,,,
1.0439999981,8,156437.6562500000,156957.8281250000,181207.2500000000,177129.0000000000,164749.2343750000,165108.8437500000,45655.6562500000,169328.8437500000,,,
1.0479999983,8,156451.1562500000,156973.7500000000,181218.9687500000,177138.6093750000,164758.9531250000,165124.1250000000,45663.0039062500,169342.1250000000,,,
1.0519999983,8,156455.8281250000,156975.3593750000,181226.5156250000,177133.5625000000,164767.2968750000,165130.5468750000,45671.2656250000,169348.7656250000,,,
1.0559999982,8,156445.9843750000,156962.4843750000,181217.8750000000,177128.2500000000,164759.4843750000,165121.6093750000,45663.4062500000,169342.7343750000,,,
1.0599999982,8,156441.6093750000,156958.0937500000,181210.9843750000,177130.2187500000,164754.1718750000,165118.7187500000,45658.9296875000,169337.9062500000,,,
1.0639999982,8,156446.6562500000,156963.4531250000,181216.9375000000,177137.4843750000,164759.8593750000,165122.5156250000,45667.7812500000,169337.3437500000,,,
1.0679999983,8,156445.9218750000,156961.6562500000,181218.0625000000,177119.5937500000,164760.9375000000,165118.4687500000,45671.7226562500,169335.4375000000,,,
1.0719999983,8,156444.2031250000,156957.2031250000,181212.6093750000,177118.3750000000,164758.5781250000,165110.1875000000,45667.3789062500,169334.0781250000,,,
1.0759999983,8,156458.7187500000,156972.6875000000,181222.6406250000,177136.4375000000,164769.7031250000,165116.8906250000,45677.9726562500,169351.4531250000,,,
1.0799999982,8,156456.1093750000,156971.2812500000,181219.6093750000,177129.5156250000,164766.0781250000,165117.1093750000,45673.5468750000,169353.6562500000,,,
1.0839999982,8,156450.0625000000,156967.1250000000,181212.1250000000,177116.3750000000,164758.3125000000,165119.8125000000,45666.8671875000,169347.0312500000,,,
1.0879999981,8,156444.7187500000,156959.2187500000,181206.5312500000,177111.7343750000,164753.3750000000,165118.4531250000,45663.5703125000,169337.7500000000,,,
1.0919999983,8,156440.4531250000,156955.0000000000,181200.7031250000,177117.4375000000,164747.7187500000,165114.3437500000,45657.7734375000,169335.1250000000,,,
1.0959999983,8,156434.9062500000,156951.4062500000,181196.9531250000,177116.2343750000,164743.6562500000,165112.7656250000,45654.3945312500,169335.8125000000,,,
1.0999999982,8,156437.7968750000,156954.4218750000,181201.8125000000,177119.7500000000,164747.9218750000,165115.8437500000,45659.8945312500,169337.7968750000,,,
1.1039999982,8,156444.4531250000,156960.8281250000,181210.0937500000,177122.7031250000,164754.3437500000,165122.1718750000,45668.5039062500,169337.4843750000,,,
1.1079999981,8,156448.1718750000,156970.1562500000,181211.9687500000,177124.5312500000,164757.3437500000,165132.0468750000,45670.9179687500,169341.0781250000,,,
1.1119999983,8,156427.6250000000,156944.9218750000,181191.7812500000,177113.9531250000,164739.6718750000,165109.8125000000,45651.5781250000,169324.3125000000,,,
1.1159999983,8,156412.6718750000,156927.0000000000,181177.2343750000,177110.8437500000,164725.7187500000,165091.8125000000,45636.6132812500,169312.2656250000,,,
1.1199999982,8,156419.7656250000,156935.4843750000,181184.8750000000,177125.7031250000,164732.6562500000,165095.5625000000,45641.2539062500,169317.4375000000,,,
1.1239999982,8,156432.5937500000,156955.5781250000,181195.9843750000,177129.5625000000,164745.0625000000,165110.7500000000,45653.5117187500,169328.3593750000,,,
1.1279999982,8,156436.7187500000,156955.3593750000,181203.6562500000,177118.5156250000,164751.8750000000,165107.2656250000,45659.8125000000,169328.0625000000,,,
1.1319999981,8,156439.1406250000,156949.1093750000,181211.2500000000,177120.4687500000,164758.6250000000,165103.0156250000,45667.0546875000,169328.1250000000,,,
1.1359999983,8,156446.8125000000,156956.3281250000,181220.2812500000,177136.0000000000,164766.4375000000,165108.1250000000,45675.0468750000,169338.6406250000,,,
1.1399999983,8,156456.6875000000,156968.6093750000,181226.7968750000,177147.8125000000,164774.0000000000,165117.2656250000,45683.8984375000,169350.1093750000,,,
1.1439999982,8,156456.0937500000,156968.5781250000,181224.0156250000,177134.8437500000,164772.0312500000,165116.2187500000,45685.8320312500,169349.5781250000,,,
1.1479999982,8,156451.8750000000,156964.4687500000,181219.9062500000,177116.8281250000,164767.5000000000,165113.4531250000,45684.8906250000,169345.4687500000,,,
1.1519999981,9,156445.7968750000,156956.7031250000,181214.7343750000,177113.3593750000,164764.1562500000,165108.9843750000,45683.0156250000,169339.1718750000,,,
1.1559999981,9,156443.8125000000,156954.5312500000,181213.5781250000,177122.8906250000,164763.8593750000,165108.8906250000,45683.0937500000,169341.0468750000,,,
1.1599999981,9,156445.9843750000,156960.4062500000,181214.8437500000,177117.9218750000,164765.2500000000,165110.9843750000,45688.1914062500,169344.8281250000,,,
1.1639999980,9,156450.2187500000,156962.7812500000,181222.9687500000,177120.7500000000,164770.7500000000,165113.0781250000,45697.4179687500,169339.2031250000,,,
1.1679999980,9,156448.1562500000,156957.4687500000,181220.6875000000,177119.0000000000,164767.1875000000,165111.7343750000,45695.7539062500,169329.4687500000,,,
1.1719999979,9,156443.4062500000,156956.0312500000,181210.8125000000,177114.1718750000,164758.9218750000,165114.5000000000,45687.4140625000,169330.5312500000,,,
1.1759999981,9,156442.6250000000,156956.8125000000,181210.2812500000,177121.2031250000,164758.3125000000,165118.3906250000,45686.8242187500,169334.3750000000,,,
1.1799999981,9,156450.8281250000,156963.9062500000,181222.7031250000,177131.9218750000,164767.6875000000,165122.7031250000,45694.2812500000,169336.7031250000,,,
1.1839999980,9,156466.1250000000,156981.9062500000,181241.2343750000,177120.7968750000,164782.9531250000,165137.3750000000,45709.5937500000,169345.6093750000,,,
1.1879999980,9,156461.3437500000,156986.9062500000,181231.1406250000,177106.7187500000,164776.0625000000,165142.7187500000,45707.7734375000,169348.1250000000,,,
1.1919999979,9,156440.7500000000,156960.0781250000,181213.1250000000,177110.7656250000,164761.7187500000,165125.9843750000,45697.3632812500,169332.2500000000,,,
1.1959999981,9,156431.0937500000,156944.6250000000,181203.1718750000,177112.9843750000,164752.6406250000,165114.0781250000,45690.0976562500,169321.1250000000,,,
1.1999999981,9,156434.3906250000,156949.5937500000,181205.6718750000,177109.7187500000,164755.1093750000,165122.9218750000,45697.9531250000,169322.2968750000,,,
1.2039999980,9,156436.2343750000,156953.8750000000,181209.1562500000,177106.6093750000,164757.6406250000,165126.6250000000,45703.6132812500,169321.2031250000,,,
1.2079999980,9,156436.8125000000,156956.2968750000,181208.9062500000,177110.6093750000,164758.0156250000,165130.9687500000,45707.9609375000,169320.5625000000,,,
1.2119999980,9,156438.4375000000,156962.9218750000,181211.5468750000,177102.3437500000,164762.8125000000,165141.1093750000,45718.6601562500,169330.0000000000,,,
1.2159999979,9,156444.3750000000,156972.1718750000,181217.8437500000,177098.4843750000,164770.4843750000,165150.1562500000,45724.4023437500,169343.5468750000,,,
1.2199999981,9,156432.9218750000,156956.1562500000,181205.1875000000,177115.6250000000,164763.0468750000,165143.9843750000,45720.6210937500,169334.7968750000,,,
1.2239999981,9,156434.7187500000,156957.4218750000,181206.5312500000,177111.8593750000,164766.0781250000,165147.5468750000,45727.9960937500,169331.2656250000,,,
1.2279999980,9,156444.3125000000,156962.8906250000,181218.9218750000,177126.9375000000,164775.2500000000,165151.8437500000,45740.4960937500,169332.2812500000,,,
1.2319999980,9,156448.7968750000,156965.3593750000,181227.5781250000,177117.4375000000,164783.8906250000,165158.7343750000,45752.0273437500,169337.2343750000,,,
1.2359999979,9,156458.9531250000,156974.9062500000,181243.2968750000,177110.3437500000,164798.7500000000,165171.4531250000,45768.4960937500,169356.2500000000,,,
1.2399999981,9,156452.3906250000,156972.7968750000,181232.5625000000,177113.3125000000,164790.0625000000,165174.1875000000,45765.3593750000,169360.0156250000,,,
1.2439999981,9,156454.6718750000,156978.0000000000,181231.4687500000,177124.0625000000,164788.5312500000,165183.4062500000,45769.0351562500,169360.5468750000,,,
1.2479999980,9,156467.4062500000,156988.7968750000,181248.0000000000,177117.1250000000,164802.6093750000,165196.8437500000,45786.2812500000,169367.5781250000,,,
1.2519999980,9,156471.3593750000,156991.8281250000,181251.9843750000,177115.7812500000,164808.8593750000,165204.4062500000,45794.6210937500,169374.2031250000,,,
1.2559999980,9,156468.7187500000,156989.8750000000,181250.2968750000,177119.8281250000,164809.8593750000,165208.1406250000,45800.0390625000,169379.2187500000,,,
1.2599999979,9,156462.5468750000,156982.9531250000,181244.9062500000,177110.1406250000,164806.1875000000,165202.7968750000,45800.0390625000,169375.3750000000,,,
1.2639999981,9,156473.5781250000,156995.0312500000,181253.0312500000,177118.2968750000,164813.3437500000,165208.2968750000,45812.6171875000,169379.1406250000,,,
1.2679999981,9,156464.8281250000,156981.8281250000,181247.5937500000,177117.3593750000,164806.0468750000,165197.0625000000,45809.9375000000,169364.4687500000,,,
1.2719999980,9,156462.8281250000,156984.4531250000,181242.6875000000,177123.0781250000,164800.8437500000,165200.1406250000,45804.0351562500,169365.8593750000,,,
1.2759999980,9,156473.3125000000,156996.4687500000,181256.4375000000,177134.0000000000,164812.2500000000,165207.9531250000,45814.3085937500,169378.7031250000,,,
1.2799999979,10,156478.7031250000,157009.7812500000,181261.8906250000,177127.7656250000,164818.9218750000,165218.8750000000,45820.9335937500,169388.2812500000,,,
1.2839999979,10,156478.7812500000,157006.3750000000,181266.5000000000,177122.3593750000,164822.2187500000,165218.2187500000,45827.1562500000,169384.1562500000,,,
1.2879999978,10,156456.9687500000,156975.7656250000,181245.5468750000,177110.5000000000,164803.0156250000,165195.2031250000,45811.0351562500,169354.2656250000,,,
1.2919999978,10,156451.6093750000,156975.4687500000,181235.4375000000,177104.8906250000,164795.1562500000,165199.3906250000,45802.5625000000,169354.7031250000,,,
1.2959999978,10,156440.7500000000,156967.6406250000,181218.5625000000,177105.2343750000,164783.2968750000,165196.8125000000,45792.3945312500,169353.7343750000,,,
1.2999999977,10,156445.4375000000,156979.3906250000,181223.5781250000,177105.2187500000,164789.2343750000,165208.3750000000,45799.3945312500,169363.5468750000,,,
1.3039999979,10,156463.0625000000,156995.0468750000,181242.8125000000,177121.9218750000,164805.6250000000,165221.8125000000,45813.6132812500,169373.9531250000,,,
1.3079999979,10,156442.2187500000,156965.2500000000,181223.1562500000,177105.3125000000,164784.7187500000,165195.8750000000,45790.1171875000,169348.2968750000,,,
1.3119999978,10,156429.7031250000,156957.7187500000,181208.0000000000,177091.6875000000,164770.2187500000,165185.5000000000,45772.1718750000,169341.0468750000,,,
1.3159999978,10,156435.1406250000,156965.1250000000,181215.4531250000,177100.6875000000,164775.7343750000,165186.3593750000,45773.7539062500,169352.2031250000,,,
1.3199999977,10,156443.2343750000,156971.9531250000,181223.3906250000,177101.7187500000,164782.8437500000,165189.9843750000,45775.8984375000,169359.8750000000,,,
1.3239999979,10,156448.6875000000,156973.0312500000,181231.5781250000,177094.3281250000,164788.7968750000,165186.3593750000,45779.2539062500,169356.9531250000,,,
1.3279999979,10,156445.6562500000,156973.4375000000,181221.5468750000,177100.0156250000,164780.5625000000,165182.7656250000,45772.7890625000,169355.6406250000,,,
1.3319999978,10,156453.3281250000,156986.0468750000,181224.0468750000,177102.0156250000,164783.4843750000,165186.7656250000,45772.9492187500,169369.0000000000,,,
1.3359999978,10,156435.4843750000,156959.8281250000,181208.2968750000,177092.8750000000,164767.9375000000,165164.3593750000,45756.7226562500,169354.0625000000,,,
1.3399999978,10,156432.2500000000,156952.5625000000,181208.0781250000,177090.5156250000,164765.4375000000,165158.3281250000,45754.5507812500,169346.6562500000,,,
1.3439999977,10,156443.1562500000,156968.1562500000,181219.2187500000,177090.3750000000,164774.7812500000,165168.4218750000,45763.8828125000,169353.2812500000,,,
1.3479999979,10,156454.0468750000,156984.7812500000,181231.9531250000,177096.1406250000,164784.9375000000,165180.0781250000,45771.2578125000,169363.1562500000,,,
1.3519999979,10,156459.2343750000,156979.6250000000,181249.3125000000,177100.8437500000,164797.1406250000,165172.5937500000,45780.9140625000,169364.7812500000,,,
1.3559999978,10,156429.5937500000,156952.8906250000,181203.7968750000,177116.7968750000,164760.4218750000,165152.7500000000,45748.5937500000,169346.4062500000,,,
1.3599999978,10,156438.9531250000,156968.1562500000,181209.2031250000,177114.2031250000,164764.6093750000,165163.2968750000,45753.6914062500,169356.2812500000,,,
1.3639999977,10,156447.6875000000,156971.2656250000,181226.5625000000,177099.9218750000,164775.5781250000,165162.0000000000,45763.5625000000,169355.3437500000,,,
1.3679999979,10,156433.7500000000,156959.9687500000,181207.5468750000,177100.4375000000,164760.7500000000,165157.2812500000,45751.0351562500,169342.8125000000,,,
1.3719999979,10,156429.8906250000,156951.7343750000,181205.8750000000,177114.0156250000,164757.6562500000,165144.7343750000,45746.8242187500,169334.3437500000,,,
1.3759999978,10,156436.1406250000,156957.2812500000,181216.6093750000,177109.2968750000,164768.3906250000,165150.6562500000,45757.1796875000,169342.6562500000,,,
1.3799999978,10,156438.6562500000,156964.7500000000,181211.7343750000,177090.9687500000,164765.3906250000,165155.9218750000,45752.6171875000,169347.6250000000,,,
1.3839999977,10,156426.9687500000,156953.2343750000,181199.0625000000,177085.2812500000,164752.0781250000,165146.0781250000,45741.5937500000,169333.0312500000,,,
1.3879999977,10,156421.6562500000,156939.3906250000,181201.1093750000,177094.1562500000,164750.9062500000,165137.8906250000,45743.9804687500,169318.3906250000,,,
1.3919999979,10,156415.5156250000,156936.0937500000,181189.7031250000,177109.4531250000,164740.3906250000,165132.2656250000,45729.7656250000,169315.0781250000,,,
1.3959999979,10,156427.2031250000,156947.0468750000,181205.2187500000,177100.3593750000,164753.9531250000,165139.8281250000,45737.6796875000,169327.8281250000,,,
1.3999999978,10,156441.6875000000,156966.6250000000,181219.4218750000,177095.7968750000,164765.7031250000,165149.4843750000,45744.1953125000,169343.2812500000,,,
1.4039999978,10,156457.5312500000,156982.9531250000,181229.1562500000,177109.0156250000,164774.1093750000,165158.9687500000,45748.7812500000,169353.3125000000,,,
1.4079999977,11,156441.9843750000,156966.2656250000,181210.5156250000,177109.8750000000,164758.8437500000,165150.9218750000,45739.6640625000,169342.0156250000,,,
1.4119999977,11,156408.3125000000,156924.8593750000,181177.3750000000,177106.0781250000,164729.1718750000,165119.3593750000,45711.3671875000,169313.4687500000,,,
1.4159999976,11,156415.5625000000,156929.9218750000,181186.4062500000,177098.0781250000,164736.6406250000,165117.7812500000,45717.8281250000,169318.9218750000,,,
1.4199999976,11,156423.1718750000,156938.3281250000,181194.4062500000,177097.8906250000,164743.5312500000,165121.3906250000,45726.1445312500,169324.5000000000,,,
1.4239999976,11,156442.4375000000,156960.7187500000,181214.9687500000,177112.8906250000,164760.2343750000,165135.8593750000,45740.2539062500,169337.7031250000,,,
1.4279999975,11,156447.9062500000,156970.8125000000,181220.0156250000,177111.1406250000,164764.8750000000,165144.1406250000,45745.9921875000,169347.8906250000,,,
1.4319999977,11,156428.8906250000,156948.3593750000,181200.5156250000,177096.2500000000,164748.7031250000,165127.5156250000,45733.9218750000,169334.7968750000,,,
1.4359999977,11,156426.5312500000,156948.4687500000,181196.6250000000,177091.0000000000,164745.9375000000,165125.0937500000,45728.6640625000,169336.1406250000,,,
1.4399999976,11,156416.4218750000,156936.3125000000,181185.0625000000,177088.9843750000,164734.6250000000,165113.3437500000,45716.8632812500,169326.7187500000,,,
1.4439999976,11,156413.9531250000,156933.4687500000,181184.3906250000,177085.2343750000,164732.4218750000,165106.6250000000,45716.3828125000,169317.2031250000,,,
1.4479999975,11,156419.2031250000,156942.2656250000,181188.9062500000,177094.8593750000,164735.5312500000,165108.6562500000,45722.0937500000,169316.6875000000,,,
1.4519999977,11,156421.6250000000,156941.8906250000,181192.0937500000,177098.2187500000,164738.1562500000,165108.0625000000,45727.3515625000,169318.2812500000,,,
1.4559999977,11,156412.6718750000,156933.8437500000,181181.1718750000,177107.0156250000,164728.8281250000,165100.9843750000,45716.0859375000,169317.7343750000,,,
1.4599999976,11,156415.4843750000,156936.1718750000,181183.9375000000,177115.2187500000,164732.5312500000,165104.6093750000,45719.0351562500,169320.4218750000,,,
1.4639999976,11,156415.5312500000,156938.1875000000,181183.0000000000,177112.5937500000,164730.8906250000,165105.7656250000,45717.5351562500,169317.0937500000,,,
1.4679999975,11,156422.0468750000,156947.8437500000,181190.7812500000,177112.9375000000,164737.2187500000,165117.8750000000,45725.7968750000,169321.9843750000,,,
1.4719999975,11,156415.7031250000,156940.2812500000,181186.6250000000,177111.6718750000,164732.6406250000,165114.2656250000,45722.7109375000,169317.3593750000,,,
1.4759999977,11,156407.4375000000,156930.8750000000,181176.2968750000,177102.1875000000,164723.9687500000,165109.0781250000,45713.8867187500,169313.6562500000,,,
1.4799999977,11,156410.8906250000,156932.2343750000,181177.7500000000,177111.8125000000,164724.2968750000,165109.7812500000,45711.4453125000,169316.2343750000,,,
1.4839999976,11,156411.9062500000,156932.7500000000,181179.5625000000,177108.1406250000,164725.1875000000,165108.4375000000,45712.4101562500,169312.0000000000,,,
1.4879999976,11,156415.2656250000,156936.0781250000,181183.9218750000,177107.2500000000,164728.6875000000,165111.5312500000,45719.3867187500,169310.2500000000,,,
1.4919999975,11,156409.7343750000,156935.2968750000,181178.1250000000,177098.1250000000,164724.9375000000,165111.9062500000,45713.8867187500,169312.6718750000,,,
1.4959999977,11,156403.3281250000,156928.8593750000,181172.5468750000,177087.0781250000,164720.8593750000,165105.8593750000,45707.1015625000,169313.0937500000,,,
1.4999999977,11,156417.5000000000,156941.6718750000,181185.9062500000,177101.4843750000,164733.8906250000,165116.1875000000,45718.0195312500,169324.1562500000,,,
1.5039999976,11,156426.6875000000,156953.6875000000,181195.6093750000,177105.3750000000,164741.0000000000,165125.8281250000,45726.0117187500,169329.6718750000,,,
1.5079999976,11,156432.3593750000,156957.2343750000,181203.1718750000,177111.2812500000,164747.6875000000,165128.5781250000,45733.4687500000,169332.5468750000,,,
1.5119999975,11,156423.0156250000,156945.5468750000,181190.1093750000,177110.8750000000,164737.2187500000,165121.6093750000,45726.0117187500,169327.0468750000,,,
1.5159999975,11,156417.8906250000,156938.3281250000,181182.2812500000,177106.1250000000,164730.9218750000,165119.9218750000,45722.2304687500,169324.5312500000,,,
1.5199999977,11,156417.6250000000,156937.2187500000,181181.0468750000,177102.6093750000,164728.5000000000,165121.1250000000,45720.5390625000,169322.5937500000,,,
1.5239999976,11,156418.2500000000,156935.2968750000,181183.2500000000,177093.6562500000,164729.2343750000,165118.7187500000,45722.0937500000,169316.0000000000,,,
1.5279999976,11,156421.7812500000,156939.3437500000,181187.0000000000,177101.8125000000,164732.5625000000,165122.5781250000,45722.3632812500,169315.1093750000,,,
1.5319999976,11,156422.1406250000,156937.5781250000,181190.7812500000,177102.4218750000,164737.2187500000,165121.0781250000,45721.6640625000,169316.3750000000,,,
1.5359999975,12,156433.7812500000,156949.3281250000,181203.7968750000,177108.2656250000,164751.6562500000,165128.2968750000,45733.3867187500,169329.7031250000,,,
1.5399999975,12,156441.4375000000,156953.1875000000,181213.9843750000,177119.5312500000,164760.7656250000,165132.6093750000,45748.8085937500,169337.3750000000,,,
1.5439999974,12,156435.5937500000,156942.9687500000,181203.4375000000,177138.1562500000,164750.6562500000,165121.2031250000,45744.8671875000,169323.8593750000,,,
1.5479999974,12,156431.0937500000,156942.1406250000,181195.4218750000,177121.1250000000,164742.2343750000,165117.4843750000,45734.9687500000,169317.0937500000,,,
1.5519999973,12,156421.5625000000,156934.0937500000,181188.4687500000,177102.2968750000,164735.4218750000,165114.6875000000,45729.3632812500,169310.0156250000,,,
1.5559999973,12,156421.8437500000,156938.1562500000,181189.0937500000,177104.8906250000,164737.1718750000,165122.9843750000,45733.0390625000,169319.7812500000,,,
1.5599999975,12,156423.3437500000,156940.2500000000,181191.8593750000,177099.3437500000,164740.1250000000,165125.6406250000,45735.9882812500,169324.4531250000,,,
1.5639999975,12,156417.7656250000,156932.0000000000,181184.2031250000,177084.5312500000,164732.6875000000,165120.7031250000,45729.1484375000,169313.9531250000,,,
1.5679999974,12,156415.5156250000,156928.2656250000,181182.2500000000,177076.4531250000,164730.5156250000,165117.2187500000,45726.4140625000,169307.8125000000,,,
1.5719999974,12,156422.1093750000,156935.8593750000,181190.5156250000,177080.2968750000,164737.8906250000,165125.5000000000,45732.3671875000,169318.3593750000,,,
1.5759999973,12,156429.5312500000,156946.0156250000,181197.8125000000,177085.8281250000,164746.1562500000,165137.0000000000,45741.8906250000,169331.1250000000,,,
1.5799999975,12,156428.8125000000,156946.3750000000,181196.0937500000,177080.5937500000,164744.6250000000,165137.0312500000,45740.9218750000,169332.6562500000,,,
1.5839999975,12,156441.0937500000,156954.5468750000,181211.3593750000,177100.9687500000,164756.7031250000,165145.0781250000,45754.7890625000,169333.8593750000,,,
1.5879999974,12,156442.1093750000,156948.0625000000,181212.0312500000,177114.9687500000,164756.4843750000,165137.4843750000,45755.9726562500,169323.7812500000,,,
1.5919999974,12,156438.6875000000,156951.5781250000,181203.2812500000,177101.3437500000,164750.5781250000,165136.7343750000,45747.9765625000,169326.6406250000,,,
1.5959999973,12,156436.9375000000,156946.7656250000,181201.9062500000,177103.0937500000,164751.7031250000,165134.4531250000,45749.4804687500,169329.6562500000,,,
1.5999999973,12,156423.8437500000,156929.7187500000,181192.1718750000,177093.8125000000,164743.5000000000,165124.2968750000,45743.2304687500,169317.8281250000,,,
1.6039999975,12,156418.3750000000,156924.8906250000,181188.7968750000,177088.0156250000,164739.1250000000,165120.9375000000,45739.3671875000,169308.2656250000,,,
1.6079999974,12,156417.6875000000,156926.8125000000,181190.8281250000,177091.9375000000,164737.8437500000,165121.9375000000,45740.7890625000,169308.5937500000,,,
1.6119999974,12,156423.0937500000,156934.9218750000,181199.6250000000,177103.3125000000,164745.1562500000,165131.0000000000,45748.7031250000,169318.8125000000,,,
1.6159999974,12,156422.0781250000,156938.4531250000,181199.7187500000,177096.9531250000,164745.2656250000,165137.2500000000,45749.8007812500,169326.6718750000,,,
1.6199999973,12,156433.3125000000,156950.2656250000,181212.5625000000,177101.2968750000,164755.6718750000,165148.7031250000,45761.4687500000,169335.9531250000,,,
1.6239999975,12,156443.5312500000,156957.1562500000,181219.7812500000,177110.5312500000,164764.0781250000,165154.7968750000,45770.3476562500,169338.3125000000,,,
1.6279999975,12,156423.8437500000,156928.9375000000,181195.2812500000,177113.3437500000,164744.8750000000,165133.2031250000,45753.2070312500,169310.8125000000,,,
1.6319999974,12,156420.1250000000,156922.9843750000,181192.8437500000,177105.0468750000,164743.4687500000,165127.1093750000,45752.6171875000,169306.1250000000,,,
1.6359999974,12,156425.0000000000,156929.2343750000,181200.4375000000,177096.8437500000,164751.7343750000,165133.4062500000,45762.0312500000,169316.8281250000,,,
1.6399999973,12,156428.4375000000,156933.9843750000,181204.5937500000,177088.8750000000,164756.6718750000,165138.7968750000,45767.5039062500,169324.8437500000,,,
1.6439999973,12,156442.1718750000,156946.6718750000,181217.9218750000,177094.5625000000,164768.7187500000,165147.8750000000,45779.7617187500,169331.7656250000,,,
1.6479999975,12,156446.3750000000,156952.5625000000,181222.1406250000,177088.6875000000,164770.3281250000,165149.5937500000,45784.7500000000,169334.1875000000,,,
1.6519999974,12,156440.6093750000,156951.8437500000,181215.2500000000,177084.3125000000,164762.7343750000,165150.1562500000,45781.4257812500,169334.2968750000,,,
1.6559999974,12,156440.4843750000,156955.3281250000,181212.9843750000,177090.4062500000,164762.7031250000,165155.4531250000,45783.4101562500,169343.7343750000,,,
1.6599999974,12,156443.0000000000,156957.3750000000,181216.1875000000,177094.5937500000,164767.7500000000,165159.8281250000,45790.2500000000,169350.1718750000,,,
1.6639999973,13,156445.2812500000,156959.6250000000,181216.7500000000,177095.9062500000,164769.4843750000,165166.8125000000,45791.2968750000,169348.8593750000,,,
1.6679999973,13,156451.3750000000,156962.7812500000,181223.6406250000,177102.5781250000,164776.6718750000,165176.3281250000,45803.7148437500,169347.0625000000,,,
1.6719999972,13,156448.9531250000,156958.2812500000,181221.7656250000,177103.3593750000,164777.2656250000,165179.1406250000,45812.0273437500,169345.5468750000,,,
1.6759999972,13,156448.2656250000,156955.5468750000,181220.8281250000,177101.2187500000,164778.2343750000,165180.6250000000,45813.8515625000,169348.7500000000,,,
1.6799999971,13,156448.6875000000,156952.7812500000,181222.8281250000,177102.9375000000,164781.3437500000,165178.7187500000,45819.8085937500,169346.0312500000,,,
1.6839999971,13,156448.8281250000,156952.5468750000,181224.9531250000,177105.3750000000,164781.9062500000,165179.6250000000,45825.8710937500,169344.4843750000,,,
1.6879999973,13,156453.7812500000,156962.5781250000,181229.8125000000,177107.7031250000,164784.2500000000,165186.7031250000,45828.5781250000,169351.2187500000,,,
1.6919999972,13,156468.4218750000,156978.7656250000,181246.8125000000,177119.4843750000,164799.4531250000,165200.9218750000,45844.5117187500,169366.6406250000,,,
1.6959999972,13,156458.2656250000,156966.1093750000,181240.3281250000,177114.3281250000,164795.7968750000,165196.5781250000,45850.3046875000,169363.9218750000,,,
1.6999999972,13,156449.9218750000,156960.9062500000,181227.6093750000,177120.3906250000,164787.1718750000,165198.4531250000,45846.4140625000,169361.5625000000,,,
1.7039999971,13,156450.7812500000,156966.0000000000,181229.0000000000,177121.4687500000,164788.8593750000,165210.7968750000,45851.3242187500,169361.5937500000,,,
1.7079999973,13,156453.8593750000,156968.6093750000,181231.2812500000,177123.5937500000,164792.1093750000,165213.8281250000,45854.6757812500,169359.8750000000,,,
1.7119999973,13,156454.1093750000,156964.5781250000,181232.7343750000,177112.6093750000,164794.7031250000,165207.5156250000,45856.0703125000,169357.2968750000,,,
1.7159999972,13,156460.8125000000,156967.6875000000,181240.3281250000,177107.0312500000,164802.1406250000,165207.0937500000,45864.4140625000,169359.1562500000,,,
1.7199999972,13,156468.0468750000,156975.2812500000,181246.0312500000,177106.0468750000,164808.4375000000,165216.2968750000,45874.5234375000,169365.3437500000,,,
1.7239999971,13,156474.4375000000,156983.4687500000,181249.6250000000,177104.1718750000,164811.2500000000,165225.4687500000,45879.9960937500,169371.9531250000,,,
1.7279999971,13,156490.2812500000,157003.9062500000,181264.4843750000,177102.3125000000,164822.0625000000,165237.6406250000,45889.0898437500,169385.1406250000,,,
1.7319999973,13,156498.6875000000,157016.7031250000,181271.4687500000,177095.6406250000,164826.9375000000,165247.0625000000,45890.7265625000,169401.0000000000,,,
1.7359999972,13,156477.6250000000,156988.6718750000,181247.0312500000,177122.2187500000,164806.9843750000,165226.0000000000,45870.3671875000,169385.7031250000,,,
1.7399999972,13,156482.7187500000,156993.2031250000,181251.1562500000,177123.1875000000,164812.3593750000,165226.7500000000,45873.4531250000,169389.3750000000,,,
1.7439999972,13,156478.5156250000,156991.9375000000,181247.2343750000,177112.5312500000,164808.5781250000,165224.3906250000,45870.3125000000,169385.5156250000,,,
1.7479999971,13,156481.5468750000,156995.4062500000,181253.6250000000,177114.3125000000,164814.0937500000,165227.3437500000,45879.0312500000,169388.7968750000,,,
1.7519999973,13,156481.0000000000,156991.0000000000,181255.2656250000,177109.4843750000,164817.0781250000,165227.7968750000,45882.1132812500,169388.1406250000,,,
1.7559999973,13,156482.7812500000,156994.1718750000,181256.5781250000,177111.6562500000,164818.9843750000,165234.2031250000,45881.9804687500,169394.9531250000,,,
1.7599999972,13,156477.1406250000,156989.2656250000,181251.1562500000,177107.3125000000,164812.1406250000,165230.2968750000,45874.9804687500,169390.9843750000,,,
1.7639999972,13,156475.2343750000,156983.9218750000,181247.4062500000,177114.4062500000,164805.3281250000,165220.3125000000,45868.1132812500,169380.6093750000,,,
1.7679999971,13,156473.9062500000,156983.2187500000,181245.0156250000,177113.9062500000,164802.4843750000,165220.1562500000,45863.7968750000,169375.2968750000,,,
1.7719999971,13,156472.0781250000,156985.4843750000,181241.6093750000,177118.4843750000,164798.8125000000,165220.1875000000,45857.0351562500,169376.0468750000,,,
1.7759999973,13,156465.9531250000,156983.0312500000,181234.9531250000,177121.4375000000,164792.0781250000,165212.1875000000,45847.3789062500,169376.5312500000,,,
1.7799999972,13,156465.0781250000,156984.6250000000,181237.0781250000,177106.9531250000,164794.0000000000,165209.5625000000,45850.1718750000,169379.0312500000,,,
1.7839999972,13,156458.7656250000,156975.7968750000,181231.7656250000,177101.1562500000,164787.2812500000,165201.8281250000,45843.7851562500,169369.5000000000,,,
1.7879999971,13,156457.0312500000,156974.2656250000,181227.3593750000,177092.8281250000,164781.9062500000,165203.0937500000,45840.0859375000,169362.3125000000,,,
1.7919999971,14,156460.3750000000,156978.2031250000,181229.3750000000,177100.4062500000,164783.8906250000,165206.4531250000,45840.0039062500,169366.6562500000,,,
1.7959999971,14,156453.6250000000,156970.2187500000,181224.9062500000,177102.7968750000,164780.1406250000,165201.0625000000,45833.8906250000,169366.0000000000,,,
1.7999999970,14,156446.2968750000,156958.7031250000,181220.8750000000,177111.1406250000,164776.2031250000,165195.2031250000,45830.4023437500,169358.5625000000,,,
1.8039999970,14,156449.7343750000,156961.5781250000,181224.0468750000,177115.3593750000,164778.7656250000,165196.9062500000,45831.5546875000,169358.2656250000,,,
1.8079999969,14,156453.9375000000,156962.9531250000,181230.5781250000,177111.7343750000,164784.7187500000,165198.9375000000,45837.8867187500,169356.2812500000,,,
1.8119999969,14,156444.2031250000,156949.1562500000,181222.2968750000,177100.1093750000,164778.0000000000,165190.9531250000,45831.2070312500,169345.8281250000,,,
1.8159999971,14,156432.9218750000,156938.0781250000,181209.8750000000,177086.0156250000,164767.0000000000,165184.0781250000,45819.3789062500,169340.4843750000,,,
1.8199999970,14,156437.2812500000,156946.8281250000,181210.8750000000,177087.4843750000,164767.7187500000,165186.7812500000,45818.1171875000,169347.1562500000,,,
1.8239999970,14,156438.2812500000,156948.0000000000,181210.9531250000,177087.0781250000,164765.2500000000,165181.6875000000,45816.5625000000,169342.3281250000,,,
1.8279999970,14,156437.4218750000,156942.7968750000,181210.8750000000,177093.8906250000,164762.7343750000,165172.8750000000,45813.4218750000,169333.5625000000,,,
1.8319999969,14,156445.5781250000,156953.3125000000,181215.7031250000,177103.7656250000,164766.6718750000,165177.5937500000,45814.4414062500,169341.4218750000,,,
1.8359999971,14,156448.8281250000,156959.4375000000,181220.1250000000,177107.6562500000,164770.6093750000,165181.6718750000,45819.2695312500,169351.2968750000,,,
1.8399999971,14,156441.8437500000,156953.1562500000,181212.4531250000,177102.2968750000,164763.1406250000,165171.3906250000,45812.1914062500,169347.4531250000,,,
1.8439999970,14,156438.0156250000,156950.3750000000,181208.1875000000,177088.4687500000,164759.1875000000,165166.4531250000,45806.9882812500,169340.0781250000,,,
1.8479999970,14,156435.9531250000,156949.9687500000,181205.9375000000,177083.0625000000,164757.2343750000,165165.7343750000,45804.7851562500,169334.3750000000,,,
1.8519999969,14,156433.9843750000,156950.5312500000,181204.5625000000,177080.7812500000,164756.7500000000,165168.8750000000,45802.8281250000,169337.2968750000,,,
1.8559999969,14,156425.0781250000,156937.7812500000,181195.8750000000,177077.4843750000,164748.9218750000,165161.4218750000,45791.9140625000,169331.3437500000,,,
1.8599999971,14,156427.0937500000,156937.6250000000,181197.4531250000,177088.9375000000,164750.1250000000,165163.3750000000,45792.3398437500,169332.7343750000,,,
1.8639999970,14,156433.9843750000,156944.7656250000,181206.1718750000,177091.2656250000,164757.5312500000,165171.0781250000,45801.6210937500,169333.0000000000,,,
1.8679999970,14,156440.8750000000,156953.0468750000,181215.8906250000,177095.9531250000,164765.2812500000,165179.6250000000,45812.2421875000,169334.0000000000,,,
1.8719999969,14,156442.3906250000,156957.0781250000,181215.6250000000,177102.5000000000,164765.6875000000,165185.0156250000,45816.0000000000,169342.2031250000,,,
1.8759999969,14,156447.1250000000,156962.8593750000,181219.1875000000,177101.0625000000,164771.1562500000,165192.3906250000,45824.2070312500,169356.9531250000,,,
1.8799999971,14,156445.1250000000,156960.3437500000,181216.8750000000,177096.7656250000,164770.6093750000,165193.3593750000,45825.0664062500,169359.0000000000,,,
1.8839999971,14,156448.9218750000,156962.1093750000,181219.8906250000,177098.5625000000,164775.0156250000,165193.7343750000,45829.4375000000,169355.3906250000,,,
1.8879999970,14,156452.0468750000,156961.4687500000,181224.0468750000,177099.9218750000,164779.7656250000,165188.9687500000,45830.9648437500,169350.7656250000,,,
1.8919999970,14,156455.2812500000,156963.9062500000,181229.4843750000,177098.9375000000,164786.6562500000,165193.5781250000,45836.8398437500,169355.8593750000,,,
1.8959999969,14,156457.0000000000,156971.7656250000,181230.9062500000,177091.9687500000,164788.4062500000,165200.7656250000,45836.8671875000,169366.2656250000,,,
1.8999999969,14,156454.5937500000,156968.5312500000,181224.5781250000,177096.9218750000,164782.7968750000,165200.2343750000,45832.9765625000,169366.2812500000,,,
1.9039999971,14,156456.3906250000,156965.0156250000,181227.8281250000,177098.8281250000,164782.7656250000,165202.9375000000,45838.2343750000,169359.3906250000,,,
1.9079999970,14,156457.4843750000,156964.1875000000,181229.0781250000,177104.5156250000,164782.2343750000,165208.8437500000,45846.1484375000,169351.1093750000,,,
1.9119999970,14,156446.6250000000,156955.9531250000,181214.7343750000,177095.5781250000,164770.7500000000,165211.8750000000,45835.8476562500,169342.6250000000,,,
1.9159999969,14,156439.2656250000,156950.9531250000,181205.6875000000,177087.6718750000,164762.9218750000,165212.9062500000,45826.7812500000,169339.0312500000,,,
1.9199999969,15,156437.6562500000,156952.5937500000,181202.4531250000,177092.8281250000,164761.3125000000,165220.0468750000,45827.4531250000,169344.7968750000,,,
1.9239999969,15,156442.1718750000,156962.8437500000,181206.9531250000,177089.8125000000,164766.9687500000,165230.4218750000,45838.5820312500,169352.5312500000,,,
1.9279999968,15,156448.8281250000,156974.2343750000,181217.2031250000,177087.0468750000,164777.7812500000,165240.8125000000,45859.3437500000,169359.6406250000,,,
1.9319999968,15,156448.3593750000,156973.7812500000,181221.7812500000,177096.9218750000,164783.0312500000,165243.4375000000,45875.8906250000,169361.1875000000,,,
1.9359999967,15,156446.8593750000,156973.1718750000,181216.2656250000,177094.4375000000,164780.0312500000,165243.5937500000,45873.0234375000,169369.6093750000,,,
1.9399999967,15,156456.9531250000,156983.2500000000,181223.7187500000,177104.2968750000,164787.8593750000,165249.3437500000,45878.0117187500,169379.9375000000,,,
1.9439999969,15,156465.6093750000,156991.5468750000,181236.5625000000,177104.1093750000,164797.8906250000,165257.1093750000,45888.0703125000,169383.2656250000,,,
1.9479999968,15,156467.4687500000,156991.4062500000,181241.7968750000,177108.2656250000,164801.7343750000,165257.3593750000,45892.0664062500,169380.6718750000,,,
1.9519999968,15,156465.6875000000,156991.5625000000,181240.2656250000,177106.1718750000,164802.2968750000,165256.9843750000,45892.2265625000,169380.4843750000,,,
1.9559999967,15,156460.4687500000,156985.9062500000,181234.1718750000,177106.8437500000,164796.9062500000,165255.6718750000,45887.3203125000,169379.7187500000,,,
1.9599999967,15,156456.7812500000,156984.1093750000,181229.0625000000,177098.1562500000,164791.0625000000,165251.0781250000,45877.8242187500,169375.2187500000,,,
1.9639999969,15,156458.2656250000,156982.7968750000,181231.0937500000,177097.8437500000,164792.0468750000,165248.9375000000,45877.6640625000,169367.7968750000,,,
1.9679999969,15,156462.8281250000,156978.8281250000,181237.9375000000,177112.3437500000,164796.8437500000,165246.3906250000,45887.3437500000,169361.4843750000,,,
1.9719999968,15,156459.7968750000,156973.1093750000,181232.4062500000,177106.6562500000,164793.0156250000,165239.6875000000,45887.0507812500,169360.7656250000,,,
1.9759999968,15,156459.3593750000,156973.7031250000,181229.2968750000,177099.4687500000,164791.0000000000,165238.3750000000,45882.7070312500,169369.2968750000,,,
1.9799999967,15,156462.7656250000,156979.0937500000,181231.0156250000,177103.8437500000,164791.8593750000,165238.3750000000,45880.2382812500,169376.7187500000,,,
1.9839999967,15,156467.0000000000,156985.7968750000,181234.1562500000,177106.5312500000,164792.8593750000,165240.4843750000,45877.8789062500,169380.8593750000,,,
1.9879999969,15,156464.3281250000,156982.6406250000,181234.2812500000,177101.2187500000,164790.9218750000,165233.0312500000,45872.5664062500,169375.5937500000,,,
1.9919999968,15,156465.2968750000,156985.1250000000,181237.1875000000,177095.7656250000,164792.3750000000,165232.3125000000,45869.0781250000,169377.9843750000,,,
1.9959999968,15,156457.3437500000,156981.4062500000,181228.9218750000,177097.3281250000,164785.3125000000,165233.1718750000,45856.9023437500,169381.0625000000,,,
1.9999999967,15,156458.2031250000,156982.5781250000,181235.3125000000,177094.5625000000,164790.3593750000,165236.0625000000,45860.4687500000,169380.7968750000,,,
2.0039999967,15,156450.4531250000,156967.1562500000,181232.3593750000,177090.5468750000,164785.5000000000,165218.8906250000,45857.6250000000,169361.6250000000,,,
2.0079999969,15,156453.9687500000,156967.5625000000,181232.4375000000,177096.7031250000,164784.7500000000,165216.1875000000,45860.1757812500,169352.2656250000,,,
2.0119999968,15,156455.1250000000,156969.5781250000,181227.8750000000,177104.5468750000,164781.5625000000,165217.6875000000,45858.0820312500,169351.6406250000,,,
2.0159999968,15,156453.5937500000,156969.4062500000,181223.2968750000,177106.2656250000,164777.5312500000,165214.2031250000,45850.4101562500,169353.0312500000,,,
2.0199999968,15,156456.0937500000,156974.1875000000,181223.9843750000,177094.2968750000,164779.4375000000,165215.3281250000,45850.2500000000,169357.1875000000,,,
2.0239999967,15,156453.9218750000,156970.3281250000,181223.5312500000,177089.4375000000,164779.0156250000,165212.2656250000,45848.5625000000,169352.9531250000,,,
2.0279999967,15,156458.4843750000,156975.6562500000,181226.5312500000,177090.0000000000,164782.2812500000,165213.0937500000,45847.6757812500,169352.6406250000,,,
2.0319999969,15,156452.9843750000,156965.3906250000,181224.0937500000,177088.2812500000,164779.6093750000,165204.7656250000,45839.7343750000,169347.7500000000,,,
2.0359999968,15,156443.6250000000,156954.4218750000,181215.7187500000,177077.0781250000,164771.3750000000,165198.8593750000,45827.3164062500,169345.9531250000,,,
2.0399999968,15,156437.0000000000,156949.2968750000,181212.2968750000,177077.7968750000,164767.2656250000,165198.5625000000,45819.5937500000,169340.8281250000,,,
2.0439999967,15,156434.5781250000,156947.1562500000,181214.1093750000,177086.5468750000,164765.2187500000,165196.6093750000,45818.3046875000,169334.3906250000,,,
2.0479999967,16,156441.3437500000,156960.7812500000,181219.3125000000,177094.8593750000,164767.3750000000,165202.8750000000,45822.8398437500,169340.0781250000,,,
2.0519999966,16,156436.2656250000,156957.9062500000,181209.2031250000,177089.1406250000,164757.5000000000,165193.6875000000,45816.3750000000,169337.7031250000,,,
2.0559999966,16,156430.5781250000,156948.0312500000,181197.2187500000,177085.9843750000,164748.1406250000,165181.1562500000,45810.5000000000,169333.1406250000,,,
2.0599999966,16,156431.7656250000,156947.4375000000,181193.2187500000,177073.5312500000,164745.7031250000,165175.7187500000,45808.8085937500,169332.3281250000,,,
2.0639999965,16,156436.8125000000,156952.3281250000,181197.7031250000,177074.5312500000,164751.3906250000,165176.6562500000,45811.2226562500,169332.1406250000,,,
2.0679999965,16,156441.9843750000,156956.9687500000,181204.9218750000,177073.9687500000,164759.2968750000,165179.5000000000,45817.3945312500,169332.5468750000,,,
2.0719999967,16,156442.0937500000,156958.4375000000,181206.4687500000,177081.5781250000,164761.3125000000,165179.7656250000,45815.5156250000,169336.3593750000,,,
2.0759999966,16,156444.2343750000,156961.1250000000,181210.4375000000,177089.6875000000,164764.7500000000,165180.9687500000,45814.1757812500,169342.9062500000,,,
2.0799999966,16,156438.8125000000,156953.1562500000,181209.8750000000,177082.6093750000,164762.7343750000,165177.2968750000,45809.8046875000,169340.0781250000,,,
2.0839999965,16,156434.3906250000,156945.0000000000,181207.2500000000,177077.0468750000,164758.8906250000,165170.5625000000,45803.0976562500,169330.2656250000,,,
2.0879999965,16,156445.0468750000,156959.7031250000,181218.4062500000,177090.7500000000,164767.2031250000,165178.7343750000,45808.5429687500,169335.8906250000,,,
2.0919999967,16,156450.1406250000,156967.2187500000,181224.3281250000,177089.7656250000,164770.4218750000,165181.4843750000,45808.0312500000,169341.5000000000,,,
2.0959999966,16,156438.4687500000,156951.3125000000,181214.9687500000,177091.1562500000,164761.3906250000,165170.3437500000,45796.6875000000,169333.1406250000,,,
2.0999999966,16,156441.9843750000,156951.9843750000,181221.8125000000,177078.7343750000,164766.2656250000,165172.1718750000,45801.6757812500,169334.1250000000,,,
2.1039999966,16,156448.9531250000,156956.7031250000,181226.7187500000,177074.6093750000,164771.1875000000,165175.3593750000,45808.5156250000,169334.7968750000,,,
2.1079999965,16,156443.3750000000,156946.8593750000,181219.0312500000,177069.7812500000,164766.3281250000,165165.9218750000,45805.4023437500,169323.0781250000,,,
2.1119999965,16,156448.0468750000,156947.6250000000,181226.1093750000,177066.9375000000,164775.7656250000,165166.6406250000,45814.7109375000,169324.0937500000,,,
2.1159999967,16,156455.0468750000,156956.1562500000,181236.0312500000,177076.6406250000,164787.2968750000,165174.6875000000,45825.2773437500,169337.1093750000,,,
2.1199999966,16,156462.6875000000,156967.2187500000,181240.4531250000,177082.6250000000,164792.8281250000,165184.0312500000,45831.8789062500,169351.1875000000,,,
2.1239999966,16,156451.2812500000,156959.2500000000,181220.0937500000,177080.1562500000,164774.5625000000,165180.0781250000,45816.6406250000,169344.1406250000,,,
2.1279999965,16,156449.7812500000,156963.0000000000,181217.4218750000,177077.4218750000,164770.7812500000,165188.0000000000,45813.8242187500,169345.4531250000,,,
2.1319999965,16,156444.5781250000,156958.3906250000,181214.1093750000,177080.6718750000,164765.7968750000,165183.5156250000,45808.6757812500,169344.4531250000,,,
2.1359999967,16,156436.0000000000,156951.7031250000,181206.4218750000,177082.3125000000,164757.6406250000,165178.6875000000,45800.5742187500,169344.7968750000,,,
2.1399999966,16,156432.2656250000,156947.9843750000,181202.7187500000,177083.9687500000,164753.7968750000,165172.9687500000,45798.2968750000,169344.0468750000,,,
2.1439999966,16,156433.8593750000,156948.3593750000,181204.3281250000,177094.5156250000,164754.5468750000,165169.5625000000,45801.7304687500,169341.2656250000,,,
2.1479999966,16,156430.7656250000,156945.1562500000,181199.2500000000,177086.5468750000,164749.3750000000,165170.6406250000,45799.9609375000,169334.2968750000,,,
2.1519999965,16,156423.5781250000,156936.0937500000,181192.0468750000,177084.5312500000,164741.9218750000,165164.5468750000,45793.9765625000,169326.3750000000,,,
2.1559999965,16,156426.1875000000,156937.2812500000,181196.1406250000,177081.0000000000,164745.8906250000,165166.6406250000,45799.1796875000,169329.9218750000,,,
2.1599999967,16,156431.9531250000,156938.5156250000,181202.5781250000,177083.2968750000,164750.3906250000,165165.9218750000,45802.4257812500,169330.7812500000,,,
2.1639999966,16,156442.1093750000,156946.1093750000,181208.5156250000,177101.8593750000,164754.0468750000,165167.3437500000,45807.2539062500,169331.4218750000,,,
2.1679999966,16,156450.4843750000,156953.8281250000,181211.7812500000,177106.2656250000,164754.2812500000,165172.4687500000,45808.4609375000,169334.6718750000,,,
2.1719999965,16,156449.5781250000,156954.1718750000,181207.1093750000,177096.7656250000,164747.0937500000,165170.1250000000,45798.8593750000,169337.7500000000,,,
2.1759999965,17,156453.0781250000,156962.7812500000,181209.4218750000,177094.3281250000,164749.1562500000,165177.1250000000,45800.7382812500,169349.5468750000,,,
2.1799999964,17,156455.4687500000,156961.6093750000,181219.4531250000,177088.0937500000,164759.5156250000,165176.4375000000,45811.3593750000,169353.9687500000,,,
2.1839999964,17,156454.9687500000,156961.6875000000,181219.2656250000,177086.6562500000,164761.1250000000,165176.7343750000,45808.7578125000,169352.5625000000,,,
2.1879999964,17,156448.8750000000,156958.7968750000,181211.4375000000,177082.9218750000,164753.9062500000,165171.2656250000,45799.9062500000,169342.2031250000,,,
2.1919999963,17,156448.2343750000,156963.8593750000,181208.5625000000,177083.2500000000,164753.4843750000,165174.5625000000,45798.2148437500,169344.5312500000,,,
2.1959999963,17,156440.3437500000,156956.1875000000,181203.6562500000,177095.5312500000,164750.5312500000,165172.0312500000,45794.1640625000,169343.2812500000,,,
2.1999999965,17,156431.8750000000,156949.9843750000,181198.4062500000,177084.1250000000,164744.6875000000,165165.8750000000,45788.7187500000,169340.4062500000,,,
2.2039999964,17,156431.6875000000,156950.5625000000,181201.4843750000,177084.4218750000,164747.1718750000,165167.1562500000,45793.3085937500,169337.3750000000,,,
2.2079999964,17,156436.8125000000,156954.5312500000,181206.3593750000,177090.8437500000,164752.2187500000,165171.6562500000,45801.9179687500,169334.6093750000,,,
2.2119999963,17,156450.7812500000,156967.1562500000,181218.1406250000,177102.3437500000,164764.3125000000,165183.9531250000,45815.4609375000,169345.1562500000,,,
2.2159999963,17,156452.7656250000,156966.8906250000,181220.2343750000,177099.3125000000,164767.9687500000,165187.7031250000,45819.2695312500,169351.3750000000,,,
2.2199999965,17,156456.8125000000,156967.6718750000,181224.7968750000,177095.3750000000,164773.1875000000,165189.2500000000,45823.1328125000,169352.3750000000,,,
2.2239999964,17,156454.7500000000,156962.2031250000,181224.7656250000,177081.4531250000,164772.5781250000,165184.7812500000,45820.6914062500,169345.2812500000,,,
2.2279999964,17,156446.7812500000,156953.2343750000,181217.1250000000,177074.9531250000,164765.8750000000,165178.6562500000,45814.8203125000,169333.3437500000,,,
2.2319999964,17,156450.9687500000,156957.5625000000,181219.5000000000,177089.6250000000,164769.4687500000,165178.8281250000,45818.2500000000,169336.0312500000,,,
2.2359999963,17,156452.9218750000,156961.0156250000,181218.6562500000,177089.8437500000,164770.5156250000,165181.4218750000,45819.9140625000,169344.7187500000,,,
2.2399999963,17,156447.1250000000,156957.5625000000,181211.0625000000,177082.6250000000,164763.6093750000,165178.6093750000,45813.2343750000,169347.2187500000,,,
2.2439999965,17,156438.7656250000,156952.0781250000,181204.6406250000,177079.8125000000,164754.8750000000,165178.7968750000,45805.5898437500,169340.1875000000,,,
2.2479999964,17,156433.3125000000,156950.6406250000,181199.8125000000,177079.6718750000,164745.9375000000,165186.6562500000,45800.0937500000,169334.4218750000,,,
2.2519999964,17,156434.5312500000,156952.4375000000,181201.7187500000,177080.4062500000,164746.0000000000,165189.3906250000,45800.3085937500,169337.4218750000,,,
2.2559999963,17,156437.5625000000,156953.8281250000,181207.0937500000,177080.0781250000,164751.8125000000,165187.9687500000,45806.6367187500,169342.5781250000,,,
2.2599999963,17,156436.4843750000,156951.5781250000,181209.1562500000,177087.0468750000,164753.5781250000,165183.2968750000,45811.2500000000,169341.1875000000,,,
2.2639999965,17,156438.0937500000,156952.4531250000,181213.7343750000,177086.4375000000,164756.0312500000,165180.2968750000,45813.9062500000,169336.3281250000,,,
2.2679999964,17,156451.9375000000,156965.0625000000,181226.9062500000,177091.7187500000,164767.4531250000,165187.8593750000,45822.6250000000,169343.5937500000,,,
2.2719999964,17,156449.0625000000,156966.7343750000,181217.9843750000,177095.6875000000,164761.5312500000,165185.0156250000,45814.3085937500,169344.0781250000,,,
2.2759999963,17,156448.0156250000,156969.0625000000,181214.4062500000,177093.6562500000,164760.2968750000,165187.1718750000,45809.9648437500,169351.1875000000,,,
2.2799999963,17,156436.0468750000,156956.0000000000,181204.3593750000,177076.6250000000,164750.6406250000,165180.4843750000,45799.9609375000,169344.9843750000,,,
2.2839999963,17,156437.5625000000,156957.6875000000,181206.7656250000,177084.1250000000,164752.5937500000,165185.3125000000,45803.5000000000,169345.3593750000,,,
2.2879999964,17,156438.2812500000,156958.1406250000,181207.5781250000,177087.1093750000,164752.0625000000,165189.4687500000,45805.8046875000,169342.1406250000,,,
2.2919999964,17,156436.1093750000,156956.3437500000,181204.8906250000,177069.9375000000,164749.5156250000,165189.7187500000,45804.7851562500,169341.3906250000,,,
2.2959999964,17,156444.3750000000,156964.3750000000,181213.6562500000,177065.7812500000,164759.1718750000,165195.8750000000,45814.0937500000,169353.5937500000,,,
2.2999999963,17,156447.4218750000,156968.4218750000,181213.0156250000,177086.9531250000,164760.2343750000,165196.8437500000,45812.5390625000,169358.6093750000,,,
2.3039999963,18,156447.3750000000,156968.0937500000,181211.6718750000,177084.6406250000,164760.3125000000,165196.6093750000,45812.9960937500,169355.3125000000,,,
2.3079999962,18,156456.5937500000,156976.1093750000,181219.9375000000,177085.0625000000,164768.2500000000,165202.1875000000,45820.6132812500,169356.6250000000,,,
2.3119999962,18,156456.1406250000,156970.8906250000,181222.1875000000,177101.1562500000,164770.7031250000,165198.4531250000,45821.3632812500,169354.4531250000,,,
2.3159999961,18,156449.0937500000,156965.2500000000,181218.0312500000,177102.5312500000,164767.7812500000,165193.4062500000,45820.6640625000,169353.0312500000,,,
2.3199999961,18,156434.0156250000,156953.6718750000,181203.5156250000,177072.8593750000,164756.9687500000,165186.7812500000,45815.4335937500,169345.2656250000,,,
2.3239999961,18,156440.2968750000,156962.6562500000,181207.5937500000,177070.0781250000,164762.8593750000,165200.2031250000,45824.4218750000,169349.1250000000,,,
2.3279999963,18,156447.1562500000,156967.4218750000,181214.2031250000,177075.9531250000,164767.0468750000,165201.0312500000,45829.8906250000,169347.7500000000,,,
2.3319999962,18,156448.7656250000,156968.6875000000,181215.3437500000,177083.5937500000,164765.0937500000,165201.5156250000,45828.8750000000,169348.8750000000,,,
2.3359999962,18,156444.6562500000,156964.3125000000,181208.3437500000,177083.5468750000,164757.7500000000,165198.5156250000,45820.0234375000,169349.9843750000,,,
2.3399999961,18,156443.5625000000,156961.6250000000,181207.9531250000,177093.9687500000,164757.3593750000,165196.5781250000,45815.9726562500,169348.9062500000,,,
2.3439999961,18,156453.1406250000,156968.8750000000,181219.1562500000,177098.9375000000,164766.8593750000,165202.1250000000,45822.4609375000,169350.5625000000,,,
2.3479999963,18,156458.0000000000,156973.5937500000,181226.9375000000,177093.8437500000,164774.5937500000,165203.9062500000,45829.3554687500,169351.9062500000,,,
2.3519999962,18,156461.1562500000,156980.9218750000,181231.6093750000,177093.6562500000,164781.8281250000,165208.4843750000,45834.4804687500,169358.0000000000,,,
2.3559999962,18,156454.3125000000,156971.9531250000,181228.2187500000,177095.6406250000,164779.0156250000,165200.5156250000,45831.4765625000,169355.2656250000,,,
2.3599999961,18,156445.6093750000,156965.2343750000,181219.1875000000,177092.2656250000,164770.9375000000,165193.9531250000,45825.6289062500,169351.0312500000,,,
2.3639999961,18,156442.5468750000,156960.7812500000,181214.4375000000,177091.4843750000,164766.9375000000,165189.6562500000,45825.4140625000,169343.8125000000,,,
2.3679999961,18,156444.9843750000,156966.2187500000,181216.4843750000,177096.3125000000,164767.2968750000,165194.2968750000,45829.1953125000,169343.5156250000,,,
2.3719999962,18,156445.0625000000,156967.3437500000,181216.6718750000,177093.0625000000,164768.0625000000,165199.9531250000,45833.3515625000,169346.8750000000,,,
2.3759999962,18,156438.6875000000,156959.0000000000,181207.6718750000,177081.3750000000,164760.9062500000,165197.5781250000,45828.0703125000,169345.5468750000,,,
2.3799999962,18,156444.1250000000,156962.6562500000,181211.0625000000,177086.1406250000,164764.1250000000,165202.9375000000,45830.4570312500,169349.1562500000,,,
2.3839999961,18,156450.8281250000,156964.1250000000,181215.7812500000,177081.7656250000,164769.3593750000,165204.6718750000,45831.0195312500,169346.8750000000,,,
2.3879999961,18,156465.5781250000,156977.2656250000,181227.0781250000,177091.4218750000,164780.5625000000,165215.8906250000,45837.4296875000,169351.9687500000,,,
2.3919999963,18,156467.2500000000,156976.2812500000,181228.5468750000,177085.3437500000,164781.9375000000,165216.2656250000,45839.1992187500,169354.1406250000,,,
2.3959999962,18,156468.9843750000,156977.1562500000,181232.5156250000,177076.0000000000,164786.2500000000,165216.4218750000,45841.6132812500,169360.8906250000,,,
2.3999999962,18,156455.8437500000,156963.2656250000,181220.5000000000,177067.2812500000,164774.1875000000,165200.4375000000,45828.7929687500,169351.4531250000,,,
2.4039999961,18,156455.4218750000,156965.1406250000,181220.3437500000,177075.3125000000,164771.3125000000,165197.3593750000,45827.3164062500,169345.1718750000,,,
2.4079999961,18,156459.4218750000,156969.7031250000,181227.7343750000,177075.2812500000,164774.1250000000,165199.7968750000,45833.7265625000,169343.1093750000,,,
2.4119999961,18,156453.2187500000,156967.4218750000,181218.3593750000,177084.2656250000,164764.2031250000,165196.2343750000,45825.7617187500,169338.4218750000,,,
2.4159999962,18,156445.0625000000,156964.8437500000,181208.0000000000,177085.4218750000,164754.5468750000,165192.4687500000,45818.7890625000,169338.5468750000,,,
2.4199999962,18,156434.9218750000,156954.1250000000,181200.7031250000,177086.0312500000,164745.8125000000,165183.2187500000,45811.6015625000,169331.6875000000,,,
2.4239999962,18,156432.5937500000,156953.5937500000,181198.7968750000,177084.6875000000,164741.6562500000,165184.7187500000,45809.4023437500,169324.8750000000,,,
2.4279999961,18,156435.2500000000,156956.9375000000,181200.4843750000,177089.0937500000,164741.5625000000,165190.5937500000,45813.1835937500,169322.5937500000,,,
2.4319999961,19,156437.4687500000,156957.7656250000,181203.0312500000,177084.1093750000,164744.1406250000,165191.9375000000,45815.6484375000,169323.9375000000,,,
2.4359999960,19,156443.0000000000,156961.1562500000,181207.2187500000,177092.9843750000,164749.1875000000,165195.8281250000,45818.9218750000,169333.0312500000,,,
2.4399999960,19,156440.2968750000,156958.6562500000,181202.6406250000,177087.4843750000,164747.2343750000,165197.1093750000,45816.9375000000,169335.9843750000,,,
2.4439999959,19,156444.7187500000,156962.9687500000,181208.6250000000,177091.1093750000,164755.8125000000,165204.5156250000,45826.7539062500,169338.0156250000,,,
2.4479999959,19,156444.4531250000,156961.3437500000,181211.7500000000,177091.1562500000,164759.8593750000,165201.9375000000,45830.3203125000,169334.0156250000,,,
2.4519999959,19,156439.5625000000,156957.6406250000,181210.7031250000,177091.7968750000,164760.3125000000,165197.4687500000,45829.3554687500,169331.2812500000,,,
2.4559999960,19,156434.1562500000,156955.6250000000,181207.6250000000,177081.3750000000,164759.2500000000,165196.0156250000,45829.0625000000,169334.9375000000,,,
2.4599999960,19,156433.6718750000,156954.2812500000,181206.3593750000,177080.2187500000,164758.4375000000,165192.2656250000,45827.3164062500,169337.0000000000,,,
2.4639999960,19,156443.4062500000,156963.4375000000,181216.3437500000,177080.7031250000,164767.0000000000,165197.7031250000,45834.9609375000,169340.7031250000,,,
2.4679999959,19,156452.9218750000,156971.3750000000,181225.1875000000,177081.7187500000,164774.6718750000,165202.2187500000,45844.8046875000,169344.2343750000,,,
2.4719999959,19,156444.9375000000,156963.7812500000,181211.5156250000,177080.7031250000,164763.0468750000,165201.8125000000,45835.3359375000,169339.9218750000,,,
2.4759999961,19,156439.5937500000,156960.0156250000,181204.2500000000,177081.6875000000,164756.2968750000,165201.1093750000,45827.7734375000,169341.9843750000,,,
2.4799999960,19,156439.6250000000,156960.3437500000,181206.6875000000,177080.8906250000,164757.6093750000,165198.9062500000,45832.6015625000,169342.7187500000,,,
2.4839999960,19,156447.3125000000,156963.8281250000,181215.9062500000,177075.7343750000,164766.0625000000,165202.0468750000,45846.4960937500,169342.2343750000,,,
2.4879999959,19,156457.4531250000,156968.0468750000,181221.1718750000,177087.3750000000,164769.8437500000,165204.2968750000,45847.8906250000,169339.4375000000,,,
2.4919999959,19,156461.7500000000,156969.2031250000,181222.0312500000,177081.7656250000,164770.9687500000,165206.5312500000,45848.3710937500,169335.9531250000,,,
2.4959999959,19,156457.7812500000,156962.4687500000,181218.4062500000,177066.1562500000,164769.7343750000,165204.2500000000,45848.2382812500,169336.8906250000,,,
2.4999999960,19,156456.2812500000,156962.0625000000,181218.1718750000,177072.5156250000,164771.5000000000,165205.1406250000,45848.4257812500,169340.6406250000,,,
2.5039999960,19,156464.7343750000,156971.6875000000,181227.8437500000,177090.0312500000,164779.7031250000,165209.6875000000,45851.7539062500,169346.1250000000,,,
2.5079999960,19,156466.5000000000,156974.0000000000,181232.3593750000,177092.6562500000,164781.8593750000,165209.6406250000,45852.0468750000,169343.9687500000,,,
2.5119999959,19,156456.1093750000,156968.8437500000,181222.8906250000,177085.4375000000,164772.3593750000,165202.4531250000,45844.4023437500,169337.7031250000,,,
2.5159999959,19,156442.2500000000,156961.6562500000,181211.0000000000,177076.8281250000,164761.2500000000,165195.8281250000,45834.6953125000,169335.5000000000,,,
2.5199999961,19,156439.0625000000,156962.3906250000,181210.5468750000,177074.5781250000,164760.2656250000,165193.4687500000,45833.7031250000,169334.0468750000,,,
2.5239999960,19,156431.1718750000,156952.8906250000,181204.6406250000,177072.1875000000,164754.3906250000,165181.6875000000,45826.6992187500,169322.2500000000,,,
2.5279999960,19,156426.5312500000,156951.1250000000,181195.5625000000,177061.8437500000,164747.9062500000,165179.5468750000,45820.4765625000,169317.7187500000,,,
2.5319999959,19,156434.7343750000,156962.8593750000,181201.0468750000,177069.7812500000,164755.0625000000,165190.0312500000,45826.9687500000,169329.1718750000,,,
2.5359999959,19,156433.2343750000,156957.9062500000,181198.4218750000,177074.1562500000,164753.9062500000,165187.1093750000,45827.5312500000,169333.0625000000,,,
2.5399999958,19,156443.2187500000,156966.2968750000,181206.4687500000,177086.0625000000,164761.1562500000,165195.8750000000,45836.6250000000,169343.0000000000,,,
2.5439999960,19,156452.7656250000,156974.5937500000,181215.8906250000,177099.5781250000,164767.9843750000,165205.8125000000,45842.5781250000,169347.8281250000,,,
2.5479999960,19,156462.7343750000,156982.3593750000,181226.2343750000,177108.1093750000,164775.4687500000,165214.1406250000,45850.3828125000,169349.5781250000,,,
2.5519999960,19,156471.2656250000,156990.5937500000,181235.7656250000,177106.2812500000,164783.0625000000,165220.3750000000,45857.8398437500,169358.0312500000,,,
2.5559999959,19,156459.4218750000,156974.2343750000,181223.6875000000,177086.2500000000,164775.0468750000,165212.4062500000,45849.6875000000,169351.8593750000,,,
2.5599999959,20,156448.5468750000,156962.8906250000,181207.7343750000,177066.0781250000,164764.4531250000,165207.6093750000,45839.9765625000,169343.1875000000,,,
2.5639999958,20,156445.4375000000,156959.3750000000,181204.9375000000,177068.8437500000,164762.4062500000,165203.7968750000,45838.3945312500,169338.4531250000,,,
2.5679999958,20,156441.5781250000,156956.3437500000,181205.6093750000,177067.8750000000,164761.5781250000,165198.9062500000,45838.5820312500,169330.3750000000,,,
2.5719999957,20,156439.8906250000,156955.4375000000,181209.0781250000,177073.4062500000,164765.3593750000,165200.1718750000,45846.0937500000,169328.8906250000,,,
2.5759999957,20,156436.0312500000,156953.5625000000,181209.6406250000,177068.8125000000,164765.4062500000,165197.8437500000,45847.3789062500,169331.0781250000,,,
2.5799999957,20,156435.1718750000,156952.6718750000,181210.2812500000,177059.2187500000,164765.0156250000,165197.4375000000,45846.5507812500,169334.3437500000,,,
2.5839999958,20,156440.5625000000,156958.0312500000,181214.0156250000,177063.9843750000,164767.4218750000,165202.0000000000,45847.4609375000,169336.8593750000,,,
2.5879999958,20,156456.2031250000,156977.1406250000,181227.4531250000,177070.3437500000,164776.5937500000,165212.6718750000,45850.8945312500,169346.0156250000,,,
2.5919999958,20,156455.6562500000,156970.3437500000,181228.6562500000,177073.3281250000,164775.9531250000,165206.0000000000,45849.5000000000,169341.4531250000,,,
2.5959999957,20,156451.0468750000,156966.0781250000,181217.5468750000,177078.2812500000,164767.2968750000,165201.9687500000,45843.7578125000,169340.2656250000,,,
2.5999999957,20,156448.1718750000,156964.4687500000,181211.1406250000,177076.8593750000,164762.3750000000,165198.9687500000,45842.1484375000,169340.9687500000,,,
2.6039999959,20,156443.3281250000,156956.8281250000,181204.6718750000,177078.1562500000,164755.8593750000,165192.0468750000,45835.3125000000,169332.5156250000,,,
2.6079999958,20,156442.5156250000,156956.2968750000,181201.2343750000,177076.4843750000,164751.3281250000,165192.1562500000,45831.0468750000,169325.2968750000,,,
2.6119999958,20,156449.7812500000,156966.6718750000,181208.0312500000,177083.4531250000,164757.8750000000,165199.0781250000,45839.3593750000,169333.0000000000,,,
2.6159999957,20,156454.4218750000,156971.6875000000,181214.3906250000,177087.0781250000,164767.1250000000,165204.5468750000,45850.2226562500,169342.0156250000,,,
2.6199999957,20,156446.5937500000,156962.2500000000,181205.1093750000,177093.8437500000,164761.5312500000,165200.5000000000,45842.9296875000,169337.8906250000,,,
2.6239999956,20,156440.0312500000,156954.0937500000,181202.0156250000,177075.8906250000,164758.7656250000,165198.4062500000,45840.7304687500,169328.8125000000,,,
2.6279999958,20,156438.1250000000,156951.1406250000,181204.3281250000,177069.5156250000,164759.4375000000,165199.1875000000,45841.5351562500,169321.0937500000,,,
2.6319999958,20,156443.9062500000,156957.2656250000,181213.6562500000,177074.9375000000,164768.4218750000,165204.7343750000,45850.1718750000,169325.0937500000,,,
2.6359999957,20,156451.7500000000,156965.9531250000,181221.0312500000,177075.5937500000,164777.7812500000,165214.0625000000,45857.6250000000,169335.7031250000,,,
2.6399999957,20,156451.5625000000,156968.1562500000,181220.9531250000,177061.0625000000,164779.6250000000,165218.9218750000,45859.4218750000,169341.5312500000,,,
2.6439999957,20,156451.7968750000,156964.9531250000,181219.0000000000,177066.4531250000,164777.5312500000,165216.1875000000,45859.9335937500,169340.0781250000,,,
2.6479999959,20,156449.3281250000,156962.8437500000,181210.0468750000,177076.2656250000,164768.1562500000,165215.4062500000,45856.9023437500,169337.1093750000,,,
2.6519999958,20,156449.7031250000,156965.9843750000,181207.9687500000,177077.1875000000,164765.6562500000,165214.5156250000,45854.6757812500,169340.5156250000,,,
2.6559999958,20,156445.8437500000,156964.2812500000,181206.1250000000,177072.9218750000,164764.1250000000,165210.6562500000,45852.6640625000,169343.7812500000,,,
2.6599999957,20,156435.7343750000,156956.4843750000,181198.8593750000,177055.5937500000,164757.8750000000,165206.8750000000,45848.9648437500,169340.5156250000,,,
2.6639999957,20,156436.2343750000,156957.2812500000,181201.8593750000,177055.0000000000,164761.0937500000,165207.2812500000,45853.0664062500,169336.9218750000,,,
2.6679999956,20,156445.1718750000,156965.6875000000,181214.7812500000,177060.1718750000,164772.8437500000,165210.1250000000,45864.4375000000,169337.9062500000,,,
2.6719999958,20,156446.7343750000,156965.5781250000,181216.7656250000,177063.5781250000,164775.5781250000,165209.7968750000,45865.8085937500,169336.8125000000,,,
2.6759999958,20,156445.8750000000,156962.2031250000,181214.0937500000,177068.2812500000,164772.8906250000,165208.6250000000,45860.8437500000,169336.2812500000,,,
2.6799999957,20,156435.9218750000,156951.0625000000,181202.9531250000,177060.8281250000,164761.1562500000,165199.6562500000,45847.5156250000,169328.2031250000,,,
2.6839999957,20,156436.9375000000,156951.3125000000,181202.0937500000,177060.1718750000,164759.0625000000,165200.0625000000,45847.5664062500,169321.6093750000,,,
2.6879999957,21,156445.1718750000,156959.1406250000,181210.7031250000,177068.7656250000,164765.1406250000,165205.6718750000,45854.0859375000,169320.6093750000,,,
2.6919999956,21,156447.2187500000,156963.4531250000,181211.8437500000,177075.2031250000,164766.2187500000,165207.3593750000,45853.8437500000,169324.0156250000,,,
2.6959999956,21,156451.8281250000,156969.1093750000,181216.2343750000,177088.9062500000,164771.9062500000,165212.2656250000,45858.5117187500,169334.3906250000,,,
2.6999999955,21,156457.8125000000,156973.0312500000,181227.0781250000,177085.6562500000,164781.5625000000,165215.2968750000,45866.5859375000,169343.0000000000,,,
2.7039999955,21,156455.1250000000,156968.9062500000,181223.0156250000,177074.7500000000,164778.3906250000,165211.2500000000,45863.2070312500,169338.7656250000,,,
2.7079999954,21,156449.0625000000,156965.3281250000,181214.3281250000,177061.4687500000,164769.5937500000,165206.4218750000,45855.3984375000,169332.1718750000,,,
2.7119999956,21,156443.3281250000,156958.9843750000,181209.0781250000,177055.9687500000,164763.7812500000,165199.3750000000,45847.0039062500,169326.5625000000,,,
2.7159999956,21,156438.8125000000,156955.3593750000,181202.4218750000,177052.9375000000,164757.3593750000,165194.4375000000,45837.6992187500,169328.9218750000,,,
2.7199999955,21,156433.0781250000,156947.2812500000,181197.7812500000,177052.1093750000,164752.4062500000,165187.4375000000,45833.3007812500,169327.0000000000,,,
2.7239999955,21,156434.7187500000,156947.9843750000,181201.7031250000,177063.5781250000,164754.9531250000,165187.8593750000,45838.1796875000,169324.7343750000,,,
2.7279999955,21,156438.1406250000,156952.8593750000,181205.0468750000,177059.8281250000,164758.7812500000,165193.3593750000,45845.2070312500,169325.1406250000,,,
2.7319999957,21,156438.7656250000,156955.2500000000,181204.9375000000,177047.3281250000,164760.6406250000,165197.2187500000,45850.6523437500,169327.1562500000,,,
2.7359999956,21,156435.0625000000,156955.6250000000,181202.6875000000,177043.6875000000,164760.2968750000,165198.1406250000,45851.2695312500,169331.1250000000,,,
2.7399999956,21,156430.6093750000,156955.4062500000,181198.1562500000,177042.4218750000,164757.6875000000,165201.3593750000,45849.3398437500,169335.4218750000,,,
2.7439999955,21,156436.9375000000,156965.3281250000,181203.0625000000,177047.8906250000,164761.6093750000,165211.6562500000,45853.2812500000,169340.2968750000,,,
2.7479999955,21,156434.3125000000,156952.8593750000,181200.5156250000,177045.9687500000,164756.6093750000,165198.6406250000,45848.1601562500,169324.2343750000,,,
2.7519999954,21,156445.5468750000,156962.1093750000,181210.5468750000,177060.0156250000,164765.0156250000,165204.5156250000,45854.4609375000,169330.5000000000,,,
2.7559999956,21,156445.2343750000,156965.3593750000,181209.0000000000,177065.3593750000,164763.2656250000,165207.2031250000,45853.6289062500,169337.6093750000,,,
2.7599999956,21,156431.9531250000,156951.9843750000,181193.0937500000,177054.1406250000,164748.1093750000,165197.0312500000,45841.1835937500,169327.0468750000,,,
2.7639999955,21,156422.6718750000,156940.7187500000,181185.6093750000,177036.5156250000,164740.1406250000,165184.1093750000,45833.8085937500,169310.9218750000,,,
2.7679999955,21,156431.3906250000,156946.3437500000,181196.7968750000,177044.8125000000,164749.2968750000,165188.2343750000,45841.0781250000,169309.2656250000,,,
2.7719999955,21,156437.5625000000,156950.2656250000,181205.4062500000,177049.8593750000,164757.3437500000,165193.7656250000,45848.7500000000,169312.7187500000,,,
2.7759999956,21,156433.3125000000,156944.7343750000,181203.0312500000,177054.5000000000,164757.6406250000,165192.7500000000,45850.4648437500,169313.6875000000,,,
2.7799999956,21,156433.5937500000,156947.5312500000,181202.6875000000,177060.7343750000,164760.0000000000,165194.2187500000,45851.0820312500,169319.8125000000,,,
2.7839999956,21,156436.2187500000,156947.2343750000,181207.4687500000,177063.1875000000,164764.7500000000,165194.8125000000,45854.6757812500,169319.8906250000,,,
2.7879999955,21,156439.3593750000,156949.4531250000,181213.2656250000,177061.6875000000,164769.1718750000,165197.3906250000,45858.3515625000,169316.2968750000,,,
2.7919999955,21,156452.6250000000,156966.0000000000,181226.7812500000,177072.0937500000,164779.3593750000,165210.0156250000,45867.4960937500,169331.7968750000,,,
2.7959999954,21,156449.6250000000,156963.0312500000,181220.5312500000,177062.8125000000,164772.8750000000,165207.8125000000,45862.7226562500,169338.5312500000,,,
2.7999999956,21,156439.1406250000,156952.4375000000,181205.8281250000,177058.3593750000,164759.4375000000,165200.0625000000,45851.9414062500,169331.8437500000,,,
2.8039999956,21,156434.3906250000,156945.1093750000,181200.6250000000,177049.4531250000,164753.2031250000,165195.5000000000,45849.8203125000,169321.1718750000,,,
2.8079999955,21,156437.2812500000,156947.0156250000,181204.8593750000,177053.8281250000,164756.1562500000,165199.1875000000,45854.4609375000,169314.4687500000,,,
2.8119999955,21,156442.9687500000,156951.4062500000,181211.6250000000,177064.9218750000,164762.1875000000,165204.7343750000,45860.6289062500,169317.8437500000,,,
2.8159999955,22,156443.9687500000,156956.1562500000,181212.2343750000,177054.8125000000,164764.5781250000,165209.5000000000,45862.5351562500,169328.3125000000,,,
2.8199999954,22,156444.1562500000,156954.8750000000,181210.2031250000,177061.4375000000,164765.1406250000,165209.3125000000,45860.4960937500,169332.5937500000,,,
2.8239999954,22,156446.5468750000,156956.6093750000,181212.6406250000,177060.6093750000,164767.6718750000,165210.5781250000,45863.3125000000,169333.5312500000,,,
2.8279999953,22,156449.0156250000,156958.8125000000,181216.2656250000,177059.2968750000,164770.2968750000,165212.8125000000,45868.1953125000,169332.3281250000,,,
2.8319999953,22,156455.1718750000,156965.0468750000,181224.9531250000,177063.0000000000,164777.0468750000,165218.0156250000,45873.3437500000,169339.1406250000,,,
2.8359999952,22,156457.3437500000,156967.7500000000,181227.7187500000,177060.5000000000,164780.6562500000,165219.7500000000,45875.3828125000,169347.9375000000,,,
2.8399999954,22,156445.0468750000,156957.2812500000,181210.3125000000,177064.9531250000,164766.0000000000,165213.1875000000,45865.2421875000,169343.0000000000,,,
2.8439999954,22,156441.5000000000,156954.9218750000,181204.0781250000,177052.8906250000,164757.2656250000,165212.3281250000,45861.7578125000,169337.0781250000,,,
2.8479999953,22,156439.7031250000,156953.7187500000,181196.3281250000,177053.6562500000,164746.4218750000,165207.9531250000,45855.4257812500,169329.2500000000,,,
2.8519999953,22,156448.9218750000,156964.6562500000,181202.4687500000,177060.6093750000,164749.7812500000,165213.6093750000,45861.2734375000,169336.9375000000,,,
2.8559999953,22,156452.8437500000,156966.1093750000,181207.5156250000,177057.2812500000,164756.5312500000,165214.5468750000,45865.8593750000,169343.4687500000,,,
2.8599999954,22,156450.0000000000,156959.7500000000,181211.9218750000,177054.6875000000,164763.0000000000,165208.7031250000,45871.0117187500,169337.6093750000,,,
2.8639999954,22,156448.0625000000,156953.4843750000,181216.7187500000,177054.0625000000,164769.6718750000,165208.8125000000,45877.1523437500,169331.0468750000,,,
2.8679999954,22,156449.4687500000,156950.9062500000,181220.6406250000,177065.3281250000,164775.2343750000,165211.6562500000,45880.6132812500,169328.3593750000,,,
2.8719999953,22,156449.2031250000,156953.2343750000,181221.6250000000,177066.8593750000,164777.2187500000,165215.9375000000,45884.0468750000,169332.6562500000,,,
2.8759999953,22,156445.2500000000,156951.7343750000,181221.4687500000,177062.0625000000,164777.8906250000,165216.5625000000,45886.6210937500,169339.5000000000,,,
2.8799999952,22,156443.1406250000,156947.5468750000,181221.1718750000,177062.6406250000,164777.8593750000,165212.2500000000,45883.6445312500,169339.2187500000,,,
2.8839999954,22,156447.7187500000,156950.2812500000,181226.3281250000,177071.0156250000,164781.0000000000,165212.5312500000,45884.6367187500,169338.9843750000,,,
2.8879999954,22,156458.7968750000,156964.2031250000,181234.4218750000,177074.6562500000,164788.0312500000,165220.3906250000,45890.3750000000,169346.1406250000,,,
2.8919999953,22,156463.0156250000,156971.3750000000,181235.0312500000,177072.1093750000,164789.2656250000,165223.1875000000,45890.2695312500,169349.6875000000,,,
2.8959999953,22,156457.8593750000,156969.0937500000,181226.9062500000,177075.0625000000,164781.8750000000,165217.9062500000,45882.3046875000,169350.7656250000,,,
2.8999999953,22,156454.4531250000,156963.3281250000,181221.3281250000,177082.0625000000,164775.1562500000,165212.4062500000,45876.4296875000,169345.3906250000,,,
2.9039999954,22,156446.6718750000,156958.0312500000,181211.0312500000,177068.2812500000,164763.9843750000,165206.6406250000,45868.2500000000,169335.5000000000,,,
2.9079999954,22,156444.9375000000,156959.2968750000,181208.3281250000,177054.6562500000,164761.2343750000,165210.1250000000,45870.8515625000,169329.1093750000,,,
2.9119999954,22,156450.8125000000,156966.2187500000,181214.4687500000,177052.9687500000,164768.8750000000,165220.9531250000,45879.9414062500,169332.0156250000,,,
2.9159999953,22,156455.6562500000,156971.0000000000,181218.5625000000,177058.5156250000,164775.9843750000,165224.2031250000,45882.0351562500,169340.1562500000,,,
2.9199999953,22,156458.8593750000,156968.9062500000,181225.1093750000,177060.2656250000,164783.7656250000,165222.1093750000,45886.8085937500,169342.7343750000,,,
2.9239999952,22,156457.8125000000,156964.0781250000,181225.2500000000,177063.9375000000,164783.3906250000,165217.7656250000,45886.4062500000,169336.2812500000,,,
2.9279999954,22,156459.0156250000,156965.3906250000,181224.1250000000,177072.1093750000,164781.2343750000,165215.2187500000,45886.1640625000,169333.4843750000,,,
2.9319999954,22,156457.7187500000,156965.6875000000,181221.5781250000,177068.7031250000,164777.5156250000,165212.1875000000,45884.5546875000,169334.6718750000,,,
2.9359999953,22,156463.2031250000,156974.9375000000,181226.7812500000,177060.9062500000,164782.2343750000,165220.1093750000,45886.2734375000,169347.5625000000,,,
2.9399999953,22,156463.0312500000,156973.2187500000,181228.0156250000,177062.9687500000,164782.2812500000,165217.8750000000,45882.8671875000,169349.8437500000,,,
2.9439999952,23,156456.6562500000,156968.7968750000,181220.3437500000,177062.2968750000,164774.7968750000,165217.2812500000,45877.6914062500,169344.2968750000,,,
2.9479999952,23,156455.7656250000,156972.3593750000,181218.4687500000,177066.4218750000,164771.3125000000,165222.6718750000,45879.4062500000,169342.7343750000,,,
2.9519999952,23,156459.4218750000,156976.7812500000,181220.5468750000,177073.8906250000,164772.0312500000,165226.0781250000,45883.9375000000,169344.5312500000,,,
2.9559999951,23,156462.0156250000,156980.1406250000,181220.1250000000,177068.2812500000,164771.2656250000,165229.2500000000,45882.4921875000,169353.7343750000,,,
2.9599999951,23,156460.3593750000,156977.0000000000,181218.1875000000,177068.0156250000,164767.5625000000,165225.7343750000,45878.6289062500,169356.9218750000,,,
