Time:250Hz,Epoch,Channel 1,Channel 2,Channel 3,Channel 4,Channel 5,Channel 6,Channel 7,Channel 8,Event Id,Event Date,Event Duration
0.0000000000,0,152964.9062500000,152960.7187500000,177944.4218750000,172313.2656250000,161427.7500000000,163768.6562500000,56042.4570312500,171281.5781250000,,,
0.0040000000,0,152968.9218750000,152961.5468750000,177949.9687500000,172326.7968750000,161434.5625000000,163770.3437500000,56050.0742187500,171282.3750000000,,,
0.0079999999,0,152969.5625000000,152955.2500000000,177949.9218750000,172336.0000000000,161436.3906250000,163765.6718750000,56047.2851562500,171274.2968750000,,,
0.0119999999,0,152974.8437500000,152955.9062500000,177953.0937500000,172345.2031250000,161440.0625000000,163767.6093750000,56042.1914062500,171265.2656250000,,,
0.0159999998,0,152980.6093750000,152959.2968750000,177958.4218750000,172336.1718750000,161447.7812500000,163774.3125000000,56041.6289062500,171264.5937500000,,,
0.0199999998,0,152981.5781250000,152957.9062500000,177963.0625000000,172314.3281250000,161452.7500000000,163775.9687500000,56045.1953125000,171267.2031250000,,,
0.0240000000,0,152976.2500000000,152950.1250000000,177954.6093750000,172311.4062500000,161446.2656250000,163769.6093750000,56054.6093750000,171267.3906250000,,,
0.0279999999,0,152972.6562500000,152947.4687500000,177947.2656250000,172315.9375000000,161440.0625000000,163764.0156250000,56048.4140625000,171266.6406250000,,,
0.0319999999,0,152976.5468750000,152951.9375000000,177949.7343750000,172322.8281250000,161440.3906250000,163765.0312500000,56043.5039062500,171264.8593750000,,,
0.0359999998,0,152977.9843750000,152956.7656250000,177951.9531250000,172321.3125000000,161439.0781250000,163766.9687500000,56051.2812500000,171263.8750000000,,,
0.0399999998,0,152977.5625000000,152960.2031250000,177953.2500000000,172334.8437500000,161439.4687500000,163771.3906250000,56048.8945312500,171271.1718750000,,,
0.0440000000,0,152972.4687500000,152958.5156250000,177949.6250000000,172321.4687500000,161434.4843750000,163769.2343750000,56045.0078125000,171276.5781250000,,,
0.0480000000,0,152977.8750000000,152965.6250000000,177954.9843750000,172316.7656250000,161440.1250000000,163771.0937500000,56051.6835937500,171280.5468750000,,,
0.0519999999,0,152976.7500000000,152967.8750000000,177951.6718750000,172326.0312500000,161438.2343750000,163771.1718750000,56040.7695312500,171274.2187500000,,,
0.0559999999,0,152982.3906250000,152971.7187500000,177958.1875000000,172337.4218750000,161443.1250000000,163773.8750000000,56037.1210937500,171275.8125000000,,,
0.0599999998,0,152971.3125000000,152956.2656250000,177945.1718750000,172331.6250000000,161432.6562500000,163763.2343750000,56029.3710937500,171266.6562500000,,,
0.0639999998,0,152965.6562500000,152951.2187500000,177935.3281250000,172302.3750000000,161425.9218750000,163761.3750000000,56031.9960937500,171264.8125000000,,,
0.0680000000,0,152971.1718750000,152951.4062500000,177940.3750000000,172306.4218750000,161429.0625000000,163760.1718750000,56032.3750000000,171266.7968750000,,,
0.0719999999,0,152983.2656250000,152958.5937500000,177950.2187500000,172329.2968750000,161436.3906250000,163765.3593750000,56039.6171875000,171266.2500000000,,,
0.0759999999,0,152990.9375000000,152965.0000000000,177956.5781250000,172343.2500000000,161440.5781250000,163774.1562500000,56044.0937500000,171267.4687500000,,,
0.0799999998,0,152988.8281250000,152960.9843750000,177958.8593750000,172327.7343750000,161442.3437500000,163776.0468750000,56040.5820312500,171269.2343750000,,,
0.0839999998,0,152981.3437500000,152954.7343750000,177954.8906250000,172308.6406250000,161438.1875000000,163770.9062500000,56040.9023437500,171269.6875000000,,,
0.0880000000,0,152975.2187500000,152949.3125000000,177952.0468750000,172311.8125000000,161435.5781250000,163763.5000000000,56038.5156250000,171265.3437500000,,,
0.0919999999,0,152981.0000000000,152959.3437500000,177960.5625000000,172324.5468750000,161443.4687500000,163767.4218750000,56043.2343750000,171269.1250000000,,,
0.0959999999,0,152979.7656250000,152957.3125000000,177961.2187500000,172323.7500000000,161443.6093750000,163764.8437500000,56035.1367187500,171269.2031250000,,,
0.0999999999,0,152969.4062500000,152947.8437500000,177950.6718750000,172309.4531250000,161436.5781250000,163759.7187500000,56028.2421875000,171270.1406250000,,,
0.1039999998,0,152964.7656250000,152945.7187500000,177947.8750000000,172304.6406250000,161435.9531250000,163756.4218750000,56026.4179687500,171274.6875000000,,,
0.1079999998,0,152970.6718750000,152954.9687500000,177953.8125000000,172320.9062500000,161442.2031250000,163759.2343750000,56028.1093750000,171280.8750000000,,,
0.1120000000,0,152982.7968750000,152972.0312500000,177961.2968750000,172338.0625000000,161450.2812500000,163772.7031250000,56036.7734375000,171289.1562500000,,,
0.1159999999,0,152970.5781250000,152956.6718750000,177944.9062500000,172332.2500000000,161435.2343750000,163761.0625000000,56039.0781250000,171276.8593750000,,,
0.1199999999,0,152966.1093750000,152952.0000000000,177935.2812500000,172332.3750000000,161426.4062500000,163757.6875000000,56040.7695312500,171276.3437500000,,,
0.1239999998,0,152970.3125000000,152958.4843750000,177938.4687500000,172343.4375000000,161429.3281250000,163760.3906250000,56041.1992187500,171287.9531250000,,,
0.1279999998,1,152974.3906250000,152963.7656250000,177942.9531250000,172353.5156250000,161433.9531250000,163766.0781250000,56036.8789062500,171293.6406250000,,,
0.1319999998,1,152971.6250000000,152962.3437500000,177942.2500000000,172322.5156250000,161432.0781250000,163768.0000000000,56030.6835937500,171288.3906250000,,,
0.1359999997,1,152967.0937500000,152962.0781250000,177940.2343750000,172298.6406250000,161429.4218750000,163769.8906250000,56029.7187500000,171284.7343750000,,,
0.1399999997,1,152961.5781250000,152953.9531250000,177938.1406250000,172308.5625000000,161427.2187500000,163762.3281250000,56031.0585937500,171281.1093750000,,,
0.1439999996,1,152962.5937500000,152950.3125000000,177942.8906250000,172325.3593750000,161431.8906250000,163758.2187500000,56038.8632812500,171278.2968750000,,,
0.1479999996,1,152968.2187500000,152951.8593750000,177952.6875000000,172319.7031250000,161440.4687500000,163759.9062500000,56048.9492187500,171276.4218750000,,,
0.1519999998,1,152966.2343750000,152950.6875000000,177946.9218750000,172312.8750000000,161435.6875000000,163759.8593750000,56042.2421875000,171267.1406250000,,,
0.1559999997,1,152965.3750000000,152946.7656250000,177944.2343750000,172320.9062500000,161432.9531250000,163756.6093750000,56037.7109375000,171257.4843750000,,,
0.1599999997,1,152962.5312500000,152940.8593750000,177942.5468750000,172319.5625000000,161433.2500000000,163755.0000000000,56028.6992187500,171257.6250000000,,,
0.1639999996,1,152959.6093750000,152932.9843750000,177938.7031250000,172317.0468750000,161430.7343750000,163750.5937500000,56019.4179687500,171258.9062500000,,,
0.1679999996,1,152970.6718750000,152942.2656250000,177946.0000000000,172338.0625000000,161434.5156250000,163754.5937500000,56033.0156250000,171262.5312500000,,,
0.1719999998,1,152976.7812500000,152948.5312500000,177949.8437500000,172324.3281250000,161435.5625000000,163762.0000000000,56041.1171875000,171262.0000000000,,,
0.1759999997,1,152973.3437500000,152945.6406250000,177948.0156250000,172309.3750000000,161430.5937500000,163762.1093750000,56042.4570312500,171258.5000000000,,,
0.1799999997,1,152973.9843750000,152946.2031250000,177949.4687500000,172320.5000000000,161432.1718750000,163763.7500000000,56042.6992187500,171262.7187500000,,,
0.1839999997,1,152973.2343750000,152944.3593750000,177950.0781250000,172323.0000000000,161435.9062500000,163763.0468750000,56038.2734375000,171268.5312500000,,,
0.1879999996,1,152975.6250000000,152946.5781250000,177951.7968750000,172328.1718750000,161439.8281250000,163762.7968750000,56039.2929687500,171270.5468750000,,,
0.1919999996,1,152976.5625000000,152949.3125000000,177950.2500000000,172321.4375000000,161438.2656250000,163762.0312500000,56040.1796875000,171265.7812500000,,,
0.1959999998,1,152978.7656250000,152953.7343750000,177952.9531250000,172323.1875000000,161438.7187500000,163768.0312500000,56039.8281250000,171262.4531250000,,,
0.1999999997,1,152982.2187500000,152957.1250000000,177959.0937500000,172324.2812500000,161444.8125000000,163771.0156250000,56047.3945312500,171268.0781250000,,,
0.2039999997,1,152978.4375000000,152952.7500000000,177954.3437500000,172333.4218750000,161442.2031250000,163767.7968750000,56044.1210937500,171269.5625000000,,,
0.2079999996,1,152978.7187500000,152956.9062500000,177952.2500000000,172329.1562500000,161439.9843750000,163767.2031250000,56038.5429687500,171275.7031250000,,,
0.2119999996,1,152975.0625000000,152956.2968750000,177943.8125000000,172324.0625000000,161430.1406250000,163764.3906250000,56030.4960937500,171271.7500000000,,,
0.2159999998,1,152972.8437500000,152954.4062500000,177939.0625000000,172329.5156250000,161423.2968750000,163763.6562500000,56020.7343750000,171266.8281250000,,,
0.2199999997,1,152977.0000000000,152957.0468750000,177943.5625000000,172337.1250000000,161426.8750000000,163754.0000000000,56023.2539062500,171271.7812500000,,,
0.2239999997,1,152987.6406250000,152965.1875000000,177952.5468750000,172356.0937500000,161434.7500000000,163743.2187500000,56029.1562500000,171280.1250000000,,,
0.2279999997,1,152985.7343750000,152969.2656250000,177947.8750000000,172370.1718750000,161430.2187500000,163754.5937500000,56026.5000000000,171283.8281250000,,,
0.2319999996,1,152967.6406250000,152960.1250000000,177930.8281250000,172327.4687500000,161417.6406250000,163772.4843750000,56029.5585937500,171274.9218750000,,,
0.2359999996,1,152964.4375000000,152957.1406250000,177928.5781250000,172316.7656250000,161416.8437500000,163770.1562500000,56033.0429687500,171267.8593750000,,,
0.2399999998,1,152970.5000000000,152960.1718750000,177937.1875000000,172326.8593750000,161424.5937500000,163770.9375000000,56035.2148437500,171273.7187500000,,,
0.2439999997,1,152975.5156250000,152959.6093750000,177946.8437500000,172339.3281250000,161435.6406250000,163782.4375000000,56040.9023437500,171279.7031250000,,,
0.2479999997,1,152968.1250000000,152948.4531250000,177938.7968750000,172314.4687500000,161431.2343750000,163787.7187500000,56033.0976562500,171272.4218750000,,,
0.2519999996,1,152961.0156250000,152934.3281250000,177932.6250000000,172298.5312500000,161424.2968750000,163781.5312500000,56030.3632812500,171253.3906250000,,,
0.2559999996,2,152969.3750000000,152938.0312500000,177943.2656250000,172302.9375000000,161432.5468750000,163786.9375000000,56033.0156250000,171248.6875000000,,,
0.2599999995,2,152974.5312500000,152944.8125000000,177947.4218750000,172307.7812500000,161435.5625000000,163795.6562500000,56029.2343750000,171259.1718750000,,,
0.2639999995,2,152972.7656250000,152944.1718750000,177943.4843750000,172306.1718750000,161431.7812500000,163798.7500000000,56031.8632812500,171267.1093750000,,,
0.2679999995,2,152977.1562500000,152947.4687500000,177946.9218750000,172317.8125000000,161434.1875000000,163803.3125000000,56031.5937500000,171273.7187500000,,,
0.2719999994,2,152986.0937500000,152956.0781250000,177956.4375000000,172320.8750000000,161442.3906250000,163808.5937500000,56035.1093750000,171279.8593750000,,,
0.2759999994,2,152991.0312500000,152966.9375000000,177960.4843750000,172314.3593750000,161447.6562500000,163815.2968750000,56035.0000000000,171287.3906250000,,,
0.2799999996,2,152987.2968750000,152964.4687500000,177959.8437500000,172317.9843750000,161449.4843750000,163814.2500000000,56034.8125000000,171292.4062500000,,,
0.2839999995,2,152983.7031250000,152961.1718750000,177958.5625000000,172328.7812500000,161450.2812500000,163812.8750000000,56034.4375000000,171296.6250000000,,,
0.2879999995,2,152988.7656250000,152968.2500000000,177965.3750000000,172333.2187500000,161455.7031250000,163815.4218750000,56041.8945312500,171300.7187500000,,,
0.2919999994,2,152992.1250000000,152972.3593750000,177965.7500000000,172341.7187500000,161456.1250000000,163815.1875000000,56040.7695312500,171296.4843750000,,,
0.2959999994,2,152985.9843750000,152968.2187500000,177956.1093750000,172342.1718750000,161445.2968750000,163806.1250000000,56031.0585937500,171289.8125000000,,,
0.2999999996,2,152981.0781250000,152965.8437500000,177950.7500000000,172328.3125000000,161439.6406250000,163804.7343750000,56028.6171875000,171289.5937500000,,,
0.3039999995,2,152982.8437500000,152970.7968750000,177953.6718750000,172320.9843750000,161441.7343750000,163808.4062500000,56028.5117187500,171299.1406250000,,,
0.3079999995,2,152983.9375000000,152974.3437500000,177953.7812500000,172331.2343750000,161441.7812500000,163804.9687500000,56022.2617187500,171303.0312500000,,,
0.3119999995,2,152983.0781250000,152975.7968750000,177949.2187500000,172330.4531250000,161435.9843750000,163803.6562500000,56016.4960937500,171300.6718750000,,,
0.3159999994,2,152975.2500000000,152965.5625000000,177939.4062500000,172326.7187500000,161425.6406250000,163795.7968750000,56011.8554687500,171289.4531250000,,,
0.3199999994,2,152980.8281250000,152969.1093750000,177944.0468750000,172330.9531250000,161428.1250000000,163796.0625000000,56013.7304687500,171292.7812500000,,,
0.3239999996,2,152987.6406250000,152971.6562500000,177949.1093750000,172346.4687500000,161429.2812500000,163796.0625000000,56008.8515625000,171298.4218750000,,,
0.3279999995,2,152987.0312500000,152969.2500000000,177948.7343750000,172330.2968750000,161427.4843750000,163795.0937500000,56006.3007812500,171297.4218750000,,,
0.3319999995,2,152976.6718750000,152959.6718750000,177937.4687500000,172322.3281250000,161417.1250000000,163789.4062500000,55998.9804687500,171285.6718750000,,,
0.3359999994,2,152978.4687500000,152962.2187500000,177938.6562500000,172318.7500000000,161419.5156250000,163791.7968750000,56001.4218750000,171280.8750000000,,,
0.3399999994,2,152982.5781250000,152966.8281250000,177946.2500000000,172308.4375000000,161429.1406250000,163797.9062500000,56010.5937500000,171287.1250000000,,,
0.3439999996,2,152979.7812500000,152963.9375000000,177945.0468750000,172315.8906250000,161430.1406250000,163797.9062500000,56011.3437500000,171291.1250000000,,,
0.3479999995,2,152983.0625000000,152965.2187500000,177952.0468750000,172327.8437500000,161436.8437500000,163800.4687500000,56013.9453125000,171290.8281250000,,,
0.3519999995,2,152988.9062500000,152970.5781250000,177960.7343750000,172326.4218750000,161443.2343750000,163804.7500000000,56016.1445312500,171289.7500000000,,,
0.3559999994,2,152982.3906250000,152960.4531250000,177955.5000000000,172311.0625000000,161438.9062500000,163799.6250000000,56013.8125000000,171279.4843750000,,,
0.3599999994,2,152976.2187500000,152949.4531250000,177951.6718750000,172309.0937500000,161435.5000000000,163793.2968750000,56012.4726562500,171269.6406250000,,,
0.3639999994,2,152974.6093750000,152945.6093750000,177952.8750000000,172321.1093750000,161435.8593750000,163789.8750000000,56013.3828125000,171270.2343750000,,,
0.3679999996,2,152977.8750000000,152947.9531250000,177957.5156250000,172323.5312500000,161439.3906250000,163790.3437500000,56011.8007812500,171270.8125000000,,,
0.3719999995,2,152978.0937500000,152951.4843750000,177955.3125000000,172324.8750000000,161436.6093750000,163786.9375000000,56005.3632812500,171266.9218750000,,,
0.3759999995,2,152976.5937500000,152954.5468750000,177950.0000000000,172335.8125000000,161431.1250000000,163782.4687500000,55995.1445312500,171267.7343750000,,,
0.3799999994,2,152974.5312500000,152956.0000000000,177943.9375000000,172344.9843750000,161426.4843750000,163784.0468750000,55995.8945312500,171274.2968750000,,,
0.3839999994,3,152974.6093750000,152961.5781250000,177938.8125000000,172351.5937500000,161423.3281250000,163791.7500000000,56003.4335937500,171282.4375000000,,,
0.3879999993,3,152972.5937500000,152960.5781250000,177933.5000000000,172350.8125000000,161418.2031250000,163791.5625000000,55997.3984375000,171279.6718750000,,,
0.3919999993,3,152974.4218750000,152962.7343750000,177935.5781250000,172344.6718750000,161418.9218750000,163791.8593750000,55990.7187500000,171274.0937500000,,,
0.3959999993,3,152977.5937500000,152965.8906250000,177938.1250000000,172353.5468750000,161420.6250000000,163794.5000000000,55998.7929687500,171273.4687500000,,,
0.3999999992,3,152972.1875000000,152961.1718750000,177930.3125000000,172357.1406250000,161415.1718750000,163790.1562500000,55998.5234375000,171275.8593750000,,,
0.4039999992,3,152969.5625000000,152959.4062500000,177928.9218750000,172349.3281250000,161415.2500000000,163790.1562500000,55999.7304687500,171282.2500000000,,,
0.4079999994,3,152966.6406250000,152953.2656250000,177931.4687500000,172327.3906250000,161418.7656250000,163787.7500000000,56002.0625000000,171278.9375000000,,,
0.4119999993,3,152970.1875000000,152953.3906250000,177940.2656250000,172329.6406250000,161424.7500000000,163789.9531250000,56008.6640625000,171271.3593750000,,,
0.4159999993,3,152974.5312500000,152953.5468750000,177947.2968750000,172324.1406250000,161430.3593750000,163791.6875000000,56012.0156250000,171264.0781250000,,,
0.4199999992,3,152980.2343750000,152952.7812500000,177953.2812500000,172332.4687500000,161436.5000000000,163795.3125000000,56013.4375000000,171265.1250000000,,,
0.4239999992,3,152977.6875000000,152945.0000000000,177949.9687500000,172321.9218750000,161435.1562500000,163794.2968750000,56006.8398437500,171264.7343750000,,,
0.4279999994,3,152983.3593750000,152951.4062500000,177953.6250000000,172314.7656250000,161439.3437500000,163798.5625000000,56011.8554687500,171269.5625000000,,,
0.4319999993,3,152984.4062500000,152955.2656250000,177952.0156250000,172316.4218750000,161436.6875000000,163798.7500000000,56016.6289062500,171269.0468750000,,,
0.4359999993,3,152987.7031250000,152962.8906250000,177954.7500000000,172316.6406250000,161438.4218750000,163809.0156250000,56020.4375000000,171272.7187500000,,,
0.4399999992,3,152995.6406250000,152971.5000000000,177962.7968750000,172332.0625000000,161447.7812500000,163819.5937500000,56022.3164062500,171285.4687500000,,,
0.4439999992,3,152991.9062500000,152965.8906250000,177959.4687500000,172331.9843750000,161445.7187500000,163810.5468750000,56019.4179687500,171287.3906250000,,,
0.4479999992,3,152991.1562500000,152966.0312500000,177958.4218750000,172333.9843750000,161444.5468750000,163807.0937500000,56019.5273437500,171287.3125000000,,,
0.4519999993,3,152981.5781250000,152958.0000000000,177949.5468750000,172321.7031250000,161434.8906250000,163795.1250000000,56009.3867187500,171275.7500000000,,,
0.4559999993,3,152973.1093750000,152951.1875000000,177942.6250000000,172319.0312500000,161427.1875000000,163787.0312500000,56005.1757812500,171265.6875000000,,,
0.4599999993,3,152964.2500000000,152943.8125000000,177935.8593750000,172309.4531250000,161420.6250000000,163784.7968750000,56000.1054687500,171262.4218750000,,,
0.4639999992,3,152957.6562500000,152937.8125000000,177929.0781250000,172313.1250000000,161414.2656250000,163779.8125000000,55991.3632812500,171260.3281250000,,,
0.4679999992,3,152964.0937500000,152942.7656250000,177934.8437500000,172324.6875000000,161418.6093750000,163783.1093750000,55993.7773437500,171261.2656250000,,,
0.4719999994,3,152974.4687500000,152952.9687500000,177944.3906250000,172333.5937500000,161427.0625000000,163794.3125000000,55995.2500000000,171263.4375000000,,,
0.4759999993,3,152982.4687500000,152962.8593750000,177947.1875000000,172348.8281250000,161429.8437500000,163804.6718750000,56005.2031250000,171269.0156250000,,,
0.4799999993,3,152988.8750000000,152973.8906250000,177949.6875000000,172352.0625000000,161433.1406250000,163813.2500000000,56010.5937500000,171283.5781250000,,,
0.4839999992,3,152984.5312500000,152964.2343750000,177944.6875000000,172350.4062500000,161428.0781250000,163806.5781250000,56009.4921875000,171282.0781250000,,,
0.4879999992,3,152989.2812500000,152968.2500000000,177945.3281250000,172355.1875000000,161429.2812500000,163809.2812500000,56015.0468750000,171287.1562500000,,,
0.4919999992,3,152996.2031250000,152977.9062500000,177950.7187500000,172351.7812500000,161434.4531250000,163814.9687500000,56021.4023437500,171292.9687500000,,,
0.4959999993,3,152987.9062500000,152970.0156250000,177946.6250000000,172337.7500000000,161432.0468750000,163810.4687500000,56015.6914062500,171284.3125000000,,,
0.4999999993,3,152970.5781250000,152955.0312500000,177929.5625000000,172330.1562500000,161421.2812500000,163800.4687500000,56002.7890625000,171276.4531250000,,,
0.5039999993,3,152965.0000000000,152947.5156250000,177931.4375000000,172321.3281250000,161425.4531250000,163790.5625000000,56002.0390625000,171276.0156250000,,,
0.5079999992,3,152967.6093750000,152950.3125000000,177936.4843750000,172322.1093750000,161430.2187500000,163794.8593750000,56011.4257812500,171277.7968750000,,,
0.5119999992,4,152969.6406250000,152950.2500000000,177938.4687500000,172331.7187500000,161431.2656250000,163798.7968750000,56013.3828125000,171272.6406250000,,,
0.5159999991,4,152970.7656250000,152949.7500000000,177942.0312500000,172342.9531250000,161432.9062500000,163794.8593750000,56008.5000000000,171262.3750000000,,,
0.5199999991,4,152973.0000000000,152956.1093750000,177945.4687500000,172334.9531250000,161434.5312500000,163798.7968750000,56010.3242187500,171266.1250000000,,,
0.5239999990,4,152971.2343750000,152958.0937500000,177946.3593750000,172315.2500000000,161434.0000000000,163801.2968750000,56016.6835937500,171272.3125000000,,,
0.5279999990,4,152970.3437500000,152956.8593750000,177942.7343750000,172325.0625000000,161429.0468750000,163799.2812500000,56015.9570312500,171274.2968750000,,,
0.5319999990,4,152977.9687500000,152966.8281250000,177945.7031250000,172332.8437500000,161430.5156250000,163804.2500000000,56012.6054687500,171276.9843750000,,,
0.5359999991,4,152982.8750000000,152973.6718750000,177949.7031250000,172340.2187500000,161432.6093750000,163801.9375000000,56009.0664062500,171277.6250000000,,,
0.5399999991,4,152984.2656250000,152977.0781250000,177950.7031250000,172342.1250000000,161434.2500000000,163799.6093750000,56010.9414062500,171281.2812500000,,,
0.5439999991,4,152980.9375000000,152976.0312500000,177946.4375000000,172338.6875000000,161432.8281250000,163801.8906250000,56005.0703125000,171286.3281250000,,,
0.5479999990,4,152975.2812500000,152970.2031250000,177943.0781250000,172334.2656250000,161429.2500000000,163801.1093750000,55994.5546875000,171288.5156250000,,,
0.5519999990,4,152970.9375000000,152967.3593750000,177939.0781250000,172326.0781250000,161423.8906250000,163799.9062500000,55992.8125000000,171283.4218750000,,,
0.5559999992,4,152973.5937500000,152972.3750000000,177940.4843750000,172316.0156250000,161426.2500000000,163805.8281250000,56002.1992187500,171284.4375000000,,,
0.5599999991,4,152979.7031250000,152976.4531250000,177947.0468750000,172322.4531250000,161432.7656250000,163812.3906250000,56019.6601562500,171293.5156250000,,,
0.5639999991,4,152974.8750000000,152967.4687500000,177946.1875000000,172319.5625000000,161434.0312500000,163812.1562500000,56020.7343750000,171292.6718750000,,,
0.5679999990,4,152965.6718750000,152957.5468750000,177933.9375000000,172322.1875000000,161425.6406250000,163807.9687500000,56012.9257812500,171285.8125000000,,,
0.5719999990,4,152964.0625000000,152955.0781250000,177928.8906250000,172327.2343750000,161420.6718750000,163801.6093750000,56016.0117187500,171276.7187500000,,,
0.5759999990,4,152972.1875000000,152961.7031250000,177934.1718750000,172323.4531250000,161425.7187500000,163807.2500000000,56021.4023437500,171275.5156250000,,,
0.5799999991,4,152975.3281250000,152962.7812500000,177936.7187500000,172326.2187500000,161428.6406250000,163812.3437500000,56015.1523437500,171281.8750000000,33029,0.5809100794,0.0000000000
0.5839999991,4,152973.9843750000,152960.1718750000,177931.8750000000,172314.5937500000,161424.5000000000,163807.5625000000,56010.4062500000,171288.5468750000,,,
0.5879999991,4,152978.2343750000,152962.5312500000,177935.1406250000,172317.0468750000,161426.2187500000,163806.9218750000,56014.7500000000,171293.7187500000,,,
0.5919999990,4,152983.8593750000,152966.5312500000,177944.1875000000,172329.3437500000,161431.5625000000,163811.4062500000,56014.8320312500,171293.5156250000,,,
0.5959999990,4,152984.3125000000,152963.9843750000,177949.3906250000,172318.6718750000,161434.0312500000,163811.6250000000,56016.0390625000,171287.7968750000,,,
0.5999999992,4,152979.7656250000,152959.9375000000,177946.0312500000,172313.8750000000,161431.5156250000,163806.7656250000,56016.5742187500,171283.7187500000,,,
0.6039999991,4,152974.4218750000,152953.4687500000,177945.1250000000,172318.9218750000,161430.7500000000,163804.8125000000,56012.7656250000,171280.4687500000,,,
0.6079999991,4,152969.7343750000,152945.6718750000,177944.5625000000,172321.7656250000,161430.5156250000,163799.4687500000,56003.2695312500,171270.8906250000,,,
0.6119999990,4,152970.8750000000,152944.5625000000,177947.5000000000,172322.7187500000,161431.7812500000,163796.1718750000,56004.4257812500,171259.5312500000,,,
0.6159999990,4,152970.5781250000,152945.1093750000,177945.1406250000,172320.5781250000,161428.7968750000,163795.6093750000,56007.9375000000,171251.6406250000,,,
0.6199999989,4,152967.7656250000,152942.7500000000,177941.2343750000,172322.5312500000,161424.4843750000,163792.6875000000,56013.0898437500,171246.1406250000,,,
0.6239999991,4,152971.3593750000,152948.3750000000,177945.4218750000,172323.3437500000,161427.7812500000,163797.6718750000,56016.3593750000,171253.5937500000,,,
0.6279999991,4,152973.4531250000,152954.6875000000,177946.6250000000,172321.2500000000,161428.6093750000,163802.2343750000,56013.1953125000,171262.7656250000,,,
0.6319999991,4,152972.1406250000,152959.3750000000,177944.7500000000,172329.7500000000,161425.3906250000,163801.3437500000,56009.2812500000,171264.5937500000,,,
0.6359999990,4,152978.0937500000,152969.2656250000,177946.9218750000,172343.2656250000,161426.2031250000,163807.1718750000,56014.9648437500,171269.2656250000,,,
0.6399999990,5,152974.8281250000,152968.6875000000,177938.7031250000,172343.0312500000,161419.8906250000,163808.1875000000,56011.1835937500,171273.2812500000,,,
0.6439999989,5,152969.8281250000,152966.4218750000,177931.6875000000,172335.5937500000,161416.0312500000,163807.0000000000,56011.2656250000,171280.5000000000,,,
0.6479999989,5,152972.1406250000,152969.2656250000,177934.3125000000,172320.3593750000,161421.1562500000,163809.5312500000,56018.2929687500,171287.3125000000,,,
0.6519999988,5,152971.9218750000,152970.3437500000,177935.2968750000,172312.1093750000,161422.8750000000,163810.3125000000,56014.9375000000,171287.7187500000,,,
0.6559999988,5,152973.4843750000,152968.6250000000,177936.2968750000,172326.0000000000,161423.8125000000,163806.5312500000,56012.0429687500,171283.5625000000,,,
0.6599999988,5,152973.0781250000,152965.1875000000,177936.0000000000,172323.7656250000,161424.9687500000,163801.9375000000,56008.3671875000,171284.9531250000,,,
0.6639999989,5,152965.0000000000,152959.7187500000,177929.8593750000,172310.7968750000,161421.1562500000,163797.7187500000,56004.0742187500,171286.3281250000,,,
0.6679999989,5,152968.8906250000,152962.0781250000,177937.2656250000,172321.3281250000,161428.2656250000,163799.8125000000,55998.4960937500,171288.9531250000,,,
0.6719999989,5,152975.7656250000,152969.6406250000,177945.6562500000,172319.8593750000,161434.8281250000,163807.4062500000,56007.0273437500,171293.1562500000,,,
0.6759999988,5,152970.9375000000,152965.3281250000,177937.7187500000,172309.1250000000,161426.0312500000,163802.1250000000,56006.6523437500,171288.9687500000,,,
0.6799999988,5,152970.9062500000,152966.8593750000,177938.7656250000,172295.2812500000,161425.7343750000,163803.5000000000,56013.7304687500,171292.3593750000,,,
0.6839999990,5,152970.6718750000,152964.6250000000,177939.4062500000,172306.5781250000,161427.3437500000,163809.5312500000,56018.5312500000,171297.6406250000,,,
0.6879999989,5,152970.2656250000,152958.1093750000,177933.8281250000,172315.4062500000,161423.1875000000,163809.0781250000,56015.5546875000,171294.4687500000,,,
0.6919999989,5,152977.8750000000,152963.6093750000,177938.8125000000,172313.3437500000,161427.7031250000,163814.9531250000,56017.7031250000,171291.8750000000,,,
0.6959999988,5,152977.3906250000,152962.8125000000,177938.5468750000,172313.1250000000,161425.6875000000,163812.6718750000,56011.7187500000,171283.8593750000,,,
0.6999999988,5,152974.5312500000,152957.2343750000,177936.0468750000,172315.6718750000,161424.1562500000,163807.6718750000,56016.9765625000,171280.6562500000,,,
0.7039999987,5,152971.0625000000,152951.1718750000,177932.4062500000,172324.6250000000,161422.6875000000,163803.3125000000,56017.3789062500,171280.3906250000,,,
0.7079999989,5,152964.0156250000,152944.9687500000,177928.7343750000,172305.7187500000,161420.0625000000,163800.4062500000,56012.3359375000,171275.1562500000,,,
0.7119999989,5,152961.4687500000,152943.3593750000,177929.7500000000,172299.5468750000,161420.3281250000,163799.8750000000,56015.6914062500,171266.6562500000,,,
0.7159999989,5,152966.6093750000,152946.2031250000,177940.9375000000,172308.0312500000,161429.8750000000,163802.1562500000,56026.9023437500,171262.3750000000,,,
0.7199999988,5,152961.1250000000,152941.8906250000,177940.8593750000,172299.8437500000,161430.8593750000,163799.6562500000,56026.1757812500,171260.5156250000,,,
0.7239999988,5,152955.2187500000,152944.7500000000,177930.0000000000,172302.4218750000,161425.7656250000,163798.9375000000,56021.6718750000,171266.5468750000,,,
0.7279999990,5,152950.2031250000,152944.3281250000,177922.8593750000,172314.6875000000,161419.0625000000,163798.8281250000,56011.3984375000,171269.3750000000,,,
0.7319999989,5,152943.6875000000,152941.2968750000,177914.7812500000,172316.6093750000,161408.5468750000,163797.9687500000,56009.5742187500,171263.7968750000,,,
0.7359999989,5,152946.1562500000,152943.7656250000,177914.8125000000,172311.0000000000,161405.9218750000,163802.5312500000,56023.0664062500,171260.1093750000,,,
0.7399999988,5,152953.4218750000,152949.3906250000,177920.7343750000,172319.4843750000,161410.6406250000,163803.6250000000,56027.5195312500,171267.4062500000,,,
0.7439999988,5,152960.0781250000,152954.0937500000,177927.6562500000,172324.7968750000,161417.2187500000,163804.3281250000,56025.0234375000,171280.0781250000,,,
0.7479999987,5,152962.0312500000,152951.5937500000,177930.8437500000,172323.3750000000,161418.3906250000,163803.9531250000,56018.9101562500,171282.4843750000,,,
0.7519999989,5,152958.8906250000,152948.1562500000,177929.7500000000,172306.8750000000,161415.4218750000,163804.8906250000,56018.6406250000,171279.5312500000,,,
0.7559999989,5,152963.1562500000,152954.5781250000,177934.9843750000,172304.9375000000,161419.5781250000,163810.5156250000,56024.6757812500,171283.1562500000,,,
0.7599999988,5,152966.4531250000,152958.5156250000,177937.7500000000,172310.2031250000,161424.4531250000,163815.1562500000,56025.4804687500,171289.8593750000,,,
0.7639999988,5,152964.6250000000,152952.1093750000,177942.0312500000,172297.9375000000,161431.2187500000,163816.8281250000,56026.5000000000,171292.4687500000,,,
0.7679999988,6,152962.5312500000,152950.3281250000,177944.8750000000,172304.4062500000,161435.7187500000,163817.6562500000,56022.4492187500,171294.7656250000,,,
0.7719999987,6,152966.4218750000,152954.4062500000,177951.6875000000,172313.5468750000,161445.3437500000,163820.7343750000,56030.1484375000,171295.5156250000,,,
0.7759999987,6,152968.6562500000,152953.6093750000,177953.1406250000,172319.7500000000,161445.7968750000,163819.1250000000,56038.6757812500,171290.1250000000,,,
0.7799999986,6,152967.7187500000,152956.5312500000,177952.3593750000,172306.9062500000,161445.6406250000,163823.6562500000,56035.9687500000,171292.4843750000,,,
0.7839999986,6,152965.0937500000,152958.2968750000,177950.4531250000,172300.0625000000,161444.2187500000,163827.4218750000,56040.6328125000,171298.7343750000,,,
0.7879999985,6,152958.6250000000,152948.8125000000,177942.8906250000,172288.8437500000,161435.0000000000,163821.6718750000,56044.1210937500,171294.0468750000,,,
0.7919999987,6,152959.5937500000,152947.3906250000,177942.0156250000,172290.5468750000,161431.0312500000,163823.1562500000,56042.5937500000,171287.3437500000,,,
0.7959999987,6,152970.0468750000,152954.0625000000,177949.8750000000,172307.2187500000,161437.2812500000,163825.8281250000,56050.1289062500,171283.6875000000,,,
0.7999999986,6,152975.3281250000,152956.9843750000,177956.4062500000,172306.4218750000,161444.2812500000,163823.6875000000,56052.5156250000,171287.2812500000,,,
0.8039999986,6,152979.3906250000,152957.0937500000,177958.5625000000,172307.7656250000,161447.7343750000,163825.7500000000,56053.3203125000,171291.2500000000,,,
0.8079999986,6,152970.9062500000,152946.3593750000,177942.8437500000,172297.8281250000,161433.0312500000,163821.0000000000,56041.1171875000,171283.1250000000,,,
0.8119999988,6,152972.1093750000,152950.0625000000,177936.0468750000,172312.9843750000,161424.5312500000,163824.0156250000,56032.4804687500,171279.7968750000,,,
0.8159999987,6,152978.0156250000,152960.9218750000,177937.3437500000,172321.5937500000,161421.6406250000,163828.9687500000,56032.7773437500,171285.0625000000,,,
0.8199999987,6,152977.3437500000,152963.3125000000,177935.3593750000,172317.1406250000,161419.9218750000,163830.9531250000,56030.3867187500,171291.2500000000,,,
0.8239999986,6,152976.6718750000,152966.9062500000,177935.9687500000,172310.6562500000,161423.7812500000,163834.6875000000,56026.9570312500,171300.1562500000,,,
0.8279999986,6,152969.2968750000,152965.0000000000,177931.6875000000,172300.6250000000,161422.0156250000,163832.4843750000,56020.5195312500,171302.0937500000,,,
0.8319999985,6,152964.1718750000,152962.1093750000,177927.8750000000,172299.6093750000,161418.3906250000,163824.4375000000,56020.5703125000,171294.6093750000,,,
0.8359999987,6,152960.7187500000,152958.6562500000,177928.1875000000,172296.2812500000,161418.2343750000,163816.9375000000,56027.3593750000,171287.1718750000,,,
0.8399999987,6,152958.0312500000,152954.5781250000,177932.1406250000,172298.2343750000,161422.2031250000,163816.7968750000,56028.6992187500,171287.2343750000,,,
0.8439999986,6,152957.2343750000,152951.6718750000,177935.3281250000,172289.4375000000,161426.1093750000,163814.8125000000,56027.6796875000,171288.5468750000,,,
0.8479999986,6,152958.5937500000,152952.1093750000,177940.5000000000,172282.4375000000,161431.0312500000,163807.5468750000,56030.4414062500,171289.6250000000,,,
0.8519999986,6,152959.0000000000,152950.3906250000,177944.0937500000,172283.1093750000,161432.5000000000,163807.4375000000,56029.8515625000,171284.5000000000,,,
0.8559999987,6,152966.2187500000,152958.7343750000,177951.9375000000,172305.2968750000,161438.9843750000,163816.0156250000,56028.3750000000,171286.5937500000,,,
0.8599999987,6,152972.3750000000,152964.3125000000,177957.1875000000,172320.9218750000,161445.4843750000,163820.7968750000,56029.7187500000,171293.0312500000,,,
0.8639999987,6,152973.4843750000,152965.7500000000,177958.1250000000,172290.1406250000,161448.0625000000,163823.7968750000,56033.7929687500,171298.6093750000,,,
0.8679999986,6,152963.9531250000,152954.3593750000,177947.5937500000,172276.7187500000,161439.8281250000,163815.3750000000,56028.9140625000,171292.5937500000,,,
0.8719999986,6,152958.3750000000,152947.2812500000,177934.8750000000,172281.5468750000,161425.8750000000,163808.9062500000,56023.1718750000,171281.3125000000,,,
0.8759999985,6,152963.2968750000,152951.8125000000,177935.1718750000,172293.5468750000,161424.7812500000,163814.0937500000,56026.0703125000,171279.7500000000,,,
0.8799999987,6,152967.5781250000,152955.1093750000,177940.2187500000,172305.7187500000,161428.9843750000,163817.3281250000,56031.5703125000,171283.6718750000,,,
0.8839999987,6,152968.0312500000,152956.7500000000,177943.4375000000,172303.5468750000,161433.5468750000,163820.9843750000,56037.0937500000,171289.7812500000,,,
0.8879999986,6,152962.7500000000,152951.5468750000,177939.9687500000,172290.0312500000,161431.9375000000,163821.4687500000,56035.0820312500,171287.4531250000,,,
0.8919999986,6,152967.9375000000,152953.9531250000,177942.6718750000,172294.8593750000,161434.1562500000,163824.6250000000,56034.3867187500,171285.9687500000,,,
0.8959999986,7,152965.8906250000,152952.7968750000,177937.6562500000,172288.7968750000,161428.4843750000,163820.9218750000,56035.0000000000,171283.5000000000,,,
0.8999999985,7,152955.1406250000,152943.8437500000,177926.1250000000,172277.5312500000,161417.8593750000,163809.9843750000,56021.1367187500,171282.7031250000,,,
0.9039999985,7,152952.4062500000,152943.6875000000,177923.8750000000,172278.3906250000,161417.5000000000,163811.8593750000,56019.2031250000,171293.7812500000,,,
0.9079999984,7,152955.0781250000,152946.6406250000,177926.2031250000,172292.0625000000,161420.8906250000,163816.5312500000,56025.1562500000,171300.8281250000,,,
0.9119999984,7,152961.5937500000,152954.1406250000,177933.0156250000,172295.8437500000,161428.0937500000,163820.7656250000,56032.6406250000,171303.1718750000,,,
0.9159999983,7,152967.3906250000,152962.0625000000,177940.3437500000,172295.7656250000,161434.3437500000,163822.0468750000,56041.1718750000,171305.2343750000,,,
0.9199999985,7,152963.2968750000,152959.2343750000,177937.5625000000,172304.0625000000,161430.4375000000,163814.8906250000,56036.3710937500,171302.9531250000,,,
0.9239999985,7,152952.1250000000,152948.4531250000,177927.8437500000,172306.6875000000,161419.1406250000,163802.8281250000,56023.0117187500,171298.9062500000,,,
0.9279999984,7,152955.2187500000,152953.2343750000,177933.8593750000,172305.5625000000,161423.1093750000,163804.7812500000,56026.7929687500,171301.3437500000,,,
0.9319999984,7,152959.6406250000,152958.4843750000,177940.4062500000,172291.5312500000,161427.2656250000,163811.9218750000,56030.3867187500,171300.3281250000,,,
0.9359999984,7,152960.0468750000,152956.4531250000,177942.4375000000,172292.8125000000,161427.2656250000,163809.9375000000,56033.0429687500,171291.1718750000,,,
0.9399999985,7,152965.7343750000,152960.0468750000,177949.5468750000,172299.5781250000,161432.5000000000,163809.7500000000,56031.5937500000,171290.5625000000,,,
0.9439999985,7,152966.6093750000,152956.9531250000,177954.2968750000,172303.8437500000,161437.7500000000,163801.3750000000,56019.9804687500,171291.2812500000,,,
0.9479999985,7,152967.6562500000,152953.4531250000,177955.5000000000,172309.5781250000,161438.6406250000,163797.4062500000,56020.1679687500,171288.5937500000,,,
0.9519999984,7,152961.0937500000,152950.7656250000,177941.0156250000,172291.8750000000,161426.2812500000,163803.0312500000,56025.6953125000,171283.5625000000,,,
0.9559999984,7,152959.9062500000,152952.1250000000,177934.5781250000,172286.5156250000,161420.1875000000,163806.8437500000,56037.6054687500,171282.5156250000,,,
0.9599999983,7,152967.5000000000,152958.2500000000,177939.4062500000,172299.0937500000,161424.4531250000,163813.3593750000,56046.0507812500,171289.0781250000,,,
0.9639999985,7,152971.4218750000,152960.3906250000,177941.6406250000,172291.2968750000,161428.3750000000,163814.9218750000,56046.9921875000,171296.0781250000,,,
0.9679999985,7,152969.3750000000,152956.6406250000,177940.6093750000,172287.7812500000,161428.2031250000,163809.4531250000,56039.9921875000,171297.5312500000,,,
0.9719999984,7,152974.9843750000,152964.0156250000,177948.4218750000,172286.4375000000,161436.7187500000,163813.6875000000,56047.8750000000,171297.6875000000,,,
0.9759999984,7,152978.3125000000,152970.0000000000,177951.9375000000,172295.4687500000,161442.1250000000,163818.0312500000,56053.2929687500,171298.4687500000,,,
0.9799999984,7,152971.7343750000,152962.3281250000,177947.5312500000,172295.2343750000,161439.7500000000,163814.2812500000,56047.7148437500,171292.6250000000,,,
0.9839999985,7,152967.5781250000,152960.9843750000,177945.0156250000,172289.5468750000,161439.8750000000,163813.8125000000,56043.2617187500,171297.6718750000,,,
0.9879999985,7,152963.8750000000,152958.8906250000,177940.8750000000,172289.9531250000,161437.9687500000,163812.0781250000,56035.8046875000,171300.7500000000,,,
0.9919999985,7,152957.6250000000,152953.0937500000,177931.5781250000,172287.8593750000,161429.4687500000,163812.1093750000,56032.9921875000,171291.6093750000,,,
0.9959999984,7,152956.1875000000,152952.8281250000,177929.1406250000,172286.1718750000,161425.7343750000,163811.7500000000,56032.8828125000,171287.5781250000,,,
0.9999999984,7,152954.2500000000,152952.2187500000,177927.7343750000,172291.0468750000,161423.6718750000,163809.4218750000,56029.1015625000,171291.6562500000,,,
1.0039999983,7,152956.5781250000,152954.3593750000,177930.1250000000,172287.5937500000,161425.5000000000,163816.0937500000,56036.2617187500,171304.0468750000,,,
1.0079999985,7,152963.0000000000,152960.3437500000,177938.5156250000,172294.5156250000,161430.5625000000,163819.2343750000,56040.3125000000,171313.2812500000,,,
1.0119999985,7,152969.3750000000,152967.1718750000,177947.9375000000,172286.8125000000,161436.7968750000,163824.3281250000,56038.6210937500,171317.4375000000,,,
1.0159999984,7,152966.4218750000,152963.6718750000,177946.2500000000,172285.8750000000,161435.0000000000,163822.4062500000,56026.3398437500,171308.7656250000,,,
1.0199999984,7,152967.2812500000,152960.9218750000,177951.2656250000,172296.5156250000,161439.4687500000,163823.0000000000,56036.6367187500,171305.2812500000,,,
1.0239999983,8,152959.1875000000,152950.6093750000,177943.3750000000,172289.2812500000,161433.7031250000,163813.6562500000,56038.5156250000,171305.1562500000,,,
1.0279999983,8,152956.7968750000,152945.8593750000,177937.8437500000,172292.0937500000,161431.0312500000,163809.3906250000,56034.8125000000,171300.9375000000,,,
1.0319999983,8,152969.3750000000,152956.1875000000,177951.0468750000,172305.3437500000,161445.0468750000,163819.2968750000,56047.1523437500,171303.3593750000,,,
1.0359999982,8,152973.5625000000,152957.9843750000,177955.3437500000,172314.8906250000,161449.9375000000,163823.1250000000,56050.2656250000,171302.5468750000,,,
1.0399999982,8,152966.0312500000,152949.0000000000,177948.5000000000,172319.9687500000,161446.7656250000,163818.2500000000,56045.0351562500,171294.9843750000,,,
1.0439999981,8,152954.1406250000,152938.2187500000,177936.0000000000,172285.0937500000,161438.8593750000,163811.5156250000,56043.3164062500,171292.7343750000,,,
1.0479999983,8,152950.4218750000,152936.0937500000,177930.9062500000,172270.3437500000,161434.2968750000,163811.0781250000,56045.6757812500,171290.9531250000,,,
1.0519999983,8,152953.9218750000,152940.0937500000,177930.8281250000,172282.3125000000,161432.2812500000,163817.4375000000,56051.1484375000,171288.8906250000,,,
1.0559999982,8,152958.1093750000,152941.4531250000,177932.8906250000,172297.5937500000,161432.0781250000,163819.3125000000,56049.9414062500,171283.5781250000,,,
1.0599999982,8,152959.2187500000,152943.0156250000,177936.1875000000,172286.0312500000,161435.4843750000,163818.8906250000,56050.6640625000,171286.0000000000,,,
1.0639999982,8,152949.3125000000,152931.7500000000,177925.3750000000,172275.8125000000,161426.9218750000,163811.8593750000,56042.6992187500,171282.7187500000,,,
1.0679999983,8,152945.3750000000,152927.2968750000,177920.0937500000,172280.0000000000,161421.5781250000,163807.0625000000,56035.3242187500,171277.9531250000,,,
1.0719999983,8,152944.6562500000,152925.8437500000,177915.4062500000,172277.0000000000,161416.8593750000,163802.1562500000,56037.2812500000,171271.1875000000,,,
1.0759999983,8,152947.2500000000,152929.8437500000,177916.6562500000,172287.1406250000,161416.5468750000,163799.3281250000,56041.3046875000,171268.4531250000,,,
1.0799999982,8,152951.5468750000,152936.9531250000,177919.9843750000,172293.7656250000,161419.7656250000,163803.1406250000,56033.9023437500,171275.5937500000,,,
1.0839999982,8,152950.2500000000,152938.9843750000,177919.6093750000,172285.4218750000,161419.2187500000,163804.8281250000,56019.7148437500,171281.2500000000,,,
1.0879999981,8,152950.2500000000,152941.4531250000,177921.8593750000,172286.4843750000,161417.4531250000,163803.6250000000,56022.9843750000,171283.7187500000,,,
1.0919999983,8,152954.0156250000,152947.2031250000,177926.6718750000,172288.7187500000,161419.7031250000,163804.3750000000,56030.7890625000,171284.9843750000,,,
1.0959999983,8,152955.9687500000,152949.4843750000,177929.8281250000,172286.8906250000,161421.7500000000,163804.1562500000,56041.5742187500,171282.0625000000,,,
1.0999999982,8,152951.1875000000,152943.4218750000,177925.9375000000,172293.2187500000,161418.1718750000,163800.5156250000,56032.2382812500,171278.2968750000,,,
1.1039999982,8,152949.6718750000,152941.1093750000,177926.5312500000,172297.4843750000,161419.2187500000,163799.9531250000,56023.8164062500,171284.3281250000,,,
1.1079999981,8,152949.1875000000,152938.7500000000,177929.0781250000,172299.3125000000,161421.6718750000,163799.2812500000,56023.1718750000,171284.0625000000,,,
1.1119999983,8,152949.3437500000,152939.3906250000,177931.5156250000,172302.4687500000,161422.4375000000,163799.9218750000,56027.3828125000,171280.6875000000,,,
1.1159999983,8,152947.8750000000,152938.4062500000,177930.5000000000,172302.9375000000,161420.3281250000,163800.9375000000,56026.7656250000,171275.7812500000,,,
1.1199999982,8,152939.5468750000,152930.2968750000,177922.4531250000,172279.3750000000,161414.1250000000,163799.0156250000,56027.5195312500,171271.6250000000,,,
1.1239999982,8,152937.6406250000,152927.5625000000,177918.9218750000,172287.2187500000,161412.7812500000,163798.5000000000,56029.7187500000,171273.6093750000,,,
1.1279999982,8,152946.0468750000,152935.6875000000,177924.3906250000,172311.6562500000,161418.4687500000,163804.1093750000,56035.6718750000,171279.7812500000,,,
1.1319999981,8,152947.8125000000,152936.2500000000,177923.0468750000,172303.5000000000,161415.9843750000,163803.4375000000,56031.2734375000,171277.2812500000,,,
1.1359999983,8,152949.4218750000,152932.5000000000,177925.2968750000,172287.7187500000,161417.7500000000,163806.1718750000,56029.1015625000,171271.0312500000,,,
1.1399999983,8,152949.0468750000,152927.1875000000,177924.8437500000,172301.3437500000,161417.6093750000,163804.1562500000,56030.8984375000,171267.0937500000,,,
1.1439999982,8,152955.0000000000,152932.8125000000,177930.1250000000,172305.4843750000,161423.1718750000,163811.0312500000,56035.7265625000,171277.0156250000,,,
1.1479999982,8,152953.0937500000,152929.4375000000,177925.8593750000,172288.5312500000,161419.4375000000,163811.5937500000,56042.2187500000,171279.1250000000,,,
1.1519999981,9,152955.9062500000,152932.0156250000,177926.1093750000,172307.4375000000,161418.8281250000,163813.7656250000,56045.2460937500,171278.7500000000,,,
1.1559999981,9,152958.2968750000,152936.8437500000,177930.2812500000,172290.0781250000,161424.2656250000,163813.9843750000,56046.7500000000,171276.6718750000,,,
1.1599999981,9,152953.5468750000,152938.0000000000,177928.1718750000,172277.9375000000,161425.9218750000,163812.8281250000,56038.4101562500,171280.3906250000,,,
1.1639999980,9,152951.6718750000,152943.3906250000,177927.0625000000,172275.3125000000,161426.0625000000,163816.9062500000,56032.3203125000,171292.3281250000,,,
1.1679999980,9,152948.6406250000,152945.4531250000,177921.7031250000,172277.9062500000,161421.2031250000,163817.5156250000,56033.5273437500,171297.7500000000,,,
1.1719999979,9,152948.4531250000,152946.6093750000,177920.0468750000,172284.6093750000,161419.2812500000,163815.6406250000,56040.0976562500,171292.8437500000,,,
1.1759999981,9,152947.3593750000,152948.6718750000,177918.8125000000,172285.4687500000,161415.3125000000,163812.1562500000,56043.2617187500,171286.0468750000,,,
1.1799999981,9,152951.0937500000,152953.5468750000,177926.9375000000,172293.7031250000,161419.6562500000,163809.9375000000,56046.4531250000,171288.9687500000,,,
1.1839999980,9,152954.0156250000,152955.8906250000,177933.1093750000,172304.2656250000,161424.5937500000,163808.4062500000,56044.8984375000,171295.5781250000,,,
1.1879999980,9,152953.5000000000,152952.0000000000,177933.8281250000,172293.7031250000,161423.5937500000,163806.8750000000,56034.7343750000,171292.8906250000,,,
1.1919999979,9,152959.2343750000,152956.4218750000,177938.5781250000,172295.5312500000,161425.9062500000,163808.9843750000,56036.6640625000,171289.9375000000,,,
1.1959999981,9,152961.6875000000,152953.8281250000,177942.6718750000,172298.5312500000,161427.3281250000,163808.4062500000,56044.7109375000,171283.1093750000,,,
1.1999999981,9,152966.4218750000,152956.6875000000,177949.0625000000,172301.5625000000,161435.1562500000,163815.6093750000,56046.5898437500,171289.7812500000,,,
1.2039999980,9,152970.2031250000,152958.5937500000,177954.0781250000,172312.2343750000,161444.0000000000,163819.9687500000,56051.4687500000,171301.1250000000,,,
1.2079999980,9,152967.1562500000,152955.8281250000,177950.2187500000,172312.0781250000,161442.2968750000,163816.5312500000,56053.9921875000,171303.7343750000,,,
1.2119999980,9,152969.7812500000,152959.7187500000,177953.0937500000,172298.2968750000,161444.9531250000,163817.0312500000,56057.4531250000,171304.9062500000,,,
1.2159999979,9,152964.8125000000,152955.5937500000,177944.8281250000,172292.3593750000,161439.2343750000,163811.9375000000,56048.7343750000,171296.8593750000,,,
1.2199999981,9,152959.7812500000,152948.7812500000,177937.3437500000,172284.2031250000,161434.3750000000,163808.7968750000,56047.0195312500,171292.8125000000,,,
1.2239999981,9,152952.7968750000,152938.0781250000,177930.9062500000,172299.3593750000,161429.2343750000,163800.5937500000,56039.0234375000,171289.0000000000,,,
1.2279999980,9,152961.3906250000,152948.2500000000,177937.5781250000,172307.3281250000,161437.2968750000,163806.9062500000,56039.7226562500,171297.3750000000,,,
1.2319999980,9,152971.7968750000,152955.5625000000,177946.3281250000,172318.2500000000,161446.1562500000,163812.7187500000,56046.0507812500,171302.6093750000,,,
1.2359999979,9,152971.1718750000,152950.2031250000,177945.3281250000,172322.7812500000,161444.7656250000,163815.6406250000,56045.5429687500,171296.0781250000,,,
1.2399999981,9,152966.7500000000,152943.5781250000,177940.7968750000,172309.6562500000,161439.3125000000,163819.1093750000,56054.8242187500,171291.6250000000,,,
1.2439999981,9,152963.0156250000,152942.3125000000,177934.1562500000,172315.2968750000,161433.7031250000,163822.3281250000,56059.9179687500,171295.4062500000,,,
1.2479999980,9,152959.2968750000,152941.5937500000,177925.5468750000,172312.9843750000,161425.3593750000,163821.0937500000,56056.3242187500,171300.1875000000,,,
1.2519999980,9,152963.3437500000,152948.2500000000,177927.5000000000,172291.5312500000,161424.9687500000,163822.2187500000,56052.5703125000,171302.8125000000,,,
1.2559999980,9,152971.3125000000,152955.4843750000,177932.9218750000,172298.9375000000,161426.4687500000,163821.3593750000,56055.9218750000,171301.2812500000,,,
1.2599999979,9,152978.1562500000,152963.8281250000,177938.1718750000,172319.8593750000,161431.1093750000,163824.1250000000,56060.2968750000,171309.8437500000,,,
1.2639999981,9,152977.1093750000,152967.5000000000,177938.8125000000,172313.9218750000,161433.7656250000,163826.8593750000,56056.0312500000,171321.0000000000,,,
1.2679999981,9,152972.1718750000,152962.4843750000,177938.3281250000,172300.7812500000,161433.5156250000,163817.0156250000,56050.0234375000,171320.6250000000,,,
1.2719999980,9,152978.0468750000,152971.5312500000,177943.4062500000,172294.5156250000,161439.0781250000,163820.8750000000,56048.4140625000,171319.2812500000,,,
1.2759999980,9,152980.2187500000,152973.0312500000,177948.0937500000,172298.7187500000,161440.3593750000,163821.0625000000,56047.0703125000,171312.5312500000,,,
1.2799999979,10,152976.4375000000,152963.7968750000,177950.6250000000,172297.8281250000,161440.5156250000,163813.6093750000,56045.5976562500,171305.0937500000,,,
1.2839999979,10,152976.0781250000,152958.9375000000,177955.8437500000,172304.5625000000,161445.1562500000,163810.0625000000,56048.9218750000,171304.5937500000,,,
1.2879999978,10,152981.3437500000,152960.9843750000,177964.2968750000,172317.6562500000,161454.0625000000,163811.6718750000,56053.3203125000,171307.0468750000,,,
1.2919999978,10,152980.4531250000,152956.7500000000,177963.8906250000,172306.0468750000,161454.4062500000,163811.2500000000,56042.8867187500,171297.6406250000,,,
1.2959999978,10,152978.6250000000,152952.5937500000,177961.8593750000,172298.4062500000,161452.4062500000,163814.1718750000,56039.4257812500,171287.6562500000,,,
1.2999999977,10,152978.9062500000,152948.7500000000,177964.0312500000,172299.2031250000,161453.3437500000,163817.1718750000,56061.7968750000,171286.4218750000,,,
1.3039999979,10,152979.5781250000,152951.8906250000,177962.7343750000,172305.9687500000,161452.7187500000,163815.9843750000,56071.7500000000,171294.9531250000,,,
1.3079999979,10,152972.5468750000,152945.7500000000,177954.9687500000,172311.1406250000,161445.4218750000,163809.1718750000,56064.0234375000,171293.9687500000,,,
1.3119999978,10,152974.2031250000,152948.1875000000,177955.9531250000,172290.6718750000,161446.9062500000,163809.3593750000,56061.5039062500,171292.4843750000,,,
1.3159999978,10,152972.9218750000,152949.7656250000,177952.5000000000,172289.7031250000,161445.3750000000,163808.3437500000,56060.8046875000,171287.9843750000,,,
1.3199999977,10,152973.6093750000,152956.4531250000,177951.1875000000,172296.5781250000,161446.5781250000,163816.3437500000,56064.2929687500,171290.8281250000,,,
1.3239999979,10,152968.7343750000,152958.2812500000,177941.6093750000,172297.2968750000,161442.0000000000,163825.3593750000,56062.7109375000,171298.1250000000,,,
1.3279999979,10,152963.9375000000,152955.1875000000,177932.5937500000,172294.0312500000,161436.7656250000,163827.2812500000,56056.9140625000,171301.8750000000,,,
1.3319999978,10,152966.2187500000,152956.2968750000,177931.5000000000,172306.6875000000,161437.0000000000,163828.2031250000,56055.5195312500,171302.8906250000,,,
1.3359999978,10,152974.8281250000,152962.4843750000,177938.9218750000,172314.3281250000,161444.6250000000,163833.7187500000,56062.3085937500,171308.7656250000,,,
1.3399999978,10,152972.5468750000,152957.5781250000,177936.7812500000,172288.1250000000,161445.1875000000,163830.9375000000,56057.4804687500,171309.5156250000,,,
1.3439999977,10,152961.6562500000,152945.9687500000,177923.0937500000,172280.7500000000,161433.2031250000,163820.2343750000,56047.9296875000,171306.7812500000,,,
1.3479999979,10,152963.5781250000,152949.3750000000,177922.3750000000,172280.3437500000,161431.0781250000,163822.0468750000,56054.9023437500,171313.2812500000,,,
1.3519999979,10,152976.6718750000,152963.7187500000,177936.0000000000,172292.2343750000,161438.9062500000,163829.8125000000,56062.4960937500,171320.9687500000,,,
1.3559999978,10,152988.7187500000,152977.3437500000,177948.6093750000,172309.7187500000,161446.3750000000,163833.2187500000,56064.2109375000,171328.2968750000,,,
1.3599999978,10,152983.6718750000,152969.7031250000,177945.8437500000,172304.0781250000,161442.1875000000,163823.2656250000,56062.1718750000,171326.1718750000,,,
1.3639999977,10,152974.0468750000,152963.5312500000,177938.9531250000,172293.8906250000,161435.2968750000,163818.1093750000,56052.7578125000,171324.4062500000,,,
1.3679999979,10,152973.4843750000,152965.0937500000,177943.2187500000,172297.1875000000,161436.7656250000,163819.3750000000,56053.5625000000,171324.0937500000,,,
1.3719999979,10,152974.3750000000,152967.7187500000,177942.8125000000,172299.7187500000,161435.2343750000,163822.4218750000,56055.5742187500,171322.2031250000,,,
1.3759999978,10,152977.6718750000,152975.3281250000,177947.1875000000,172299.8437500000,161437.4687500000,163828.2968750000,56055.8710937500,171324.0937500000,,,
1.3799999978,10,152976.0312500000,152973.0312500000,177949.7656250000,172301.0468750000,161439.0937500000,163825.7031250000,56050.3984375000,171322.0000000000,,,
1.3839999977,10,152966.6406250000,152958.2500000000,177945.4218750000,172298.2187500000,161435.9062500000,163816.6875000000,56043.9882812500,171311.1250000000,,,
1.3879999977,10,152965.2187500000,152955.0312500000,177949.1093750000,172305.2656250000,161440.4062500000,163817.5156250000,56043.0234375000,171305.0937500000,,,
1.3919999979,10,152965.0000000000,152955.0312500000,177951.9375000000,172312.6406250000,161441.8906250000,163816.2812500000,56043.3984375000,171296.1875000000,,,
1.3959999979,10,152968.3281250000,152956.4218750000,177954.0312500000,172317.1406250000,161443.7343750000,163817.7656250000,56051.1484375000,171290.7500000000,,,
1.3999999978,10,152962.6250000000,152945.6875000000,177946.2968750000,172312.6093750000,161437.1093750000,163809.1718750000,56050.6406250000,171283.4843750000,,,
1.4039999978,10,152952.0000000000,152932.3593750000,177937.2656250000,172299.6093750000,161428.7500000000,163802.2343750000,56045.5976562500,171277.5468750000,,,
1.4079999977,11,152945.3750000000,152925.3437500000,177929.9375000000,172287.1875000000,161422.1406250000,163800.8437500000,56036.5312500000,171275.0312500000,,,
1.4119999977,11,152942.1562500000,152919.9687500000,177924.6562500000,172280.1562500000,161417.9687500000,163797.7031250000,56036.5585937500,171268.4843750000,,,
1.4159999976,11,152948.2500000000,152929.4687500000,177926.1250000000,172284.6875000000,161418.7343750000,163803.5468750000,56042.2968750000,171273.5000000000,,,
1.4199999976,11,152950.8125000000,152936.2812500000,177922.2343750000,172298.0781250000,161416.5156250000,163806.1250000000,56041.3046875000,171280.0156250000,,,
1.4239999976,11,152950.7343750000,152939.1718750000,177919.0000000000,172308.2968750000,161414.3750000000,163807.6250000000,56040.3671875000,171287.5781250000,,,
1.4279999975,11,152943.4218750000,152936.9218750000,177905.2343750000,172298.5000000000,161401.3593750000,163804.6406250000,56034.5976562500,171288.9531250000,,,
1.4319999977,11,152947.5937500000,152942.5625000000,177905.3437500000,172289.7343750000,161398.7656250000,163808.4062500000,56024.8085937500,171289.7343750000,,,
1.4359999977,11,152950.1406250000,152942.3437500000,177904.9375000000,172281.4218750000,161397.5000000000,163808.5937500000,56023.7617187500,171284.0625000000,,,
1.4399999976,11,152947.7812500000,152938.8750000000,177902.3437500000,172286.0000000000,161395.0625000000,163805.0000000000,56034.8671875000,171283.1093750000,,,
1.4439999976,11,152951.4062500000,152942.9843750000,177908.3125000000,172286.5156250000,161403.1093750000,163809.4531250000,56044.4687500000,171290.9375000000,,,
1.4479999975,11,152952.9375000000,152943.2343750000,177911.2500000000,172290.1718750000,161407.2656250000,163808.7812500000,56040.1796875000,171293.5156250000,,,
1.4519999977,11,152953.4531250000,152944.7812500000,177911.9687500000,172294.4843750000,161407.7500000000,163805.5000000000,56025.2656250000,171291.9062500000,,,
1.4559999977,11,152960.3125000000,152952.6093750000,177921.4843750000,172305.8281250000,161414.2812500000,163802.6562500000,56032.3750000000,171295.1718750000,,,
1.4599999976,11,152958.9218750000,152952.3437500000,177922.7187500000,172299.2812500000,161414.9062500000,163802.8750000000,56041.4921875000,171298.0937500000,,,
1.4639999976,11,152955.1562500000,152949.2343750000,177921.7031250000,172295.9375000000,161414.5312500000,163802.7343750000,56032.2929687500,171301.2656250000,,,
1.4679999975,11,152955.8906250000,152950.1718750000,177927.3125000000,172297.7343750000,161416.5156250000,163797.3281250000,56028.8867187500,171304.2343750000,,,
1.4719999975,11,152955.9687500000,152950.3593750000,177932.3281250000,172285.2343750000,161417.6093750000,163796.5781250000,56034.6796875000,171300.5937500000,,,
1.4759999977,11,152951.5468750000,152944.3281250000,177930.9375000000,172283.8906250000,161415.2031250000,163794.5312500000,56037.4414062500,171287.3906250000,,,
1.4799999977,11,152950.6562500000,152940.4843750000,177934.1718750000,172298.2656250000,161419.2812500000,163792.1250000000,56035.5937500000,171282.9218750000,,,
1.4839999976,11,152944.2968750000,152933.8906250000,177931.1250000000,172307.5468750000,161418.7968750000,163792.9531250000,56027.0351562500,171281.2187500000,,,
1.4879999976,11,152942.8281250000,152930.8125000000,177931.8906250000,172308.2500000000,161422.1406250000,163796.7812500000,56037.2539062500,171281.5937500000,,,
1.4919999975,11,152951.0000000000,152939.4218750000,177940.9375000000,172317.1406250000,161431.9687500000,163805.7656250000,56053.9921875000,171284.7343750000,,,
1.4959999977,11,152955.9062500000,152943.2812500000,177944.4531250000,172314.6875000000,161436.1718750000,163809.3906250000,56059.1679687500,171286.1562500000,,,
1.4999999977,11,152957.2031250000,152945.4218750000,177944.0000000000,172302.0937500000,161439.2343750000,163813.5781250000,56057.0507812500,171288.8125000000,,,
1.5039999976,11,152952.9375000000,152939.9218750000,177935.4062500000,172293.5468750000,161435.6093750000,163811.6718750000,56053.4023437500,171290.0468750000,,,
1.5079999976,11,152942.6093750000,152926.1875000000,177920.3437500000,172280.6406250000,161422.0625000000,163802.2031250000,56048.6796875000,171284.7343750000,,,
1.5119999975,11,152945.7187500000,152924.6718750000,177918.8125000000,172283.7500000000,161418.3437500000,163804.3750000000,56047.8515625000,171278.4843750000,,,
1.5159999975,11,152951.2187500000,152928.0781250000,177923.0781250000,172284.1093750000,161419.8437500000,163806.7343750000,56051.8476562500,171272.1875000000,,,
1.5199999977,11,152959.8906250000,152937.2187500000,177932.7031250000,172293.8125000000,161429.5156250000,163811.2968750000,56049.4335937500,171280.2031250000,,,
1.5239999976,11,152962.9218750000,152938.3437500000,177935.5156250000,172306.8281250000,161434.5156250000,163809.9375000000,56048.6015625000,171287.0468750000,,,
1.5279999976,11,152967.9062500000,152942.7500000000,177939.0000000000,172303.6250000000,161440.2187500000,163812.1875000000,56056.9414062500,171292.8593750000,,,
1.5319999976,11,152969.2187500000,152946.7968750000,177938.7968750000,172292.4687500000,161439.9062500000,163813.0156250000,56059.6796875000,171294.0468750000,,,
1.5359999975,12,152975.8906250000,152956.9062500000,177942.7656250000,172303.0312500000,161444.8906250000,163820.7343750000,56074.9921875000,171296.5937500000,,,
1.5399999975,12,152976.8125000000,152961.8750000000,177943.1093750000,172304.4062500000,161444.9531250000,163825.0000000000,56073.8945312500,171301.4218750000,,,
1.5439999974,12,152965.9687500000,152957.5000000000,177929.8593750000,172295.0781250000,161434.1562500000,163822.4843750000,56060.0000000000,171305.8125000000,,,
1.5479999974,12,152971.7187500000,152968.5156250000,177935.5468750000,172297.0781250000,161438.8281250000,163830.0000000000,56068.1523437500,171319.4531250000,,,
1.5519999973,12,152976.3593750000,152972.2968750000,177937.3437500000,172322.4375000000,161435.9062500000,163826.2656250000,56068.3164062500,171320.7031250000,,,
1.5559999973,12,152982.2500000000,152977.6875000000,177940.4062500000,172325.6250000000,161435.6875000000,163828.8437500000,56060.0820312500,171319.9218750000,,,
1.5599999975,12,152986.9687500000,152981.2343750000,177946.2968750000,172309.8750000000,161440.4062500000,163829.8281250000,56053.4570312500,171322.7500000000,,,
1.5639999975,12,152976.9218750000,152970.1093750000,177933.9062500000,172287.1406250000,161429.2500000000,163818.8281250000,56046.6171875000,171318.4062500000,,,
1.5679999974,12,152983.9687500000,152974.6093750000,177945.7968750000,172294.7031250000,161439.8281250000,163821.6250000000,56054.2617187500,171323.2500000000,,,
1.5719999974,12,152989.3125000000,152977.3125000000,177955.2343750000,172323.5000000000,161447.7656250000,163821.9531250000,56056.2460937500,171322.1250000000,,,
1.5759999973,12,152990.9687500000,152979.7812500000,177958.7187500000,172324.4218750000,161450.3906250000,163825.0781250000,56061.3398437500,171322.9375000000,,,
1.5799999975,12,152982.1718750000,152971.9218750000,177954.7031250000,172314.6562500000,161445.9687500000,163824.0156250000,56065.9296875000,171318.4843750000,,,
1.5839999975,12,152975.8906250000,152965.9687500000,177953.6718750000,172306.3906250000,161445.0468750000,163822.1875000000,56066.9726562500,171319.0937500000,,,
1.5879999974,12,152969.5156250000,152962.3281250000,177948.6875000000,172293.4375000000,161441.2656250000,163823.1250000000,56062.4140625000,171319.6562500000,,,
1.5919999974,12,152970.9375000000,152963.9375000000,177948.8281250000,172303.6093750000,161443.1562500000,163826.8750000000,56064.4804687500,171316.0937500000,,,
1.5959999973,12,152972.4375000000,152960.9062500000,177949.1406250000,172301.9687500000,161444.0625000000,163827.8437500000,56071.2656250000,171307.9062500000,,,
1.5999999973,12,152974.2812500000,152958.7343750000,177950.7500000000,172295.5312500000,161446.7968750000,163829.0468750000,56075.6093750000,171308.5781250000,,,
1.6039999975,12,152971.7187500000,152953.0937500000,177946.8906250000,172293.0937500000,161446.3750000000,163823.0000000000,56069.5234375000,171309.6562500000,,,
1.6079999974,12,152976.3281250000,152954.9531250000,177951.0937500000,172295.0937500000,161451.9687500000,163822.4218750000,56072.0156250000,171312.5468750000,,,
1.6119999974,12,152977.1093750000,152953.0156250000,177951.9375000000,172311.9687500000,161452.3750000000,163819.1250000000,56070.2734375000,171308.0468750000,,,
1.6159999974,12,152981.6875000000,152957.5156250000,177954.8281250000,172329.3437500000,161454.0937500000,163818.9687500000,56075.6093750000,171304.0781250000,,,
1.6199999973,12,152983.2968750000,152963.2343750000,177954.1093750000,172315.0000000000,161453.7500000000,163824.2812500000,56078.7773437500,171310.0000000000,,,
1.6239999975,12,152971.0468750000,152953.3593750000,177942.0625000000,172290.2656250000,161442.7968750000,163821.1093750000,56061.8789062500,171309.0156250000,,,
1.6279999975,12,152963.4218750000,152950.7968750000,177934.1250000000,172281.0468750000,161436.0156250000,163820.6250000000,56053.0546875000,171307.7187500000,,,
1.6319999974,12,152963.5625000000,152953.0937500000,177935.9687500000,172291.2031250000,161438.6093750000,163819.6406250000,56063.9414062500,171304.2343750000,,,
1.6359999974,12,152968.3281250000,152956.0468750000,177942.8437500000,172307.7031250000,161444.6718750000,163820.0937500000,56068.7187500000,171298.9218750000,,,
1.6399999973,12,152968.8906250000,152956.2968750000,177942.5468750000,172307.7656250000,161443.7343750000,163819.9375000000,56067.0273437500,171297.9375000000,,,
1.6439999973,12,152967.0937500000,152958.6250000000,177937.5000000000,172294.9687500000,161437.8906250000,163818.1718750000,56074.3515625000,171304.1093750000,,,
1.6479999975,12,152965.0937500000,152956.9531250000,177930.3906250000,172301.2968750000,161428.0781250000,163816.2031250000,56068.0742187500,171306.8437500000,,,
1.6519999974,12,152975.0937500000,152967.9375000000,177936.8281250000,172307.6562500000,161432.5468750000,163823.8750000000,56061.7695312500,171314.9687500000,,,
1.6559999974,12,152985.2812500000,152975.8750000000,177947.7812500000,172305.2968750000,161441.5625000000,163828.1093750000,56066.7343750000,171317.4687500000,,,
1.6599999974,12,152989.3593750000,152977.2656250000,177954.6406250000,172306.8437500000,161446.6406250000,163829.1562500000,56074.4296875000,171320.1406250000,,,
1.6639999973,13,152979.9531250000,152969.1093750000,177947.1875000000,172299.9062500000,161439.4687500000,163820.3593750000,56059.9726562500,171321.1406250000,,,
1.6679999973,13,152974.2656250000,152964.0937500000,177943.7812500000,172309.9843750000,161437.1875000000,163813.4218750000,56050.8789062500,171318.5000000000,,,
1.6719999972,13,152974.7187500000,152965.2968750000,177945.0468750000,172309.2343750000,161438.9062500000,163816.1562500000,56056.2734375000,171315.5625000000,,,
1.6759999972,13,152971.3906250000,152963.4218750000,177944.1562500000,172300.1406250000,161438.9375000000,163816.2343750000,56056.9960937500,171307.9375000000,,,
1.6799999971,13,152971.4687500000,152965.6718750000,177948.5312500000,172304.9687500000,161443.1562500000,163817.1718750000,56058.9257812500,171307.4218750000,,,
1.6839999971,13,152966.7187500000,152961.2812500000,177945.4375000000,172313.7656250000,161439.2343750000,163809.8281250000,56052.8398437500,171310.9218750000,,,
1.6879999973,13,152961.2812500000,152955.1562500000,177940.9687500000,172308.3750000000,161435.3750000000,163808.5156250000,56054.8515625000,171313.2812500000,,,
1.6919999972,13,152961.5468750000,152952.5625000000,177942.6562500000,172301.8125000000,161438.6406250000,163810.7812500000,56065.7656250000,171313.5781250000,,,
1.6959999972,13,152962.6718750000,152950.5781250000,177946.0312500000,172304.4531250000,161443.7343750000,163813.1718750000,56070.3281250000,171304.9843750000,,,
1.6999999972,13,152961.4062500000,152945.7968750000,177946.3593750000,172295.9062500000,161446.5625000000,163815.4218750000,56069.5468750000,171302.2031250000,,,
1.7039999971,13,152958.1093750000,152939.3906250000,177943.4531250000,172287.4531250000,161444.8906250000,163811.8906250000,56071.3476562500,171301.0937500000,,,
1.7079999973,13,152959.4531250000,152938.1250000000,177945.4375000000,172292.6250000000,161446.1718750000,163810.7031250000,56070.0039062500,171299.3281250000,,,
1.7119999973,13,152962.3750000000,152940.6562500000,177947.4062500000,172296.2812500000,161447.7812500000,163809.4687500000,56064.0781250000,171295.7031250000,,,
1.7159999972,13,152960.7968750000,152941.8593750000,177943.8906250000,172297.7343750000,161443.9531250000,163805.8281250000,56055.0390625000,171287.1250000000,,,
1.7199999972,13,152964.9843750000,152949.5781250000,177948.3906250000,172308.7031250000,161447.2187500000,163813.5000000000,56060.2695312500,171292.4062500000,,,
1.7239999971,13,152960.8750000000,152948.4062500000,177940.8750000000,172311.9687500000,161439.8750000000,163814.8593750000,56060.8046875000,171298.7343750000,,,
1.7279999971,13,152957.0625000000,152951.0937500000,177933.5000000000,172297.7031250000,161431.4062500000,163816.0156250000,56064.8281250000,171306.7656250000,,,
1.7319999973,13,152954.8750000000,152952.5625000000,177926.6875000000,172290.9375000000,161425.2343750000,163813.4687500000,56060.7500000000,171305.4687500000,,,
1.7359999972,13,152960.4687500000,152959.4062500000,177931.4062500000,172301.1406250000,161429.5468750000,163813.8750000000,56058.6054687500,171305.4375000000,,,
1.7399999972,13,152961.0156250000,152962.8906250000,177932.9218750000,172299.7343750000,161431.7031250000,163818.4531250000,56062.7343750000,171309.1406250000,,,
1.7439999972,13,152961.5468750000,152963.5312500000,177934.5312500000,172314.5781250000,161434.6250000000,163822.0781250000,56067.7773437500,171315.8750000000,,,
1.7479999971,13,152962.7812500000,152963.2656250000,177940.1875000000,172314.3281250000,161440.5000000000,163822.9687500000,56073.2773437500,171319.8437500000,,,
1.7519999973,13,152962.2656250000,152962.5625000000,177942.4843750000,172298.0468750000,161442.5625000000,163821.8125000000,56068.1289062500,171316.5000000000,,,
1.7559999973,13,152962.8281250000,152959.9062500000,177943.4375000000,172302.1250000000,161441.8125000000,163816.2343750000,56058.6875000000,171308.0468750000,,,
1.7599999972,13,152961.0156250000,152956.6718750000,177941.5000000000,172305.8281250000,161439.7187500000,163814.8906250000,56058.9023437500,171303.8281250000,,,
1.7639999972,13,152961.2187500000,152956.9531250000,177941.0937500000,172299.7343750000,161439.7968750000,163818.3750000000,56066.1171875000,171308.7656250000,,,
1.7679999971,13,152959.6718750000,152954.1718750000,177938.6250000000,172308.1875000000,161437.7031250000,163816.9531250000,56061.9570312500,171310.0625000000,,,
1.7719999971,13,152962.4843750000,152952.7500000000,177940.7500000000,172304.7343750000,161440.5937500000,163816.3906250000,56060.0000000000,171307.4062500000,,,
1.7759999973,13,152966.5625000000,152954.1718750000,177946.5625000000,172290.7812500000,161446.1562500000,163819.0156250000,56067.8867187500,171304.9687500000,,,
1.7799999972,13,152961.7812500000,152950.5468750000,177940.7968750000,172286.8593750000,161442.2656250000,163816.8437500000,56071.2656250000,171300.5937500000,,,
1.7839999972,13,152955.5625000000,152943.7656250000,177933.2187500000,172284.6875000000,161437.2187500000,163809.9843750000,56068.7968750000,171300.4531250000,,,
1.7879999971,13,152957.8437500000,152944.4375000000,177936.2656250000,172298.1875000000,161439.2656250000,163808.5937500000,56067.9140625000,171302.9843750000,,,
1.7919999971,14,152957.5156250000,152944.1406250000,177934.9843750000,172301.5312500000,161437.6250000000,163810.2500000000,56060.1875000000,171300.5625000000,,,
1.7959999971,14,152961.4687500000,152947.0156250000,177938.8750000000,172305.9062500000,161441.2968750000,163816.0468750000,56069.3867187500,171296.3281250000,,,
1.7999999970,14,152963.2031250000,152947.7031250000,177943.4843750000,172307.8906250000,161445.9062500000,163815.2343750000,56074.6718750000,171296.4062500000,,,
1.8039999970,14,152963.5312500000,152947.0156250000,177944.2343750000,172295.8281250000,161448.3593750000,163815.5625000000,56074.1093750000,171304.6875000000,,,
1.8079999969,14,152961.3906250000,152945.4218750000,177939.6250000000,172299.0468750000,161444.6250000000,163814.6718750000,56066.0078125000,171308.2656250000,,,
1.8119999969,14,152960.1718750000,152947.6718750000,177933.1875000000,172305.6406250000,161438.5312500000,163814.3281250000,56072.3632812500,171306.8906250000,,,
1.8159999971,14,152962.2968750000,152955.4375000000,177931.8125000000,172307.8906250000,161436.5312500000,163815.4218750000,56075.5585937500,171306.1718750000,,,
1.8199999970,14,152965.7031250000,152964.1406250000,177929.2343750000,172308.2656250000,161434.9375000000,163819.1250000000,56070.8085937500,171316.0468750000,,,
1.8239999970,14,152967.4687500000,152967.4531250000,177927.2343750000,172306.8437500000,161430.2968750000,163820.7968750000,56073.4921875000,171325.3750000000,,,
1.8279999970,14,152966.3750000000,152968.0156250000,177923.0937500000,172311.6562500000,161421.7187500000,163817.3125000000,56063.1132812500,171325.0000000000,,,
1.8319999969,14,152970.5625000000,152971.2500000000,177928.3593750000,172310.5156250000,161422.5781250000,163816.2343750000,56057.9609375000,171322.9531250000,,,
1.8359999971,14,152975.5468750000,152976.0312500000,177936.5156250000,172313.0781250000,161427.2656250000,163820.9218750000,56058.9023437500,171319.2343750000,,,
1.8399999971,14,152975.1718750000,152974.6093750000,177942.9531250000,172321.0312500000,161433.8906250000,163825.4375000000,56063.2187500000,171317.9375000000,,,
1.8439999970,14,152966.5156250000,152967.4218750000,177937.2343750000,172322.1875000000,161431.7968750000,163820.7968750000,56062.2812500000,171318.5625000000,,,
1.8479999970,14,152965.8906250000,152967.2031250000,177938.5000000000,172311.5468750000,161434.9375000000,163820.9843750000,56069.8437500000,171321.6406250000,,,
1.8519999969,14,152967.9843750000,152965.7812500000,177941.7656250000,172305.1562500000,161439.9531250000,163817.2812500000,56069.3867187500,171317.8125000000,,,
1.8559999969,14,152967.8437500000,152961.3906250000,177946.0781250000,172302.0156250000,161443.0625000000,163810.9218750000,56059.5703125000,171308.8437500000,,,
1.8599999971,14,152974.4531250000,152964.2500000000,177957.0312500000,172306.5312500000,161453.2656250000,163816.5000000000,56081.5937500000,171311.0781250000,,,
1.8639999970,14,152980.2343750000,152965.6250000000,177964.7812500000,172328.7343750000,161462.5156250000,163821.1093750000,56089.7460937500,171316.5781250000,,,
1.8679999970,14,152977.0000000000,152960.0468750000,177962.2343750000,172327.5000000000,161461.7343750000,163818.2968750000,56079.2578125000,171314.8125000000,,,
1.8719999969,14,152973.7187500000,152954.9687500000,177955.1250000000,172311.4843750000,161456.6875000000,163813.4218750000,56081.8867187500,171307.7812500000,,,
1.8759999969,14,152972.4687500000,152954.6875000000,177951.5781250000,172305.0781250000,161454.0312500000,163815.9062500000,56081.2148437500,171301.8437500000,,,
1.8799999971,14,152970.0000000000,152951.4375000000,177948.2031250000,172305.5625000000,161449.7187500000,163815.7812500000,56077.1914062500,171298.8125000000,,,
1.8839999971,14,152967.3593750000,152948.9062500000,177945.0468750000,172304.2656250000,161447.0937500000,163814.2968750000,56078.3203125000,171301.7968750000,,,
1.8879999970,14,152963.5781250000,152949.1562500000,177940.5312500000,172298.0156250000,161444.0625000000,163818.0625000000,56077.7304687500,171306.3906250000,,,
1.8919999970,14,152960.0156250000,152947.8437500000,177936.3750000000,172291.8750000000,161439.6875000000,163814.5781250000,56073.0898437500,171302.7656250000,,,
1.8959999969,14,152968.7812500000,152956.2031250000,177942.4843750000,172306.5781250000,161444.4375000000,163814.8437500000,56074.5664062500,171304.3750000000,,,
1.8999999969,14,152973.2343750000,152961.4062500000,177947.1093750000,172303.9531250000,161449.7500000000,163814.6250000000,56069.4687500000,171307.8906250000,,,
1.9039999971,14,152973.4843750000,152963.7968750000,177942.5781250000,172305.3125000000,161448.7343750000,163817.5468750000,56067.9375000000,171314.4375000000,,,
1.9079999970,14,152975.7656250000,152965.8906250000,177938.9218750000,172311.2187500000,161445.4218750000,163820.3437500000,56078.0234375000,171319.9218750000,,,
1.9119999970,14,152977.2343750000,152968.2500000000,177936.7187500000,172328.2187500000,161441.8593750000,163819.6718750000,56082.8007812500,171320.2500000000,,,
1.9159999969,14,152979.3906250000,152971.6093750000,177937.8750000000,172324.5156250000,161441.7343750000,163817.4375000000,56082.7734375000,171318.1562500000,,,
1.9199999969,15,152984.9843750000,152978.1562500000,177945.6562500000,172313.4687500000,161449.1562500000,163821.5156250000,56089.4492187500,171324.2500000000,,,
1.9239999969,15,152981.4531250000,152975.0937500000,177947.9843750000,172305.6406250000,161450.9218750000,163823.7656250000,56081.3242187500,171327.9218750000,,,
1.9279999968,15,152977.2968750000,152969.0000000000,177949.5468750000,172304.7812500000,161450.2500000000,163818.5156250000,56075.0195312500,171326.3906250000,,,
1.9319999968,15,152975.5156250000,152967.4218750000,177947.6093750000,172312.2187500000,161446.7656250000,163815.3437500000,56072.6875000000,171322.9375000000,,,
1.9359999967,15,152978.3906250000,152968.8906250000,177951.9375000000,172323.7968750000,161447.9531250000,163817.2031250000,56075.6640625000,171316.0625000000,,,
1.9399999967,15,152972.0937500000,152961.7812500000,177951.8750000000,172317.2343750000,161445.3750000000,163812.2656250000,56072.5546875000,171308.2812500000,,,
1.9439999969,15,152971.2812500000,152961.8906250000,177955.5000000000,172321.4375000000,161449.2343750000,163814.9687500000,56070.0859375000,171312.2812500000,,,
1.9479999968,15,152964.9062500000,152954.6250000000,177949.2968750000,172324.1250000000,161443.8750000000,163811.0000000000,56062.3593750000,171308.6093750000,,,
1.9519999968,15,152972.5156250000,152959.1875000000,177954.4218750000,172334.3125000000,161446.3437500000,163813.0937500000,56071.0234375000,171309.7031250000,,,
1.9559999967,15,152973.3281250000,152959.1875000000,177951.6875000000,172323.2343750000,161442.8281250000,163814.4062500000,56071.2109375000,171304.7500000000,,,
1.9599999967,15,152973.9843750000,152959.1875000000,177951.4531250000,172319.9843750000,161443.4687500000,163819.3906250000,56079.8750000000,171305.0468750000,,,
1.9639999969,15,152974.7187500000,152957.5781250000,177951.1250000000,172318.0312500000,161446.3906250000,163820.3906250000,56083.8164062500,171309.9843750000,,,
1.9679999969,15,152977.0156250000,152959.1875000000,177952.2343750000,172315.1093750000,161452.7031250000,163824.5468750000,56091.7851562500,171317.0781250000,,,
1.9719999968,15,152974.6406250000,152958.4687500000,177948.6406250000,172324.0468750000,161452.4062500000,163825.5468750000,56087.9218750000,171316.7031250000,,,
1.9759999968,15,152974.1562500000,152961.6562500000,177947.6718750000,172307.1406250000,161452.4531250000,163829.1562500000,56087.2773437500,171313.4687500000,,,
1.9799999967,15,152979.7343750000,152969.5625000000,177954.8593750000,172306.4218750000,161459.3437500000,163838.8906250000,56095.5937500000,171318.8281250000,,,
1.9839999967,15,152979.5156250000,152969.7031250000,177954.9375000000,172307.0937500000,161459.6250000000,163834.5781250000,56090.6328125000,171323.3593750000,,,
1.9879999969,15,152972.8593750000,152963.5312500000,177945.7031250000,172309.0781250000,161450.8750000000,163820.7968750000,56082.4765625000,171321.9375000000,,,
1.9919999968,15,152971.2031250000,152964.0156250000,177943.0000000000,172309.1250000000,161446.0781250000,163814.2187500000,56080.1445312500,171317.5625000000,,,
1.9959999968,15,152974.4218750000,152969.7031250000,177944.9843750000,172312.5937500000,161444.2500000000,163814.0312500000,56069.1445312500,171314.8125000000,,,
1.9999999967,15,152970.6875000000,152967.8281250000,177939.2656250000,172313.2812500000,161435.3750000000,163811.8281250000,56061.2890625000,171313.0156250000,,,
2.0039999967,15,152970.2656250000,152968.7656250000,177934.4375000000,172322.0781250000,161431.2343750000,163813.7656250000,56064.6406250000,171320.4375000000,,,
2.0079999969,15,152970.8593750000,152969.2968750000,177931.1406250000,172325.2812500000,161429.6093750000,163813.5312500000,56063.4062500000,171328.1406250000,,,
2.0119999968,15,152968.2187500000,152965.9218750000,177926.7187500000,172319.9843750000,161426.1718750000,163809.7968750000,56055.0390625000,171321.8593750000,,,
2.0159999968,15,152977.1250000000,152973.4062500000,177936.1093750000,172319.5000000000,161433.9218750000,163814.6718750000,56059.1953125000,171322.3125000000,,,
2.0199999968,15,152986.6562500000,152979.5156250000,177948.2031250000,172331.7968750000,161446.2343750000,163822.0781250000,56070.8906250000,171325.1562500000,,,
2.0239999967,15,152988.6093750000,152980.6718750000,177954.7031250000,172340.1406250000,161452.4062500000,163826.6093750000,56075.5585937500,171330.3125000000,,,
2.0279999967,15,152982.9531250000,152974.4531250000,177952.8750000000,172336.9375000000,161450.1250000000,163820.6250000000,56078.8007812500,171328.1562500000,,,
2.0319999969,15,152982.7031250000,152974.3125000000,177956.0312500000,172324.8437500000,161452.0312500000,163815.3750000000,56078.9882812500,171324.8906250000,,,
2.0359999968,15,152981.4531250000,152970.7656250000,177957.5312500000,172322.9218750000,161452.0468750000,163814.1406250000,56072.6054687500,171317.8437500000,,,
2.0399999968,15,152977.2968750000,152966.8906250000,177954.9687500000,172321.8906250000,161449.0781250000,163814.7656250000,56067.6171875000,171314.6718750000,,,
2.0439999967,15,152972.6562500000,152961.1250000000,177950.8906250000,172316.3906250000,161445.4062500000,163813.8750000000,56067.6718750000,171313.2500000000,,,
2.0479999967,16,152972.3750000000,152959.8593750000,177948.6875000000,172312.5000000000,161445.4843750000,163818.4531250000,56069.1718750000,171317.0312500000,,,
2.0519999966,16,152978.8125000000,152966.3437500000,177953.4843750000,172319.9375000000,161450.2812500000,163829.2968750000,56071.1054687500,171321.3750000000,,,
2.0559999966,16,152981.6093750000,152967.0937500000,177956.1718750000,172329.0000000000,161453.4531250000,163828.5156250000,56075.8789062500,171316.3281250000,,,
2.0599999966,16,152976.4062500000,152964.6093750000,177947.4843750000,172324.6093750000,161449.3437500000,163822.4218750000,56086.7148437500,171311.6406250000,,,
2.0639999965,16,152972.3750000000,152963.5625000000,177943.1562500000,172309.9375000000,161448.3593750000,163819.6406250000,56090.3906250000,171314.8125000000,,,
2.0679999965,16,152976.4062500000,152966.8281250000,177949.4375000000,172306.2812500000,161456.0781250000,163825.9375000000,56089.9062500000,171320.0625000000,,,
2.0719999967,16,152977.0156250000,152966.1562500000,177950.6250000000,172311.3281250000,161456.6406250000,163821.9687500000,56085.9648437500,171316.3281250000,,,
2.0759999966,16,152982.1718750000,152971.3125000000,177956.1718750000,172312.8750000000,161458.8906250000,163819.6718750000,56089.1015625000,171314.0000000000,,,
2.0799999966,16,152986.5781250000,152977.0156250000,177960.0000000000,172309.5781250000,161459.9687500000,163819.0000000000,56090.8710937500,171316.2343750000,,,
2.0839999965,16,152978.9843750000,152966.9062500000,177952.2343750000,172302.3125000000,161453.2031250000,163809.5312500000,56076.9765625000,171315.0468750000,,,
2.0879999965,16,152976.5156250000,152967.5625000000,177945.7031250000,172311.1875000000,161447.1718750000,163809.8281250000,56071.0234375000,171321.9062500000,,,
2.0919999967,16,152979.5781250000,152974.3437500000,177942.9531250000,172318.9218750000,161440.6562500000,163812.9375000000,56069.4140625000,171324.1406250000,,,
2.0959999966,16,152987.6250000000,152981.6562500000,177948.3437500000,172325.2968750000,161442.3906250000,163815.1562500000,56069.5468750000,171321.6718750000,,,
2.0999999966,16,152991.4062500000,152984.1250000000,177950.6718750000,172316.7968750000,161443.6250000000,163811.7343750000,56073.0351562500,171321.8125000000,,,
2.1039999966,16,152990.2968750000,152981.3750000000,177949.7656250000,172315.2187500000,161444.0312500000,163808.5156250000,56074.3242187500,171326.4687500000,,,
2.1079999965,16,152990.6718750000,152977.1562500000,177954.0312500000,172315.3281250000,161448.2968750000,163806.9843750000,56075.3164062500,171328.9375000000,,,
2.1119999965,16,152997.2187500000,152982.7968750000,177964.8281250000,172325.8593750000,161459.2343750000,163812.6875000000,56075.9843750000,171332.7187500000,,,
2.1159999967,16,153000.9687500000,152984.9843750000,177971.2500000000,172346.8125000000,161465.3906250000,163818.3281250000,56085.4804687500,171329.9375000000,,,
2.1199999966,16,152996.5000000000,152980.4062500000,177967.3593750000,172336.1718750000,161462.6250000000,163819.9843750000,56091.9179687500,171327.1718750000,,,
2.1239999966,16,152981.8437500000,152965.8906250000,177954.6406250000,172321.7812500000,161451.4375000000,163812.8281250000,56085.6132812500,171323.7031250000,,,
2.1279999965,16,152970.2656250000,152954.7656250000,177945.6250000000,172311.9218750000,161442.5781250000,163810.1718750000,56070.2734375000,171320.0937500000,,,
2.1319999965,16,152965.7812500000,152948.0625000000,177944.0468750000,172300.5468750000,161440.3906250000,163809.1718750000,56059.2226562500,171314.5625000000,,,
2.1359999967,16,152966.2187500000,152946.4687500000,177942.9687500000,172297.9218750000,161439.3437500000,163809.1718750000,56054.6640625000,171308.7187500000,,,
2.1399999966,16,152967.9531250000,152947.1093750000,177941.2812500000,172304.0000000000,161437.5625000000,163812.2656250000,56060.3476562500,171306.7656250000,,,
2.1439999966,16,152965.2812500000,152942.0781250000,177939.3750000000,172303.3281250000,161435.9531250000,163810.4375000000,56068.6914062500,171305.5781250000,,,
2.1479999966,16,152966.2187500000,152946.4687500000,177943.8281250000,172295.6406250000,161441.7343750000,163815.5625000000,56077.7812500000,171310.8593750000,,,
2.1519999965,16,152967.9531250000,152953.7343750000,177947.1250000000,172310.5156250000,161445.9062500000,163821.1093750000,56079.1523437500,171315.2343750000,,,
2.1559999965,16,152962.6718750000,152950.0156250000,177942.6718750000,172320.8437500000,161441.0625000000,163811.6406250000,56074.8320312500,171304.2343750000,,,
2.1599999967,16,152962.0781250000,152952.1093750000,177939.3281250000,172308.4375000000,161438.4062500000,163809.0781250000,56074.1640625000,171301.9062500000,,,
2.1639999966,16,152960.4531250000,152952.7500000000,177933.3750000000,172298.5937500000,161435.7656250000,163807.6562500000,56069.3867187500,171309.0937500000,,,
2.1679999966,16,152951.3281250000,152945.4062500000,177920.6093750000,172279.0312500000,161425.8437500000,163804.6406250000,56057.3164062500,171307.7187500000,,,
2.1719999965,16,152952.7500000000,152947.4687500000,177918.6406250000,172284.3437500000,161423.5625000000,163806.6562500000,56053.5078125000,171304.6875000000,,,
2.1759999965,17,152962.6250000000,152956.1250000000,177925.0000000000,172298.1093750000,161427.9687500000,163811.7031250000,56046.8828125000,171306.0156250000,,,
2.1799999964,17,152966.2187500000,152960.7343750000,177927.2500000000,172314.6875000000,161429.9531250000,163814.3281250000,56054.5273437500,171308.9375000000,,,
2.1839999964,17,152970.9843750000,152965.8125000000,177935.1093750000,172306.5000000000,161436.6250000000,163818.5625000000,56080.1953125000,171316.1406250000,,,
2.1879999964,17,152967.9062500000,152963.4218750000,177933.5000000000,172295.1562500000,161433.8750000000,163814.4687500000,56076.6289062500,171316.4218750000,,,
2.1919999963,17,152967.2812500000,152963.4531250000,177935.7812500000,172288.8281250000,161435.3125000000,163812.4218750000,56068.0742187500,171310.9375000000,,,
2.1959999963,17,152971.0625000000,152966.7968750000,177939.3593750000,172298.3750000000,161437.4062500000,163811.5625000000,56071.6679687500,171307.8906250000,,,
2.1999999965,17,152971.1718750000,152965.6562500000,177938.6250000000,172305.4062500000,161435.5781250000,163809.7187500000,56071.6132812500,171308.2656250000,,,
2.2039999964,17,152966.5156250000,152960.4531250000,177936.5156250000,172300.2500000000,161433.3906250000,163807.9687500000,56065.6601562500,171309.3906250000,,,
2.2079999964,17,152964.1718750000,152957.1406250000,177936.3437500000,172303.2812500000,161434.1406250000,163808.9843750000,56066.0351562500,171312.4531250000,,,
2.2119999963,17,152966.7500000000,152956.4218750000,177942.8437500000,172301.2187500000,161441.6718750000,163810.3906250000,56071.1835937500,171317.1406250000,,,
2.2159999963,17,152969.7031250000,152957.2500000000,177947.6718750000,172305.7812500000,161446.3125000000,163812.9843750000,56068.6640625000,171316.0625000000,,,
2.2199999965,17,152965.4375000000,152950.1718750000,177944.0156250000,172296.1718750000,161443.2031250000,163811.5156250000,56065.4179687500,171308.8281250000,,,
2.2239999964,17,152959.8593750000,152941.1406250000,177941.6562500000,172288.3125000000,161441.7812500000,163807.9218750000,56066.7851562500,171306.4062500000,,,
2.2279999964,17,152953.5468750000,152935.5000000000,177935.2812500000,172295.6406250000,161436.2343750000,163805.6406250000,56057.4804687500,171305.9062500000,,,
2.2319999964,17,152950.2812500000,152931.4062500000,177931.4375000000,172309.6093750000,161431.8593750000,163800.7812500000,56061.5039062500,171299.5156250000,,,
2.2359999963,17,152950.7343750000,152935.9843750000,177929.7031250000,172295.3125000000,161428.4218750000,163802.4687500000,56068.8242187500,171291.8750000000,,,
2.2399999963,17,152953.5468750000,152942.9531250000,177931.3125000000,172284.4531250000,161429.3906250000,163804.3437500000,56075.0195312500,171294.2343750000,,,
2.2439999965,17,152948.2968750000,152941.0312500000,177925.0000000000,172283.6250000000,161424.6406250000,163799.5781250000,56069.5234375000,171299.4687500000,,,
2.2479999964,17,152945.1875000000,152939.6562500000,177919.9375000000,172288.2031250000,161420.4843750000,163798.6093750000,56057.4531250000,171300.0781250000,,,
2.2519999964,17,152949.5312500000,152944.0000000000,177922.0312500000,172286.3593750000,161423.6562500000,163802.0937500000,56053.1054687500,171300.7968750000,,,
2.2559999963,17,152951.7500000000,152947.5156250000,177918.3593750000,172281.8281250000,161420.4062500000,163804.0781250000,56044.4414062500,171297.0468750000,,,
2.2599999963,17,152958.0625000000,152953.6093750000,177922.9687500000,172283.8281250000,161424.7812500000,163807.6250000000,56055.8437500000,171299.7656250000,,,
2.2639999965,17,152961.4062500000,152957.9062500000,177926.0156250000,172299.0468750000,161428.9843750000,163808.9687500000,56062.8984375000,171309.0312500000,,,
2.2679999964,17,152963.4843750000,152958.4062500000,177928.9218750000,172319.9062500000,161433.1406250000,163807.5937500000,56061.8515625000,171314.5625000000,,,
2.2719999964,17,152965.5468750000,152956.4531250000,177930.1250000000,172320.9843750000,161433.8125000000,163808.2968750000,56068.7187500000,171310.4531250000,,,
2.2759999963,17,152960.6406250000,152951.8125000000,177924.6250000000,172293.5937500000,161426.7812500000,163805.6875000000,56072.6875000000,171297.5000000000,,,
2.2799999963,17,152962.5156250000,152954.4375000000,177929.6406250000,172294.0781250000,161429.2812500000,163808.1562500000,56075.7460937500,171295.9218750000,,,
2.2839999963,17,152966.2187500000,152955.5625000000,177935.7343750000,172297.6718750000,161434.3281250000,163808.2968750000,56071.1562500000,171301.7500000000,,,
2.2879999964,17,152968.2031250000,152952.5625000000,177937.8437500000,172295.7656250000,161436.6562500000,163806.7656250000,56070.7539062500,171304.6875000000,,,
2.2919999964,17,152971.5312500000,152952.4843750000,177941.4218750000,172297.3281250000,161438.9687500000,163807.7500000000,56071.5351562500,171303.4062500000,,,
2.2959999964,17,152972.1406250000,152950.2812500000,177943.3281250000,172297.4843750000,161439.3906250000,163807.6718750000,56072.7656250000,171297.0000000000,,,
2.2999999963,17,152974.6093750000,152953.2812500000,177948.3125000000,172303.6875000000,161444.8125000000,163812.2968750000,56082.7187500000,171300.3437500000,,,
2.3039999963,18,152969.5468750000,152950.5781250000,177945.9843750000,172306.5468750000,161444.7343750000,163814.9218750000,56084.0859375000,171307.1875000000,,,
2.3079999962,18,152967.3437500000,152949.1250000000,177944.9531250000,172301.1875000000,161444.5468750000,163816.6406250000,56083.4960937500,171312.9062500000,,,
2.3119999962,18,152972.0625000000,152948.4531250000,177953.3593750000,172307.8906250000,161450.4375000000,163815.1875000000,56086.1250000000,171311.7500000000,,,
2.3159999961,18,152975.9531250000,152947.7031250000,177961.8906250000,172304.6250000000,161455.7343750000,163815.0312500000,56082.8007812500,171306.1406250000,,,
2.3199999961,18,152974.2656250000,152948.2500000000,177956.3906250000,172297.9218750000,161451.4843750000,163813.3125000000,56071.9609375000,171302.2031250000,,,
2.3239999961,18,152968.3906250000,152948.0312500000,177944.4218750000,172308.8593750000,161440.4062500000,163809.3125000000,56072.6875000000,171304.4062500000,,,
2.3279999963,18,152963.6093750000,152946.9218750000,177938.6562500000,172304.4375000000,161435.1562500000,163805.2343750000,56077.5429687500,171308.2812500000,,,
2.3319999962,18,152963.0156250000,152951.2968750000,177935.2968750000,172308.2968750000,161432.2343750000,163806.4687500000,56075.7460937500,171310.5937500000,,,
2.3359999962,18,152964.8125000000,152955.0000000000,177934.8750000000,172319.2968750000,161432.4687500000,163808.8906250000,56077.7031250000,171308.8750000000,,,
2.3399999961,18,152967.5781250000,152959.2968750000,177937.5000000000,172309.9062500000,161437.1406250000,163815.0468750000,56082.4218750000,171310.2187500000,,,
2.3439999961,18,152962.5937500000,152958.1093750000,177932.0781250000,172301.8281250000,161433.8437500000,163812.8750000000,56080.1445312500,171315.7187500000,,,
2.3479999963,18,152960.1718750000,152956.5625000000,177928.0312500000,172312.9375000000,161432.0781250000,163813.3593750000,56070.2187500000,171320.6250000000,,,
2.3519999962,18,152967.5625000000,152962.5312500000,177934.2343750000,172315.4062500000,161437.2968750000,163817.0625000000,56069.5468750000,171323.4687500000,,,
2.3559999962,18,152971.9843750000,152964.9531250000,177938.2500000000,172308.1562500000,161437.3750000000,163817.9531250000,56075.2343750000,171320.5156250000,,,
2.3599999961,18,152974.2343750000,152965.8906250000,177938.9218750000,172303.1718750000,161434.6250000000,163819.2343750000,56079.7421875000,171316.7343750000,,,
2.3639999961,18,152975.1406250000,152967.5625000000,177935.7812500000,172307.9531250000,161432.4218750000,163820.0625000000,56073.5976562500,171321.7187500000,,,
2.3679999961,18,152976.9218750000,152963.9375000000,177939.5937500000,172319.4531250000,161433.8906250000,163818.8906250000,56070.6757812500,171322.4531250000,,,
2.3719999962,18,152977.2031250000,152962.2656250000,177943.4375000000,172316.9531250000,161436.6875000000,163814.1718750000,56065.2031250000,171319.0468750000,,,
2.3759999962,18,152974.3906250000,152957.6562500000,177943.5156250000,172300.5468750000,161434.8281250000,163809.5781250000,56066.3554687500,171309.0937500000,,,
2.3799999962,18,152968.6250000000,152951.2187500000,177943.2500000000,172298.8750000000,161434.2968750000,163810.8750000000,56073.9726562500,171300.0000000000,,,
2.3839999961,18,152965.8125000000,152948.3281250000,177942.9687500000,172299.6093750000,161434.7812500000,163809.6093750000,56071.6679687500,171301.6562500000,,,
2.3879999961,18,152965.0937500000,152947.5937500000,177942.4687500000,172298.6093750000,161436.4218750000,163807.6562500000,56070.4062500000,171306.0312500000,,,
2.3919999963,18,152965.7031250000,152949.7968750000,177942.8125000000,172301.3281250000,161438.9687500000,163810.7812500000,56076.0117187500,171308.4531250000,,,
2.3959999962,18,152968.5000000000,152950.0625000000,177947.3437500000,172303.0937500000,161444.4062500000,163815.5625000000,56082.4765625000,171301.7187500000,,,
2.3999999962,18,152973.2187500000,152952.5625000000,177953.4375000000,172317.4218750000,161450.5781250000,163816.9843750000,56083.7929687500,171298.9843750000,,,
2.4039999961,18,152969.0000000000,152950.7656250000,177949.2812500000,172303.5156250000,161447.7656250000,163811.8906250000,56074.0273437500,171301.6875000000,,,
2.4079999961,18,152964.1718750000,152952.4531250000,177945.9843750000,172298.1562500000,161443.7343750000,163810.5937500000,56070.4609375000,171306.9218750000,,,
2.4119999961,18,152956.6406250000,152946.0468750000,177937.9375000000,172296.7656250000,161435.7656250000,163807.1093750000,56070.0039062500,171301.2656250000,,,
2.4159999962,18,152954.8906250000,152946.2031250000,177931.5156250000,172292.4687500000,161430.5468750000,163806.3906250000,56071.7500000000,171295.5000000000,,,
2.4199999962,18,152955.7031250000,152949.9062500000,177928.0937500000,172295.0781250000,161427.8125000000,163807.4687500000,56069.1992187500,171295.9218750000,,,
2.4239999962,18,152955.9062500000,152951.8125000000,177926.6093750000,172301.3281250000,161428.0000000000,163814.2812500000,56076.2539062500,171303.4375000000,,,
2.4279999961,18,152956.4218750000,152953.2812500000,177925.5937500000,172304.9687500000,161428.8593750000,163817.7656250000,56080.9218750000,171311.2187500000,,,
2.4319999961,19,152959.9843750000,152957.9218750000,177927.6093750000,172302.8750000000,161431.2187500000,163819.3125000000,56077.5156250000,171314.8593750000,,,
2.4359999960,19,152969.8281250000,152965.0000000000,177936.7812500000,172311.0000000000,161437.5156250000,163824.2187500000,56084.5429687500,171315.1250000000,,,
2.4399999960,19,152974.8750000000,152967.9062500000,177945.3906250000,172312.9375000000,161442.6875000000,163823.6562500000,56089.3710937500,171315.4687500000,,,
2.4439999959,19,152967.2656250000,152959.3437500000,177938.7343750000,172321.0156250000,161437.7343750000,163816.0937500000,56076.1210937500,171315.0468750000,,,
2.4479999959,19,152960.3437500000,152954.5468750000,177926.0781250000,172306.8281250000,161428.6093750000,163812.2343750000,56057.7460937500,171316.0937500000,,,
2.4519999959,19,152962.7031250000,152955.5312500000,177926.6093750000,172306.5000000000,161428.0781250000,163813.6250000000,56056.5390625000,171316.6875000000,,,
2.4559999960,19,152966.7968750000,152957.5468750000,177930.2812500000,172315.9687500000,161428.7968750000,163810.9531250000,56058.0703125000,171311.4843750000,,,
2.4599999960,19,152970.5000000000,152959.9843750000,177936.3281250000,172314.2968750000,161434.1406250000,163811.9375000000,56064.6679687500,171309.6250000000,,,
2.4639999960,19,152968.2187500000,152957.6250000000,177937.7187500000,172307.1406250000,161436.0937500000,163815.2187500000,56069.3359375000,171315.6093750000,,,
2.4679999959,19,152962.1406250000,152950.6875000000,177936.5937500000,172294.7031250000,161435.5000000000,163810.4687500000,56071.1328125000,171316.7656250000,,,
2.4719999959,19,152961.8906250000,152946.5000000000,177940.2968750000,172288.2656250000,161438.6718750000,163808.5156250000,56072.2578125000,171314.2187500000,,,
2.4759999961,19,152963.1875000000,152943.9843750000,177942.8437500000,172288.4531250000,161439.2343750000,163806.5312500000,56065.5000000000,171308.5781250000,,,
2.4799999960,19,152967.0156250000,152949.5781250000,177945.3125000000,172304.9375000000,161440.4062500000,163807.2500000000,56072.5000000000,171307.9062500000,,,
2.4839999960,19,152968.8437500000,152955.1093750000,177944.8281250000,172314.2031250000,161441.3281250000,163812.0468750000,56075.2890625000,171317.6250000000,,,
2.4879999959,19,152961.4687500000,152950.5781250000,177935.6562500000,172302.2656250000,161434.3750000000,163807.1093750000,56069.4140625000,171319.8437500000,,,
2.4919999959,19,152962.4531250000,152952.2968750000,177936.1093750000,172295.4687500000,161435.3750000000,163805.1250000000,56059.5156250000,171322.2343750000,,,
2.4959999959,19,152969.4843750000,152961.0156250000,177942.5468750000,172307.1093750000,161440.2500000000,163807.1875000000,56060.0546875000,171321.0625000000,,,
2.4999999960,19,152965.6718750000,152955.0781250000,177937.3125000000,172313.5312500000,161433.5468750000,163801.7968750000,56075.1562500000,171308.9843750000,,,
2.5039999960,19,152962.2968750000,152954.4062500000,177933.6875000000,172291.4531250000,161431.4062500000,163804.4062500000,56079.2578125000,171313.0156250000,,,
2.5079999960,19,152961.9531250000,152960.1718750000,177931.7656250000,172291.4843750000,161431.6718750000,163810.5468750000,56077.5703125000,171320.8437500000,,,
2.5119999959,19,152961.0312500000,152962.8906250000,177932.2500000000,172298.7812500000,161432.6093750000,163812.4218750000,56078.1328125000,171321.8125000000,,,
2.5159999959,19,152964.0937500000,152964.9531250000,177938.0937500000,172297.2500000000,161436.2031250000,163811.7500000000,56081.0546875000,171316.8125000000,,,
2.5199999961,19,152959.3750000000,152954.8906250000,177932.5625000000,172295.5781250000,161430.2187500000,163803.4062500000,56071.8281250000,171308.1250000000,,,
2.5239999960,19,152956.4218750000,152948.1093750000,177926.8593750000,172296.1718750000,161426.0625000000,163797.1562500000,56070.5937500000,171306.3281250000,,,
2.5279999960,19,152952.4843750000,152945.3125000000,177920.6093750000,172289.2031250000,161421.5000000000,163793.5937500000,56061.2343750000,171308.2656250000,,,
2.5319999959,19,152960.8750000000,152949.8750000000,177928.3593750000,172304.7500000000,161427.7812500000,163796.3281250000,56063.6210937500,171312.6875000000,,,
2.5359999959,19,152967.4218750000,152952.0468750000,177932.0781250000,172310.2031250000,161431.5625000000,163798.6093750000,56071.3710937500,171308.0937500000,,,
2.5399999958,19,152975.7343750000,152956.2031250000,177939.6250000000,172320.0937500000,161437.5156250000,163802.6406250000,56077.7031250000,171306.5781250000,,,
2.5439999960,19,152977.0781250000,152955.2500000000,177943.7812500000,172308.9062500000,161441.7500000000,163802.0937500000,56076.8437500000,171308.9062500000,,,
2.5479999960,19,152971.4218750000,152947.8750000000,177941.6875000000,172295.9843750000,161438.7812500000,163794.9843750000,56077.1679687500,171307.7031250000,,,
2.5519999960,19,152974.0781250000,152950.0156250000,177947.2656250000,172307.3906250000,161442.1875000000,163799.0625000000,56079.6054687500,171310.9218750000,,,
2.5559999959,19,152977.0156250000,152953.3437500000,177952.1406250000,172305.6718750000,161445.9062500000,163801.8906250000,56078.1601562500,171309.6562500000,,,
2.5599999959,20,152982.3125000000,152959.2187500000,177958.4531250000,172312.4843750000,161453.6562500000,163805.8593750000,56080.6796875000,171310.6250000000,,,
2.5639999958,20,152984.0000000000,152962.7343750000,177962.6875000000,172317.4375000000,161458.8906250000,163811.9218750000,56084.5429687500,171317.0000000000,,,
2.5679999958,20,152981.7187500000,152962.4375000000,177957.4531250000,172311.1093750000,161455.0781250000,163811.7343750000,56091.4375000000,171324.1875000000,,,
2.5719999957,20,152976.2968750000,152958.5156250000,177948.9218750000,172310.3281250000,161447.1250000000,163806.4218750000,56087.5195312500,171323.0937500000,,,
2.5759999957,20,152969.1093750000,152952.3125000000,177944.0468750000,172297.1718750000,161442.0156250000,163802.5000000000,56084.9179687500,171314.9375000000,,,
2.5799999957,20,152964.7343750000,152952.4062500000,177938.6875000000,172302.3437500000,161436.6875000000,163809.6093750000,56087.6015625000,171311.1875000000,,,
2.5839999958,20,152964.1406250000,152955.2500000000,177935.4843750000,172310.9843750000,161434.4375000000,163815.5156250000,56081.0000000000,171317.5625000000,,,
2.5879999958,20,152966.8906250000,152956.3750000000,177936.3437500000,172308.7187500000,161436.4218750000,163813.8437500000,56071.1328125000,171323.4218750000,,,
2.5919999958,20,152966.4843750000,152957.8437500000,177936.1093750000,172299.4687500000,161436.8437500000,163810.4062500000,56081.3242187500,171322.5781250000,,,
2.5959999957,20,152963.2968750000,152957.2343750000,177932.1093750000,172299.2500000000,161433.7343750000,163808.0468750000,56085.7226562500,171316.0937500000,,,
2.5999999957,20,152964.3125000000,152955.2500000000,177933.7812500000,172300.5468750000,161436.6250000000,163809.0781250000,56078.7773437500,171310.3750000000,,,
2.6039999959,20,152964.0625000000,152953.4687500000,177933.1875000000,172297.2968750000,161437.8593750000,163808.5625000000,56070.7539062500,171314.9687500000,,,
2.6079999958,20,152967.9531250000,152955.6250000000,177937.2656250000,172294.4531250000,161442.6875000000,163809.7187500000,56076.0937500000,171322.0156250000,,,
2.6119999958,20,152964.7343750000,152950.7343750000,177935.8906250000,172287.0468750000,161440.7656250000,163806.7187500000,56080.3046875000,171316.7656250000,,,
2.6159999957,20,152963.1875000000,152951.2187500000,177934.0937500000,172293.0937500000,161436.9062500000,163806.7187500000,56080.3867187500,171310.7343750000,,,
2.6199999957,20,152968.6562500000,152954.5937500000,177939.3750000000,172303.7343750000,161439.7500000000,163808.9062500000,56087.0351562500,171310.9375000000,,,
2.6239999956,20,152970.8750000000,152954.6562500000,177942.5781250000,172306.1718750000,161443.1250000000,163811.3281250000,56089.5039062500,171316.3593750000,,,
2.6279999958,20,152973.0468750000,152955.7812500000,177946.1093750000,172310.0468750000,161448.2656250000,163815.1406250000,56078.7226562500,171322.2031250000,,,
2.6319999958,20,152972.1875000000,152951.8125000000,177946.0000000000,172310.4687500000,161447.5000000000,163810.5468750000,56072.5273437500,171317.4843750000,,,
2.6359999957,20,152973.4531250000,152954.3593750000,177943.2187500000,172315.4062500000,161442.2031250000,163809.6562500000,56086.3398437500,171311.2656250000,,,
2.6399999957,20,152972.5156250000,152955.3750000000,177940.1250000000,172315.9375000000,161437.6718750000,163809.8750000000,56085.2929687500,171309.3281250000,,,
2.6439999957,20,152979.0000000000,152961.9218750000,177947.0468750000,172323.5312500000,161444.3750000000,163812.3906250000,56086.0976562500,171320.2968750000,,,
2.6479999959,20,152975.7656250000,152961.7656250000,177943.3281250000,172316.6406250000,161442.5000000000,163813.3125000000,56084.0312500000,171326.5000000000,,,
2.6519999958,20,152969.7812500000,152958.4375000000,177937.8281250000,172307.4375000000,161437.8437500000,163810.5781250000,56079.1523437500,171323.4687500000,,,
2.6559999958,20,152975.4687500000,152962.4531250000,177945.2500000000,172324.2812500000,161443.4218750000,163813.6250000000,56082.6640625000,171320.9531250000,,,
2.6599999957,20,152971.3906250000,152961.2812500000,177944.5781250000,172300.0625000000,161443.0937500000,163813.2031250000,56083.0117187500,171318.0312500000,,,
2.6639999957,20,152959.7500000000,152951.7343750000,177935.4687500000,172280.8906250000,161437.1718750000,163807.0625000000,56079.9296875000,171316.0937500000,,,
2.6679999956,20,152958.8125000000,152951.8593750000,177934.6093750000,172292.3906250000,161439.1718750000,163809.3125000000,56081.8046875000,171322.4531250000,,,
2.6719999958,20,152959.0000000000,152953.5000000000,177933.5000000000,172297.3281250000,161437.9687500000,163812.2343750000,56083.2539062500,171326.2031250000,,,
2.6759999958,20,152957.4687500000,152951.4843750000,177930.7968750000,172296.5468750000,161433.5937500000,163809.0781250000,56076.6835937500,171319.4531250000,,,
2.6799999957,20,152954.1718750000,152948.6718750000,177925.5468750000,172298.1875000000,161427.3281250000,163804.4062500000,56070.7304687500,171311.4218750000,,,
2.6839999957,20,152949.3906250000,152947.8437500000,177918.4062500000,172301.0000000000,161421.5781250000,163805.2031250000,56071.3710937500,171311.7812500000,,,
2.6879999957,21,152949.7500000000,152947.6562500000,177919.0156250000,172305.8281250000,161424.1875000000,163805.8750000000,56076.6015625000,171315.5625000000,,,
2.6919999956,21,152952.1562500000,152947.1093750000,177921.5468750000,172301.5156250000,161426.5937500000,163803.5000000000,56070.1406250000,171313.8906250000,,,
2.6959999956,21,152959.7812500000,152951.2812500000,177928.0937500000,172302.1250000000,161432.9062500000,163807.5468750000,56073.1679687500,171313.2031250000,,,
2.6999999955,21,152959.8593750000,152947.2812500000,177927.7343750000,172298.8593750000,161432.0156250000,163803.3593750000,56081.9414062500,171309.6250000000,,,
2.7039999955,21,152963.1562500000,152947.3906250000,177933.9843750000,172298.6093750000,161438.4218750000,163804.1875000000,56087.4375000000,171313.8593750000,,,
2.7079999954,21,152962.4062500000,152948.2500000000,177932.3593750000,172297.7343750000,161438.2656250000,163806.3906250000,56086.9570312500,171319.2656250000,,,
2.7119999956,21,152964.5312500000,152948.7500000000,177933.4218750000,172302.3125000000,161439.1562500000,163807.9531250000,56088.6992187500,171316.3593750000,,,
2.7159999956,21,152965.4375000000,152946.5468750000,177937.8750000000,172297.7812500000,161440.7343750000,163808.1093750000,56086.8203125000,171308.3125000000,,,
2.7199999955,21,152959.5625000000,152941.7812500000,177931.6875000000,172298.6406250000,161433.9531250000,163805.9843750000,56074.4296875000,171300.4843750000,,,
2.7239999955,21,152961.1250000000,152946.3125000000,177933.8281250000,172313.0937500000,161435.5781250000,163810.1250000000,56070.4882812500,171309.4375000000,,,
2.7279999955,21,152956.1250000000,152944.4062500000,177930.2656250000,172310.0625000000,161432.4218750000,163807.0625000000,56075.1796875000,171315.6562500000,,,
2.7319999957,21,152956.0781250000,152948.5156250000,177932.3593750000,172300.0156250000,161435.5000000000,163807.4687500000,56071.0781250000,171319.4531250000,,,
2.7359999956,21,152964.4687500000,152956.0156250000,177944.2812500000,172298.5625000000,161446.3906250000,163811.2968750000,56080.5195312500,171321.1875000000,,,
2.7399999956,21,152975.5468750000,152967.6875000000,177953.9687500000,172311.3281250000,161456.6093750000,163819.1250000000,56102.6757812500,171328.8281250000,,,
2.7439999955,21,152973.0312500000,152967.7500000000,177946.5625000000,172305.4218750000,161452.8906250000,163823.3750000000,56106.7773437500,171334.9531250000,,,
2.7479999955,21,152963.0000000000,152960.4218750000,177936.4531250000,172284.1562500000,161444.6250000000,163818.6718750000,56090.9257812500,171335.9218750000,,,
2.7519999954,21,152962.9375000000,152957.6562500000,177933.5625000000,172291.2968750000,161441.0781250000,163811.8906250000,56085.6132812500,171333.5312500000,,,
2.7559999956,21,152966.7500000000,152963.0781250000,177935.1093750000,172292.0625000000,161441.4062500000,163813.3906250000,56089.9062500000,171329.9375000000,,,
2.7599999956,21,152969.3750000000,152964.8750000000,177937.9375000000,172300.1406250000,161443.2031250000,163818.4531250000,56092.3203125000,171326.6406250000,,,
2.7639999955,21,152965.6250000000,152959.6718750000,177934.5000000000,172293.8593750000,161441.0625000000,163818.4531250000,56089.9609375000,171326.9218750000,,,
2.7679999955,21,152965.1406250000,152957.9218750000,177933.0468750000,172293.0937500000,161442.0000000000,163821.4062500000,56087.8398437500,171331.5937500000,,,
2.7719999955,21,152973.4843750000,152964.3593750000,177941.3906250000,172308.1562500000,161450.2812500000,163831.8437500000,56091.7578125000,171336.1250000000,,,
2.7759999956,21,152976.5937500000,152968.0937500000,177944.4531250000,172301.4062500000,161452.7187500000,163835.2187500000,56097.4453125000,171333.8281250000,,,
2.7799999956,21,152974.4687500000,152965.0625000000,177942.9531250000,172290.1875000000,161450.2031250000,163831.9218750000,56102.9414062500,171327.5781250000,,,
2.7839999956,21,152970.1875000000,152958.2968750000,177941.1562500000,172287.5312500000,161450.5312500000,163826.5937500000,56097.0156250000,171324.0625000000,,,
2.7879999955,21,152969.4062500000,152953.5000000000,177946.3593750000,172292.0468750000,161457.3125000000,163822.5937500000,56096.7734375000,171324.7500000000,,,
2.7919999955,21,152969.1875000000,152950.7968750000,177945.6250000000,172300.2968750000,161453.3750000000,163818.7812500000,56102.0820312500,171322.3125000000,,,
2.7959999954,21,152971.9531250000,152952.5625000000,177947.0312500000,172302.6406250000,161451.2500000000,163817.3593750000,56106.6992187500,171316.3125000000,,,
2.7999999956,21,152976.2968750000,152954.8125000000,177953.1406250000,172311.8437500000,161454.0312500000,163818.5156250000,56103.3984375000,171311.7187500000,,,
2.8039999956,21,152972.3750000000,152950.9843750000,177949.6562500000,172305.1562500000,161448.9218750000,163811.7343750000,56094.6796875000,171309.2500000000,,,
2.8079999955,21,152967.3125000000,152947.8750000000,177944.9531250000,172305.6718750000,161443.3593750000,163807.7812500000,56087.9218750000,171309.5156250000,,,
2.8119999955,21,152963.4843750000,152946.0156250000,177944.0937500000,172308.7500000000,161440.1718750000,163805.3750000000,56082.6367187500,171305.7187500000,,,
2.8159999955,22,152966.1562500000,152950.0625000000,177949.0625000000,172318.7031250000,161442.6875000000,163805.9531250000,56084.4101562500,171303.0312500000,,,
2.8199999954,22,152966.9843750000,152951.4843750000,177948.1250000000,172308.8593750000,161438.3437500000,163801.4843750000,56093.5820312500,171300.7187500000,,,
2.8239999954,22,152961.2031250000,152948.7500000000,177938.3281250000,172310.0625000000,161429.9218750000,163791.5312500000,56087.7070312500,171301.7187500000,,,
2.8279999953,22,152954.1718750000,152944.2656250000,177930.5000000000,172305.0312500000,161424.8593750000,163785.9531250000,56074.5390625000,171304.6875000000,,,
2.8319999953,22,152949.1250000000,152940.6718750000,177926.8281250000,172300.8437500000,161421.7500000000,163788.1250000000,56069.0390625000,171300.3437500000,,,
2.8359999952,22,152948.5156250000,152937.8906250000,177923.9843750000,172314.4843750000,161417.3437500000,163789.3593750000,56064.1835937500,171290.6718750000,,,
2.8399999954,22,152954.2812500000,152942.7500000000,177926.5000000000,172314.2187500000,161419.6718750000,163791.7187500000,56064.6406250000,171289.5468750000,,,
2.8439999954,22,152964.5312500000,152953.7343750000,177936.1875000000,172315.4062500000,161431.3437500000,163801.4843750000,56080.8125000000,171302.6250000000,,,
2.8479999953,22,152962.0312500000,152952.3125000000,177933.0468750000,172316.8750000000,161430.7500000000,163800.2500000000,56087.4375000000,171308.8437500000,,,
2.8519999953,22,152962.8125000000,152956.0781250000,177934.5312500000,172305.4218750000,161433.2500000000,163804.2500000000,56086.3671875000,171314.5312500000,,,
2.8559999953,22,152965.8437500000,152956.6406250000,177935.2500000000,172311.8593750000,161435.3437500000,163811.1093750000,56083.8437500000,171312.2031250000,,,
2.8599999954,22,152968.5937500000,152956.3906250000,177934.7656250000,172314.8906250000,161435.7500000000,163809.3437500000,56084.4101562500,171309.3281250000,,,
2.8639999954,22,152966.4218750000,152952.9687500000,177934.5468750000,172306.0625000000,161435.7656250000,163803.5468750000,56083.6835937500,171312.2343750000,,,
2.8679999954,22,152966.5937500000,152952.1250000000,177938.3906250000,172306.6093750000,161440.4375000000,163809.8437500000,56086.8476562500,171318.1875000000,,,
2.8719999953,22,152964.6093750000,152948.1406250000,177937.9531250000,172293.7656250000,161440.2812500000,163810.5156250000,56094.2265625000,171315.7500000000,,,
2.8759999953,22,152968.0312500000,152946.8281250000,177944.3125000000,172299.7343750000,161445.3750000000,163809.1250000000,56100.6640625000,171308.5625000000,,,
2.8799999952,22,152971.6093750000,152949.1250000000,177950.1406250000,172305.5625000000,161450.0468750000,163807.8906250000,56104.7929687500,171306.5156250000,,,
2.8839999954,22,152969.0781250000,152944.8906250000,177950.0312500000,172307.4375000000,161449.7812500000,163806.1406250000,56098.7578125000,171306.2812500000,,,
2.8879999954,22,152964.7343750000,152942.8281250000,177947.6875000000,172301.5937500000,161449.2031250000,163803.2187500000,56092.8554687500,171308.1875000000,,,
2.8919999953,22,152962.4531250000,152944.7343750000,177944.7500000000,172292.8125000000,161447.4062500000,163799.7968750000,56097.2578125000,171310.9218750000,,,
2.8959999953,22,152959.6093750000,152944.0781250000,177940.1250000000,172291.5312500000,161440.5156250000,163793.8593750000,56087.9492187500,171304.0000000000,,,
2.8999999953,22,152961.8750000000,152948.1875000000,177943.0625000000,172291.4218750000,161441.2187500000,163796.1406250000,56086.9023437500,171300.1406250000,,,
2.9039999954,22,152964.8437500000,152952.0468750000,177946.3281250000,172296.6562500000,161443.6093750000,163797.2187500000,56097.7109375000,171304.1875000000,,,
2.9079999954,22,152962.1093750000,152951.8125000000,177941.7343750000,172302.6875000000,161439.1250000000,163793.8906250000,56092.6953125000,171308.1250000000,,,
2.9119999954,22,152962.1875000000,152955.4531250000,177936.8906250000,172308.6406250000,161435.0781250000,163798.3437500000,56084.5703125000,171311.7812500000,,,
2.9159999953,22,152965.0625000000,152960.2656250000,177937.3437500000,172315.8125000000,161434.4375000000,163801.6406250000,56079.4726562500,171311.0000000000,,,
2.9199999953,22,152969.0625000000,152963.4218750000,177940.9375000000,172320.4531250000,161436.6250000000,163803.8437500000,56090.4960937500,171311.2187500000,,,
2.9239999952,22,152968.1250000000,152961.3906250000,177939.0000000000,172322.0000000000,161436.1406250000,163802.8750000000,56096.8007812500,171314.0468750000,,,
2.9279999954,22,152963.7500000000,152959.1875000000,177933.4531250000,172319.8593750000,161432.6562500000,163799.6875000000,56092.8828125000,171318.5625000000,,,
2.9319999954,22,152967.7968750000,152963.3906250000,177935.1406250000,172312.4843750000,161435.0000000000,163803.1406250000,56093.1796875000,171324.4375000000,,,
2.9359999953,22,152970.1093750000,152965.1875000000,177936.0000000000,172315.8906250000,161435.4531250000,163808.0468750000,56089.3710937500,171321.5312500000,,,
2.9399999953,22,152965.3593750000,152958.3593750000,177930.9531250000,172304.7812500000,161432.8437500000,163805.1562500000,56077.9179687500,171313.2187500000,,,
2.9439999952,23,152963.0156250000,152954.0312500000,177929.4531250000,172296.1718750000,161432.1562500000,163799.8437500000,56079.5273437500,171312.3906250000,,,
2.9479999952,23,152961.7656250000,152953.7656250000,177927.5000000000,172303.2031250000,161428.5312500000,163804.4531250000,56081.5117187500,171317.8906250000,,,
2.9519999952,23,152964.6875000000,152956.5781250000,177929.6718750000,172300.4687500000,161429.5156250000,163809.7500000000,56088.1093750000,171321.0625000000,,,
2.9559999951,23,152965.9218750000,152956.4218750000,177931.9843750000,172288.7968750000,161430.3281250000,163807.0312500000,56096.2382812500,171317.0312500000,,,
2.9599999951,23,152962.2187500000,152948.1093750000,177932.1093750000,172290.7343750000,161429.6562500000,163801.7031250000,56095.4570312500,171305.9843750000,,,
