Time:250Hz,Epoch,Channel 1,Channel 2,Channel 3,Channel 4,Channel 5,Channel 6,Channel 7,Channel 8,Event Id,Event Date,Event Duration
0.0000000000,0,179244.2187500000,165790.4218750000,193592.5156250000,180289.4843750000,168053.7812500000,140393.4843750000,164955.0468750000,159416.6875000000,,,
0.0040000000,0,179239.2031250000,165790.6562500000,193580.6093750000,180306.6718750000,168044.3281250000,140390.8906250000,164945.9843750000,159879.9843750000,,,
0.0079999999,0,179251.2500000000,165802.5781250000,193590.1718750000,180297.7968750000,168057.0937500000,140407.2812500000,164960.8593750000,160441.2031250000,,,
0.0119999999,0,179264.3593750000,165809.5156250000,193607.7187500000,180285.5312500000,168072.0468750000,140420.7187500000,164980.2343750000,160330.7812500000,,,
0.0159999998,0,179272.2031250000,165814.6718750000,193621.6406250000,180294.5937500000,168083.0625000000,140427.8281250000,164998.5468750000,159694.0312500000,,,
0.0199999998,0,179286.2812500000,165834.7812500000,193635.7031250000,180330.1093750000,168094.9218750000,140442.2031250000,165012.0937500000,159350.7500000000,,,
0.0240000000,0,179279.2187500000,165829.5468750000,193624.8125000000,180341.9687500000,168082.5000000000,140428.2031250000,164996.2187500000,159773.8281250000,,,
0.0279999999,0,179258.9687500000,165805.5468750000,193604.5312500000,180265.3593750000,168065.9843750000,140409.5625000000,164977.6250000000,160339.5781250000,,,
0.0319999999,0,179249.7968750000,165791.7343750000,193597.2656250000,180235.3750000000,168061.1562500000,140402.6718750000,164966.2500000000,160230.7656250000,,,
0.0359999998,0,179275.7343750000,165816.8437500000,193624.9687500000,180286.9375000000,168085.5937500000,140422.9687500000,164983.4843750000,159588.6093750000,,,
0.0399999998,0,179273.7031250000,165819.2031250000,193623.3906250000,180275.7968750000,168084.8281250000,140421.4062500000,164982.1406250000,159249.0156250000,,,
0.0440000000,0,179261.9531250000,165816.2187500000,193603.8281250000,180253.0000000000,168070.2968750000,140410.2812500000,164967.7031250000,159703.6562500000,,,
0.0480000000,0,179270.2968750000,165819.3125000000,193607.9062500000,180278.4218750000,168074.8281250000,140407.5937500000,164967.4375000000,160277.9218750000,,,
0.0519999999,0,179315.5625000000,165854.5781250000,193656.8125000000,180340.4062500000,168120.5937500000,140444.0000000000,165008.9843750000,160188.4062500000,,,
0.0559999999,0,179337.7031250000,165872.4375000000,193686.9218750000,180372.3593750000,168149.1875000000,140468.5937500000,165044.0937500000,159568.2812500000,,,
0.0599999998,0,179329.3750000000,165867.7968750000,193677.7187500000,180335.7968750000,168140.5781250000,140467.6562500000,165040.1250000000,159245.2343750000,,,
0.0639999998,0,179289.2500000000,165834.3750000000,193627.9687500000,180264.2968750000,168092.9843750000,140432.9687500000,164993.2968750000,159711.2500000000,,,
0.0680000000,0,179270.0468750000,165810.5156250000,193605.6250000000,180253.2187500000,168069.7812500000,140410.6093750000,164969.6562500000,160314.0156250000,,,
0.0719999999,0,179299.7656250000,165831.4531250000,193637.5000000000,180303.1093750000,168099.6718750000,140436.1718750000,164995.9687500000,160228.7187500000,,,
0.0759999999,0,179336.0625000000,165861.7656250000,193679.9531250000,180347.3593750000,168141.3750000000,140469.9687500000,165031.5468750000,159603.9531250000,,,
0.0799999998,0,179332.7812500000,165868.8281250000,193676.7656250000,180294.7031250000,168145.0468750000,140478.9218750000,165027.6875000000,159287.3437500000,,,
0.0839999998,0,179305.6718750000,165856.3437500000,193643.2656250000,180269.3593750000,168113.1562500000,140458.9062500000,165005.6250000000,159773.9531250000,,,
0.0880000000,0,179300.4062500000,165849.8593750000,193633.7187500000,180316.5625000000,168098.1093750000,140447.9375000000,165013.6250000000,160411.3593750000,,,
0.0919999999,0,179311.0156250000,165848.3281250000,193653.5312500000,180340.1406250000,168115.8906250000,140456.1250000000,165035.9218750000,160350.1406250000,,,
0.0959999999,0,179307.5156250000,165843.3437500000,193660.0781250000,180290.1250000000,168123.2656250000,140463.3906250000,165036.1875000000,159709.9843750000,,,
0.0999999999,0,179272.0625000000,165822.2500000000,193622.4218750000,180232.1093750000,168086.9062500000,140449.7656250000,164998.3906250000,159349.5000000000,,,
0.1039999998,0,179246.9843750000,165804.3750000000,193591.3593750000,180237.6875000000,168056.9375000000,140424.1250000000,164948.4218750000,159792.8593750000,,,
0.1079999998,0,179251.9531250000,165815.5000000000,193586.4218750000,180257.7812500000,168053.8593750000,140424.7187500000,164964.4062500000,160396.5312500000,,,
0.1120000000,0,179287.1406250000,165847.2500000000,193622.7187500000,180284.3281250000,168087.4687500000,140457.7343750000,164994.3906250000,160331.9375000000,,,
0.1159999999,0,179298.0781250000,165842.3281250000,193643.2031250000,180297.4687500000,168106.0781250000,140465.5937500000,165009.9531250000,159692.3593750000,,,
0.1199999999,0,179280.6250000000,165828.5937500000,193621.9687500000,180279.8281250000,168089.3750000000,140455.2968750000,165008.7656250000,159327.4531250000,,,
0.1239999998,0,179258.9218750000,165814.9375000000,193594.3906250000,180263.6718750000,168063.3750000000,140438.5000000000,164979.6406250000,159769.1250000000,,,
0.1279999998,1,179253.2031250000,165809.2968750000,193584.5156250000,180264.8593750000,168052.1718750000,140430.5000000000,164966.9062500000,160371.2031250000,,,
0.1319999998,1,179288.8750000000,165833.7031250000,193629.1250000000,180308.7656250000,168091.8906250000,140453.8750000000,164981.8125000000,160290.6875000000,,,
0.1359999997,1,179311.0937500000,165853.3125000000,193666.4843750000,180309.3593750000,168127.0000000000,140474.7656250000,164967.7031250000,159668.5781250000,,,
0.1399999997,1,179301.1093750000,165855.2500000000,193649.5937500000,180290.3906250000,168116.8906250000,140473.3906250000,164989.4062500000,159302.6093750000,,,
0.1439999996,1,179248.0312500000,165807.4218750000,193580.6250000000,180262.9843750000,168047.0468750000,140422.2656250000,165002.3125000000,159716.5625000000,,,
0.1479999996,1,179235.3750000000,165793.3437500000,193564.9062500000,180259.8125000000,168028.9843750000,140400.9218750000,164978.0000000000,160315.0312500000,,,
0.1519999998,1,179269.3750000000,165817.0312500000,193611.5000000000,180290.2812500000,168073.0312500000,140422.2656250000,164976.1875000000,160234.8906250000,,,
0.1559999997,1,179276.9375000000,165821.0468750000,193626.7968750000,180295.7500000000,168091.5468750000,140429.5937500000,164969.2031250000,159585.1250000000,,,
0.1599999997,1,179263.0468750000,165811.3125000000,193617.4843750000,180275.0781250000,168086.0625000000,140419.2343750000,164945.6875000000,159214.6562500000,,,
0.1639999996,1,179230.7500000000,165782.7500000000,193576.1562500000,180240.8281250000,168046.5937500000,140386.0312500000,164969.1250000000,159649.2812500000,,,
0.1679999996,1,179223.9218750000,165777.5937500000,193563.6250000000,180242.6250000000,168032.4843750000,140379.1875000000,164983.5781250000,160265.6562500000,,,
0.1719999998,1,179256.8281250000,165806.5625000000,193602.7656250000,180287.9687500000,168067.1406250000,140410.1406250000,165011.8281250000,160216.8906250000,,,
0.1759999997,1,179268.7968750000,165814.3437500000,193623.8906250000,180281.6250000000,168085.6875000000,140426.0781250000,165022.2812500000,159604.9218750000,,,
0.1799999997,1,179251.1875000000,165797.1718750000,193608.4687500000,180253.3281250000,168070.4375000000,140414.5000000000,165000.1875000000,159227.7968750000,,,
0.1839999997,1,179224.1875000000,165773.3125000000,193573.3906250000,180254.1250000000,168035.8906250000,140387.4062500000,164960.0625000000,159598.1875000000,,,
0.1879999996,1,179221.3125000000,165768.1250000000,193563.8593750000,180287.2812500000,168024.4843750000,140377.7500000000,164939.8125000000,160201.2343750000,,,
0.1919999996,1,179239.3437500000,165783.5468750000,193588.8906250000,180249.1875000000,168046.9687500000,140393.7812500000,164961.8125000000,160190.6718750000,,,
0.1959999998,1,179252.7968750000,165792.7031250000,193608.5468750000,180254.7968750000,168067.1875000000,140408.6406250000,164975.0000000000,159510.1562500000,,,
0.1999999997,1,179227.6250000000,165769.0625000000,193582.5156250000,180304.8281250000,168041.7343750000,140383.4843750000,164916.3437500000,159079.9687500000,,,
0.2039999997,1,179214.0781250000,165762.8437500000,193562.4687500000,180304.3593750000,168023.5000000000,140370.6875000000,164902.9843750000,159490.8281250000,,,
0.2079999996,1,179197.5000000000,165753.7812500000,193540.7500000000,180187.0468750000,168008.7343750000,140373.0312500000,164915.7187500000,160082.1093750000,,,
0.2119999996,1,179202.1406250000,165753.1875000000,193549.1406250000,180173.7656250000,168016.2500000000,140379.6250000000,164943.9218750000,160035.4687500000,,,
0.2159999998,1,179205.9531250000,165751.6406250000,193559.5781250000,180188.3906250000,168024.7031250000,140382.0156250000,164946.3281250000,159436.3750000000,,,
0.2199999997,1,179205.6562500000,165754.8281250000,193560.5468750000,180189.1093750000,168027.5156250000,140381.7968750000,164938.6250000000,159058.0468750000,,,
0.2239999997,1,179178.5312500000,165734.0625000000,193526.6718750000,180164.5625000000,167995.8437500000,140351.0781250000,164907.9531250000,159468.9375000000,,,
0.2279999997,1,179176.7656250000,165729.5312500000,193522.2343750000,180179.3125000000,167992.0781250000,140337.6406250000,164902.5625000000,160119.0156250000,,,
0.2319999996,1,179212.3281250000,165757.1875000000,193559.9843750000,180223.0937500000,168028.7968750000,140365.0625000000,164935.9218750000,160114.8437500000,,,
0.2359999996,1,179227.4062500000,165767.2656250000,193579.7500000000,180229.4843750000,168047.0937500000,140376.6250000000,164954.8906250000,159562.8125000000,,,
0.2399999998,1,179229.5781250000,165771.0781250000,193584.1406250000,180219.5468750000,168051.4687500000,140380.2343750000,164959.1718750000,159247.6875000000,,,
0.2439999997,1,179210.9843750000,165757.9687500000,193561.0000000000,180198.9062500000,168030.0312500000,140363.2968750000,164932.2968750000,159726.5937500000,,,
0.2479999997,1,179204.7968750000,165752.3906250000,193552.9843750000,180204.9687500000,168021.8906250000,140355.7500000000,164924.7968750000,160437.2187500000,,,
0.2519999996,1,179248.1093750000,165789.4531250000,193600.8750000000,180251.9531250000,168066.3281250000,140390.7031250000,164970.2812500000,160503.6250000000,,,
0.2559999996,2,179263.7812500000,165801.1718750000,193619.8125000000,180263.9218750000,168083.4375000000,140402.2031250000,164986.7968750000,159992.6875000000,,,
0.2599999995,2,179248.8125000000,165788.0625000000,193604.1875000000,180234.0937500000,168068.1250000000,140389.3906250000,164981.7031250000,159720.2812500000,,,
0.2639999995,2,179223.7812500000,165767.4843750000,193570.5781250000,180214.3437500000,168036.5625000000,140364.5781250000,164956.4375000000,160225.7812500000,,,
0.2679999995,2,179225.3125000000,165767.0000000000,193567.0000000000,180226.6875000000,168031.9687500000,140361.9218750000,164952.0156250000,161004.0781250000,,,
0.2719999994,2,179261.6562500000,165797.5312500000,193606.1875000000,180269.3593750000,168069.1406250000,140396.8125000000,164986.0312500000,161201.8906250000,,,
0.2759999994,2,179281.2968750000,165814.8750000000,193629.9218750000,180290.2343750000,168090.8437500000,140422.8906250000,165007.2968750000,160836.5156250000,,,
0.2799999996,2,179267.9843750000,165806.4375000000,193617.9687500000,180271.9375000000,168078.3906250000,140419.9062500000,164999.2187500000,160620.8437500000,,,
0.2839999995,2,179244.3750000000,165789.6093750000,193591.2500000000,180251.9062500000,168053.7187500000,140401.0781250000,164976.0468750000,161175.4062500000,,,
0.2879999995,2,179249.9062500000,165800.9843750000,193594.3437500000,180263.5468750000,168056.5156250000,140409.5312500000,164977.3125000000,162000.2656250000,,,
0.2919999994,2,179267.9375000000,165816.5937500000,193614.5937500000,180276.6562500000,168075.9375000000,140432.2031250000,164998.4687500000,162262.6718750000,,,
0.2959999994,2,179268.5156250000,165812.1250000000,193620.9218750000,180278.5625000000,168082.0937500000,140437.7968750000,165003.8593750000,162012.6406250000,,,
0.2999999996,2,179249.7500000000,165795.9687500000,193604.4531250000,180258.7968750000,168068.0156250000,140428.2187500000,164991.1406250000,162020.0937500000,,,
0.3039999995,2,179211.5312500000,165766.5468750000,193557.3281250000,180225.3750000000,168023.6250000000,140398.0468750000,164946.1406250000,162776.4531250000,,,
0.3079999995,2,179182.3906250000,165738.2968750000,193518.1562500000,180210.4375000000,167987.0625000000,140364.5468750000,164904.7031250000,163830.3906250000,,,
0.3119999995,2,179196.7500000000,165743.5312500000,193533.2968750000,180229.4843750000,168000.0781250000,140368.3593750000,164914.6718750000,164269.6562500000,,,
0.3159999994,2,179230.0312500000,165767.1875000000,193573.1406250000,180253.4062500000,168037.4062500000,140396.7031250000,164954.4843750000,164071.3906250000,,,
0.3199999994,2,179235.6875000000,165772.4218750000,193581.3750000000,180258.0468750000,168045.5937500000,140403.3125000000,164958.2968750000,164063.8281250000,,,
0.3239999996,2,179211.5781250000,165753.0625000000,193552.2812500000,180223.6562500000,168018.7656250000,140383.5468750000,164926.0468750000,164876.9687500000,,,
0.3279999995,2,179200.0468750000,165742.4687500000,193536.1250000000,180205.0156250000,168002.9687500000,140371.7656250000,164924.2031250000,166026.0312500000,,,
0.3319999995,2,179222.2031250000,165759.5937500000,193563.0312500000,180231.0937500000,168025.9062500000,140390.4531250000,164951.4843750000,166684.8593750000,,,
0.3359999994,2,179243.1406250000,165774.5156250000,193594.0625000000,180239.0000000000,168055.3906250000,140413.3593750000,164980.7187500000,166768.6250000000,,,
0.3399999994,2,179223.5156250000,165758.1562500000,193579.0468750000,180202.7968750000,168044.6093750000,140400.6718750000,164969.3750000000,167087.2187500000,,,
0.3439999996,2,179203.8593750000,165746.4375000000,193555.5312500000,180183.9375000000,168023.5937500000,140381.8281250000,164947.1093750000,168259.5312500000,,,
0.3479999995,2,179180.7343750000,165723.8750000000,193525.4062500000,180174.8125000000,167993.2968750000,140351.6718750000,164906.5000000000,169913.9687500000,,,
0.3519999995,2,179194.7031250000,165727.7968750000,193541.4687500000,180192.7812500000,168007.0781250000,140354.6718750000,164909.8281250000,171197.5625000000,,,
0.3559999994,2,179225.6093750000,165753.3281250000,193576.9062500000,180219.7187500000,168041.2031250000,140377.9687500000,164954.2968750000,171790.6875000000,,,
0.3599999994,2,179214.7187500000,165749.2500000000,193565.7656250000,180201.7500000000,168032.2031250000,140373.6718750000,164955.2812500000,172464.7968750000,,,
0.3639999994,2,179194.1406250000,165738.9218750000,193541.7656250000,180185.6250000000,168010.1406250000,140361.8750000000,164925.1406250000,173793.9687500000,,,
0.3679999996,2,179185.1250000000,165731.9531250000,193526.6718750000,180193.9843750000,167996.0468750000,140355.3281250000,164903.4687500000,175217.6406250000,,,
0.3719999995,2,179212.9687500000,165756.7343750000,193552.7031250000,180230.6562500000,168019.4375000000,140383.3593750000,164927.5468750000,175762.9843750000,,,
0.3759999995,2,179236.1718750000,165776.1562500000,193582.1250000000,180236.9062500000,168045.7500000000,140416.7968750000,164964.8125000000,175456.5156250000,,,
0.3799999994,2,179246.1718750000,165788.5156250000,193597.6406250000,180223.5000000000,168063.7031250000,140441.2656250000,164989.8906250000,175097.8281250000,,,
0.3839999994,3,179219.1093750000,165767.6406250000,193565.7500000000,180194.2031250000,168036.2656250000,140420.0937500000,164952.7343750000,175391.8906250000,,,
0.3879999993,3,179213.9375000000,165759.8125000000,193554.6093750000,180206.1718750000,168025.8281250000,140406.5312500000,164910.7968750000,175931.8281250000,,,
0.3919999993,3,179252.3281250000,165789.0468750000,193592.9218750000,180259.4062500000,168059.4062500000,140432.4375000000,164963.3906250000,175925.3593750000,,,
0.3959999993,3,179296.2812500000,165828.6093750000,193640.9218750000,180318.4531250000,168102.4843750000,140482.8281250000,165030.9218750000,175291.5781250000,,,
0.3999999992,3,179297.1093750000,165835.4062500000,193644.0156250000,180330.3750000000,168105.7812500000,140501.0937500000,165037.4375000000,174751.0156250000,,,
0.4039999992,3,179253.4218750000,165800.3125000000,193597.4687500000,180277.4843750000,168061.6093750000,140467.6562500000,164989.9687500000,174931.6875000000,,,
0.4079999994,3,179235.6093750000,165783.9531250000,193576.3437500000,180240.7500000000,168040.2343750000,140452.9531250000,164967.7812500000,175363.5937500000,,,
0.4119999993,3,179252.1875000000,165792.4375000000,193592.7812500000,180258.2500000000,168053.9843750000,140464.0625000000,164978.9687500000,175281.6562500000,,,
0.4159999993,3,179269.2187500000,165803.0312500000,193616.8906250000,180273.0156250000,168074.3281250000,140477.9218750000,165001.5000000000,174661.1250000000,,,
0.4199999992,3,179269.0625000000,165800.5781250000,193621.5625000000,180273.3281250000,168079.6875000000,140478.4843750000,165006.9531250000,174092.7187500000,,,
0.4239999992,3,179284.0468750000,165819.6875000000,193632.6875000000,180306.5937500000,168093.2031250000,140487.4531250000,165010.9687500000,174146.8906250000,,,
0.4279999994,3,179262.7500000000,165802.1406250000,193606.8906250000,180307.5625000000,168065.9843750000,140464.7031250000,164982.6406250000,174469.1875000000,,,
0.4319999993,3,179270.8593750000,165805.2500000000,193615.8750000000,180333.7656250000,168072.1718750000,140469.0000000000,164991.6562500000,174371.3125000000,,,
0.4359999993,3,179290.9687500000,165823.2812500000,193642.1406250000,180351.8593750000,168098.5156250000,140494.0937500000,165020.1406250000,173754.0625000000,,,
0.4399999992,3,179301.0312500000,165841.9218750000,193657.3906250000,180325.3593750000,168117.6093750000,140517.2500000000,165041.8437500000,173167.3593750000,,,
0.4439999992,3,179305.0781250000,165854.9218750000,193658.9531250000,180299.4062500000,168122.1406250000,140528.2187500000,165050.7812500000,173132.7500000000,,,
0.4479999992,3,179270.2968750000,165825.9531250000,193619.5156250000,180271.9062500000,168083.6562500000,140493.8593750000,165009.5468750000,173415.8125000000,,,
0.4519999993,3,179257.6562500000,165817.9062500000,193606.5156250000,180259.2031250000,168073.6562500000,140490.4218750000,164997.5781250000,173346.3437500000,,,
0.4559999993,3,179244.0625000000,165805.0312500000,193596.9843750000,180234.1718750000,168065.9531250000,140487.7500000000,164990.1875000000,172763.6562500000,,,
0.4599999993,3,179225.4687500000,165787.7343750000,193582.1250000000,180218.7968750000,168050.3437500000,140467.5156250000,164976.2031250000,172239.5312500000,,,
0.4639999992,3,179208.5000000000,165775.9062500000,193561.7968750000,180212.0468750000,168029.9531250000,140449.6250000000,164955.5312500000,172271.7343750000,,,
0.4679999992,3,179201.8750000000,165770.7656250000,193548.3906250000,180232.7500000000,168014.7968750000,140435.4218750000,164936.1875000000,172621.3906250000,,,
0.4719999994,3,179194.1250000000,165754.7656250000,193540.1250000000,180249.2656250000,168003.2500000000,140415.2968750000,164913.9218750000,172635.8750000000,,,
0.4759999993,3,179207.1250000000,165757.4218750000,193561.7187500000,180233.5781250000,168025.2031250000,140425.9687500000,164921.4062500000,172150.3750000000,,,
0.4799999993,3,179222.8906250000,165769.1562500000,193582.1250000000,180200.7187500000,168048.4843750000,140447.9062500000,164951.4218750000,171649.6250000000,,,
0.4839999992,3,179199.7031250000,165751.8750000000,193553.4375000000,180179.4843750000,168022.8281250000,140425.2187500000,164931.5781250000,171681.4375000000,,,
0.4879999992,3,179181.4531250000,165734.6250000000,193526.4531250000,180186.5625000000,167996.4843750000,140401.6406250000,164904.0625000000,172001.5625000000,,,
0.4919999992,3,179198.7812500000,165744.9843750000,193544.2812500000,180220.7656250000,168011.7500000000,140413.2812500000,164923.4687500000,171962.5000000000,,,
0.4959999993,3,179226.9218750000,165771.5625000000,193581.8906250000,180239.9375000000,168045.6250000000,140444.5312500000,164965.2968750000,171451.8437500000,,,
0.4999999993,3,179222.7031250000,165771.7031250000,193584.5000000000,180234.7031250000,168046.4062500000,140451.8281250000,164970.6093750000,170921.7031250000,,,
0.5039999993,3,179191.2812500000,165744.8750000000,193547.8750000000,180228.4843750000,168009.2031250000,140421.0625000000,164929.5156250000,170916.9531250000,,,
0.5079999992,3,179194.7031250000,165750.1875000000,193546.8125000000,180245.2968750000,168007.1250000000,140422.4843750000,164923.4531250000,171235.6875000000,,,
0.5119999992,4,179248.8593750000,165797.5468750000,193603.4062500000,180325.2343750000,168061.1562500000,140475.9687500000,164977.2812500000,171275.2656250000,,,
0.5159999991,4,179316.7187500000,165858.2500000000,193675.9843750000,180371.0156250000,168133.4375000000,140547.9843750000,165056.2968750000,170839.5156250000,,,
0.5199999991,4,179278.8437500000,165825.0937500000,193639.6718750000,180280.2031250000,168099.5312500000,140532.8593750000,165031.4687500000,170395.7812500000,,,
0.5239999990,4,179215.3125000000,165773.9843750000,193569.8437500000,180203.0625000000,168031.9687500000,140485.2031250000,164963.5468750000,170465.0312500000,,,
0.5279999990,4,179196.6093750000,165760.7343750000,193544.2812500000,180209.2812500000,168004.9531250000,140460.9531250000,164933.0312500000,170855.0000000000,,,
0.5319999990,4,179243.0625000000,165801.0625000000,193590.9531250000,180312.4687500000,168046.8281250000,140491.2812500000,164966.9062500000,170951.3125000000,,,
0.5359999991,4,179286.5000000000,165840.2031250000,193641.1093750000,180368.1406250000,168093.0156250000,140528.8281250000,165008.0781250000,170528.2500000000,,,
0.5399999991,4,179262.3281250000,165823.9218750000,193622.4531250000,180252.1093750000,168077.7500000000,140522.1093750000,165001.2812500000,170065.1875000000,,,
0.5439999991,4,179216.0781250000,165788.3750000000,193571.0781250000,180182.1406250000,168027.6718750000,140482.0000000000,164957.1875000000,170134.6406250000,,,
0.5479999990,4,179224.1250000000,165800.1250000000,193570.7343750000,180226.4687500000,168026.0468750000,140486.1093750000,164956.6562500000,170548.1562500000,,,
0.5519999990,4,179239.7343750000,165810.5156250000,193586.0000000000,180239.5937500000,168040.7187500000,140501.9375000000,164970.3593750000,170682.8281250000,,,
0.5559999992,4,179248.2500000000,165811.0468750000,193602.5156250000,180223.7656250000,168058.0625000000,140508.4531250000,164990.3125000000,170335.2343750000,,,
0.5599999991,4,179239.1562500000,165802.9218750000,193597.7500000000,180193.2187500000,168055.4062500000,140501.9375000000,164988.9687500000,169974.1093750000,,,
0.5639999991,4,179216.2656250000,165782.5000000000,193571.4062500000,180173.0468750000,168030.6875000000,140477.9218750000,164965.2343750000,170096.5000000000,,,
0.5679999990,4,179223.0781250000,165788.3750000000,193571.7812500000,180183.7968750000,168032.5000000000,140476.1250000000,164970.7031250000,170503.6562500000,,,
0.5719999990,4,179246.3125000000,165809.2968750000,193594.4375000000,180212.7343750000,168056.2187500000,140494.7656250000,164998.6093750000,170593.6875000000,,,
0.5759999990,4,179265.1406250000,165825.7500000000,193620.2187500000,180231.5625000000,168084.0781250000,140518.4531250000,165028.6406250000,170190.1562500000,,,
0.5799999991,4,179262.3281250000,165827.8437500000,193624.0781250000,180212.6093750000,168091.7343750000,140524.9218750000,165041.4062500000,169736.3750000000,,,
0.5839999991,4,179257.6250000000,165830.0312500000,193615.7656250000,180236.3906250000,168082.6093750000,140523.2500000000,165037.6250000000,169799.3906250000,,,
0.5879999991,4,179254.4375000000,165825.5312500000,193606.8125000000,180253.1093750000,168071.1875000000,140514.6250000000,165025.9687500000,170186.7812500000,,,
0.5919999990,4,179284.4531250000,165844.0312500000,193638.1875000000,180306.5937500000,168101.2968750000,140536.2187500000,165059.1093750000,170230.8125000000,,,
0.5959999990,4,179304.8593750000,165865.7968750000,193666.8125000000,180270.9687500000,168133.0937500000,140569.0468750000,165094.5468750000,169701.1093750000,,,
0.5999999992,4,179279.0156250000,165845.8906250000,193645.5468750000,180198.5000000000,168116.2187500000,140558.2343750000,165050.9843750000,169109.6562500000,,,
0.6039999991,4,179263.8281250000,165828.4843750000,193626.2343750000,180212.7187500000,168098.9687500000,140543.6718750000,165059.7812500000,169025.7500000000,,,
0.6079999991,4,179269.4531250000,165830.4843750000,193626.8125000000,180252.8125000000,168099.3750000000,140538.2500000000,165100.2031250000,169255.4375000000,,,
0.6119999990,4,179278.7656250000,165837.6875000000,193637.3906250000,180256.8281250000,168107.2343750000,140550.5625000000,165128.7656250000,169197.6875000000,,,
0.6159999990,4,179275.7343750000,165840.4687500000,193638.7031250000,180241.3281250000,168110.0000000000,140564.0468750000,165131.7500000000,168647.2968750000,,,
0.6199999989,4,179262.0000000000,165837.2031250000,193631.4843750000,180221.6406250000,168103.2031250000,140561.1562500000,165127.4531250000,168072.6250000000,,,
0.6239999991,4,179232.7656250000,165819.9843750000,193597.0781250000,180206.5468750000,168071.4531250000,140532.5625000000,165093.5312500000,168020.3281250000,,,
0.6279999991,4,179215.8750000000,165807.6875000000,193573.8125000000,180208.7500000000,168051.1406250000,140512.0781250000,165058.6562500000,168317.9218750000,,,
0.6319999991,4,179234.7812500000,165822.6093750000,193598.2031250000,180228.4062500000,168075.9062500000,140531.9218750000,165057.4218750000,168259.9843750000,,,
0.6359999990,4,179255.8281250000,165834.2500000000,193625.8593750000,180238.0937500000,168104.7656250000,140545.7031250000,165056.5156250000,167676.2031250000,,,
0.6399999990,5,179243.8750000000,165820.4843750000,193615.3906250000,180216.0468750000,168095.4375000000,140536.3437500000,165058.1250000000,167046.2343750000,,,
0.6439999989,5,179217.9843750000,165799.3281250000,193585.3437500000,180182.4531250000,168064.9531250000,140523.3437500000,165063.8125000000,166965.1718750000,,,
0.6479999989,5,179231.4531250000,165816.7656250000,193588.0625000000,180195.5000000000,168067.1093750000,140535.0312500000,165087.4062500000,167243.3750000000,,,
0.6519999988,5,179245.9687500000,165821.1250000000,193600.4218750000,180235.8281250000,168077.2656250000,140536.4218750000,165112.2031250000,167222.1562500000,,,
0.6559999988,5,179237.1718750000,165799.9218750000,193599.8281250000,180221.8281250000,168074.0468750000,140527.4375000000,165105.7343750000,166668.7031250000,,,
0.6599999988,5,179216.0000000000,165782.6718750000,193579.7187500000,180186.4843750000,168056.3437500000,140514.2187500000,165074.0312500000,166075.2187500000,,,
0.6639999989,5,179213.4218750000,165786.1250000000,193571.0000000000,180183.9375000000,168047.8750000000,140509.6875000000,165050.1093750000,166027.2656250000,,,
0.6679999989,5,179233.4375000000,165803.2187500000,193583.1718750000,180232.2968750000,168057.0781250000,140509.1250000000,165043.6093750000,166351.4843750000,,,
0.6719999989,5,179248.8125000000,165808.5781250000,193597.8750000000,180236.0000000000,168071.4843750000,140507.7500000000,165060.4375000000,166393.3593750000,,,
0.6759999988,5,179252.2187500000,165808.5312500000,193604.5625000000,180227.0156250000,168077.5156250000,140509.8437500000,165069.5000000000,165912.2968750000,,,
0.6799999988,5,179258.8593750000,165816.7812500000,193615.9843750000,180263.0781250000,168086.9843750000,140516.7968750000,165073.3281250000,165359.9062500000,,,
0.6839999990,5,179251.6250000000,165818.2031250000,193606.4062500000,180262.7343750000,168079.3437500000,140511.6406250000,165057.7968750000,165355.2343750000,,,
0.6879999989,5,179228.3125000000,165799.9375000000,193579.1875000000,180184.1406250000,168058.2812500000,140494.1562500000,165024.1875000000,165685.8750000000,,,
0.6919999989,5,179238.8281250000,165806.5156250000,193590.6875000000,180176.9062500000,168070.0312500000,140508.3125000000,165048.5468750000,165673.1875000000,,,
0.6959999988,5,179259.4062500000,165821.3437500000,193624.4375000000,180214.4531250000,168098.4375000000,140528.0000000000,165078.6093750000,165129.7968750000,,,
0.6999999988,5,179242.1562500000,165808.3593750000,193615.2500000000,180207.8281250000,168090.7343750000,140518.3281250000,165040.5468750000,164554.0625000000,,,
0.7039999987,5,179215.6875000000,165792.2187500000,193577.7812500000,180195.2812500000,168057.7500000000,140497.0468750000,165027.9218750000,164580.9531250000,,,
0.7079999989,5,179210.9062500000,165788.2812500000,193563.8906250000,180207.0000000000,168041.7656250000,140486.8281250000,165026.8437500000,165002.3125000000,,,
0.7119999989,5,179250.0156250000,165822.4218750000,193603.5625000000,180254.6406250000,168077.2500000000,140514.9687500000,165062.5156250000,165103.8281250000,,,
0.7159999989,5,179262.8125000000,165833.7343750000,193618.2343750000,180282.9062500000,168092.9687500000,140529.8281250000,165077.7812500000,164688.6718750000,,,
0.7199999988,5,179253.4687500000,165829.9531250000,193617.3281250000,180259.5468750000,168093.4687500000,140528.0312500000,165071.2343750000,164209.8437500000,,,
0.7239999988,5,179225.5468750000,165807.0468750000,193588.4687500000,180222.1875000000,168062.9531250000,140501.9531250000,165039.1406250000,164291.8437500000,,,
0.7279999990,5,179218.9218750000,165796.4531250000,193574.0781250000,180259.2187500000,168045.4531250000,140485.1406250000,165013.1406250000,164764.9843750000,,,
0.7319999989,5,179227.4062500000,165799.5625000000,193580.4687500000,180260.0312500000,168050.9375000000,140486.4062500000,165016.9218750000,164927.6406250000,,,
0.7359999989,5,179239.7343750000,165810.8125000000,193597.6875000000,180239.9843750000,168068.9531250000,140500.3281250000,165033.0468750000,164519.1093750000,,,
0.7399999988,5,179231.1093750000,165799.8593750000,193597.7968750000,180202.0312500000,168070.5625000000,140495.6250000000,165013.8593750000,163991.4062500000,,,
0.7439999988,5,179214.0468750000,165783.8437500000,193574.9687500000,180212.8437500000,168047.5468750000,140475.4843750000,164981.0312500000,163980.9687500000,,,
0.7479999987,5,179197.4218750000,165770.3281250000,193541.3437500000,180207.5156250000,168012.2812500000,140452.0468750000,164954.6406250000,164380.9687500000,,,
0.7519999989,5,179218.5468750000,165785.1875000000,193562.8750000000,180251.6250000000,168028.5625000000,140459.8750000000,164967.8437500000,164464.4687500000,,,
0.7559999989,5,179223.7031250000,165778.7500000000,193579.7187500000,180238.4687500000,168042.1875000000,140455.6718750000,164972.1093750000,163968.2656250000,,,
0.7599999988,5,179187.5781250000,165745.9687500000,193550.5312500000,180140.2343750000,168013.8437500000,140431.1718750000,164945.3125000000,163396.1406250000,,,
0.7639999988,5,179179.9843750000,165749.7500000000,193536.7031250000,180147.4531250000,167999.0781250000,140424.5468750000,164936.1875000000,163384.0000000000,,,
0.7679999988,6,179206.3437500000,165774.5625000000,193556.2968750000,180225.4531250000,168014.3750000000,140430.9062500000,164951.3906250000,163799.4687500000,,,
0.7719999987,6,179238.0468750000,165792.3750000000,193590.3593750000,180273.5937500000,168045.7812500000,140443.2968750000,164978.0937500000,163919.8437500000,,,
0.7759999987,6,179268.8437500000,165817.6718750000,193630.7343750000,180309.2968750000,168086.0468750000,140471.1406250000,165017.5937500000,163432.8906250000,,,
0.7799999986,6,179258.5937500000,165811.5781250000,193625.6718750000,180246.3281250000,168085.2343750000,140473.9062500000,165018.1250000000,162884.8906250000,,,
0.7839999986,6,179196.1875000000,165754.9375000000,193565.7656250000,180123.3750000000,168027.8593750000,140423.5312500000,164955.6093750000,162948.6250000000,,,
0.7879999985,6,179204.9218750000,165761.8593750000,193570.5781250000,180193.4531250000,168028.7500000000,140420.5625000000,164929.6406250000,163457.4062500000,,,
0.7919999987,6,179234.4375000000,165786.9843750000,193595.9687500000,180259.3281250000,168052.1875000000,140441.5312500000,164928.8906250000,163587.2500000000,,,
0.7959999987,6,179240.4687500000,165796.1093750000,193604.3125000000,180246.5937500000,168061.2343750000,140457.4687500000,164960.5937500000,163087.1093750000,,,
0.7999999986,6,179219.5468750000,165780.0156250000,193589.7031250000,180202.8750000000,168047.3437500000,140453.8437500000,165003.2500000000,162513.0312500000,,,
0.8039999986,6,179192.2968750000,165762.7968750000,193559.0312500000,180199.5468750000,168019.3125000000,140434.7968750000,164974.9218750000,162554.2343750000,,,
0.8079999986,6,179189.5000000000,165762.9062500000,193549.5937500000,180219.6406250000,168009.8906250000,140431.4687500000,164949.9218750000,163059.5000000000,,,
0.8119999988,6,179206.7968750000,165773.2343750000,193565.5000000000,180229.0781250000,168023.8906250000,140449.0937500000,164987.1562500000,163238.8125000000,,,
0.8159999987,6,179223.0312500000,165784.6875000000,193582.2968750000,180221.4843750000,168041.8125000000,140468.0781250000,165018.0468750000,162778.6718750000,,,
0.8199999987,6,179211.2343750000,165773.5468750000,193572.4218750000,180218.8281250000,168033.6250000000,140462.9375000000,164996.4062500000,162241.5156250000,,,
0.8239999986,6,179197.0468750000,165766.3281250000,193553.9375000000,180230.8125000000,168016.0937500000,140452.4687500000,164966.4687500000,162343.3593750000,,,
0.8279999986,6,179190.8125000000,165761.0468750000,193541.7968750000,180262.0468750000,168001.7343750000,140438.2500000000,164938.1406250000,162907.1718750000,,,
0.8319999985,6,179220.5937500000,165791.2031250000,193574.6250000000,180253.5625000000,168032.9375000000,140468.2656250000,164958.7812500000,163106.5937500000,,,
0.8359999987,6,179245.0781250000,165815.2343750000,193606.9218750000,180231.3750000000,168065.2500000000,140497.7968750000,165003.8906250000,162658.6250000000,,,
0.8399999987,6,179218.6875000000,165782.5625000000,193583.8750000000,180223.0937500000,168042.8281250000,140470.5468750000,164997.6406250000,162155.4687500000,,,
0.8439999986,6,179190.5781250000,165757.7500000000,193553.0781250000,180213.8437500000,168011.2031250000,140446.4062500000,164959.9062500000,162327.9531250000,,,
0.8479999986,6,179190.2500000000,165761.3750000000,193546.7343750000,180241.4062500000,168002.6250000000,140442.3906250000,164942.9687500000,162952.1875000000,,,
0.8519999986,6,179227.7187500000,165798.4687500000,193584.4375000000,180281.7812500000,168039.7500000000,140468.5468750000,164975.5156250000,163177.1093750000,,,
0.8559999987,6,179222.2031250000,165781.6250000000,193589.9687500000,180243.8593750000,168047.0156250000,140458.7968750000,164936.9375000000,162758.8281250000,,,
0.8599999987,6,179219.8906250000,165770.4062500000,193601.1562500000,180235.2500000000,168062.0312500000,140453.0312500000,164894.6093750000,162252.8593750000,,,
0.8639999987,6,179214.6406250000,165772.8437500000,193585.2656250000,180215.9375000000,168048.4843750000,140445.1718750000,164929.2500000000,162371.5156250000,,,
0.8679999986,6,179200.8750000000,165761.1093750000,193560.8906250000,180208.2812500000,168018.8281250000,140431.9218750000,164956.5781250000,162925.0937500000,,,
0.8719999986,6,179223.6562500000,165776.5312500000,193578.8125000000,180244.7968750000,168033.3906250000,140438.3125000000,164998.4375000000,163170.4375000000,,,
0.8759999985,6,179245.7500000000,165792.3437500000,193600.8593750000,180290.1718750000,168054.9062500000,140455.4531250000,165010.7343750000,162779.7812500000,,,
0.8799999987,6,179251.4843750000,165794.5312500000,193614.0468750000,180296.0468750000,168068.1250000000,140471.3593750000,165017.0312500000,162235.3437500000,,,
0.8839999987,6,179216.7031250000,165767.1875000000,193576.4218750000,180228.0625000000,168033.0156250000,140438.3437500000,164978.8593750000,162356.8750000000,,,
0.8879999986,6,179202.0625000000,165754.2031250000,193563.3593750000,180188.2500000000,168025.1875000000,140421.0156250000,164969.9843750000,162954.7812500000,,,
0.8919999986,6,179225.3125000000,165773.0468750000,193586.5625000000,180228.8281250000,168047.3125000000,140440.5312500000,164961.9375000000,163169.5468750000,,,
0.8959999986,7,179235.2968750000,165782.5625000000,193594.9843750000,180252.2187500000,168052.2812500000,140452.9843750000,164951.0468750000,162729.4218750000,,,
0.8999999985,7,179232.2343750000,165778.9375000000,193593.0000000000,180269.0156250000,168047.8750000000,140456.8437500000,164972.8750000000,162190.4062500000,,,
0.9039999985,7,179227.8125000000,165782.8906250000,193581.8906250000,180254.1250000000,168038.2968750000,140454.5312500000,164980.0781250000,162290.2656250000,,,
0.9079999984,7,179198.1093750000,165761.4062500000,193549.7343750000,180205.4687500000,168008.4218750000,140434.4218750000,164946.5625000000,162845.1406250000,,,
0.9119999984,7,179201.4062500000,165753.0625000000,193561.1093750000,180220.9687500000,168017.5625000000,140440.9375000000,164919.6718750000,163029.7812500000,,,
0.9159999983,7,179235.4531250000,165781.1093750000,193598.3281250000,180264.2968750000,168055.7031250000,140468.3281250000,164959.6562500000,162540.2187500000,33029,0.9182427472,0.0000000000
0.9199999985,7,179235.9062500000,165787.6250000000,193597.8750000000,180274.5312500000,168058.3281250000,140481.6562500000,164996.8125000000,161965.5312500000,,,
0.9239999985,7,179217.7500000000,165775.2343750000,193577.3593750000,180276.9843750000,168039.0468750000,140463.3593750000,164975.1406250000,162030.5468750000,,,
0.9279999984,7,179206.2187500000,165768.0000000000,193562.2031250000,180270.7812500000,168026.0468750000,140453.2500000000,164920.4687500000,162546.7187500000,,,
0.9319999984,7,179230.4843750000,165792.6406250000,193583.6093750000,180275.2968750000,168044.8125000000,140482.1406250000,164982.3750000000,162690.6406250000,,,
0.9359999984,7,179277.0781250000,165835.9062500000,193636.2812500000,180327.6718750000,168091.2656250000,140521.8593750000,165052.6562500000,162137.6875000000,,,
0.9399999985,7,179268.4375000000,165826.8437500000,193631.2656250000,180303.4843750000,168086.3593750000,140513.7812500000,165044.5468750000,161514.2343750000,,,
0.9439999985,7,179231.2187500000,165795.4062500000,193586.1562500000,180247.2656250000,168046.1093750000,140492.4687500000,164976.8750000000,161564.1093750000,,,
0.9479999985,7,179239.2031250000,165801.3125000000,193593.5000000000,180285.9843750000,168053.3750000000,140485.3906250000,164953.3593750000,162102.9218750000,,,
0.9519999984,7,179265.9531250000,165824.3437500000,193619.6093750000,180328.7656250000,168077.4062500000,140497.2187500000,165014.9375000000,162271.3593750000,,,
0.9559999984,7,179257.3437500000,165806.8125000000,193615.3125000000,180310.7500000000,168070.1875000000,140497.2187500000,165032.2968750000,161772.0156250000,,,
0.9599999983,7,179237.8593750000,165783.4218750000,193611.9843750000,180268.2343750000,168066.0312500000,140474.7031250000,165025.6875000000,161222.2187500000,,,
0.9639999985,7,179196.3906250000,165751.6562500000,193577.1093750000,180196.0312500000,168033.5468750000,140446.1093750000,164975.1093750000,161353.7031250000,,,
0.9679999985,7,179192.6093750000,165745.3593750000,193564.9375000000,180204.2343750000,168022.3125000000,140403.4375000000,164959.2500000000,161959.4218750000,,,
0.9719999984,7,179255.2968750000,165804.4218750000,193628.0312500000,180245.5468750000,168081.3437500000,140453.7812500000,165020.5937500000,162144.1406250000,,,
0.9759999984,7,179273.0312500000,165833.1406250000,193628.6093750000,180279.6562500000,168084.6406250000,140507.1875000000,165021.7187500000,161635.6562500000,,,
0.9799999984,7,179240.7656250000,165788.3750000000,193612.8437500000,180268.2343750000,168066.0000000000,140459.7187500000,164992.0625000000,161055.2500000000,,,
0.9839999985,7,179217.2968750000,165769.2812500000,193586.6093750000,180242.4375000000,168041.2968750000,140465.9843750000,164987.1718750000,161163.5312500000,,,
0.9879999985,7,179209.5937500000,165774.1406250000,193559.6093750000,180228.1406250000,168019.5781250000,140420.3906250000,164956.2812500000,161730.3281250000,,,
0.9919999985,7,179210.8593750000,165754.2656250000,193562.3125000000,180259.8125000000,168024.2968750000,140419.4531250000,164922.5937500000,161880.4843750000,,,
0.9959999984,7,179261.5156250000,165807.1562500000,193628.9375000000,180306.9062500000,168086.0625000000,140474.9531250000,165015.8437500000,161327.0937500000,,,
0.9999999984,7,179256.9687500000,165805.5937500000,193620.2187500000,180288.1562500000,168072.5781250000,140471.1875000000,165034.7656250000,160728.3437500000,,,
1.0039999983,7,179251.4062500000,165809.5781250000,193616.4375000000,180279.1718750000,168068.8281250000,140451.5937500000,165029.2656250000,160820.0468750000,,,
1.0079999985,7,179225.3437500000,165781.8437500000,193584.5937500000,180282.8750000000,168042.0468750000,140430.6718750000,164988.5156250000,161337.1250000000,,,
1.0119999985,7,179219.7343750000,165772.1875000000,193567.5156250000,180300.9062500000,168026.7343750000,140407.6562500000,164947.5937500000,161457.2343750000,,,
1.0159999984,7,179263.7812500000,165814.5312500000,193623.0937500000,180324.4531250000,168079.9531250000,140443.9218750000,164907.9687500000,160897.4062500000,,,
1.0199999984,7,179292.9375000000,165865.5781250000,193654.8437500000,180290.0468750000,168110.5781250000,140487.0156250000,164985.6250000000,160258.2812500000,,,
1.0239999983,8,179222.0156250000,165772.2812500000,193588.4062500000,180284.4843750000,168041.3593750000,140412.2343750000,165017.5156250000,160336.7968750000,,,
1.0279999983,8,179179.7968750000,165721.2500000000,193535.0000000000,180263.4843750000,167991.3281250000,140374.1718750000,164965.7500000000,160961.6406250000,,,
1.0319999983,8,179244.4843750000,165799.9375000000,193591.8750000000,180310.3437500000,168045.8593750000,140440.8281250000,164988.2500000000,161234.3593750000,,,
1.0359999982,8,179249.1875000000,165780.0625000000,193609.7812500000,180326.4062500000,168065.4687500000,140419.5312500000,164964.0000000000,160774.2343750000,,,
1.0399999982,8,179235.3906250000,165770.6250000000,193602.5781250000,180271.3750000000,168057.2656250000,140412.3437500000,164967.3281250000,160230.5156250000,,,
1.0439999981,8,179189.5625000000,165738.6562500000,193548.9218750000,180224.7031250000,168003.1875000000,140376.2187500000,164922.1093750000,160421.9843750000,,,
1.0479999983,8,179172.5781250000,165717.7343750000,193521.1875000000,180237.1250000000,167978.4062500000,140344.6718750000,164884.5625000000,161173.5000000000,,,
1.0519999983,8,179202.0312500000,165737.5468750000,193558.0156250000,180278.1875000000,168016.1718750000,140371.0625000000,164900.7031250000,161508.1093750000,,,
1.0559999982,8,179240.5937500000,165771.7031250000,193610.2187500000,180327.6406250000,168062.7343750000,140385.5312500000,164955.7187500000,161071.5781250000,,,
1.0599999982,8,179252.3750000000,165782.7812500000,193614.4062500000,180308.0156250000,168069.9531250000,140430.4218750000,165010.0625000000,160484.6875000000,,,
1.0639999982,8,179207.5625000000,165749.8125000000,193550.1875000000,180265.4531250000,168011.8750000000,140398.1562500000,164979.7812500000,160657.7500000000,,,
1.0679999983,8,179202.3281250000,165745.3593750000,193554.7968750000,180266.4062500000,168014.9687500000,140391.7968750000,164981.0625000000,161358.6250000000,,,
1.0719999983,8,179234.9375000000,165782.7812500000,193591.8906250000,180304.5781250000,168049.0312500000,140437.8281250000,164989.8906250000,161649.5156250000,,,
1.0759999983,8,179244.1875000000,165780.0156250000,193603.2656250000,180327.8906250000,168058.6875000000,140416.4843750000,164987.5000000000,161192.8437500000,,,
1.0799999982,8,179251.0625000000,165785.8593750000,193620.1875000000,180323.9218750000,168076.4375000000,140425.4375000000,164995.6562500000,160627.7812500000,,,
1.0839999982,8,179218.4375000000,165759.4687500000,193585.5312500000,180279.1718750000,168042.4062500000,140399.1250000000,164952.5468750000,160796.1406250000,,,
1.0879999981,8,179200.6562500000,165741.7343750000,193540.1562500000,180299.8281250000,168004.0937500000,140385.1250000000,164941.9375000000,161508.2500000000,,,
1.0919999983,8,179236.4687500000,165776.0625000000,193576.5468750000,180339.3750000000,168038.7812500000,140406.5781250000,164957.2968750000,161824.1875000000,,,
1.0959999983,8,179267.2812500000,165796.4531250000,193617.5937500000,180379.3593750000,168074.9062500000,140418.3281250000,164998.3437500000,161391.4843750000,,,
1.0999999982,8,179279.1718750000,165811.9062500000,193637.1250000000,180368.0937500000,168091.4062500000,140439.9531250000,165010.6718750000,160845.1562500000,,,
1.1039999982,8,179241.5468750000,165787.9843750000,193592.4843750000,180290.7343750000,168053.3437500000,140416.1093750000,164973.0625000000,161005.7656250000,,,
1.1079999981,8,179194.6875000000,165731.8125000000,193540.2031250000,180242.7031250000,168002.3906250000,140376.2500000000,164916.2031250000,161720.9375000000,,,
1.1119999983,8,179206.2187500000,165738.3281250000,193549.2500000000,180237.5312500000,168012.2500000000,140385.4687500000,164921.2187500000,162055.3593750000,,,
1.1159999983,8,179245.1562500000,165775.1250000000,193597.1250000000,180272.7968750000,168058.3281250000,140427.7187500000,164967.1093750000,161611.4062500000,,,
1.1199999982,8,179250.8750000000,165783.5468750000,193607.6093750000,180280.5781250000,168067.8906250000,140433.7187500000,164985.3593750000,161037.2812500000,,,
1.1239999982,8,179236.6562500000,165777.9218750000,193591.0937500000,180280.3593750000,168051.8906250000,140419.6406250000,164978.5937500000,161186.5468750000,,,
1.1279999982,8,179249.4531250000,165796.4531250000,193598.2031250000,180314.5000000000,168059.5625000000,140435.7656250000,164979.1250000000,161888.5312500000,,,
1.1319999981,8,179254.9531250000,165792.3281250000,193600.7500000000,180322.2343750000,168062.6250000000,140418.8906250000,164975.8593750000,162231.2656250000,,,
1.1359999983,8,179256.8281250000,165791.0312500000,193603.5312500000,180301.3593750000,168067.4218750000,140414.9531250000,164994.5000000000,161812.6250000000,,,
1.1399999983,8,179246.7187500000,165782.8906250000,193603.1562500000,180279.7187500000,168067.9062500000,140425.2500000000,164962.2656250000,161263.5781250000,,,
1.1439999982,8,179219.8906250000,165766.4687500000,193570.2812500000,180271.4531250000,168037.5000000000,140405.4062500000,164930.5000000000,161444.9531250000,,,
1.1479999982,8,179214.3125000000,165766.6093750000,193558.0937500000,180274.8906250000,168024.7031250000,140390.7031250000,164962.2031250000,162191.5312500000,,,
1.1519999981,9,179252.1875000000,165798.9687500000,193596.8593750000,180332.7500000000,168059.1718750000,140420.9843750000,164999.2968750000,162509.3750000000,,,
1.1559999981,9,179283.8437500000,165813.1406250000,193652.3281250000,180350.8281250000,168109.8906250000,140456.7968750000,165025.0468750000,162039.9375000000,,,
1.1599999981,9,179268.3593750000,165810.5156250000,193625.4843750000,180326.8437500000,168088.1562500000,140449.5781250000,165004.2343750000,161441.2500000000,,,
1.1639999980,9,179233.9218750000,165781.5937500000,193584.0625000000,180293.0937500000,168050.6875000000,140406.0468750000,164988.3593750000,161543.2500000000,,,
1.1679999980,9,179202.1718750000,165748.1406250000,193544.1250000000,180287.4687500000,168009.8750000000,140387.3281250000,164944.6406250000,162206.9062500000,,,
1.1719999979,9,179231.1875000000,165772.6406250000,193576.0156250000,180311.7343750000,168037.4062500000,140398.9843750000,164972.7187500000,162486.4687500000,,,
1.1759999981,9,179255.2187500000,165793.7656250000,193608.7968750000,180336.1562500000,168068.2812500000,140419.2187500000,164997.3437500000,161979.7812500000,,,
1.1799999981,9,179257.3593750000,165796.3750000000,193625.6875000000,180321.9062500000,168083.6875000000,140418.5156250000,164999.0312500000,161335.1093750000,,,
1.1839999980,9,179240.0625000000,165785.8125000000,193593.2031250000,180311.5468750000,168056.6718750000,140421.4062500000,164984.6562500000,161416.2500000000,,,
1.1879999980,9,179233.6875000000,165785.2968750000,193571.8593750000,180327.4375000000,168039.0156250000,140391.9062500000,164968.5625000000,162076.0625000000,,,
1.1919999979,9,179249.8750000000,165790.7656250000,193601.7656250000,180326.4687500000,168062.8437500000,140401.1562500000,164982.1875000000,162377.0156250000,,,
1.1959999981,9,179256.0781250000,165787.7031250000,193612.1250000000,180299.2968750000,168070.2656250000,140396.4687500000,164966.2343750000,161911.9687500000,,,
1.1999999981,9,179239.7656250000,165767.7343750000,193599.7031250000,180281.5625000000,168058.5468750000,140398.9375000000,164970.4375000000,161297.1250000000,,,
1.2039999980,9,179226.9531250000,165760.6718750000,193579.1250000000,180289.6093750000,168041.8125000000,140401.8593750000,164960.2187500000,161384.8906250000,,,
1.2079999980,9,179230.6718750000,165763.7031250000,193578.7500000000,180294.1718750000,168043.6093750000,140382.8750000000,164960.8125000000,162035.1718750000,,,
1.2119999980,9,179255.5156250000,165785.2968750000,193610.2343750000,180307.6093750000,168069.9531250000,140408.3281250000,164990.6718750000,162315.1093750000,,,
1.2159999979,9,179276.6250000000,165806.6718750000,193638.7343750000,180329.3906250000,168095.1093750000,140438.5000000000,165017.4531250000,161821.7500000000,,,
1.2199999981,9,179247.5156250000,165782.4062500000,193605.9218750000,180307.8281250000,168065.7656250000,140425.3593750000,164999.8906250000,161219.5312500000,,,
1.2239999981,9,179223.7031250000,165765.0000000000,193580.8437500000,180287.3125000000,168044.2343750000,140404.8906250000,164972.0468750000,161335.7187500000,,,
1.2279999980,9,179228.1250000000,165774.2500000000,193582.9687500000,180293.6406250000,168045.2187500000,140405.2343750000,164965.8593750000,161991.5000000000,,,
1.2319999980,9,179252.7500000000,165795.6250000000,193607.0468750000,180327.2968750000,168066.5937500000,140417.5468750000,164999.8906250000,162287.0000000000,,,
1.2359999979,9,179290.5468750000,165831.9375000000,193651.6875000000,180355.4843750000,168110.7656250000,140463.5000000000,165038.2968750000,161794.5781250000,,,
1.2399999981,9,179316.6406250000,165853.5625000000,193695.1562500000,180361.6250000000,168151.9375000000,140484.1562500000,165059.5937500000,161146.6875000000,,,
1.2439999981,9,179275.7343750000,165816.9218750000,193649.0000000000,180317.9062500000,168110.8593750000,140442.9843750000,165012.7187500000,161215.5625000000,,,
1.2479999980,9,179225.9843750000,165776.1718750000,193584.8437500000,180297.7343750000,168050.5000000000,140399.6875000000,164961.4062500000,161865.4062500000,,,
1.2519999980,9,179256.7968750000,165815.7656250000,193618.7187500000,180328.5000000000,168086.6093750000,140439.0937500000,165020.0312500000,162138.3281250000,,,
1.2559999980,9,179303.2343750000,165866.4375000000,193659.8906250000,180360.3750000000,168127.0781250000,140488.6562500000,165040.2031250000,161639.6406250000,,,
1.2599999979,9,179311.9687500000,165861.6093750000,193670.5625000000,180385.9375000000,168136.9218750000,140497.0000000000,165046.1406250000,160993.3906250000,,,
1.2639999981,9,179272.9218750000,165809.3593750000,193636.2343750000,180339.4531250000,168100.1718750000,140429.0625000000,165011.6406250000,161065.8125000000,,,
1.2679999981,9,179241.8125000000,165782.1093750000,193606.0625000000,180284.3593750000,168068.7968750000,140409.2343750000,164969.9843750000,161713.9687500000,,,
1.2719999980,9,179251.9687500000,165790.8437500000,193600.6875000000,180307.8750000000,168066.3593750000,140408.8281250000,164970.0156250000,161998.1718750000,,,
1.2759999980,9,179277.3750000000,165810.3750000000,193634.8593750000,180329.6875000000,168100.2656250000,140425.7812500000,164998.6093750000,161495.5312500000,,,
1.2799999979,10,179277.6093750000,165813.2187500000,193637.1406250000,180307.7187500000,168102.0781250000,140437.7968750000,165002.2187500000,160823.7500000000,,,
1.2839999979,10,179260.8437500000,165809.9687500000,193618.3125000000,180290.3125000000,168083.0937500000,140432.8593750000,164972.6718750000,160848.9531250000,,,
1.2879999978,10,179256.0156250000,165809.0937500000,193603.4218750000,180302.7812500000,168069.1718750000,140415.3437500000,164962.6406250000,161454.3281250000,,,
1.2919999978,10,179271.1562500000,165810.8906250000,193633.5468750000,180324.6718750000,168092.0312500000,140423.4218750000,164995.9687500000,161750.9843750000,,,
1.2959999978,10,179292.8281250000,165833.1250000000,193658.5156250000,180348.7031250000,168112.8593750000,140425.8437500000,164996.4062500000,161288.4687500000,,,
1.2999999977,10,179275.2812500000,165813.0781250000,193623.7343750000,180345.2656250000,168087.0625000000,140434.6875000000,165008.9062500000,160637.5468750000,,,
1.3039999979,10,179262.1406250000,165808.1718750000,193613.5156250000,180327.8281250000,168080.2187500000,140451.9375000000,164993.8281250000,160681.1875000000,,,
1.3079999979,10,179271.4687500000,165827.0000000000,193626.7968750000,180304.5000000000,168095.9062500000,140442.2343750000,164991.5000000000,161292.2187500000,,,
1.3119999978,10,179298.0000000000,165839.4531250000,193663.0000000000,180347.6875000000,168130.3750000000,140446.9218750000,165030.1718750000,161523.9687500000,,,
1.3159999978,10,179308.0625000000,165852.5156250000,193663.4062500000,180362.4687500000,168130.5625000000,140464.6562500000,165045.1406250000,161018.5000000000,,,
1.3199999977,10,179296.9062500000,165843.6562500000,193646.9687500000,180351.1406250000,168116.4062500000,140468.8906250000,165045.7656250000,160384.2187500000,,,
1.3239999979,10,179275.1718750000,165822.3125000000,193630.6875000000,180326.3125000000,168099.7968750000,140461.2656250000,165032.9687500000,160447.4375000000,,,
1.3279999979,10,179275.5468750000,165827.6718750000,193624.0781250000,180334.2968750000,168093.2812500000,140455.6718750000,165031.6718750000,161076.1718750000,,,
1.3319999978,10,179300.6562500000,165849.7812500000,193650.0937500000,180356.4843750000,168114.9375000000,140483.7968750000,165024.4843750000,161363.8281250000,,,
1.3359999978,10,179325.1406250000,165876.4375000000,193670.9375000000,180369.5625000000,168137.2968750000,140513.6875000000,165068.2343750000,160864.2500000000,,,
1.3399999978,10,179326.1406250000,165885.4218750000,193680.0000000000,180358.2031250000,168148.4531250000,140519.7187500000,165093.2343750000,160248.8437500000,,,
1.3439999977,10,179298.9062500000,165849.7500000000,193658.3906250000,180343.1562500000,168127.9687500000,140508.7656250000,165073.8437500000,160286.6562500000,,,
1.3479999979,10,179266.8593750000,165814.5937500000,193617.4062500000,180330.5468750000,168088.3281250000,140471.6562500000,165010.8593750000,160895.6250000000,,,
1.3519999979,10,179290.0625000000,165840.7187500000,193641.3281250000,180350.6562500000,168115.2031250000,140502.2812500000,165042.3593750000,161167.5468750000,,,
1.3559999978,10,179323.6875000000,165870.8593750000,193684.8593750000,180372.5937500000,168154.7343750000,140540.7500000000,165117.7968750000,160656.5312500000,,,
1.3599999978,10,179345.1250000000,165902.6406250000,193702.9375000000,180403.5468750000,168171.5781250000,140565.5000000000,165145.0468750000,159983.2968750000,,,
1.3639999977,10,179332.7656250000,165895.1562500000,193683.7656250000,180388.6406250000,168159.5937500000,140542.0312500000,165104.0937500000,160028.8125000000,,,
1.3679999979,10,179306.9843750000,165860.2343750000,193665.7968750000,180317.3125000000,168143.2343750000,140507.4375000000,165048.9218750000,160641.0625000000,,,
1.3719999979,10,179319.0781250000,165864.8750000000,193673.1093750000,180327.5937500000,168155.5156250000,140525.6718750000,165059.5156250000,160948.2031250000,,,
1.3759999978,10,179325.5000000000,165867.7500000000,193692.4218750000,180340.2812500000,168173.3437500000,140534.1406250000,165130.2500000000,160528.9218750000,,,
1.3799999978,10,179321.9843750000,165874.5625000000,193693.4375000000,180321.2343750000,168172.7343750000,140547.1250000000,165162.6562500000,159929.1250000000,,,
1.3839999977,10,179287.1875000000,165854.8750000000,193630.5000000000,180291.5781250000,168110.0781250000,140530.5468750000,165098.8437500000,159993.8906250000,,,
1.3879999977,10,179267.6875000000,165825.1250000000,193610.6718750000,180296.5312500000,168089.7500000000,140497.3125000000,165096.7187500000,160662.2812500000,,,
1.3919999979,10,179313.5625000000,165866.9218750000,193663.5312500000,180341.5625000000,168139.0156250000,140525.7968750000,165141.3281250000,160999.1875000000,,,
1.3959999979,10,179349.5781250000,165896.0781250000,193716.6250000000,180371.7343750000,168189.6250000000,140571.2968750000,165175.0156250000,160561.7500000000,,,
1.3999999978,10,179365.4843750000,165921.9218750000,193735.8437500000,180369.7031250000,168212.7187500000,140592.6406250000,165180.7500000000,159946.0937500000,,,
1.4039999978,10,179306.7187500000,165864.9843750000,193666.0000000000,180327.3281250000,168149.0468750000,140517.5156250000,165063.7500000000,160006.2343750000,,,
1.4079999977,11,179282.8437500000,165835.6093750000,193635.6093750000,180310.1250000000,168126.0625000000,140496.1093750000,165051.3437500000,160657.3906250000,,,
1.4119999977,11,179301.7031250000,165850.2343750000,193648.8593750000,180333.3593750000,168133.5937500000,140514.4062500000,165080.7031250000,161025.6562500000,,,
1.4159999976,11,179330.2656250000,165873.4062500000,193683.8437500000,180357.2343750000,168165.2968750000,140541.0625000000,165158.2187500000,160620.1718750000,,,
1.4199999976,11,179343.8593750000,165888.4843750000,193703.6562500000,180363.5312500000,168184.1562500000,140555.0625000000,165172.5468750000,160018.9218750000,,,
1.4239999976,11,179324.6406250000,165875.9531250000,193682.2812500000,180346.1875000000,168164.6875000000,140534.2031250000,165159.0781250000,160060.6562500000,,,
1.4279999975,11,179300.6875000000,165848.9218750000,193654.6562500000,180331.7500000000,168130.3281250000,140503.3750000000,165064.6875000000,160684.4062500000,,,
1.4319999977,11,179318.0937500000,165861.1250000000,193669.7031250000,180347.6250000000,168142.4218750000,140514.0625000000,165089.9687500000,160993.3750000000,,,
1.4359999977,11,179341.2031250000,165883.8750000000,193696.3125000000,180372.1093750000,168167.3906250000,140537.1250000000,165115.7656250000,160541.6093750000,,,
1.4399999976,11,179335.9218750000,165884.2500000000,193700.3593750000,180367.6093750000,168173.7500000000,140521.9687500000,165116.6562500000,159908.5781250000,,,
1.4439999976,11,179314.3906250000,165864.9843750000,193679.7968750000,180358.8593750000,168157.1250000000,140514.5468750000,165110.0000000000,159939.0937500000,,,
1.4479999975,11,179287.4062500000,165840.5000000000,193633.8437500000,180342.3906250000,168112.8125000000,140499.6250000000,165063.6562500000,160578.6406250000,,,
1.4519999977,11,179295.7500000000,165845.8125000000,193635.7812500000,180352.2968750000,168115.5937500000,140498.1250000000,165053.5625000000,160916.0156250000,,,
1.4559999977,11,179329.2812500000,165872.0625000000,193694.7812500000,180353.6562500000,168172.2187500000,140528.6718750000,165104.7656250000,160488.6250000000,,,
1.4599999976,11,179325.6562500000,165872.8125000000,193689.9531250000,180325.0937500000,168168.0937500000,140518.4218750000,165102.6406250000,159897.6250000000,,,
1.4639999976,11,179280.7187500000,165834.6250000000,193637.9218750000,180283.8125000000,168120.5937500000,140490.2187500000,165056.7031250000,159961.6875000000,,,
1.4679999975,11,179256.3750000000,165812.8750000000,193609.7343750000,180271.8593750000,168088.2343750000,140467.1718750000,165029.7500000000,160628.7187500000,,,
1.4719999975,11,179294.0000000000,165846.8593750000,193639.0468750000,180330.7500000000,168114.1250000000,140499.4375000000,165061.3125000000,160985.2187500000,,,
1.4759999977,11,179338.4531250000,165881.5312500000,193694.9218750000,180398.2968750000,168169.6406250000,140526.6093750000,165147.9531250000,160536.7500000000,,,
1.4799999977,11,179310.2343750000,165860.8750000000,193654.6875000000,180358.2031250000,168127.5156250000,140516.4375000000,165051.5781250000,159905.5781250000,,,
1.4839999976,11,179277.1093750000,165840.1718750000,193620.0625000000,180292.2187500000,168097.3281250000,140497.9843750000,165036.5000000000,159956.1250000000,,,
1.4879999976,11,179259.5156250000,165815.8437500000,193603.7812500000,180284.8593750000,168078.9375000000,140462.3125000000,165031.5937500000,160589.0468750000,,,
1.4919999975,11,179281.6406250000,165824.4843750000,193635.7500000000,180315.4218750000,168103.5312500000,140495.9531250000,165021.3281250000,160963.3750000000,,,
1.4959999977,11,179328.7656250000,165870.2187500000,193699.5000000000,180357.7343750000,168167.5625000000,140540.3437500000,165099.3437500000,160584.3125000000,,,
1.4999999977,11,179305.4062500000,165846.9375000000,193663.0000000000,180336.8437500000,168139.0156250000,140520.0312500000,165085.6093750000,159996.5312500000,,,
1.5039999976,11,179285.2812500000,165828.2187500000,193657.3750000000,180299.7031250000,168131.6406250000,140509.9843750000,165071.1875000000,160056.9062500000,,,
1.5079999976,11,179266.2968750000,165812.5781250000,193630.3906250000,180303.8281250000,168106.7812500000,140468.6718750000,165076.6093750000,160724.0468750000,,,
1.5119999975,11,179288.3750000000,165834.5937500000,193644.6250000000,180356.8750000000,168118.9843750000,140491.2031250000,165075.7187500000,161114.2343750000,,,
1.5159999975,11,179329.4687500000,165875.7343750000,193676.7812500000,180399.9843750000,168149.5312500000,140542.8906250000,165062.3125000000,160723.2187500000,,,
1.5199999977,11,179321.5156250000,165863.6718750000,193675.5781250000,180373.8906250000,168154.1093750000,140543.6406250000,165086.3125000000,160122.2656250000,,,
1.5239999976,11,179296.8437500000,165839.3750000000,193650.7187500000,180321.0156250000,168134.0312500000,140515.1093750000,165107.9843750000,160169.5625000000,,,
1.5279999976,11,179296.3437500000,165841.8437500000,193655.7812500000,180299.3750000000,168136.5468750000,140512.0937500000,165115.8125000000,160847.8906250000,,,
1.5319999976,11,179327.5312500000,165871.9375000000,193693.7343750000,180296.0468750000,168179.0625000000,140541.3125000000,165193.4062500000,161242.5937500000,,,
1.5359999975,12,179366.5781250000,165903.7187500000,193736.1250000000,180339.1250000000,168218.1093750000,140577.9531250000,165164.3906250000,160860.3281250000,,,
1.5399999975,12,179367.7968750000,165903.3750000000,193727.7500000000,180357.9062500000,168204.2812500000,140554.9843750000,165135.6875000000,160231.9218750000,,,
1.5439999974,12,179343.8593750000,165874.7500000000,193708.1093750000,180339.3906250000,168189.2343750000,140560.1875000000,165155.5156250000,160264.8593750000,,,
1.5479999974,12,179327.4843750000,165868.6093750000,193694.4843750000,180300.9062500000,168177.9843750000,140552.2031250000,165111.6406250000,160930.7968750000,,,
1.5519999973,12,179326.0625000000,165872.8125000000,193692.7812500000,180304.9843750000,168176.2656250000,140548.3906250000,165122.0156250000,161344.4687500000,,,
1.5559999973,12,179340.6250000000,165884.2187500000,193694.0937500000,180339.5312500000,168180.9375000000,140562.7343750000,165186.0937500000,160971.8281250000,,,
1.5599999975,12,179342.6093750000,165884.0312500000,193705.3593750000,180342.0000000000,168189.7968750000,140578.6406250000,165206.6093750000,160348.4375000000,,,
1.5639999975,12,179329.6250000000,165874.9062500000,193692.2968750000,180325.2031250000,168178.9062500000,140559.1718750000,165180.2500000000,160335.7500000000,,,
1.5679999974,12,179318.3281250000,165871.4687500000,193678.1093750000,180327.5156250000,168161.4375000000,140546.2656250000,165149.8593750000,160941.0312500000,,,
1.5719999974,12,179300.1406250000,165856.5625000000,193642.6093750000,180329.7187500000,168125.1718750000,140528.6250000000,165108.0625000000,161329.9531250000,,,
1.5759999973,12,179335.7187500000,165876.5156250000,193697.6875000000,180369.0000000000,168173.5312500000,140549.1875000000,165156.4218750000,160943.7968750000,,,
1.5799999975,12,179332.3281250000,165877.8281250000,193690.9531250000,180367.8750000000,168168.2500000000,140543.9843750000,165133.0156250000,160309.5156250000,,,
1.5839999975,12,179302.5625000000,165858.6093750000,193661.0468750000,180314.4531250000,168142.5000000000,140533.0937500000,165097.6562500000,160310.0781250000,,,
1.5879999974,12,179302.7968750000,165856.8593750000,193664.3125000000,180313.9687500000,168143.9218750000,140507.4843750000,165139.6562500000,160947.1562500000,,,
1.5919999974,12,179300.0312500000,165844.9218750000,193644.3281250000,180354.5468750000,168120.2968750000,140503.7812500000,165080.0312500000,161307.5156250000,,,
1.5959999973,12,179326.7812500000,165863.8125000000,193670.2187500000,180382.8437500000,168147.2187500000,140518.8281250000,165142.9687500000,160888.4687500000,,,
1.5999999973,12,179339.0625000000,165875.5468750000,193705.4843750000,180364.2343750000,168178.9843750000,140540.6406250000,165136.9062500000,160238.3593750000,,,
1.6039999975,12,179314.3906250000,165864.7187500000,193685.8593750000,180330.4843750000,168162.8125000000,140529.7812500000,165117.4062500000,160225.6093750000,,,
1.6079999974,12,179276.6250000000,165836.7968750000,193631.0781250000,180300.9062500000,168111.5000000000,140469.8750000000,165069.4687500000,160879.3437500000,,,
1.6119999974,12,179266.4375000000,165814.6093750000,193615.6562500000,180307.6875000000,168090.1406250000,140464.5468750000,165055.5468750000,161303.1718750000,,,
1.6159999974,12,179316.8281250000,165858.3281250000,193675.9218750000,180343.4375000000,168148.3437500000,140516.2812500000,165103.3437500000,160916.5468750000,,,
1.6199999973,12,179327.5000000000,165871.2031250000,193694.5156250000,180350.8437500000,168166.1093750000,140516.6250000000,165119.2187500000,160288.0000000000,,,
1.6239999975,12,179296.0625000000,165862.8906250000,193648.2968750000,180311.0625000000,168124.1250000000,140514.6250000000,165089.7656250000,160247.3437500000,,,
1.6279999975,12,179269.1875000000,165829.3906250000,193622.3437500000,180282.1250000000,168098.5937500000,140485.9218750000,165061.9531250000,160848.4531250000,,,
1.6319999974,12,179286.7656250000,165829.8437500000,193650.8437500000,180320.8125000000,168119.9218750000,140474.5781250000,165039.7187500000,161203.4687500000,,,
1.6359999974,12,179336.4843750000,165881.8281250000,193706.5000000000,180335.1562500000,168174.7500000000,140542.2500000000,165074.4843750000,160776.1562500000,,,
1.6399999973,12,179347.3750000000,165911.4218750000,193707.0937500000,180351.0156250000,168176.0625000000,140547.1875000000,165105.7031250000,160122.4218750000,,,
1.6439999973,12,179284.3437500000,165847.3437500000,193630.2500000000,180321.2968750000,168100.9843750000,140438.2500000000,165061.5781250000,160120.8437500000,,,
1.6479999975,12,179247.4062500000,165800.6718750000,193586.2968750000,180300.2812500000,168058.7031250000,140441.6562500000,165026.0937500000,160768.2500000000,,,
1.6519999974,12,179260.6875000000,165809.9218750000,193603.9062500000,180324.7187500000,168076.1250000000,140446.2187500000,165029.0781250000,161180.0312500000,,,
1.6559999974,12,179283.6250000000,165832.4531250000,193633.3125000000,180313.2968750000,168101.1093750000,140470.5000000000,165026.3906250000,160814.4687500000,,,
1.6599999974,12,179277.2187500000,165843.2031250000,193631.8593750000,180284.1875000000,168102.8125000000,140465.8593750000,165020.8750000000,160212.0937500000,,,
1.6639999973,13,179264.7656250000,165831.8593750000,193614.6406250000,180280.5781250000,168087.9687500000,140459.3593750000,165010.8125000000,160175.7187500000,,,
1.6679999973,13,179258.0625000000,165821.7187500000,193601.8437500000,180256.8906250000,168076.8125000000,140457.5625000000,165011.8281250000,160823.3906250000,,,
1.6719999972,13,179284.4062500000,165848.7031250000,193637.4375000000,180284.5156250000,168107.3125000000,140488.7343750000,165024.8593750000,161239.7812500000,,,
1.6759999972,13,179307.0312500000,165855.2812500000,193665.4687500000,180330.6562500000,168133.7031250000,140491.2812500000,165052.7343750000,160872.6093750000,,,
1.6799999971,13,179302.1093750000,165857.6562500000,193659.4531250000,180320.7031250000,168126.4687500000,140491.2812500000,165044.2343750000,160276.2031250000,,,
1.6839999971,13,179254.5468750000,165797.0468750000,193616.5937500000,180286.1250000000,168082.8750000000,140408.3750000000,165006.7656250000,160273.7812500000,,,
1.6879999973,13,179261.9531250000,165807.1562500000,193620.2812500000,180295.0625000000,168085.4218750000,140406.4531250000,165007.8125000000,160920.5000000000,,,
1.6919999972,13,179286.8125000000,165812.7343750000,193664.4687500000,180281.9687500000,168127.0312500000,140434.0937500000,165033.2343750000,161342.4375000000,,,
1.6959999972,13,179333.5937500000,165868.5312500000,193690.5000000000,180328.1250000000,168157.2500000000,140481.8906250000,165083.5468750000,160947.0000000000,,,
1.6999999972,13,179324.4531250000,165864.3125000000,193682.9843750000,180310.5312500000,168148.0781250000,140481.2187500000,165079.8281250000,160313.2656250000,,,
1.7039999971,13,179317.5312500000,165876.8906250000,193676.8437500000,180294.5156250000,168145.1250000000,140491.3437500000,165055.0156250000,160297.3906250000,,,
1.7079999973,13,179275.2343750000,165822.6875000000,193636.2031250000,180255.4218750000,168105.7343750000,140427.9062500000,165012.2343750000,160951.1718750000,,,
1.7119999973,13,179274.0156250000,165800.5781250000,193630.3281250000,180282.9375000000,168094.0312500000,140410.4687500000,164986.7031250000,161371.4062500000,,,
1.7159999972,13,179322.9375000000,165853.3906250000,193679.6250000000,180345.8906250000,168141.8906250000,140433.7187500000,165050.9062500000,160991.1406250000,,,
1.7199999972,13,179338.3437500000,165865.0156250000,193702.7500000000,180359.0312500000,168164.0625000000,140482.5625000000,165095.8906250000,160355.8593750000,,,
1.7239999971,13,179294.3750000000,165825.6875000000,193660.7812500000,180294.2500000000,168123.2500000000,140466.9062500000,165049.2968750000,160330.6250000000,,,
1.7279999971,13,179259.8125000000,165808.5312500000,193608.0937500000,180261.1875000000,168074.9687500000,140437.3437500000,165010.7812500000,160991.8906250000,,,
1.7319999973,13,179282.3281250000,165822.5781250000,193641.3750000000,180306.7812500000,168106.9687500000,140442.6562500000,165055.9843750000,161420.8125000000,,,
1.7359999972,13,179316.9375000000,165860.7500000000,193673.3593750000,180361.8906250000,168136.7031250000,140455.1875000000,165062.5156250000,161060.0781250000,,,
1.7399999972,13,179299.0937500000,165840.0468750000,193651.1250000000,180356.6875000000,168111.3281250000,140453.0312500000,164990.3125000000,160415.2500000000,,,
1.7439999972,13,179256.4218750000,165802.9531250000,193611.3437500000,180282.6718750000,168072.4218750000,140427.7656250000,164978.3593750000,160378.6406250000,,,
1.7479999971,13,179232.4531250000,165792.0781250000,193593.3906250000,180262.8125000000,168055.0937500000,140409.4218750000,164986.4062500000,161031.6718750000,,,
1.7519999973,13,179249.4843750000,165811.9375000000,193614.5625000000,180298.2031250000,168072.8125000000,140447.5156250000,164992.8593750000,161479.6875000000,,,
1.7559999973,13,179289.5000000000,165847.5468750000,193661.2500000000,180321.8750000000,168117.9375000000,140454.5156250000,165007.5937500000,161126.9687500000,,,
1.7599999972,13,179314.6562500000,165873.6718750000,193674.8593750000,180328.3750000000,168134.9375000000,140446.9531250000,165049.7812500000,160457.0625000000,,,
1.7639999972,13,179288.4218750000,165833.3281250000,193654.6562500000,180298.4687500000,168115.9218750000,140471.7656250000,165052.7812500000,160386.6562500000,,,
1.7679999971,13,179250.7187500000,165791.3281250000,193613.5156250000,180271.1093750000,168077.5937500000,140415.2968750000,165066.8593750000,160989.9375000000,,,
1.7719999971,13,179260.7968750000,165800.0781250000,193611.1562500000,180296.6718750000,168075.4687500000,140418.8437500000,165026.6406250000,161414.6093750000,,,
1.7759999973,13,179276.1718750000,165811.5625000000,193624.4375000000,180330.3750000000,168082.3906250000,140446.2187500000,164969.8281250000,161056.7031250000,,,
1.7799999972,13,179303.9062500000,165843.6875000000,193669.1406250000,180326.5781250000,168130.6406250000,140452.6875000000,165038.7031250000,160388.2968750000,,,
1.7839999972,13,179299.7500000000,165849.9375000000,193678.9375000000,180297.6562500000,168139.0156250000,140436.7812500000,165026.3593750000,160305.3593750000,,,
1.7879999971,13,179284.7968750000,165827.2187500000,193650.5781250000,180303.8750000000,168112.1875000000,140437.6406250000,165018.2343750000,160912.1562500000,,,
1.7919999971,14,179305.5312500000,165848.0625000000,193654.3906250000,180331.3750000000,168110.5781250000,140459.0156250000,165022.9843750000,161340.6875000000,,,
1.7959999971,14,179333.5312500000,165869.1406250000,193692.5625000000,180354.4218750000,168146.9218750000,140498.2031250000,165087.9687500000,161018.3125000000,,,
1.7999999970,14,179367.6093750000,165938.5781250000,193732.3437500000,180383.4062500000,168187.2500000000,140487.0468750000,165136.8750000000,160385.1562500000,,,
1.8039999970,14,179320.6718750000,165884.4843750000,193678.1875000000,180326.0937500000,168135.2031250000,140447.5937500000,165056.5625000000,160342.4218750000,,,
1.8079999969,14,179254.5781250000,165781.5468750000,193605.6562500000,180283.6562500000,168061.8437500000,140412.1250000000,164954.7500000000,160999.6718750000,,,
1.8119999969,14,179280.4375000000,165817.3281250000,193637.0625000000,180294.8750000000,168091.1406250000,140445.9062500000,164995.2187500000,161477.9375000000,,,
1.8159999971,14,179303.7343750000,165841.7500000000,193658.5468750000,180334.2500000000,168118.4375000000,140477.1562500000,165031.7343750000,161155.2968750000,,,
1.8199999970,14,179317.8750000000,165851.3281250000,193680.4062500000,180346.2812500000,168137.6718750000,140456.4218750000,165041.3125000000,160512.3437500000,,,
1.8239999970,14,179296.5781250000,165842.4531250000,193648.5781250000,180302.6406250000,168106.3750000000,140464.2187500000,165055.6093750000,160448.1093750000,,,
1.8279999970,14,179296.1718750000,165864.0156250000,193645.8125000000,180286.8281250000,168103.0000000000,140448.4687500000,165048.3906250000,161076.5468750000,,,
1.8319999969,14,179299.6093750000,165848.7343750000,193634.1406250000,180308.1406250000,168092.7187500000,140473.3125000000,164992.4375000000,161520.8750000000,,,
1.8359999971,14,179325.3906250000,165863.3437500000,193675.7343750000,180329.5312500000,168135.2812500000,140500.7031250000,165057.2656250000,161179.8437500000,,,
1.8399999971,14,179334.9375000000,165886.7187500000,193697.1718750000,180326.7812500000,168158.3281250000,140527.0156250000,165057.2968750000,160516.5781250000,,,
1.8439999970,14,179290.7343750000,165836.1718750000,193652.1875000000,180302.4375000000,168116.5468750000,140461.7500000000,165000.2343750000,160423.6406250000,,,
1.8479999970,14,179268.6250000000,165821.1562500000,193611.5000000000,180290.3593750000,168082.2812500000,140458.4531250000,165009.6250000000,161029.7968750000,,,
1.8519999969,14,179299.6875000000,165849.4218750000,193645.9687500000,180322.1406250000,168108.4062500000,140459.9531250000,165032.7968750000,161452.8281250000,,,
1.8559999969,14,179325.3593750000,165872.6093750000,193683.0312500000,180327.9218750000,168142.3125000000,140485.2812500000,165045.9687500000,161101.7031250000,,,
1.8599999971,14,179333.7500000000,165873.5468750000,193701.5937500000,180316.8593750000,168163.8593750000,140562.5312500000,165076.8125000000,160438.1250000000,,,
1.8639999970,14,179313.8750000000,165851.0937500000,193688.5625000000,180306.1093750000,168147.4687500000,140498.7968750000,165073.4687500000,160340.2187500000,,,
1.8679999970,14,179271.5312500000,165816.4843750000,193629.1718750000,180284.9218750000,168092.5625000000,140469.3437500000,165022.0781250000,160944.0156250000,,,
1.8719999969,14,179277.0468750000,165821.9375000000,193628.7031250000,180307.9843750000,168086.3437500000,140471.8125000000,164966.6875000000,161407.0000000000,,,
1.8759999969,14,179328.7656250000,165864.4531250000,193699.4062500000,180353.0000000000,168152.1093750000,140512.6875000000,165054.4531250000,161072.7968750000,,,
1.8799999971,14,179328.5468750000,165868.7187500000,193684.0000000000,180347.0156250000,168142.3125000000,140548.3593750000,165066.5937500000,160416.2968750000,,,
1.8839999971,14,179287.0781250000,165826.7656250000,193651.4375000000,180301.4375000000,168114.3125000000,140481.3593750000,165061.1875000000,160343.9218750000,,,
1.8879999970,14,179279.7656250000,165821.7187500000,193659.9687500000,180293.9843750000,168125.2812500000,140453.2968750000,165067.9687500000,160964.1406250000,,,
1.8919999970,14,179323.7812500000,165869.8906250000,193712.1093750000,180317.1093750000,168176.6250000000,140505.0156250000,165155.2968750000,161397.6875000000,,,
1.8959999969,14,179355.1250000000,165901.7812500000,193715.5468750000,180391.4062500000,168174.3750000000,140524.0312500000,165124.1875000000,161043.5781250000,,,
1.8999999969,14,179319.0625000000,165848.7031250000,193661.6875000000,180372.2031250000,168120.8593750000,140536.4218750000,164997.2968750000,160346.9218750000,,,
1.9039999971,14,179288.0000000000,165828.5000000000,193653.5312500000,180300.0937500000,168115.3906250000,140480.1250000000,165020.4062500000,160253.9843750000,,,
1.9079999970,14,179259.8125000000,165801.7968750000,193632.5625000000,180256.4375000000,168098.7343750000,140478.4062500000,164945.7187500000,160851.5937500000,,,
1.9119999970,14,179254.0937500000,165794.2031250000,193609.0312500000,180254.7500000000,168073.8906250000,140474.2500000000,164933.0000000000,161313.2968750000,,,
1.9159999969,14,179298.0781250000,165838.9218750000,193662.7343750000,180292.3437500000,168124.0781250000,140517.8906250000,165095.3750000000,160962.5468750000,,,
1.9199999969,15,179361.7031250000,165915.4062500000,193765.4687500000,180326.6250000000,168217.2343750000,140578.4062500000,165159.9375000000,160292.1250000000,,,
1.9239999969,15,179313.4218750000,165862.6562500000,193676.0625000000,180303.8281250000,168135.3125000000,140516.2031250000,165081.1093750000,160191.5000000000,,,
1.9279999968,15,179240.5000000000,165792.5937500000,193577.0312500000,180256.0781250000,168044.5156250000,140456.3281250000,164980.5781250000,160803.0156250000,,,
1.9319999968,15,179261.0937500000,165826.3125000000,193604.3750000000,180273.3281250000,168073.9687500000,140444.2968750000,165041.4062500000,161298.5781250000,,,
1.9359999967,15,179305.3281250000,165856.3437500000,193676.8437500000,180316.4843750000,168142.6562500000,140561.3750000000,165078.4531250000,160976.8437500000,,,
1.9399999967,15,179328.7968750000,165862.2968750000,193702.3750000000,180345.1562500000,168161.8750000000,140593.9375000000,165053.1406250000,160299.1250000000,,,
1.9439999969,15,179275.7656250000,165813.9375000000,193632.2343750000,180304.0937500000,168101.9531250000,140500.9062500000,165022.7500000000,160169.3437500000,,,
1.9479999968,15,179237.7812500000,165792.4531250000,193586.3437500000,180240.5312500000,168057.2656250000,140507.3437500000,164936.3750000000,160802.7187500000,,,
1.9519999968,15,179232.0468750000,165768.2968750000,193581.5156250000,180258.5000000000,168050.2031250000,140482.8125000000,164952.7343750000,161295.6562500000,,,
1.9559999967,15,179283.4687500000,165809.5781250000,193644.2187500000,180316.6718750000,168108.4062500000,140516.2031250000,165053.4218750000,160989.4218750000,,,
1.9599999967,15,179306.1875000000,165838.7031250000,193670.2968750000,180322.3906250000,168130.7812500000,140532.1562500000,165061.0781250000,160363.2343750000,,,
1.9639999969,15,179286.5000000000,165826.8125000000,193650.6406250000,180293.2656250000,168109.7031250000,140539.4062500000,165027.2812500000,160251.9843750000,,,
1.9679999969,15,179264.9062500000,165805.7031250000,193634.7500000000,180259.2031250000,168094.5156250000,140510.0625000000,165020.8750000000,160855.3906250000,,,
1.9719999968,15,179278.5468750000,165831.6406250000,193627.4375000000,180285.1406250000,168089.2031250000,140523.0156250000,165021.4843750000,161351.6250000000,,,
1.9759999968,15,179306.5312500000,165851.3125000000,193655.2187500000,180322.3593750000,168112.6718750000,140547.7187500000,165017.5468750000,161023.4375000000,,,
1.9799999967,15,179346.4062500000,165892.8593750000,193697.7031250000,180355.2968750000,168155.8281250000,140514.7031250000,165066.8437500000,160336.9843750000,,,
1.9839999967,15,179320.6718750000,165865.7968750000,193683.0625000000,180316.6250000000,168146.6562500000,140581.5156250000,165066.2187500000,160197.3125000000,,,
1.9879999969,15,179296.3906250000,165836.3906250000,193689.0156250000,180257.1875000000,168160.1250000000,140602.5468750000,165059.3281250000,160783.5156250000,,,
1.9919999968,15,179309.8281250000,165852.7500000000,193666.0312500000,180309.5625000000,168133.5781250000,140564.7031250000,165021.8125000000,161253.5468750000,,,
1.9959999968,15,179351.0312500000,165893.4218750000,193723.9375000000,180339.1250000000,168195.2656250000,140606.6250000000,165100.2812500000,160928.6406250000,,,
1.9999999967,15,179365.8906250000,165928.5781250000,193742.5000000000,180342.9375000000,168216.7500000000,140585.9375000000,165179.6875000000,160269.1406250000,,,
2.0039999967,15,179303.1718750000,165854.5468750000,193647.9843750000,180299.0312500000,168119.1718750000,140595.3593750000,165002.3906250000,160137.8750000000,,,
2.0079999969,15,179255.6250000000,165798.5781250000,193602.3906250000,180247.7656250000,168079.4687500000,140569.6875000000,164992.3593750000,160720.7031250000,,,
2.0119999968,15,179308.7343750000,165855.0312500000,193664.7500000000,180302.9687500000,168134.3281250000,140572.0468750000,165066.7656250000,161184.5781250000,,,
2.0159999968,15,179352.9375000000,165894.9687500000,193708.1093750000,180345.6718750000,168171.6093750000,140606.0781250000,165081.1093750000,160880.6875000000,,,
2.0199999968,15,179354.7031250000,165890.4375000000,193720.2343750000,180356.0312500000,168180.5312500000,140614.4531250000,165116.7031250000,160206.8593750000,,,
2.0239999967,15,179303.5312500000,165848.7343750000,193674.7812500000,180321.2968750000,168132.9218750000,140562.1250000000,165014.9687500000,160079.8125000000,,,
2.0279999967,15,179270.1875000000,165834.8593750000,193622.1250000000,180254.5781250000,168091.6718750000,140525.6718750000,165010.4375000000,160702.8593750000,,,
2.0319999969,15,179295.5781250000,165838.4843750000,193650.0781250000,180274.5312500000,168117.8281250000,140569.6562500000,165087.7656250000,161210.5000000000,,,
2.0359999968,15,179342.8125000000,165886.0937500000,193714.3906250000,180332.6875000000,168177.9687500000,140511.5156250000,165095.9218750000,160929.7812500000,,,
2.0399999968,15,179349.9062500000,165877.0312500000,193737.6250000000,180357.0468750000,168197.4062500000,140573.0312500000,165073.8125000000,160293.4218750000,,,
2.0439999967,15,179316.6093750000,165854.0468750000,193677.4843750000,180333.4375000000,168144.4062500000,140579.0156250000,164987.2343750000,160179.5937500000,,,
2.0479999967,16,179258.5937500000,165792.5312500000,193615.5468750000,180284.1093750000,168074.6093750000,140544.0937500000,164968.2968750000,160784.5625000000,,,
2.0519999966,16,179263.4843750000,165803.3437500000,193621.2187500000,180274.1406250000,168087.2812500000,140548.5781250000,165037.6562500000,161290.4531250000,,,
2.0559999966,16,179310.2500000000,165858.4375000000,193676.6562500000,180286.4218750000,168141.1875000000,140559.4062500000,165082.1875000000,161008.0937500000,,,
2.0599999966,16,179311.5468750000,165850.1718750000,193678.7500000000,180306.3437500000,168132.2812500000,140574.1406250000,165010.2500000000,160356.9375000000,,,
2.0639999965,16,179271.5312500000,165823.4062500000,193613.2500000000,180275.5625000000,168076.5156250000,140540.6875000000,164975.9687500000,160219.7656250000,,,
2.0679999965,16,179260.2656250000,165820.1875000000,193621.5312500000,180270.9218750000,168085.9375000000,140522.7187500000,165010.9687500000,160855.0781250000,,,
2.0719999967,16,179296.6562500000,165864.1250000000,193677.4375000000,180293.5781250000,168130.4843750000,140557.0000000000,165013.3593750000,161404.8125000000,,,
2.0759999966,16,179266.6718750000,165833.3906250000,193605.3281250000,180271.8593750000,168064.8750000000,140536.1250000000,164953.6718750000,161153.0625000000,,,
2.0799999966,16,179277.5312500000,165817.1093750000,193632.8750000000,180282.4531250000,168098.0000000000,140550.2187500000,165069.8437500000,160504.0312500000,,,
2.0839999965,16,179333.1562500000,165876.3906250000,193736.0625000000,180308.9843750000,168194.5625000000,140608.2343750000,165090.3593750000,160342.0781250000,,,
2.0879999965,16,179320.6093750000,165851.7656250000,193726.4062500000,180304.2343750000,168196.5000000000,140570.5156250000,165079.6406250000,160937.2812500000,,,
2.0919999967,16,179279.3593750000,165847.6093750000,193608.8437500000,180283.5781250000,168076.3125000000,140535.1406250000,164906.2500000000,161440.6875000000,,,
2.0959999966,16,179312.8281250000,165858.6093750000,193659.1093750000,180328.2968750000,168119.3750000000,140549.5156250000,165062.6562500000,161157.9218750000,,,
2.0999999966,16,179335.3593750000,165867.3125000000,193681.8906250000,180396.3593750000,168141.0000000000,140600.8593750000,165060.7812500000,160484.0781250000,,,
2.1039999966,16,179315.8125000000,165867.0312500000,193671.7187500000,180326.8906250000,168138.2968750000,140618.6875000000,165073.1406250000,160344.5625000000,,,
2.1079999965,16,179265.3281250000,165813.9218750000,193648.6562500000,180207.8593750000,168109.7187500000,140545.1406250000,165004.5625000000,160964.9687500000,,,
2.1119999965,16,179265.5781250000,165813.4062500000,193655.0937500000,180233.1718750000,168123.5937500000,140541.8437500000,165074.5937500000,161492.1718750000,,,
2.1159999967,16,179319.8906250000,165869.2968750000,193681.7187500000,180329.5468750000,168145.9843750000,140605.5468750000,165013.7031250000,161242.0937500000,,,
2.1199999966,16,179313.4218750000,165893.2812500000,193642.0000000000,180318.8750000000,168107.5468750000,140514.1562500000,164976.0468750000,160599.2187500000,,,
2.1239999966,16,179297.4375000000,165879.7656250000,193642.6406250000,180294.1718750000,168107.9218750000,140513.2500000000,164995.0156250000,160442.1406250000,,,
2.1279999965,16,179258.7656250000,165787.2031250000,193625.0000000000,180264.2656250000,168094.6562500000,140544.5781250000,165033.1562500000,161011.8750000000,,,
2.1319999965,16,179253.0781250000,165799.5625000000,193596.6093750000,180256.7031250000,168065.8437500000,140529.7812500000,164986.6093750000,161522.5937500000,,,
2.1359999967,16,179335.5468750000,165893.1562500000,193721.2812500000,180299.3437500000,168204.0625000000,140605.8125000000,165206.0000000000,161264.4531250000,,,
2.1399999966,16,179380.8750000000,165938.1875000000,193783.9218750000,180337.6562500000,168253.8906250000,140653.8281250000,165187.2187500000,160597.5625000000,,,
2.1439999966,16,179298.5625000000,165847.0156250000,193681.3750000000,180290.1250000000,168130.3750000000,140563.6250000000,164974.0156250000,160443.6718750000,,,
2.1479999966,16,179245.1093750000,165800.3437500000,193583.1718750000,180270.2968750000,168054.6093750000,140388.2812500000,164960.8125000000,161046.6406250000,,,
2.1519999965,16,179283.1406250000,165828.2343750000,193649.5937500000,180303.3125000000,168114.5468750000,140589.6875000000,164976.0937500000,161572.9687500000,,,
2.1559999965,16,179312.6406250000,165842.2343750000,193697.9218750000,180333.8906250000,168150.6875000000,140551.6875000000,164998.5781250000,161306.8906250000,,,
2.1599999967,16,179384.3906250000,165966.2343750000,193765.5625000000,180358.1093750000,168240.8125000000,140583.9531250000,165265.0312500000,160650.4687500000,,,
2.1639999966,16,179426.8281250000,165989.5156250000,193853.3593750000,180411.7812500000,168314.8593750000,140660.0156250000,165138.3750000000,160469.7968750000,,,
2.1679999966,16,179340.1875000000,165856.7500000000,193703.3437500000,180380.6718750000,168154.7812500000,140580.1250000000,164933.2656250000,161012.7343750000,,,
2.1719999965,16,179306.5000000000,165869.1406250000,193640.0468750000,180265.7656250000,168103.4531250000,140538.4687500000,164991.0156250000,161536.2812500000,,,
2.1759999965,17,179323.4218750000,165847.6875000000,193698.7812500000,180273.9218750000,168160.7343750000,140591.5781250000,165075.9375000000,161263.7031250000,,,
2.1799999964,17,179350.6562500000,165871.3750000000,193739.8125000000,180330.0000000000,168191.4531250000,140640.9218750000,165139.5312500000,160568.5937500000,,,
2.1839999964,17,179318.9687500000,165876.2968750000,193639.7500000000,180343.4687500000,168110.3125000000,140642.8593750000,165094.9531250000,160370.3437500000,,,
2.1879999964,17,179300.4062500000,165875.1718750000,193669.2031250000,180285.7812500000,168140.2968750000,140558.5000000000,165130.9687500000,160925.4843750000,,,
2.1919999963,17,179312.7812500000,165854.4375000000,193750.6875000000,180280.6250000000,168220.2656250000,140558.9843750000,165132.2656250000,161427.4062500000,,,
2.1959999963,17,179307.4218750000,165853.2343750000,193646.1562500000,180300.7656250000,168108.4375000000,140634.7500000000,164935.4375000000,161162.8593750000,,,
2.1999999965,17,179324.3906250000,165895.9687500000,193661.0468750000,180307.4531250000,168121.6406250000,140545.9218750000,165052.2031250000,160483.2343750000,,,
2.2039999964,17,179322.1406250000,165910.8437500000,193677.0625000000,180307.3750000000,168133.2968750000,140586.2812500000,165095.4062500000,160332.3437500000,,,
2.2079999964,17,179271.3593750000,165818.6406250000,193660.9062500000,180269.3125000000,168129.9843750000,140562.3437500000,165091.4062500000,160919.0468750000,,,
2.2119999963,17,179288.1250000000,165839.6718750000,193650.4531250000,180304.5781250000,168105.3281250000,140520.5781250000,164900.5937500000,161438.3750000000,,,
2.2159999963,17,179298.7031250000,165859.7343750000,193628.1093750000,180333.4687500000,168087.0156250000,140587.0468750000,164924.1406250000,161189.1406250000,,,
2.2199999965,17,179304.7031250000,165851.7812500000,193668.1718750000,180332.7656250000,168116.9375000000,140677.2187500000,164987.6875000000,160510.6718750000,,,
2.2239999964,17,179292.5312500000,165838.2968750000,193646.9062500000,180292.9687500000,168106.9062500000,140646.9062500000,165017.9218750000,160334.5312500000,,,
2.2279999964,17,179280.5937500000,165845.2656250000,193674.8906250000,180271.9843750000,168140.0937500000,140587.2812500000,165059.9687500000,160971.8906250000,,,
2.2319999964,17,179301.8906250000,165856.4843750000,193715.7812500000,180315.4218750000,168180.3750000000,140659.4843750000,165140.6562500000,161509.6718750000,,,
2.2359999963,17,179278.7187500000,165835.1093750000,193586.1250000000,180349.4062500000,168046.4218750000,140590.3906250000,164939.5625000000,161235.9218750000,,,
2.2399999963,17,179323.2656250000,165919.0625000000,193648.8437500000,180354.7656250000,168114.1718750000,140498.9062500000,165027.8437500000,160550.8281250000,,,
2.2439999965,17,179295.4843750000,165849.4218750000,193678.4218750000,180317.0000000000,168136.1718750000,140698.0625000000,165056.3750000000,160330.0625000000,,,
2.2479999964,17,179285.2656250000,165829.9843750000,193660.3437500000,180309.7812500000,168109.0625000000,140703.0937500000,164964.2187500000,160882.2656250000,,,
2.2519999964,17,179273.0625000000,165842.2968750000,193593.1875000000,180282.7656250000,168051.6250000000,140620.7500000000,164903.0312500000,161418.9531250000,,,
2.2559999963,17,179338.4218750000,165891.7812500000,193696.2656250000,180345.8906250000,168148.8593750000,140670.5156250000,165061.2343750000,161164.1406250000,,,
2.2599999963,17,179330.5312500000,165891.4375000000,193701.2812500000,180353.6875000000,168155.9062500000,140615.9843750000,165091.5468750000,160467.3593750000,,,
2.2639999965,17,179292.3593750000,165876.8906250000,193653.5937500000,180296.7968750000,168110.7500000000,140581.5468750000,164958.7187500000,160263.8125000000,,,
2.2679999964,17,179228.9843750000,165786.5625000000,193565.8281250000,180253.7500000000,168029.5312500000,140624.5625000000,164925.3593750000,160815.8125000000,,,
2.2719999964,17,179246.3906250000,165788.7031250000,193598.8750000000,180299.5937500000,168054.9062500000,140624.1406250000,164985.9375000000,161333.5000000000,,,
2.2759999963,17,179302.1875000000,165851.3125000000,193656.1562500000,180349.5625000000,168110.3437500000,140683.9531250000,165049.7343750000,161107.2500000000,,,
2.2799999963,17,179324.6875000000,165870.5312500000,193710.5312500000,180341.2500000000,168165.0312500000,140688.9375000000,165087.7343750000,160443.5937500000,,,
2.2839999963,17,179304.2968750000,165861.9062500000,193701.5468750000,180292.9687500000,168152.3750000000,140674.0468750000,165088.4531250000,160232.4218750000,,,
2.2879999964,17,179265.2031250000,165840.2343750000,193615.7968750000,180256.7500000000,168075.3125000000,140672.7968750000,164998.6250000000,160789.5781250000,,,
2.2919999964,17,179223.4375000000,165792.8281250000,193554.3437500000,180257.7812500000,168014.0312500000,140624.1562500000,164927.5468750000,161341.6875000000,,,
2.2959999964,17,179251.6562500000,165812.2812500000,193600.6406250000,180312.8593750000,168059.8125000000,140639.7656250000,164973.1250000000,161108.9531250000,,,
2.2999999963,17,179276.4843750000,165832.7187500000,193640.0468750000,180321.9843750000,168097.0468750000,140676.3281250000,165018.5937500000,160426.2500000000,,,
2.3039999963,18,179262.7343750000,165819.3281250000,193634.7031250000,180294.4062500000,168088.7500000000,140682.7343750000,164998.9531250000,160214.3750000000,,,
2.3079999962,18,179246.1562500000,165806.1875000000,193630.2187500000,180274.9687500000,168081.0781250000,140665.5937500000,164943.4375000000,160756.3906250000,,,
2.3119999962,18,179273.0000000000,165833.2500000000,193650.9062500000,180291.6250000000,168104.0468750000,140686.9531250000,164959.3125000000,161284.0468750000,,,
2.3159999961,18,179280.7187500000,165845.3750000000,193632.0468750000,180319.3906250000,168093.2031250000,140705.0625000000,165000.9062500000,161062.0625000000,,,
2.3199999961,18,179299.8750000000,165864.4687500000,193670.7031250000,180322.6093750000,168129.0937500000,140739.3906250000,165036.1562500000,160397.5625000000,,,
2.3239999961,18,179290.1093750000,165857.0468750000,193668.7968750000,180305.2031250000,168124.6093750000,140715.8437500000,165014.5156250000,160178.1718750000,,,
2.3279999963,18,179238.5312500000,165792.9687500000,193594.1718750000,180281.7343750000,168055.5781250000,140665.0156250000,164966.1562500000,160749.3437500000,,,
2.3319999962,18,179254.5468750000,165806.7500000000,193607.2656250000,180297.8437500000,168070.8906250000,140703.4531250000,165017.0781250000,161315.0781250000,,,
2.3359999962,18,179302.6406250000,165848.2812500000,193668.2031250000,180342.1250000000,168123.2656250000,140732.0625000000,165060.7500000000,161101.9687500000,,,
2.3399999961,18,179315.2500000000,165872.1406250000,193671.7187500000,180325.4218750000,168126.2187500000,140744.6406250000,165065.7968750000,160429.2968750000,,,
2.3439999961,18,179298.0000000000,165864.3750000000,193670.3437500000,180297.2500000000,168132.5000000000,140729.6562500000,165081.1875000000,160210.8906250000,,,
2.3479999963,18,179283.9218750000,165874.6093750000,193646.3750000000,180311.7656250000,168104.3906250000,140734.5312500000,165016.2031250000,160774.3125000000,,,
2.3519999962,18,179268.8437500000,165846.5781250000,193619.6562500000,180313.6406250000,168075.3750000000,140693.4375000000,165013.5468750000,161309.5156250000,,,
2.3559999962,18,179276.9687500000,165811.5312500000,193640.9218750000,180316.3750000000,168097.9843750000,140719.2968750000,165050.2656250000,161060.7500000000,,,
2.3599999961,18,179305.1875000000,165853.0468750000,193692.6406250000,180321.5000000000,168153.6875000000,140740.6250000000,165080.1406250000,160358.1718750000,,,
2.3639999961,18,179290.2500000000,165845.8906250000,193684.0312500000,180285.8281250000,168147.2968750000,140695.3125000000,165050.9843750000,160106.2031250000,,,
2.3679999961,18,179249.2031250000,165805.3281250000,193621.2187500000,180276.9531250000,168085.0156250000,140673.0000000000,165029.3906250000,160635.5625000000,,,
2.3719999962,18,179279.2968750000,165833.5781250000,193659.9218750000,180307.7500000000,168117.3750000000,140704.3125000000,165078.1562500000,161171.6093750000,,,
2.3759999962,18,179322.7031250000,165879.7343750000,193714.8750000000,180312.4843750000,168158.8593750000,140704.4687500000,165068.9062500000,160959.1406250000,,,
2.3799999962,18,179310.5781250000,165894.8125000000,193658.7968750000,180322.0156250000,168126.4687500000,140727.8281250000,165098.7656250000,160288.7812500000,,,
2.3839999961,18,179275.2031250000,165847.5468750000,193640.9062500000,180293.2343750000,168106.6718750000,140637.1406250000,165043.0781250000,160045.6406250000,,,
2.3879999961,18,179275.2343750000,165849.2187500000,193676.0156250000,180254.8437500000,168139.3593750000,140713.2656250000,165101.9531250000,160566.7343750000,,,
2.3919999963,18,179273.1875000000,165827.3281250000,193688.0468750000,180289.4843750000,168139.6562500000,140662.8437500000,165083.0156250000,161109.2968750000,,,
2.3959999962,18,179267.9062500000,165823.5468750000,193620.7343750000,180315.2500000000,168079.2812500000,140666.4843750000,165035.2968750000,160909.7656250000,,,
2.3999999962,18,179297.5781250000,165870.0000000000,193644.5468750000,180322.7968750000,168107.6406250000,140694.0625000000,165006.1093750000,160264.9843750000,,,
2.4039999961,18,179272.5937500000,165831.1562500000,193656.2656250000,180263.2500000000,168114.0156250000,140713.6718750000,165048.9843750000,160045.3750000000,,,
2.4079999961,18,179230.3593750000,165791.2187500000,193619.4375000000,180231.2968750000,168084.2656250000,140629.3125000000,165051.5312500000,160623.8750000000,,,
2.4119999961,18,179224.7187500000,165803.3437500000,193572.6718750000,180251.5468750000,168035.7031250000,140626.9218750000,164975.0312500000,161184.3906250000,,,
2.4159999962,18,179289.5312500000,165850.1562500000,193655.2187500000,180318.2343750000,168113.9843750000,140694.1406250000,165085.5937500000,160968.2968750000,,,
2.4199999962,18,179393.6406250000,165939.8125000000,193825.1875000000,180403.3437500000,168274.5000000000,140766.6875000000,165200.8125000000,160275.5312500000,,,
2.4239999962,18,179321.1718750000,165876.3906250000,193701.6718750000,180387.4062500000,168149.0000000000,140698.8906250000,165038.3281250000,159996.4531250000,,,
2.4279999961,18,179239.1250000000,165811.6093750000,193642.4062500000,180249.6250000000,168093.4531250000,140591.7812500000,164980.8281250000,160524.4062500000,,,
2.4319999961,19,179238.4062500000,165815.5781250000,193628.3125000000,180239.9375000000,168100.8437500000,140660.9375000000,165141.4531250000,161109.7812500000,,,
2.4359999960,19,179299.2812500000,165866.4375000000,193695.5312500000,180323.5625000000,168150.5000000000,140662.5468750000,165143.9843750000,160935.2656250000,,,
2.4399999960,19,179271.9531250000,165844.7031250000,193605.3125000000,180321.6406250000,168044.7968750000,140659.5156250000,164920.3125000000,160266.8593750000,,,
2.4439999959,19,179254.4062500000,165821.4062500000,193639.1250000000,180265.9531250000,168091.9218750000,140667.1093750000,165100.0937500000,160007.1718750000,,,
2.4479999959,19,179300.7031250000,165857.6562500000,193724.2031250000,180288.3281250000,168187.4375000000,140705.9375000000,165177.4531250000,160539.1875000000,,,
2.4519999959,19,179285.5468750000,165858.6093750000,193641.3750000000,180337.7343750000,168098.7031250000,140633.3593750000,164977.9531250000,161117.6093750000,,,
2.4559999960,19,179323.2968750000,165897.0312500000,193681.1562500000,180370.0468750000,168124.5625000000,140624.1875000000,164996.9218750000,160932.3281250000,,,
2.4599999960,19,179286.5937500000,165832.4843750000,193647.7187500000,180298.3593750000,168100.6093750000,140698.5312500000,165086.9531250000,160245.2187500000,,,
2.4639999960,19,179263.8281250000,165811.2343750000,193668.2812500000,180244.5468750000,168126.3593750000,140668.0468750000,165127.2500000000,159979.3906250000,,,
2.4679999959,19,179277.8906250000,165833.7968750000,193716.4375000000,180286.4687500000,168156.5312500000,140650.5312500000,165027.2031250000,160493.8593750000,,,
2.4719999959,19,179256.0156250000,165841.7812500000,193597.5312500000,180290.4375000000,168048.2500000000,140649.4062500000,164951.1562500000,161054.0468750000,,,
2.4759999961,19,179330.9687500000,165894.8437500000,193733.0000000000,180281.8125000000,168189.4687500000,140731.5781250000,165121.8750000000,160898.3437500000,,,
2.4799999960,19,179291.5156250000,165860.0781250000,193656.8281250000,180279.6875000000,168109.1562500000,140709.0468750000,165051.9843750000,160254.1250000000,,,
2.4839999960,19,179271.2343750000,165836.3437500000,193653.5937500000,180271.8281250000,168103.2343750000,140647.9218750000,165113.2187500000,159995.6093750000,,,
2.4879999959,19,179214.9843750000,165801.4218750000,193566.1406250000,180236.3125000000,168020.1406250000,140520.6250000000,165033.7343750000,160536.4062500000,,,
2.4919999959,19,179239.2812500000,165801.3906250000,193635.5312500000,180258.9531250000,168088.5156250000,140629.2343750000,165051.3906250000,161130.1093750000,,,
2.4959999959,19,179324.3437500000,165896.4218750000,193745.4843750000,180327.4843750000,168199.8750000000,140728.3437500000,165122.2343750000,160966.2812500000,,,
2.4999999960,19,179321.0468750000,165884.7500000000,193710.8593750000,180334.0312500000,168156.7968750000,140758.7343750000,165038.9531250000,160281.5312500000,,,
2.5039999960,19,179254.0937500000,165824.9062500000,193577.4062500000,180300.8281250000,168021.8593750000,140660.2343750000,164884.6875000000,159990.6562500000,,,
2.5079999960,19,179216.4843750000,165770.3281250000,193593.1875000000,180260.0000000000,168036.0781250000,140587.8906250000,164944.6875000000,160484.2343750000,,,
2.5119999959,19,179228.0937500000,165794.0156250000,193576.3906250000,180281.2968750000,168033.0625000000,140616.4062500000,165018.8281250000,161022.8750000000,,,
2.5159999959,19,179304.4062500000,165881.6093750000,193654.5000000000,180328.9062500000,168117.0000000000,140647.8437500000,165219.5156250000,160808.1875000000,,,
2.5199999961,19,179339.5781250000,165918.1250000000,193731.2968750000,180342.1250000000,168184.9375000000,140475.7500000000,165131.3750000000,160134.3593750000,,,
2.5239999960,19,179313.0937500000,165884.4531250000,193713.4843750000,180331.2968750000,168160.7656250000,140560.1406250000,164950.6406250000,159832.9375000000,,,
2.5279999960,19,179302.1250000000,165889.3437500000,193684.8125000000,180318.9843750000,168136.6875000000,140856.9218750000,165102.3593750000,160316.3281250000,,,
2.5319999959,19,179291.4531250000,165877.2500000000,193651.5468750000,180308.5468750000,168092.1250000000,140686.3125000000,165026.7343750000,160874.2031250000,,,
2.5359999959,19,179299.2031250000,165880.5156250000,193672.4687500000,180359.2500000000,168109.2656250000,140610.7812500000,165003.8281250000,160711.7656250000,,,
2.5399999958,19,179334.1562500000,165898.1718750000,193690.5156250000,180395.3437500000,168142.9062500000,140626.4687500000,165170.0468750000,160066.9843750000,,,
2.5439999960,19,179294.2656250000,165849.0468750000,193680.5625000000,180334.2187500000,168129.2187500000,140709.6718750000,165135.0468750000,159780.8750000000,,,
2.5479999960,19,179243.3906250000,165815.9843750000,193592.5625000000,180253.1406250000,168039.9843750000,140729.2968750000,164952.0156250000,160291.5937500000,,,
2.5519999960,19,179283.3281250000,165846.4843750000,193687.4687500000,180263.6250000000,168139.5312500000,140530.9843750000,165080.8437500000,160836.2187500000,,,
2.5559999959,19,179306.7968750000,165878.8750000000,193700.7187500000,180296.2031250000,168140.6250000000,140476.9375000000,164995.3281250000,160656.8593750000,,,
2.5599999959,20,179317.3593750000,165904.4062500000,193671.7187500000,180319.8437500000,168113.1562500000,140696.4218750000,165013.2968750000,159987.6406250000,,,
2.5639999958,20,179284.2656250000,165823.1718750000,193680.8125000000,180287.0156250000,168136.4687500000,140750.8437500000,165052.3906250000,159684.3750000000,,,
2.5679999958,20,179237.6562500000,165798.1718750000,193595.1875000000,180270.4375000000,168040.9218750000,140690.7656250000,164879.3281250000,160188.2500000000,,,
2.5719999957,20,179238.5312500000,165817.3750000000,193587.0156250000,180264.1093750000,168025.2343750000,140637.5937500000,165004.2656250000,160744.8593750000,,,
2.5759999957,20,179320.3906250000,165884.4062500000,193726.7812500000,180302.2187500000,168180.4843750000,140678.2812500000,165290.9687500000,160572.9843750000,,,
2.5799999957,20,179318.0312500000,165887.8437500000,193720.1250000000,180321.8281250000,168164.9531250000,140689.2812500000,165012.6875000000,159924.7500000000,,,
2.5839999958,20,179292.1718750000,165881.0468750000,193685.6406250000,180303.8281250000,168129.3593750000,140705.4375000000,165023.9531250000,159636.8750000000,,,
2.5879999958,20,179279.9687500000,165862.7656250000,193697.2500000000,180305.2187500000,168149.9062500000,140654.1406250000,165202.1093750000,160135.6718750000,,,
2.5919999958,20,179273.4375000000,165886.9843750000,193595.4687500000,180330.3281250000,168033.1250000000,140597.1562500000,164936.4062500000,160711.5000000000,,,
2.5959999957,20,179285.7343750000,165841.7500000000,193650.0468750000,180332.7656250000,168098.6562500000,140684.4843750000,165031.5625000000,160530.7187500000,,,
2.5999999957,20,179330.5937500000,165868.0625000000,193770.1250000000,180343.2031250000,168207.1718750000,140669.9687500000,165057.5937500000,159835.9218750000,,,
2.6039999959,20,179309.1093750000,165865.5156250000,193706.1875000000,180330.1875000000,168142.8593750000,140756.0156250000,164962.1875000000,159522.2031250000,,,
2.6079999958,20,179245.1093750000,165819.3593750000,193599.2968750000,180285.2656250000,168035.4218750000,140630.1406250000,164913.4687500000,160022.7343750000,,,
2.6119999958,20,179274.8593750000,165875.9531250000,193627.6562500000,180295.1718750000,168076.3906250000,140580.3125000000,165012.0468750000,160644.5937500000,,,
2.6159999957,20,179281.8593750000,165846.3906250000,193663.2500000000,180309.5468750000,168133.3593750000,140659.6406250000,165273.6718750000,160528.7343750000,,,
2.6199999957,20,179290.2812500000,165869.8125000000,193614.9062500000,180344.1406250000,168056.8593750000,140668.9531250000,164908.6093750000,159861.9843750000,,,
2.6239999956,20,179270.0000000000,165844.8437500000,193617.4531250000,180293.3750000000,168065.6562500000,140666.9375000000,165042.0312500000,159543.8750000000,,,
2.6279999958,20,179263.7968750000,165830.3593750000,193686.1250000000,180265.8281250000,168118.8437500000,140646.3750000000,164870.0000000000,160074.2031250000,,,
2.6319999958,20,179238.8281250000,165832.3125000000,193594.7187500000,180261.9375000000,168029.4218750000,140620.5937500000,164806.0156250000,160720.6406250000,,,
2.6359999957,20,179253.4687500000,165812.6093750000,193609.7656250000,180290.5000000000,168051.2343750000,140687.9375000000,165040.6562500000,160599.9687500000,,,
2.6399999957,20,179294.4843750000,165837.5937500000,193702.0312500000,180315.3906250000,168140.4843750000,140600.0156250000,165114.3750000000,159934.0312500000,,,
2.6439999957,20,179305.1875000000,165875.5000000000,193720.0000000000,180304.5000000000,168161.3281250000,140657.0156250000,164986.0781250000,159606.3750000000,,,
2.6479999959,20,179265.0156250000,165847.3906250000,193570.5156250000,180278.8281250000,168034.3906250000,140702.0781250000,164959.0625000000,160089.2031250000,,,
2.6519999958,20,179254.3125000000,165837.5000000000,193557.4062500000,180280.5000000000,168022.6875000000,140650.2031250000,164983.7187500000,160708.6562500000,,,
2.6559999958,20,179273.5312500000,165806.6406250000,193653.4843750000,180306.2187500000,168104.6250000000,140685.7187500000,165029.1875000000,160572.5000000000,,,
2.6599999957,20,179304.5156250000,165835.3125000000,193681.8906250000,180335.1093750000,168127.6406250000,140702.2968750000,164926.3125000000,159902.2500000000,,,
2.6639999957,20,179279.6875000000,165838.9375000000,193643.2656250000,180296.6718750000,168104.5781250000,140678.7187500000,165005.4375000000,159563.7187500000,,,
2.6679999956,20,179265.8125000000,165838.5625000000,193623.6562500000,180262.1406250000,168070.5468750000,140721.4218750000,165021.0000000000,160042.3593750000,,,
2.6719999958,20,179287.4062500000,165859.3593750000,193651.9531250000,180278.6093750000,168093.7343750000,140734.3437500000,164985.8125000000,160629.9218750000,,,
2.6759999958,20,179316.0000000000,165904.8750000000,193667.6875000000,180357.1718750000,168116.0781250000,140692.4531250000,164998.7656250000,160513.1406250000,,,
2.6799999957,20,179321.4218750000,165890.7343750000,193675.4218750000,180372.8125000000,168134.1875000000,140670.1875000000,165125.6093750000,159818.0468750000,,,
2.6839999957,20,179315.5625000000,165866.7812500000,193715.2031250000,180333.0156250000,168165.4843750000,140752.5000000000,165074.9062500000,159464.1093750000,,,
2.6879999957,21,179279.6562500000,165865.8750000000,193632.1250000000,180313.8906250000,168073.6718750000,140705.9687500000,164863.9375000000,159956.6875000000,,,
2.6919999956,21,179276.4375000000,165872.3281250000,193612.9531250000,180292.2656250000,168061.0468750000,140819.0312500000,165024.0000000000,160575.9375000000,,,
2.6959999956,21,179322.9687500000,165909.3437500000,193693.3906250000,180322.7031250000,168126.6250000000,140761.6718750000,165033.8281250000,160454.6250000000,,,
2.6999999955,21,179293.6250000000,165839.5000000000,193682.4531250000,180316.5156250000,168124.9375000000,140707.8125000000,165026.2656250000,159759.7187500000,,,
2.7039999955,21,179304.4687500000,165899.9843750000,193636.2343750000,180328.3906250000,168085.5000000000,140719.5156250000,164956.9843750000,159415.3906250000,,,
2.7079999954,21,179306.9062500000,165891.9687500000,193671.9843750000,180316.6562500000,168107.3906250000,140660.2031250000,164979.5625000000,159895.7031250000,,,
2.7119999956,21,179280.1093750000,165814.9062500000,193649.5312500000,180307.0937500000,168092.7968750000,140807.8437500000,165052.9218750000,160478.1406250000,,,
2.7159999956,21,179277.6875000000,165825.7968750000,193607.5937500000,180314.9843750000,168068.5468750000,140802.3906250000,164948.8750000000,160350.1406250000,,,
2.7199999955,21,179307.6562500000,165863.2968750000,193649.3281250000,180314.9843750000,168109.2500000000,140798.8593750000,165024.2968750000,159647.5937500000,,,
2.7239999955,21,179313.4218750000,165880.3281250000,193685.7500000000,180305.6250000000,168127.8281250000,140775.5937500000,164983.3125000000,159320.9375000000,,,
2.7279999955,21,179280.0312500000,165857.8750000000,193619.9218750000,180301.1718750000,168066.0000000000,140762.1093750000,164908.2187500000,159805.6093750000,,,
2.7319999957,21,179266.2968750000,165851.8906250000,193625.3750000000,180284.0937500000,168080.0000000000,140692.8281250000,164992.3750000000,160389.7968750000,,,
2.7359999956,21,179293.9218750000,165876.8750000000,193665.2500000000,180309.6250000000,168106.8281250000,140762.0468750000,164989.3281250000,160311.9062500000,,,
2.7399999956,21,179300.7031250000,165861.4218750000,193660.5625000000,180337.2500000000,168097.8750000000,140804.0000000000,165019.0468750000,159710.2500000000,,,
2.7439999955,21,179291.9687500000,165874.1093750000,193637.5000000000,180316.8593750000,168085.1562500000,140782.2187500000,165029.0000000000,159394.1093750000,,,
2.7479999955,21,179259.5156250000,165875.8281250000,193568.6875000000,180290.6875000000,168024.9687500000,140690.8906250000,164963.1406250000,159882.2656250000,,,
2.7519999954,21,179243.3125000000,165835.4062500000,193533.3906250000,180307.3750000000,167977.0156250000,140673.7343750000,164869.8906250000,160498.6562500000,,,
2.7559999956,21,179279.7031250000,165839.2343750000,193617.4531250000,180346.9843750000,168053.3437500000,140824.8906250000,164982.1875000000,160420.2812500000,,,
2.7599999956,21,179293.2500000000,165854.4375000000,193665.1250000000,180318.3906250000,168095.3437500000,140809.2656250000,165017.1093750000,159798.3437500000,,,
2.7639999955,21,179271.3437500000,165839.8281250000,193636.8281250000,180273.3281250000,168091.6406250000,140771.1718750000,165017.8125000000,159457.1562500000,,,
2.7679999955,21,179274.8750000000,165845.4375000000,193643.9531250000,180282.5000000000,168094.9531250000,140785.4687500000,165013.0625000000,159941.3281250000,,,
2.7719999955,21,179247.9218750000,165830.2187500000,193563.2187500000,180305.9687500000,168005.0156250000,140737.2656250000,164917.3906250000,160542.5156250000,,,
2.7759999956,21,179300.9218750000,165874.7187500000,193660.5625000000,180321.3437500000,168100.6093750000,140762.3281250000,165034.8437500000,160436.4375000000,,,
2.7799999956,21,179309.2343750000,165885.9843750000,193659.5625000000,180318.0156250000,168098.2500000000,140795.6562500000,165012.3125000000,159771.7343750000,,,
2.7839999956,21,179279.5937500000,165860.1250000000,193622.5000000000,180311.0625000000,168069.2812500000,140771.5781250000,164903.3906250000,159419.6093750000,,,
2.7879999955,21,179260.2031250000,165849.7031250000,193589.2343750000,180279.5000000000,168036.1250000000,140750.1718750000,164944.6718750000,159871.3750000000,,,
2.7919999955,21,179270.2343750000,165845.8281250000,193623.3593750000,180307.6562500000,168069.5000000000,140786.1093750000,165044.3437500000,160466.3906250000,,,
2.7959999954,21,179296.4218750000,165868.3906250000,193638.8125000000,180333.5937500000,168083.7031250000,140788.5312500000,165011.1562500000,160359.5625000000,,,
2.7999999956,21,179305.5312500000,165864.4531250000,193683.3281250000,180320.7031250000,168120.1875000000,140808.7187500000,164982.8281250000,159687.5625000000,,,
2.8039999956,21,179270.7500000000,165836.9531250000,193625.8593750000,180294.5937500000,168062.7031250000,140786.8593750000,164942.2187500000,159348.9375000000,,,
2.8079999955,21,179266.2656250000,165832.7968750000,193632.3906250000,180280.8125000000,168071.4843750000,140730.8125000000,164996.8593750000,159811.5000000000,,,
2.8119999955,21,179275.5468750000,165839.6718750000,193625.2968750000,180300.1562500000,168064.0468750000,140769.0000000000,165012.5000000000,160429.8125000000,,,
2.8159999955,22,179280.1406250000,165844.4375000000,193607.1875000000,180319.5468750000,168049.4375000000,140786.5625000000,164973.1718750000,160357.6093750000,,,
2.8199999954,22,179288.2031250000,165833.7968750000,193634.9687500000,180315.8906250000,168081.2968750000,140800.7656250000,164977.5781250000,159737.4843750000,,,
2.8239999954,22,179285.7343750000,165835.6406250000,193640.1250000000,180301.0156250000,168092.9687500000,140796.7656250000,164996.2968750000,159406.3593750000,,,
2.8279999953,22,179271.2656250000,165838.9687500000,193625.8281250000,180275.6406250000,168078.7812500000,140786.2812500000,165001.2343750000,159838.2968750000,,,
2.8319999953,22,179278.9843750000,165852.3281250000,193639.0468750000,180282.8593750000,168082.2343750000,140775.9218750000,164921.1406250000,160457.3593750000,,,
2.8359999952,22,179284.8593750000,165859.2187500000,193615.1250000000,180318.7656250000,168072.3906250000,140779.2656250000,164991.6875000000,160375.5468750000,,,
2.8399999954,22,179297.6718750000,165858.1250000000,193641.8906250000,180345.1093750000,168092.9062500000,140799.4375000000,164997.7656250000,159754.3750000000,,,
2.8439999954,22,179282.2500000000,165847.1250000000,193631.5312500000,180326.5781250000,168091.0625000000,140781.7656250000,165046.8906250000,159426.9375000000,,,
2.8479999953,22,179242.7500000000,165829.5468750000,193559.2500000000,180278.9687500000,168017.0781250000,140737.8281250000,164967.7812500000,159903.5625000000,,,
2.8519999953,22,179247.1406250000,165827.1718750000,193573.8750000000,180286.6562500000,168027.5781250000,140754.9531250000,164924.6562500000,160525.8593750000,,,
2.8559999953,22,179302.5625000000,165871.5000000000,193655.3906250000,180340.2812500000,168103.5312500000,140801.5937500000,164974.1406250000,160447.3750000000,,,
2.8599999954,22,179287.7343750000,165849.2656250000,193630.5000000000,180315.7656250000,168084.1718750000,140789.6875000000,165022.7968750000,159806.0156250000,,,
2.8639999954,22,179292.5000000000,165850.4687500000,193665.0156250000,180307.0937500000,168120.3281250000,140786.2968750000,165050.8750000000,159436.9062500000,,,
2.8679999954,22,179286.7343750000,165843.1718750000,193650.2656250000,180353.5000000000,168091.7812500000,140761.1093750000,164962.6875000000,159872.9218750000,,,
2.8719999953,22,179287.6250000000,165849.9687500000,193628.1875000000,180316.1718750000,168078.9687500000,140773.7968750000,165008.3906250000,160484.8437500000,,,
2.8759999953,22,179303.5781250000,165865.2500000000,193649.3750000000,180280.1250000000,168089.0000000000,140788.4687500000,165020.9687500000,160434.8281250000,,,
2.8799999952,22,179303.4375000000,165851.8906250000,193667.5312500000,180285.5312500000,168106.5937500000,140793.2187500000,165014.3281250000,159807.9375000000,,,
2.8839999954,22,179286.5156250000,165840.7187500000,193647.7968750000,180273.2031250000,168094.1093750000,140783.5937500000,165024.4843750000,159435.2500000000,,,
2.8879999954,22,179284.2187500000,165851.3125000000,193628.7812500000,180273.7812500000,168081.5312500000,140787.6406250000,165034.9687500000,159867.9375000000,,,
2.8919999953,22,179283.5937500000,165851.0312500000,193625.6718750000,180275.1562500000,168070.5468750000,140782.2187500000,164991.4687500000,160491.5312500000,,,
2.8959999953,22,179290.7500000000,165852.6406250000,193636.0156250000,180300.5625000000,168081.5937500000,140757.0625000000,164990.0000000000,160469.4531250000,,,
2.8999999953,22,179315.2968750000,165878.6406250000,193667.3125000000,180324.4062500000,168115.5937500000,140782.1093750000,165035.7812500000,159832.1562500000,,,
2.9039999954,22,179296.3906250000,165858.5468750000,193657.4531250000,180308.1250000000,168098.4062500000,140767.1718750000,165009.2031250000,159461.7500000000,,,
2.9079999954,22,179266.5625000000,165837.2187500000,193635.1406250000,180280.6250000000,168078.4218750000,140739.5781250000,164984.3125000000,159930.7031250000,,,
2.9119999954,22,179265.0312500000,165833.9062500000,193607.1250000000,180292.4062500000,168055.7031250000,140734.5000000000,165018.4531250000,160560.8281250000,,,
2.9159999953,22,179302.2968750000,165872.5156250000,193647.6093750000,180330.6250000000,168097.6250000000,140768.5937500000,164997.9687500000,160501.0781250000,,,
2.9199999953,22,179303.5000000000,165872.3281250000,193644.6875000000,180332.5468750000,168096.8593750000,140771.6875000000,164990.1562500000,159855.9531250000,,,
2.9239999952,22,179284.7500000000,165850.1562500000,193632.2968750000,180297.6875000000,168085.6718750000,140746.5000000000,165010.2656250000,159456.8437500000,,,
2.9279999954,22,179265.8906250000,165828.1093750000,193608.7343750000,180276.6093750000,168064.9375000000,140720.3437500000,165014.2500000000,159871.0312500000,,,
2.9319999954,22,179278.0468750000,165835.4218750000,193627.1875000000,180295.8125000000,168081.7031250000,140717.7500000000,165002.0625000000,160476.3125000000,,,
2.9359999953,22,179308.5937500000,165858.7968750000,193663.1875000000,180330.2812500000,168114.8281250000,140730.6406250000,165046.2343750000,160419.8906250000,,,
2.9399999953,22,179336.2500000000,165893.2812500000,193686.0468750000,180363.2343750000,168138.2187500000,140766.3125000000,165066.5781250000,159795.6875000000,,,
2.9439999952,23,179324.5468750000,165892.0000000000,193672.5000000000,180358.2031250000,168121.9375000000,140765.1093750000,165051.6875000000,159425.8125000000,,,
