Time:250Hz,Epoch,Channel 1,Channel 2,Channel 3,Channel 4,Channel 5,Channel 6,Channel 7,Channel 8,Event Id,Event Date,Event Duration
0.0000000000,0,144533.0312500000,122724.4375000000,157709.0625000000,131181.9062500000,117247.2578125000,122936.5468750000,115018.3984375000,132640.9375000000,,,
0.0040000000,0,144528.9531250000,122721.0859375000,157706.2656250000,131183.7500000000,117243.1015625000,122931.2656250000,115012.3359375000,132638.1562500000,,,
0.0079999999,0,144533.2343750000,122726.2109375000,157712.6718750000,131196.0625000000,117247.9296875000,122937.6718750000,115018.4218750000,132643.8593750000,,,
0.0119999999,0,144543.2656250000,122737.1250000000,157724.6093750000,131214.7343750000,117258.5000000000,122946.3359375000,115028.6406250000,132655.6718750000,,,
0.0159999998,0,144533.2968750000,122727.0156250000,157717.2968750000,131207.0625000000,117248.1718750000,122930.2968750000,115013.8906250000,132645.9218750000,,,
0.0199999998,0,144527.0781250000,122721.7578125000,157712.1093750000,131197.5312500000,117240.4453125000,122919.5390625000,115007.8046875000,132640.2968750000,,,
0.0240000000,0,144529.2500000000,122724.5468750000,157711.4218750000,131188.3125000000,117241.4140625000,122925.1484375000,115009.7578125000,132642.4218750000,,,
0.0279999999,0,144536.8281250000,122731.1406250000,157715.8906250000,131198.8750000000,117247.7656250000,122936.9218750000,115015.1796875000,132648.3750000000,,,
0.0319999999,0,144541.2656250000,122731.9453125000,157718.3125000000,131205.8437500000,117250.4531250000,122938.5078125000,115021.0234375000,132648.8750000000,,,
0.0359999998,0,144543.9375000000,122732.5625000000,157720.2968750000,131207.7031250000,117253.2968750000,122936.8125000000,115023.6250000000,132649.3281250000,,,
0.0399999998,0,144538.9843750000,122729.4765625000,157715.5000000000,131203.3281250000,117251.3359375000,122933.6484375000,115019.1718750000,132646.3906250000,,,
0.0440000000,0,144538.6093750000,122730.4218750000,157713.5156250000,131201.3125000000,117252.9140625000,122938.8828125000,115019.0937500000,132647.6250000000,,,
0.0480000000,0,144543.7031250000,122736.2421875000,157716.5625000000,131213.7968750000,117256.7031250000,122947.6250000000,115024.0312500000,132653.2812500000,,,
0.0519999999,0,144556.2500000000,122747.5000000000,157728.5312500000,131231.0625000000,117267.2968750000,122964.1718750000,115037.3593750000,132664.4062500000,,,
0.0559999999,0,144551.3437500000,122741.0156250000,157726.5781250000,131232.7343750000,117264.9843750000,122958.1406250000,115034.3046875000,132658.0781250000,,,
0.0599999998,0,144539.5156250000,122727.9218750000,157719.5156250000,131228.8437500000,117254.5781250000,122939.0390625000,115020.8671875000,132645.2031250000,,,
0.0639999998,0,144544.5312500000,122733.0234375000,157727.7031250000,131237.7187500000,117259.3828125000,122940.3828125000,115022.1484375000,132649.7187500000,,,
0.0680000000,0,144561.1875000000,122751.2890625000,157745.9062500000,131258.9531250000,117274.1328125000,122956.4218750000,115031.7265625000,132668.4531250000,,,
0.0719999999,0,144568.3750000000,122761.6640625000,157752.2187500000,131251.9375000000,117279.9296875000,122964.9218750000,115035.1328125000,132678.9687500000,,,
0.0759999999,0,144568.9687500000,122760.9453125000,157749.0156250000,131226.6406250000,117280.3046875000,122966.1875000000,115041.6484375000,132678.9218750000,,,
0.0799999998,0,144562.0468750000,122753.4296875000,157739.1250000000,131199.6875000000,117274.3515625000,122961.4062500000,115040.6328125000,132670.9843750000,,,
0.0839999998,0,144564.1718750000,122756.2187500000,157739.4531250000,131213.9531250000,117276.1953125000,122963.2109375000,115043.5000000000,132673.6093750000,,,
0.0880000000,0,144566.2343750000,122754.2109375000,157738.8281250000,131216.5781250000,117276.8984375000,122965.9140625000,115043.1562500000,132671.5468750000,,,
0.0919999999,0,144566.5000000000,122752.6796875000,157739.6406250000,131215.7187500000,117278.0781250000,122966.1562500000,115045.1406250000,132670.5000000000,,,
0.0959999999,0,144559.8281250000,122747.4765625000,157734.4375000000,131198.0781250000,117273.0859375000,122960.3359375000,115041.8125000000,132665.9375000000,,,
0.0999999999,0,144552.1718750000,122740.1250000000,157728.1875000000,131202.5468750000,117266.9453125000,122951.0312500000,115033.7656250000,132658.7500000000,,,
0.1039999998,0,144537.2656250000,122727.0625000000,157715.6250000000,131177.8750000000,117252.4375000000,122936.6015625000,115018.9609375000,132645.2031250000,,,
0.1079999998,0,144538.4218750000,122729.4765625000,157719.6718750000,131174.0625000000,117253.5312500000,122938.8281250000,115018.9843750000,132647.1406250000,,,
0.1120000000,0,144546.0000000000,122739.4296875000,157729.5468750000,131189.8593750000,117259.8359375000,122952.5078125000,115026.6562500000,132657.4062500000,,,
0.1159999999,0,144550.8593750000,122746.7812500000,157737.7812500000,131208.9687500000,117264.9609375000,122954.6250000000,115030.4687500000,132664.8593750000,,,
0.1199999999,0,144546.9218750000,122743.1875000000,157735.2031250000,131210.0156250000,117261.5312500000,122944.6171875000,115024.1328125000,132661.6718750000,,,
0.1239999998,0,144534.0937500000,122732.2421875000,157721.7187500000,131199.9843750000,117245.6250000000,122933.8359375000,115010.3515625000,132650.5937500000,,,
0.1279999998,1,144543.3593750000,122740.4218750000,157729.0468750000,131205.6562500000,117251.3906250000,122946.2812500000,115018.7968750000,132658.0781250000,,,
0.1319999998,1,144561.7812500000,122757.0234375000,157747.3906250000,131224.2500000000,117268.8515625000,122964.4921875000,115034.0078125000,132674.7656250000,,,
0.1359999997,1,144574.9687500000,122768.8281250000,157761.2187500000,131248.8437500000,117284.2734375000,122969.0546875000,115047.8203125000,132687.5000000000,,,
0.1399999997,1,144574.2968750000,122766.5468750000,157758.8906250000,131241.7968750000,117284.9453125000,122961.9765625000,115048.2187500000,132684.6093750000,,,
0.1439999996,1,144571.2968750000,122764.6718750000,157755.4062500000,131222.6093750000,117282.9062500000,122962.7500000000,115042.0234375000,132682.8906250000,,,
0.1479999996,1,144569.9062500000,122760.7578125000,157753.6406250000,131208.1250000000,117282.4453125000,122965.6484375000,115040.2578125000,132679.0000000000,,,
0.1519999998,1,144578.7500000000,122765.0156250000,157763.4843750000,131221.7500000000,117293.1796875000,122973.5859375000,115048.8906250000,132683.2968750000,,,
0.1559999997,1,144586.7187500000,122771.3203125000,157771.6406250000,131238.3281250000,117301.8125000000,122983.0312500000,115060.4531250000,132689.2812500000,,,
0.1599999997,1,144566.2812500000,122752.4921875000,157750.9843750000,131224.3593750000,117281.5078125000,122967.7656250000,115042.8046875000,132670.3437500000,,,
0.1639999996,1,144558.3125000000,122745.7578125000,157742.5781250000,131215.5312500000,117275.7968750000,122961.8125000000,115035.6953125000,132663.6562500000,,,
0.1679999996,1,144565.7187500000,122753.0000000000,157750.0937500000,131235.4687500000,117283.1171875000,122966.1875000000,115035.4296875000,132671.4687500000,,,
0.1719999998,1,144568.2187500000,122751.0156250000,157749.3437500000,131226.2031250000,117282.3437500000,122963.4765625000,115035.9921875000,132669.7187500000,,,
0.1759999997,1,144564.2500000000,122741.4921875000,157740.6250000000,131209.2343750000,117276.1484375000,122952.4531250000,115038.0859375000,132659.7656250000,,,
0.1799999997,1,144557.4375000000,122732.9921875000,157732.5781250000,131203.0625000000,117268.6640625000,122941.4843750000,115031.4062500000,132651.9062500000,,,
0.1839999997,1,144559.0156250000,122736.9609375000,157732.2343750000,131205.3750000000,117268.1796875000,122947.2187500000,115028.0546875000,132655.7656250000,,,
0.1879999996,1,144561.6250000000,122743.8281250000,157732.3593750000,131201.5312500000,117268.6875000000,122959.2656250000,115030.0078125000,132662.5781250000,,,
0.1919999996,1,144578.2812500000,122764.6406250000,157749.5000000000,131226.1250000000,117285.3984375000,122977.8750000000,115046.9609375000,132683.1562500000,,,
0.1959999998,1,144580.3437500000,122773.3906250000,157756.0468750000,131238.2031250000,117290.3359375000,122981.3906250000,115050.9296875000,132691.9531250000,,,
0.1999999997,1,144566.1562500000,122763.4609375000,157746.3437500000,131225.5156250000,117279.1250000000,122970.4218750000,115043.6093750000,132682.0312500000,,,
0.2039999997,1,144546.9218750000,122750.2109375000,157730.8437500000,131218.1875000000,117258.6875000000,122959.9375000000,115027.5156250000,132668.2968750000,,,
0.2079999996,1,144542.5000000000,122746.6718750000,157728.3437500000,131219.5312500000,117253.8828125000,122956.5859375000,115020.3281250000,132665.0781250000,,,
0.2119999996,1,144550.6250000000,122751.5546875000,157739.0156250000,131244.0000000000,117262.8671875000,122959.9062500000,115025.0234375000,132669.7500000000,,,
0.2159999998,1,144562.9375000000,122760.4062500000,157752.6718750000,131238.3281250000,117273.7031250000,122965.9687500000,115036.2578125000,132678.5937500000,,,
0.2199999997,1,144564.8593750000,122760.1093750000,157756.0156250000,131234.3593750000,117274.9921875000,122962.8593750000,115033.5468750000,132678.8593750000,,,
0.2239999997,1,144567.7031250000,122761.8515625000,157759.1875000000,131242.2812500000,117278.4765625000,122966.6640625000,115030.3046875000,132680.1562500000,,,
0.2279999997,1,144573.8750000000,122768.9609375000,157764.3437500000,131248.5781250000,117284.9140625000,122978.2265625000,115034.5390625000,132687.2343750000,,,
0.2319999996,1,144579.9062500000,122770.9218750000,157766.7812500000,131253.9375000000,117292.3750000000,122983.4062500000,115042.6953125000,132689.0000000000,,,
0.2359999996,1,144567.5781250000,122754.7734375000,157750.2343750000,131223.0156250000,117280.0625000000,122968.6484375000,115035.1328125000,132673.0156250000,,,
0.2399999998,1,144548.8750000000,122741.1484375000,157731.6875000000,131192.4062500000,117261.7968750000,122954.7343750000,115024.1093750000,132659.7656250000,,,
0.2439999997,1,144540.9375000000,122735.9687500000,157724.9375000000,131188.8750000000,117255.2265625000,122951.8906250000,115020.1953125000,132654.1093750000,,,
0.2479999997,1,144547.7031250000,122746.2968750000,157734.3750000000,131205.4531250000,117264.1562500000,122967.6875000000,115022.4218750000,132664.8437500000,,,
0.2519999996,1,144542.9687500000,122742.4843750000,157731.7187500000,131205.1875000000,117258.8437500000,122968.1406250000,115014.8281250000,132661.7343750000,,,
0.2559999996,2,144533.1562500000,122730.0390625000,157722.4687500000,131197.9375000000,117248.7031250000,122953.9765625000,115005.1953125000,132649.3593750000,,,
0.2599999995,2,144512.9843750000,122709.1250000000,157703.1875000000,131171.9687500000,117227.0859375000,122927.6640625000,114984.8437500000,132628.2500000000,,,
0.2639999995,2,144518.7500000000,122713.1953125000,157708.2187500000,131178.1093750000,117230.2265625000,122928.8515625000,114987.3359375000,132632.7812500000,,,
0.2679999995,2,144547.7031250000,122738.5156250000,157734.5156250000,131208.1562500000,117258.3906250000,122956.1796875000,115013.5156250000,132658.1562500000,,,
0.2719999994,2,144564.8906250000,122755.6328125000,157749.7968750000,131232.0000000000,117273.8359375000,122975.0390625000,115030.1953125000,132674.1250000000,,,
0.2759999994,2,144559.9531250000,122750.2109375000,157743.3125000000,131221.1875000000,117269.9218750000,122970.6640625000,115029.8515625000,132668.0000000000,,,
0.2799999996,2,144547.6406250000,122735.9687500000,157729.4375000000,131210.2812500000,117257.6953125000,122955.2421875000,115022.6875000000,132654.2656250000,,,
0.2839999995,2,144535.7656250000,122727.3593750000,157718.4375000000,131198.9531250000,117244.3906250000,122944.9140625000,115013.0312500000,132645.2031250000,,,
0.2879999995,2,144539.0937500000,122736.1875000000,157721.7187500000,131207.2968750000,117245.5703125000,122959.0468750000,115014.1562500000,132653.3125000000,,,
0.2919999994,2,144548.3750000000,122748.8750000000,157731.4531250000,131213.9218750000,117255.3046875000,122976.6718750000,115022.6093750000,132666.4531250000,,,
0.2959999994,2,144549.0937500000,122748.8984375000,157736.2500000000,131220.2031250000,117257.5078125000,122975.5156250000,115023.0390625000,132667.3906250000,,,
0.2999999996,2,144540.5937500000,122738.2500000000,157730.3593750000,131213.9218750000,117251.2578125000,122966.4531250000,115015.4453125000,132656.5312500000,,,
0.3039999995,2,144541.0468750000,122738.0859375000,157729.9531250000,131212.6875000000,117253.1328125000,122971.0937500000,115014.9921875000,132656.6562500000,,,
0.3079999995,2,144547.5156250000,122737.0937500000,157731.3125000000,131216.6875000000,117259.5390625000,122971.8984375000,115019.2578125000,132655.4843750000,,,
0.3119999995,2,144567.8906250000,122749.0859375000,157748.2968750000,131236.7500000000,117281.6406250000,122979.9453125000,115035.5625000000,132667.7343750000,,,
0.3159999994,2,144556.6250000000,122739.2421875000,157738.0781250000,131228.0625000000,117265.8750000000,122968.2500000000,115025.1250000000,132657.6250000000,,,
0.3199999994,2,144537.5000000000,122726.3125000000,157723.2187500000,131210.0156250000,117246.4531250000,122950.3046875000,115009.6484375000,132644.5937500000,,,
0.3239999996,2,144530.5781250000,122725.0781250000,157719.8437500000,131206.9218750000,117240.8203125000,122949.3437500000,115003.1875000000,132643.2500000000,,,
0.3279999995,2,144540.6718750000,122735.4375000000,157731.7812500000,131212.9062500000,117254.0937500000,122962.9687500000,115011.1015625000,132653.6562500000,,,
0.3319999995,2,144551.2031250000,122745.0937500000,157743.2031250000,131213.0468750000,117266.7578125000,122972.8593750000,115019.0625000000,132663.7343750000,,,
0.3359999994,2,144548.6562500000,122744.7968750000,157741.7031250000,131210.1718750000,117263.8359375000,122971.6796875000,115016.4921875000,132663.3906250000,,,
0.3399999994,2,144546.5937500000,122744.2890625000,157738.7968750000,131197.7968750000,117262.6015625000,122964.8984375000,115014.3437500000,132663.3125000000,,,
0.3439999996,2,144536.3750000000,122731.7578125000,157726.6718750000,131186.0000000000,117251.9218750000,122950.1718750000,115004.0703125000,132650.7500000000,,,
0.3479999995,2,144549.7656250000,122743.6953125000,157737.8593750000,131204.5625000000,117264.4218750000,122965.1640625000,115013.9140625000,132662.5781250000,,,
0.3519999995,2,144565.2187500000,122759.0625000000,157751.5468750000,131219.0781250000,117276.6796875000,122985.2265625000,115026.4140625000,132677.8750000000,,,
0.3559999994,2,144567.2812500000,122760.2734375000,157751.8437500000,131218.1875000000,117277.1406250000,122986.8906250000,115033.7109375000,132679.0781250000,,,
0.3599999994,2,144561.8593750000,122756.3828125000,157747.4687500000,131202.5468750000,117271.9375000000,122977.2343750000,115031.6718750000,132674.9531250000,,,
0.3639999994,2,144549.1718750000,122746.6171875000,157735.2343750000,131183.7031250000,117257.8828125000,122966.6640625000,115020.3515625000,132664.4843750000,,,
0.3679999996,2,144550.4531250000,122752.4140625000,157738.7031250000,131191.3906250000,117258.3593750000,122974.6328125000,115019.3593750000,132669.6875000000,,,
0.3719999995,2,144568.8281250000,122768.6406250000,157759.3437500000,131219.7656250000,117278.0781250000,122988.7968750000,115032.9296875000,132687.6093750000,,,
0.3759999995,2,144578.8125000000,122773.2265625000,157768.6562500000,131233.1093750000,117288.6171875000,122989.8125000000,115041.5937500000,132691.8750000000,,,
0.3799999994,2,144570.0156250000,122764.4843750000,157760.3437500000,131237.7187500000,117280.9765625000,122973.9609375000,115032.5859375000,132683.2343750000,,,
0.3839999994,3,144566.2343750000,122762.7656250000,157758.3281250000,131251.0781250000,117278.1015625000,122971.5781250000,115027.2734375000,132681.7968750000,,,
0.3879999993,3,144566.6562500000,122763.3046875000,157757.2812500000,131229.3437500000,117278.1562500000,122981.5000000000,115029.9296875000,132681.4218750000,,,
0.3919999993,3,144570.6093750000,122766.8125000000,157762.0000000000,131231.3906250000,117282.7421875000,122991.1328125000,115037.0937500000,132684.8281250000,,,
0.3959999993,3,144573.4687500000,122770.1171875000,157768.9843750000,131247.1250000000,117287.6015625000,122988.6328125000,115037.1718750000,132688.8125000000,,,
0.3999999992,3,144560.9687500000,122759.0078125000,157756.2031250000,131204.7187500000,117274.1875000000,122975.7031250000,115026.6015625000,132677.3906250000,,,
0.4039999992,3,144548.5781250000,122743.4843750000,157738.3437500000,131174.9062500000,117260.5078125000,122965.9140625000,115021.1328125000,132661.9218750000,,,
0.4079999994,3,144551.1875000000,122743.3750000000,157736.6875000000,131184.3906250000,117263.2968750000,122970.8281250000,115023.9453125000,132661.4062500000,,,
0.4119999993,3,144563.6250000000,122753.1093750000,157748.0625000000,131197.0312500000,117274.7265625000,122983.6171875000,115034.1171875000,132671.6562500000,,,
0.4159999993,3,144566.6562500000,122754.1015625000,157752.9843750000,131203.1406250000,117279.0390625000,122983.8906250000,115037.8671875000,132673.0156250000,,,
0.4199999992,3,144561.7187500000,122750.0000000000,157750.6562500000,131204.0468750000,117277.2187500000,122974.5546875000,115033.0156250000,132669.4218750000,,,
0.4239999992,3,144556.9531250000,122745.8437500000,157746.9843750000,131192.3125000000,117273.4375000000,122966.7187500000,115027.8906250000,132664.9218750000,,,
0.4279999994,3,144567.1718750000,122755.0390625000,157755.8593750000,131203.5937500000,117282.1015625000,122977.9843750000,115036.8515625000,132673.3750000000,,,
0.4319999993,3,144573.7656250000,122760.0000000000,157760.6406250000,131204.9375000000,117285.9609375000,122985.2812500000,115041.4062500000,132677.8437500000,,,
0.4359999993,3,144574.2812500000,122760.1093750000,157758.8437500000,131205.6093750000,117285.1015625000,122985.2265625000,115043.5312500000,132678.8593750000,,,
0.4399999992,3,144574.1406250000,122759.3046875000,157757.5781250000,131203.2031250000,117286.6093750000,122976.9687500000,115047.6328125000,132678.4062500000,,,
0.4439999992,3,144570.4375000000,122759.6796875000,157756.2343750000,131203.6562500000,117284.0078125000,122976.4609375000,115043.4765625000,132678.3906250000,,,
0.4479999992,3,144575.7031250000,122765.9843750000,157762.9218750000,131212.0937500000,117288.5937500000,122988.7968750000,115044.1718750000,132684.4531250000,,,
0.4519999993,3,144587.0468750000,122778.5625000000,157773.6250000000,131217.4687500000,117296.9296875000,123000.4062500000,115053.1328125000,132697.1093750000,,,
0.4559999993,3,144583.6406250000,122780.3593750000,157771.1250000000,131217.7031250000,117291.7812500000,122996.7890625000,115052.4296875000,132698.8437500000,,,
0.4599999993,3,144570.8437500000,122770.0625000000,157759.5156250000,131207.0000000000,117279.1796875000,122981.0156250000,115041.5156250000,132688.3125000000,,,
0.4639999992,3,144558.6875000000,122757.0000000000,157746.8437500000,131194.1093750000,117266.1406250000,122969.1328125000,115028.1875000000,132674.7031250000,,,
0.4679999992,3,144572.2656250000,122772.0468750000,157760.6875000000,131202.5312500000,117278.3437500000,122988.1250000000,115040.1484375000,132689.9218750000,,,
0.4719999994,3,144577.3125000000,122777.2265625000,157767.0000000000,131221.2812500000,117283.7109375000,122998.1015625000,115046.0234375000,132695.8125000000,,,
0.4759999993,3,144568.6250000000,122764.0234375000,157757.1562500000,131223.1250000000,117277.2187500000,122983.2734375000,115040.1718750000,132682.6250000000,,,
0.4799999993,3,144570.3906250000,122761.6406250000,157758.4062500000,131217.2812500000,117281.2421875000,122974.2812500000,115046.0234375000,132680.6093750000,,,
0.4839999992,3,144565.2656250000,122753.3515625000,157751.9218750000,131212.4531250000,117276.7343750000,122966.3984375000,115046.2656250000,132671.9531250000,,,
0.4879999992,3,144567.8906250000,122757.5625000000,157753.0468750000,131208.6718750000,117277.6484375000,122981.3125000000,115046.0234375000,132675.7343750000,,,
0.4919999992,3,144564.6718750000,122756.2734375000,157750.7656250000,131209.3437500000,117273.1718750000,122985.8437500000,115036.7421875000,132674.2343750000,,,
0.4959999993,3,144558.5625000000,122749.6796875000,157745.3437500000,131200.3593750000,117268.2578125000,122977.6640625000,115031.7500000000,132667.7968750000,,,
0.4999999993,3,144556.4375000000,122749.3046875000,157744.7500000000,131199.4062500000,117267.2421875000,122972.9140625000,115033.0390625000,132667.1250000000,,,
0.5039999993,3,144559.1718750000,122750.2656250000,157744.9687500000,131199.2812500000,117269.1484375000,122974.8750000000,115037.1171875000,132667.9531250000,,,
0.5079999992,3,144588.7812500000,122777.2265625000,157769.7343750000,131218.8906250000,117295.8046875000,123009.7421875000,115066.2500000000,132694.4531250000,,,
0.5119999992,4,144601.6406250000,122787.1484375000,157779.1718750000,131231.3906250000,117306.6953125000,123022.7812500000,115080.5390625000,132705.0156250000,,,
0.5159999991,4,144596.7343750000,122783.0156250000,157776.5468750000,131223.8281250000,117304.3906250000,123012.3750000000,115076.4375000000,132701.1250000000,,,
0.5199999991,4,144558.3750000000,122746.1640625000,157740.8906250000,131186.1562500000,117268.2343750000,122965.9687500000,115035.6718750000,132665.2343750000,,,
0.5239999990,4,144532.7031250000,122720.2500000000,157716.2187500000,131163.8437500000,117243.9843750000,122935.3359375000,115003.7500000000,132639.3281250000,,,
0.5279999990,4,144520.8750000000,122712.0156250000,157704.0937500000,131142.9843750000,117228.2109375000,122936.8984375000,114987.7343750000,132629.7031250000,,,
0.5319999990,4,144574.5000000000,122767.8906250000,157757.9218750000,131195.5781250000,117280.7890625000,122997.0312500000,115047.4453125000,132685.2500000000,,,
0.5359999991,4,144612.0468750000,122803.0546875000,157797.9687500000,131248.8437500000,117320.4296875000,123028.0078125000,115088.8046875000,132721.1093750000,,,
0.5399999991,4,144600.0781250000,122794.5468750000,157789.9843750000,131243.5312500000,117310.6093750000,123014.8671875000,115077.4609375000,132713.0625000000,,,
0.5439999991,4,144587.3906250000,122785.0546875000,157778.1250000000,131235.7812500000,117298.7265625000,123005.6093750000,115066.9687500000,132702.9843750000,,,
0.5479999990,4,144585.9531250000,122783.9531250000,157773.3750000000,131231.7343750000,117295.5937500000,123014.2500000000,115068.0468750000,132701.7968750000,,,
0.5519999990,4,144592.1718750000,122788.4609375000,157779.5937500000,131236.2968750000,117300.6328125000,123022.9140625000,115071.1796875000,132706.8437500000,,,
0.5559999992,4,144588.9531250000,122783.8203125000,157778.0781250000,131230.0937500000,117298.3281250000,123014.1406250000,115062.0859375000,132702.7343750000,,,
0.5599999991,4,144594.1562500000,122784.4140625000,157784.2187500000,131235.7343750000,117304.3593750000,123005.2343750000,115069.4140625000,132703.7031250000,,,
0.5639999991,4,144593.6406250000,122782.1328125000,157782.5468750000,131226.8593750000,117303.6953125000,123004.8593750000,115071.6640625000,132701.0156250000,,,
0.5679999990,4,144594.0468750000,122785.8828125000,157782.7031250000,131233.0781250000,117301.3281250000,123015.9921875000,115068.2031250000,132704.2968750000,,,
0.5719999990,4,144606.2031250000,122798.7890625000,157794.5625000000,131249.0156250000,117313.2656250000,123032.9687500000,115080.1953125000,132716.7656250000,,,
0.5759999990,4,144612.9062500000,122805.0078125000,157801.5937500000,131244.3906250000,117320.8593750000,123042.4140625000,115089.8515625000,132723.0156250000,,,
0.5799999991,4,144603.5468750000,122795.2734375000,157792.4531250000,131233.0781250000,117312.6796875000,123033.8281250000,115083.3828125000,132713.5468750000,,,
0.5839999991,4,144591.7656250000,122782.0468750000,157779.5781250000,131213.6875000000,117301.8671875000,123021.9765625000,115076.1406250000,132700.2500000000,,,
0.5879999991,4,144599.6718750000,122789.9609375000,157785.6562500000,131217.6875000000,117307.3125000000,123037.6406250000,115086.1250000000,132707.6718750000,,,
0.5919999990,4,144610.1875000000,122800.7734375000,157793.6562500000,131222.8281250000,117315.5468750000,123064.0078125000,115095.3750000000,132717.9218750000,,,
0.5959999990,4,144616.5000000000,122803.4296875000,157796.8750000000,131225.1875000000,117320.0546875000,123079.1015625000,115107.0703125000,132720.8437500000,,,
0.5999999992,4,144617.2187500000,122797.8203125000,157793.5781250000,131221.0312500000,117319.2187500000,123070.9218750000,115115.5703125000,132715.5625000000,,,
0.6039999991,4,144622.9375000000,122800.6953125000,157795.8593750000,131219.1562500000,117323.2187500000,123073.7421875000,115124.2890625000,132718.0468750000,,,
0.6079999991,4,144634.3906250000,122814.1562500000,157805.2656250000,131216.8750000000,117330.9453125000,123098.5234375000,115131.9062500000,132730.4531250000,,,
0.6119999990,4,144647.9843750000,122827.7578125000,157816.8750000000,131219.1250000000,117341.7812500000,123121.5390625000,115144.3281250000,132743.9375000000,,,
0.6159999990,4,144653.3437500000,122833.0937500000,157822.2500000000,131224.6875000000,117346.5234375000,123127.0937500000,115152.2343750000,132749.2500000000,,,
0.6199999989,4,144653.2343750000,122835.6718750000,157824.6562500000,131222.0781250000,117347.1406250000,123126.9062500000,115152.4531250000,132752.0156250000,,,
0.6239999991,4,144645.9531250000,122827.5703125000,157815.4062500000,131203.1406250000,117339.5781250000,123120.3281250000,115143.2500000000,132743.3281250000,,,
0.6279999991,4,144653.5312500000,122835.1562500000,157821.2812500000,131204.1093750000,117345.6171875000,123133.5781250000,115151.0312500000,132750.8281250000,,,
0.6319999991,4,144665.4687500000,122845.8359375000,157832.0156250000,131216.8750000000,117355.8359375000,123149.9140625000,115170.4765625000,132761.8750000000,,,
0.6359999990,4,144661.0937500000,122840.1171875000,157827.8750000000,131214.7031250000,117352.2968750000,123146.6406250000,115171.4453125000,132756.1093750000,,,
0.6399999990,5,144652.5937500000,122834.0312500000,157823.5000000000,131216.9843750000,117346.6093750000,123136.4531250000,115163.7187500000,132750.4062500000,,,
0.6439999989,5,144645.1406250000,122828.9921875000,157818.5937500000,131215.1250000000,117338.9609375000,123129.2109375000,115152.5625000000,132745.7812500000,,,
0.6479999989,5,144645.6250000000,122828.9375000000,157814.7968750000,131220.5156250000,117335.6640625000,123134.4375000000,115150.4687500000,132745.0625000000,,,
0.6519999988,5,144651.7656250000,122829.8515625000,157816.6093750000,131213.9218750000,117338.0234375000,123136.9843750000,115154.8359375000,132745.8437500000,,,
0.6559999988,5,144654.7187500000,122828.5625000000,157819.0312500000,131210.0156250000,117341.4843750000,123128.1093750000,115156.2578125000,132745.0312500000,,,
0.6599999988,5,144655.6875000000,122830.1718750000,157820.5000000000,131218.7031250000,117344.9453125000,123120.8437500000,115159.2109375000,132746.0000000000,,,
0.6639999989,5,144648.1250000000,122824.7500000000,157812.8906250000,131218.0000000000,117338.8828125000,123114.0000000000,115150.9765625000,132740.6093750000,,,
0.6679999989,5,144643.8750000000,122821.5625000000,157810.7656250000,131220.3593750000,117335.7421875000,123109.7890625000,115142.2890625000,132737.7968750000,,,
0.6719999989,5,144651.1250000000,122829.0468750000,157823.0000000000,131234.9062500000,117345.1328125000,123111.5859375000,115142.4765625000,132745.4375000000,,,
0.6759999988,5,144649.0781250000,122826.7890625000,157822.2968750000,131233.0781250000,117344.9687500000,123102.4140625000,115139.6875000000,132743.2656250000,,,
0.6799999988,5,144638.7812500000,122816.9765625000,157811.7812500000,131224.1718750000,117336.9765625000,123082.0859375000,115131.6406250000,132733.7656250000,,,
0.6839999990,5,144626.9843750000,122805.4140625000,157800.6562500000,131216.4687500000,117325.3125000000,123064.8593750000,115115.8125000000,132722.7968750000,,,
0.6879999989,5,144624.1406250000,122803.2968750000,157797.4062500000,131213.9218750000,117321.1015625000,123064.5390625000,115108.0312500000,132720.5468750000,,,
0.6919999989,5,144651.0468750000,122830.6015625000,157825.8437500000,131234.4375000000,117348.0859375000,123088.4375000000,115132.5234375000,132747.9375000000,,,
0.6959999988,5,144654.3437500000,122837.5156250000,157831.7968750000,131234.8125000000,117352.4531250000,123091.8984375000,115130.9140625000,132754.6875000000,,,
0.6999999988,5,144635.2968750000,122816.3828125000,157812.0000000000,131208.9687500000,117335.2343750000,123065.9375000000,115111.6015625000,132733.9843750000,,,
0.7039999987,5,144620.5156250000,122799.0000000000,157794.6718750000,131191.8437500000,117321.5546875000,123044.8515625000,115095.6953125000,132716.7656250000,,,
0.7079999989,5,144601.9375000000,122782.2109375000,157775.5468750000,131177.0937500000,117301.4375000000,123031.3046875000,115073.8359375000,132698.9062500000,,,
0.7119999989,5,144609.6093750000,122792.8593750000,157783.4375000000,131205.8281250000,117308.1953125000,123044.3984375000,115078.7734375000,132710.0625000000,,,
0.7159999989,5,144637.6562500000,122823.3281250000,157812.1406250000,131240.8593750000,117336.2500000000,123068.2421875000,115108.6015625000,132740.7656250000,,,
0.7199999988,5,144638.8906250000,122825.7734375000,157815.3593750000,131234.2343750000,117339.3125000000,123063.0937500000,115114.0156250000,132743.9687500000,,,
0.7239999988,5,144625.4843750000,122813.5937500000,157801.9687500000,131207.5937500000,117326.1718750000,123049.1484375000,115097.0937500000,132731.8906250000,,,
0.7279999990,5,144623.0625000000,122811.5546875000,157798.2968750000,131206.6875000000,117321.8203125000,123048.7968750000,115091.6718750000,132729.0312500000,,,
0.7319999989,5,144614.8125000000,122803.0546875000,157790.2500000000,131218.5937500000,117310.0781250000,123043.1093750000,115082.8203125000,132720.6250000000,,,
0.7359999989,5,144602.8125000000,122790.2812500000,157778.8750000000,131210.8593750000,117297.1171875000,123027.0156250000,115073.9687500000,132708.5781250000,,,
0.7399999988,5,144599.6250000000,122789.4531250000,157777.6406250000,131196.4843750000,117297.7343750000,123020.2812500000,115074.3750000000,132707.8281250000,,,
0.7439999988,5,144600.0468750000,122787.7343750000,157776.4375000000,131200.1406250000,117299.2890625000,123018.6250000000,115075.4765625000,132705.0781250000,,,
0.7479999987,5,144599.5156250000,122786.4531250000,157776.9375000000,131201.2968750000,117297.9218750000,123024.4921875000,115071.6640625000,132703.8906250000,,,
0.7519999989,5,144608.5312500000,122794.8437500000,157787.6250000000,131213.8437500000,117306.0546875000,123034.3671875000,115071.3671875000,132712.4218750000,,,
0.7559999989,5,144617.8593750000,122803.8281250000,157801.1093750000,131233.2031250000,117318.7109375000,123034.3906250000,115075.0703125000,132721.6250000000,,,
0.7599999988,5,144612.2343750000,122797.9062500000,157797.0625000000,131217.3593750000,117315.0937500000,123023.6875000000,115074.8281250000,132715.5625000000,,,
0.7639999988,5,144605.9062500000,122789.7500000000,157790.6250000000,131198.6875000000,117308.8671875000,123014.1953125000,115070.8046875000,132708.1250000000,,,
0.7679999988,6,144602.8437500000,122788.6250000000,157787.8125000000,131191.3906250000,117303.7187500000,123018.8125000000,115065.9218750000,132706.5000000000,,,
0.7719999987,6,144611.0781250000,122799.8906250000,157796.3125000000,131197.3437500000,117309.9375000000,123035.0390625000,115070.8046875000,132717.2187500000,,,
0.7759999987,6,144616.6562500000,122805.5234375000,157803.1250000000,131202.0468750000,117316.6718750000,123035.4687500000,115074.9062500000,132722.3437500000,,,
0.7799999986,6,144610.7343750000,122799.4296875000,157797.8125000000,131198.9531250000,117313.0781250000,123020.0703125000,115067.1875000000,132716.8750000000,,,
0.7839999986,6,144602.7656250000,122790.0156250000,157788.6875000000,131187.7500000000,117305.0625000000,123005.4218750000,115055.9765625000,132707.5625000000,,,
0.7879999985,6,144608.0781250000,122792.0000000000,157790.7343750000,131192.0312500000,117308.3828125000,123011.3828125000,115057.2578125000,132708.9687500000,,,
0.7919999987,6,144622.3906250000,122804.7968750000,157803.2031250000,131208.6093750000,117321.6875000000,123029.0546875000,115070.5625000000,132722.3125000000,,,
0.7959999987,6,144623.9062500000,122804.4765625000,157804.6562500000,131215.5625000000,117325.0703125000,123028.1406250000,115075.5234375000,132722.4062500000,,,
0.7999999986,6,144611.6406250000,122791.5703125000,157795.0781250000,131209.0937500000,117315.7109375000,123011.3281250000,115068.3359375000,132709.8437500000,,,
0.8039999986,6,144599.2187500000,122780.9765625000,157786.3125000000,131213.4218750000,117303.4531250000,122999.2265625000,115056.0000000000,132698.9531250000,,,
0.8079999986,6,144591.0625000000,122774.7812500000,157781.6718750000,131224.8125000000,117294.7890625000,122994.3984375000,115045.4843750000,132692.2812500000,,,
0.8119999988,6,144590.2031250000,122778.9687500000,157785.5000000000,131246.9375000000,117294.9765625000,123001.6171875000,115047.7109375000,132696.4375000000,,,
0.8159999987,6,144588.2812500000,122782.2656250000,157789.0937500000,131260.4375000000,117295.4609375000,123003.1171875000,115047.9531250000,132700.6718750000,,,
0.8199999987,6,144572.6406250000,122765.3437500000,157771.6875000000,131232.6718750000,117280.2734375000,122983.5625000000,115031.6171875000,132683.6406250000,,,
0.8239999986,6,144561.5625000000,122751.3125000000,157755.7343750000,131212.3750000000,117269.6562500000,122970.2578125000,115017.7500000000,132669.8281250000,,,
0.8279999986,6,144557.7812500000,122745.8984375000,157747.3593750000,131210.9687500000,117262.9218750000,122972.8359375000,115007.6640625000,132664.1718750000,,,
0.8319999985,6,144558.5000000000,122741.7656250000,157741.5625000000,131198.8281250000,117260.2421875000,122977.9609375000,115011.2343750000,132659.6562500000,,,
0.8359999987,6,144563.3281250000,122739.3750000000,157746.1718750000,131201.4531250000,117265.5781250000,122972.0546875000,115020.8906250000,132658.0781250000,,,
0.8399999987,6,144568.2500000000,122739.7500000000,157754.5781250000,131219.9843750000,117272.7421875000,122962.8593750000,115024.7500000000,132658.4062500000,,,
0.8439999986,6,144575.8593750000,122749.6484375000,157765.8906250000,131230.8281250000,117281.2421875000,122969.4531250000,115031.3750000000,132668.0000000000,,,
0.8479999986,6,144585.7500000000,122760.5625000000,157773.0000000000,131207.3281250000,117288.8593750000,122987.2421875000,115042.3984375000,132678.7343750000,,,
0.8519999986,6,144604.0468750000,122777.6015625000,157786.6562500000,131212.8750000000,117305.4062500000,123005.4218750000,115059.2421875000,132695.3125000000,,,
0.8559999987,6,144614.8281250000,122791.0390625000,157797.0312500000,131234.5781250000,117316.5937500000,123014.1171875000,115070.0000000000,132708.6875000000,,,
0.8599999987,6,144609.0625000000,122788.4609375000,157793.5937500000,131226.1250000000,117313.2968750000,123006.5000000000,115065.2031250000,132706.6250000000,,,
0.8639999987,6,144605.7656250000,122788.9687500000,157791.1093750000,131220.0937500000,117309.9687500000,123006.2265625000,115061.3906250000,132706.7656250000,,,
0.8679999986,6,144591.5468750000,122774.2421875000,157773.8281250000,131213.0625000000,117292.9375000000,123002.3125000000,115046.3437500000,132692.2812500000,,,
0.8719999986,6,144604.9687500000,122782.9609375000,157784.2187500000,131226.5781250000,117305.8671875000,123016.6875000000,115059.9687500000,132700.7812500000,,,
0.8759999985,6,144621.2656250000,122793.7187500000,157799.8750000000,131231.5937500000,117322.6796875000,123028.0859375000,115077.4296875000,132711.4062500000,,,
0.8799999987,6,144608.9375000000,122780.3906250000,157790.5625000000,131224.5781250000,117310.9375000000,123014.0312500000,115066.4609375000,132698.7968750000,,,
0.8839999987,6,144598.9218750000,122774.3828125000,157784.7812500000,131220.0156250000,117302.6718750000,123001.6406250000,115054.6093750000,132692.3593750000,,,
0.8879999986,6,144601.3906250000,122776.9843750000,157785.4687500000,131218.8281250000,117304.7890625000,123007.0312500000,115054.2031250000,132695.0468750000,,,
0.8919999986,6,144607.2343750000,122784.1406250000,157788.9062500000,131224.6562500000,117309.6484375000,123016.9609375000,115054.9296875000,132702.0625000000,,,
0.8959999986,7,144614.2500000000,122794.9218750000,157797.1406250000,131231.6875000000,117317.9062500000,123020.6875000000,115057.5000000000,132712.7500000000,,,
0.8999999985,7,144616.1718750000,122795.7265625000,157801.4531250000,131229.0000000000,117322.3593750000,123010.4921875000,115059.2968750000,132713.9531250000,,,
0.9039999985,7,144617.1718750000,122795.5703125000,157805.2187500000,131225.2187500000,117325.2812500000,123004.6718750000,115061.8437500000,132713.8437500000,,,
0.9079999984,7,144611.5625000000,122791.6015625000,157802.0000000000,131218.6718750000,117316.7812500000,123007.0859375000,115053.7500000000,132709.9218750000,,,
0.9119999984,7,144612.6875000000,122796.6171875000,157804.6718750000,131215.5312500000,117314.2890625000,123021.3828125000,115056.0781250000,132714.6718750000,,,
0.9159999983,7,144607.7187500000,122795.6250000000,157801.2500000000,131216.8281250000,117308.3828125000,123023.7968750000,115052.6718750000,132713.4375000000,,,
0.9199999985,7,144598.8125000000,122784.8125000000,157793.0312500000,131215.9062500000,117300.2890625000,123010.4921875000,115047.5000000000,132702.6875000000,,,
0.9239999985,7,144574.5468750000,122754.5546875000,157766.3281250000,131195.6875000000,117276.8671875000,122978.9218750000,115027.7812500000,132673.1250000000,,,
0.9279999984,7,144556.4375000000,122737.0703125000,157746.4687500000,131179.3750000000,117258.3906250000,122967.8750000000,115008.6093750000,132655.3125000000,,,
0.9319999984,7,144554.9375000000,122739.1875000000,157743.6250000000,131172.6250000000,117252.8359375000,122978.4453125000,115004.3125000000,132657.0000000000,,,
0.9359999984,7,144580.6875000000,122766.1718750000,157768.9843750000,131200.6250000000,117277.4062500000,123003.3359375000,115028.0546875000,132684.5000000000,,,
0.9399999985,7,144627.7031250000,122812.0390625000,157818.2187500000,131254.2656250000,117328.7734375000,123037.9843750000,115075.3125000000,132731.4843750000,,,
0.9439999985,7,144627.1406250000,122814.5859375000,157819.8281250000,131256.3281250000,117328.9062500000,123039.6250000000,115076.2812500000,132733.2031250000,,,
0.9479999985,7,144631.1875000000,122821.7500000000,157824.4687500000,131263.4687500000,117329.8984375000,123055.9296875000,115078.7421875000,132739.6718750000,,,
0.9519999984,7,144621.1093750000,122813.5156250000,157816.0000000000,131260.6562500000,117319.8125000000,123052.0156250000,115062.1718750000,132731.3281250000,,,
0.9559999984,7,144611.9375000000,122801.9531250000,157806.2656250000,131257.6718750000,117311.8203125000,123041.1796875000,115054.2265625000,132720.0312500000,,,
0.9599999983,7,144600.5625000000,122785.0781250000,157791.8593750000,131235.0937500000,117302.5625000000,123024.0937500000,115056.4843750000,132703.2500000000,,,
0.9639999985,7,144592.3750000000,122771.5078125000,157778.8437500000,131202.0468750000,117295.6171875000,123009.6093750000,115053.5859375000,132689.7031250000,,,
0.9679999985,7,144597.4062500000,122774.3828125000,157781.1250000000,131207.0625000000,117299.6953125000,123009.6875000000,115050.2578125000,132692.1093750000,,,
0.9719999984,7,144602.5468750000,122780.7343750000,157785.3437500000,131203.0937500000,117302.6171875000,123016.9296875000,115048.9765625000,132698.5468750000,,,
0.9759999984,7,144600.1406250000,122779.7187500000,157783.4843750000,131194.2031250000,117300.3125000000,123020.6328125000,115048.7812500000,132697.9687500000,,,
0.9799999984,7,144613.4375000000,122793.6640625000,157799.1718750000,131211.3750000000,117315.8437500000,123031.2265625000,115067.9609375000,132711.5625000000,,,
0.9839999985,7,144626.5000000000,122808.3359375000,157815.3593750000,131233.9062500000,117330.5937500000,123038.4140625000,115081.7500000000,132726.0781250000,,,
0.9879999985,7,144621.3281250000,122799.6171875000,157808.6406250000,131230.0781250000,117325.4140625000,123031.8437500000,115074.8281250000,132717.2812500000,,,
0.9919999985,7,144622.7500000000,122798.8671875000,157808.5625000000,131236.5625000000,117327.3750000000,123039.1171875000,115073.7031250000,132717.1406250000,,,
0.9959999984,7,144615.9062500000,122792.5937500000,157802.2031250000,131237.6562500000,117321.7187500000,123032.3281250000,115067.2890625000,132711.2343750000,,,
0.9999999984,7,144595.3906250000,122773.0625000000,157783.2187500000,131212.4531250000,117300.8203125000,123009.3984375000,115047.5546875000,132691.8437500000,,,
1.0039999983,7,144581.5156250000,122760.9453125000,157770.8593750000,131200.1718750000,117285.9921875000,122993.4062500000,115035.6718750000,132680.6093750000,,,
1.0079999985,7,144582.7812500000,122764.1093750000,157771.0625000000,131204.8906250000,117285.2109375000,122999.3125000000,115037.7109375000,132683.7500000000,,,
1.0119999985,7,144596.5937500000,122777.8125000000,157783.2812500000,131221.5468750000,117298.4062500000,123015.7500000000,115045.0312500000,132696.8906250000,,,
1.0159999984,7,144607.5156250000,122786.6640625000,157795.4218750000,131237.2343750000,117310.4765625000,123020.3125000000,115050.2578125000,132705.8750000000,,,
1.0199999984,7,144604.5000000000,122783.7656250000,157793.5937500000,131226.6406250000,117307.7421875000,123016.6640625000,115049.7500000000,132702.6562500000,,,
1.0239999983,8,144585.9218750000,122764.3984375000,157774.7656250000,131197.9687500000,117288.6406250000,123001.3750000000,115033.2578125000,132682.8125000000,,,
1.0279999983,8,144588.7656250000,122766.7343750000,157777.2968750000,131201.0468750000,117291.1953125000,123006.5546875000,115035.2968750000,132684.9062500000,,,
1.0319999983,8,144594.6406250000,122772.3984375000,157781.4843750000,131206.5156250000,117295.5937500000,123014.4609375000,115040.8437500000,132690.7500000000,,,
1.0359999982,8,144594.6406250000,122773.2031250000,157781.7968750000,131206.6875000000,117297.0937500000,123012.9375000000,115039.8828125000,132691.9843750000,,,
1.0399999982,8,144590.5312500000,122770.6015625000,157779.0625000000,131200.1093750000,117295.1093750000,123007.7578125000,115038.3750000000,132688.5781250000,,,
1.0439999981,8,144585.4062500000,122761.3437500000,157773.4843750000,131199.1406250000,117290.2812500000,122998.2343750000,115034.4062500000,132679.6718750000,,,
1.0479999983,8,144597.4531250000,122770.9218750000,157784.0781250000,131212.0937500000,117299.6718750000,123014.2500000000,115044.0390625000,132688.9531250000,,,
1.0519999983,8,144606.7031250000,122779.6640625000,157791.7812500000,131205.7187500000,117304.7656250000,123032.0312500000,115049.6406250000,132697.1875000000,,,
1.0559999982,8,144610.5156250000,122785.4609375000,157797.4375000000,131206.8906250000,117308.0625000000,123034.5234375000,115052.7812500000,132703.8593750000,,,
1.0599999982,8,144598.3437500000,122776.2812500000,157788.4531250000,131198.5625000000,117296.7968750000,123016.9062500000,115042.2656250000,132694.5781250000,,,
1.0639999982,8,144591.3125000000,122771.1328125000,157783.4687500000,131197.7500000000,117292.0546875000,123006.5546875000,115035.8046875000,132689.0000000000,,,
1.0679999983,8,144594.0937500000,122775.0468750000,157784.6718750000,131204.1875000000,117296.0781250000,123014.0859375000,115041.1953125000,132692.3281250000,,,
1.0719999983,8,144600.2187500000,122782.9609375000,157789.5781250000,131207.4843750000,117301.4140625000,123028.7031250000,115045.9921875000,132700.9218750000,,,
1.0759999983,8,144598.3437500000,122781.3828125000,157787.8906250000,131199.0937500000,117298.4062500000,123027.9531250000,115041.6796875000,132699.6875000000,,,
1.0799999982,8,144593.1875000000,122772.6093750000,157781.7187500000,131189.5625000000,117294.0390625000,123015.5937500000,115039.5859375000,132690.5312500000,,,
1.0839999982,8,144585.1875000000,122764.1328125000,157773.9375000000,131188.2343750000,117286.9843750000,123005.1562500000,115035.4296875000,132682.4687500000,,,
1.0879999981,8,144581.7343750000,122763.4609375000,157770.0781250000,131187.6875000000,117283.7890625000,123009.5546875000,115031.8906250000,132681.1406250000,,,
1.0919999983,8,144597.9843750000,122779.2343750000,157784.4843750000,131197.8281250000,117298.7265625000,123026.8046875000,115046.9609375000,132696.9218750000,,,
1.0959999983,8,144603.7031250000,122784.4140625000,157791.6718750000,131205.6875000000,117305.4609375000,123025.7578125000,115049.6718750000,132702.6250000000,,,
1.0999999982,8,144602.4218750000,122784.7578125000,157792.6093750000,131200.2968750000,117304.9531250000,123019.6171875000,115049.1093750000,132703.2500000000,,,
1.1039999982,8,144599.2812500000,122782.1875000000,157790.5625000000,131189.0312500000,117300.5000000000,123015.2187500000,115045.7578125000,132700.4062500000,,,
1.1079999981,8,144596.9375000000,122778.4296875000,157787.2968750000,131195.5000000000,117296.8750000000,123019.5859375000,115041.5468750000,132695.7187500000,,,
1.1119999983,8,144603.6406250000,122780.7890625000,157790.8437500000,131205.0468750000,117302.2421875000,123028.9453125000,115047.6562500000,132698.2656250000,,,
1.1159999983,8,144604.1562500000,122779.9609375000,157791.8281250000,131205.5781250000,117304.5234375000,123025.5937500000,115049.7265625000,132698.2031250000,,,
1.1199999982,8,144589.1406250000,122765.4765625000,157779.5781250000,131189.8906250000,117292.3984375000,123003.5234375000,115037.0078125000,132683.5000000000,,,
1.1239999982,8,144579.9843750000,122759.3359375000,157775.0156250000,131188.4375000000,117285.0000000000,122991.8281250000,115028.8593750000,132677.2812500000,,,
1.1279999982,8,144586.7968750000,122766.4375000000,157780.8906250000,131189.6562500000,117291.6718750000,123000.7812500000,115031.8906250000,132684.3593750000,,,
1.1319999981,8,144599.3593750000,122776.8437500000,157785.9218750000,131186.8281250000,117301.4140625000,123018.3281250000,115046.2109375000,132694.5625000000,,,
1.1359999983,8,144605.2500000000,122779.5312500000,157785.4687500000,131187.3125000000,117305.6484375000,123023.1250000000,115059.8359375000,132696.8906250000,,,
1.1399999983,8,144609.2812500000,122784.7890625000,157790.1093750000,131193.4531250000,117310.2890625000,123024.0937500000,115068.0703125000,132702.6875000000,,,
1.1439999982,8,144616.1250000000,122794.6562500000,157800.5156250000,131200.2500000000,117318.0937500000,123029.1328125000,115071.6093750000,132712.7500000000,,,
1.1479999982,8,144616.5000000000,122793.6640625000,157802.5781250000,131196.7812500000,117316.2734375000,123032.1093750000,115068.8203125000,132711.2656250000,,,
1.1519999981,9,144621.5937500000,122797.4765625000,157807.6875000000,131198.3906250000,117318.8750000000,123038.2812500000,115072.7656250000,132715.4062500000,,,
1.1559999981,9,144621.9062500000,122796.2968750000,157807.8906250000,131191.3750000000,117320.4843750000,123033.6718750000,115074.7187500000,132714.7812500000,,,
1.1599999981,9,144608.9062500000,122782.6406250000,157795.8593750000,131184.2343750000,117309.0859375000,123015.5937500000,115064.2578125000,132701.4843750000,,,
1.1639999980,9,144603.6406250000,122778.1875000000,157791.3281250000,131192.5000000000,117305.1406250000,123005.6093750000,115059.2968750000,132696.1718750000,,,
1.1679999980,9,144603.7500000000,122780.7656250000,157792.6093750000,131196.7812500000,117306.4296875000,123015.4531250000,115056.7812500000,132699.0312500000,,,
1.1719999979,9,144618.0312500000,122792.1875000000,157804.2500000000,131207.3593750000,117319.6796875000,123033.7734375000,115070.6953125000,132710.3906250000,,,
1.1759999981,9,144629.6093750000,122800.5078125000,157815.0000000000,131219.6718750000,117331.4531250000,123042.3828125000,115082.2578125000,132719.0468750000,,,
1.1799999981,9,144624.2968750000,122797.9062500000,157812.9062500000,131218.0781250000,117327.2421875000,123033.0546875000,115077.7812500000,132717.0937500000,,,
1.1839999980,9,144625.0000000000,122802.4375000000,157817.4687500000,131218.0312500000,117328.9843750000,123029.6718750000,115075.8984375000,132722.4062500000,,,
1.1879999980,9,144615.2031250000,122794.2812500000,157808.6250000000,131216.5000000000,117317.0468750000,123026.5312500000,115064.3437500000,132713.4375000000,,,
1.1919999979,9,144616.0156250000,122795.3515625000,157810.3437500000,131229.1250000000,117317.0468750000,123031.8984375000,115065.0156250000,132714.4843750000,,,
1.1959999981,9,144616.3125000000,122794.7343750000,157810.8125000000,131222.5000000000,117317.3984375000,123034.6328125000,115065.6015625000,132714.1875000000,,,
1.1999999981,9,144612.6406250000,122789.9062500000,157807.0156250000,131211.3281250000,117316.0546875000,123027.7421875000,115065.6015625000,132709.2031250000,,,
1.2039999980,9,144599.2812500000,122776.6093750000,157793.0312500000,131195.4218750000,117305.1953125000,123011.5937500000,115052.4296875000,132695.8125000000,,,
1.2079999980,9,144592.7343750000,122769.5781250000,157785.1250000000,131196.9218750000,117297.6562500000,123010.6562500000,115041.0625000000,132688.5000000000,,,
1.2119999980,9,144592.9218750000,122767.6484375000,157783.1093750000,131192.3906250000,117295.6953125000,123015.4296875000,115042.5390625000,132686.9062500000,,,
1.2159999979,9,144587.5625000000,122764.0234375000,157778.1250000000,131166.0000000000,117289.4765625000,123008.6953125000,115042.0234375000,132683.1250000000,,,
1.2199999981,9,144583.4843750000,122761.1328125000,157775.8906250000,131155.2343750000,117287.4921875000,122997.1406250000,115042.3984375000,132680.3437500000,,,
1.2239999981,9,144590.1562500000,122768.2890625000,157782.2812500000,131166.9062500000,117295.9921875000,122999.0937500000,115049.7812500000,132687.5781250000,,,
1.2279999980,9,144615.4687500000,122794.9765625000,157808.9687500000,131203.5937500000,117320.3984375000,123022.3203125000,115073.8906250000,132713.7656250000,,,
1.2319999980,9,144630.5468750000,122808.0390625000,157824.1718750000,131228.4687500000,117334.2187500000,123041.6875000000,115090.4921875000,132726.4218750000,,,
1.2359999979,9,144630.6093750000,122805.4687500000,157821.7656250000,131215.1875000000,117332.6562500000,123046.3046875000,115091.6484375000,132723.9218750000,,,
1.2399999981,9,144623.6875000000,122799.1875000000,157815.5937500000,131208.0312500000,117325.5781250000,123039.2500000000,115081.5078125000,132718.6250000000,,,
1.2439999981,9,144610.0781250000,122785.4609375000,157802.6406250000,131198.9531250000,117313.6406250000,123022.6484375000,115066.3515625000,132705.4687500000,,,
1.2479999980,9,144616.6093750000,122790.0937500000,157808.0312500000,131201.9687500000,117320.8593750000,123026.9921875000,115072.7656250000,132709.4218750000,,,
1.2519999980,9,144627.4375000000,122798.6015625000,157815.9375000000,131195.9062500000,117329.7109375000,123037.5078125000,115080.8906250000,132717.0937500000,,,
1.2559999980,9,144631.4375000000,122800.2343750000,157816.4062500000,131196.9531250000,117332.3906250000,123040.1328125000,115087.1406250000,132718.9062500000,,,
1.2599999979,9,144629.2968750000,122796.9921875000,157812.6406250000,131202.3906250000,117332.1796875000,123036.4609375000,115086.2578125000,132716.3437500000,,,
1.2639999981,9,144622.0781250000,122789.0546875000,157804.6250000000,131201.5937500000,117324.7968750000,123028.7343750000,115079.8750000000,132708.2343750000,,,
1.2679999981,9,144611.5625000000,122780.8437500000,157794.2187500000,131190.4062500000,117312.6796875000,123022.1875000000,115070.6484375000,132699.3125000000,,,
1.2719999980,9,144612.0625000000,122785.8046875000,157797.0625000000,131191.6562500000,117310.9609375000,123029.0859375000,115073.2734375000,132704.0781250000,,,
1.2759999980,9,144609.2812500000,122790.0156250000,157799.7187500000,131192.8906250000,117308.4687500000,123031.8984375000,115070.6484375000,132708.3125000000,,,
1.2799999979,10,144602.1406250000,122788.6796875000,157796.8750000000,131195.0937500000,117303.1015625000,123029.9375000000,115064.0234375000,132707.1875000000,,,
1.2839999979,10,144596.5937500000,122785.1328125000,157791.0000000000,131189.7656250000,117297.7343750000,123028.4140625000,115060.3437500000,132703.7031250000,,,
1.2879999978,10,144601.1875000000,122787.4921875000,157792.5468750000,131186.4843750000,117301.1406250000,123028.1406250000,115062.1953125000,132706.7812500000,,,
1.2919999978,10,144613.8906250000,122795.9687500000,157803.2031250000,131194.8750000000,117311.7421875000,123036.2734375000,115070.1875000000,132715.3750000000,,,
1.2959999978,10,144628.7031250000,122809.9453125000,157818.0937500000,131206.6875000000,117327.0234375000,123048.0468750000,115080.6250000000,132728.9375000000,,,
1.2999999977,10,144625.4843750000,122805.8671875000,157814.8750000000,131198.8281250000,117325.7656250000,123040.5859375000,115075.2031250000,132724.7656250000,,,
1.3039999979,10,144610.6562500000,122787.6796875000,157799.0781250000,131176.0312500000,117312.1953125000,123020.7421875000,115063.0546875000,132706.7031250000,,,
1.3079999979,10,144610.0625000000,122787.7109375000,157799.3437500000,131171.0156250000,117310.3437500000,123019.8828125000,115063.0546875000,132705.9531250000,,,
1.3119999978,10,144618.7812500000,122798.7343750000,157808.5625000000,131186.8125000000,117317.7187500000,123031.2812500000,115070.1093750000,132716.4375000000,,,
1.3159999978,10,144620.5156250000,122802.7031250000,157808.6250000000,131193.0625000000,117319.6484375000,123034.9296875000,115071.4531250000,132720.9531250000,,,
1.3199999977,10,144616.2500000000,122801.3593750000,157803.6562500000,131194.7812500000,117317.2343750000,123030.3437500000,115068.6093750000,132719.9843750000,,,
1.3239999979,10,144608.6562500000,122793.1796875000,157795.0468750000,131183.0781250000,117310.5859375000,123020.3125000000,115062.8437500000,132712.0156250000,,,
1.3279999979,10,144616.8437500000,122798.0078125000,157801.0781250000,131181.7968750000,117317.0468750000,123024.5781250000,115069.8437500000,132716.7968750000,,,
1.3319999978,10,144627.6250000000,122804.6640625000,157811.1093750000,131188.0468750000,117327.2421875000,123032.6484375000,115077.8593750000,132723.5781250000,,,
1.3359999978,10,144629.3125000000,122804.7187500000,157816.6875000000,131213.0468750000,117331.0781250000,123031.3359375000,115075.3125000000,132724.1093750000,,,
1.3399999978,10,144627.8906250000,122802.1171875000,157818.8125000000,131220.3125000000,117332.1796875000,123026.3437500000,115077.0546875000,132721.7343750000,,,
1.3439999977,10,144623.2812500000,122795.1406250000,157812.9687500000,131180.6093750000,117329.0390625000,123023.3437500000,115076.6015625000,132714.0625000000,,,
1.3479999979,10,144623.6250000000,122796.6718750000,157811.7031250000,131162.7968750000,117326.4375000000,123026.5859375000,115075.6640625000,132715.3437500000,,,
1.3519999979,10,144634.2812500000,122807.8828125000,157822.2187500000,131184.0156250000,117334.4062500000,123037.5859375000,115082.8203125000,132726.9062500000,,,
1.3559999978,10,144634.3593750000,122813.4296875000,157825.2968750000,131184.4687500000,117333.7031250000,123041.2031250000,115084.3750000000,132732.1875000000,,,
1.3599999978,10,144625.1562500000,122809.0625000000,157818.0156250000,131176.8281250000,117325.5000000000,123036.3203125000,115077.0312500000,132727.3593750000,,,
1.3639999977,10,144609.9218750000,122795.1093750000,157804.8593750000,131162.9687500000,117311.8984375000,123024.8750000000,115064.1015625000,132713.9218750000,,,
1.3679999979,10,144599.8593750000,122786.0234375000,157798.0000000000,131158.8906250000,117302.9921875000,123021.7578125000,115057.4765625000,132705.2031250000,,,
1.3719999979,10,144603.8593750000,122790.5546875000,157805.4531250000,131171.1093750000,117308.5234375000,123030.2343750000,115062.8906250000,132709.8437500000,,,
1.3759999978,10,144610.5156250000,122798.2500000000,157816.7187500000,131186.0781250000,117317.9609375000,123036.1328125000,115067.9921875000,132718.1562500000,,,
1.3799999978,10,144612.6093750000,122796.6171875000,157817.7968750000,131191.0937500000,117322.5468750000,123030.2656250000,115067.2421875000,132716.3125000000,,,
1.3839999977,10,144612.7187500000,122791.9765625000,157813.1250000000,131183.7187500000,117323.3515625000,123022.6718750000,115064.8515625000,132711.1875000000,,,
1.3879999977,10,144608.4687500000,122787.9531250000,157807.2031250000,131171.4687500000,117318.1718750000,123019.1015625000,115056.2968750000,132707.2968750000,,,
1.3919999979,10,144606.5468750000,122788.6250000000,157802.7812500000,131163.5468750000,117312.4921875000,123022.0312500000,115053.7500000000,132707.2500000000,,,
1.3959999979,10,144613.8906250000,122797.0156250000,157810.4218750000,131171.4062500000,117317.9609375000,123026.5859375000,115062.6796875000,132716.1250000000,,,
1.3999999978,10,144625.0781250000,122806.3750000000,157822.0312500000,131186.8906250000,117331.1328125000,123029.4843750000,115073.0625000000,132725.8281250000,,,
1.4039999978,10,144620.3906250000,122799.0859375000,157818.1718750000,131185.7812500000,117328.6093750000,123022.1640625000,115070.4296875000,132719.0781250000,,,
1.4079999977,11,144615.5781250000,122793.5546875000,157814.5468750000,131189.6562500000,117324.6953125000,123018.0312500000,115068.2031250000,132713.4375000000,33029,1.4109629439,0.0000000000
1.4119999977,11,144618.3750000000,122796.0781250000,157817.9218750000,131189.4375000000,117326.4609375000,123023.3984375000,115070.8828125000,132715.3125000000,,,
1.4159999976,11,144627.5937500000,122804.0703125000,157827.5312500000,131204.1875000000,117335.6406250000,123029.8593750000,115080.3515625000,132723.0625000000,,,
1.4199999976,11,144633.9531250000,122809.3046875000,157832.6250000000,131211.2500000000,117342.5546875000,123031.4453125000,115089.7656250000,132729.0000000000,,,
1.4239999976,11,144627.3281250000,122802.3515625000,157822.1875000000,131183.7187500000,117335.5000000000,123026.8593750000,115083.5703125000,132722.3750000000,,,
1.4279999975,11,144618.2968750000,122796.0781250000,157811.4843750000,131166.0781250000,117325.3671875000,123024.5234375000,115072.7109375000,132715.1250000000,,,
1.4319999977,11,144617.0625000000,122797.8203125000,157811.3593750000,131165.5312500000,117322.6562500000,123029.7500000000,115070.4296875000,132716.5468750000,,,
1.4359999977,11,144619.7343750000,122799.7031250000,157814.1718750000,131183.4062500000,117325.1796875000,123033.2968750000,115074.1015625000,132718.9062500000,,,
1.4399999976,11,144611.0468750000,122791.6015625000,157807.4687500000,131182.5156250000,117316.5937500000,123024.7109375000,115067.3750000000,132711.1875000000,,,
1.4439999976,11,144599.5156250000,122783.4453125000,157799.9843750000,131177.2343750000,117306.3203125000,123013.9843750000,115056.6171875000,132703.0312500000,,,
1.4479999975,11,144595.7343750000,122781.1640625000,157798.2968750000,131167.5156250000,117304.3906250000,123012.0781250000,115055.0859375000,132701.0000000000,,,
1.4519999977,11,144605.9531250000,122790.0937500000,157807.5156250000,131180.7187500000,117313.3750000000,123024.6015625000,115067.0781250000,132709.1250000000,,,
1.4559999977,11,144616.5156250000,122796.3984375000,157816.0468750000,131191.3906250000,117322.3046875000,123028.3281250000,115072.6796875000,132715.5625000000,,,
1.4599999976,11,144615.4531250000,122796.2656250000,157815.0312500000,131192.5937500000,117320.3750000000,123027.4453125000,115071.4218750000,132715.5625000000,,,
1.4639999976,11,144600.7812500000,122783.3906250000,157798.2656250000,131172.9687500000,117305.1953125000,123013.5781250000,115058.4921875000,132702.3437500000,,,
1.4679999975,11,144593.4531250000,122774.5156250000,157788.0156250000,131158.7500000000,117299.0781250000,122998.5078125000,115050.9296875000,132692.8750000000,,,
1.4719999975,11,144604.4843750000,122782.8515625000,157797.7031250000,131176.0000000000,117310.5859375000,123009.1015625000,115061.3671875000,132702.0937500000,,,
1.4759999977,11,144613.8906250000,122792.4609375000,157805.7500000000,131187.9062500000,117318.7109375000,123030.2343750000,115070.2734375000,132712.0468750000,,,
1.4799999977,11,144609.5468750000,122790.1796875000,157802.5000000000,131187.2656250000,117315.2812500000,123033.6953125000,115067.4531250000,132709.0937500000,,,
1.4839999976,11,144608.5781250000,122786.1250000000,157802.3125000000,131188.3593750000,117314.4218750000,123025.6484375000,115065.6796875000,132705.4218750000,,,
1.4879999976,11,144604.1250000000,122779.9062500000,157797.2968750000,131186.4062500000,117307.2031250000,123020.7421875000,115058.3046875000,132699.2031250000,,,
1.4919999975,11,144606.0312500000,122781.4843750000,157798.2968750000,131196.0937500000,117308.5234375000,123028.0078125000,115058.5468750000,132700.6406250000,,,
1.4959999977,11,144604.7812500000,122779.5000000000,157797.6562500000,131175.0312500000,117308.7890625000,123025.5156250000,115059.8906250000,132698.7968750000,,,
1.4999999977,11,144605.2500000000,122781.7578125000,157800.1406250000,131171.7031250000,117312.1640625000,123020.7109375000,115063.2187500000,132701.5000000000,,,
1.5039999976,11,144605.7187500000,122783.2578125000,157802.2968750000,131179.1562500000,117316.6484375000,123016.4453125000,115062.6015625000,132702.6093750000,,,
1.5079999976,11,144602.6250000000,122778.3515625000,157796.8125000000,131180.8750000000,117313.0234375000,123014.9765625000,115062.7578125000,132697.6406250000,,,
1.5119999975,11,144608.0781250000,122782.9062500000,157800.5000000000,131182.1875000000,117316.2968750000,123019.4296875000,115067.8046875000,132701.9062500000,,,
1.5159999975,11,144628.3437500000,122803.0781250000,157820.8750000000,131196.7031250000,117334.9375000000,123036.9921875000,115089.0703125000,132722.0312500000,,,
1.5199999977,11,144622.6406250000,122796.4296875000,157815.4062500000,131188.3593750000,117328.7968750000,123034.1250000000,115087.0625000000,132715.2656250000,,,
1.5239999976,11,144609.8437500000,122784.7890625000,157804.8593750000,131177.9218750000,117317.3984375000,123024.7890625000,115075.9296875000,132703.6250000000,,,
1.5279999976,11,144608.3125000000,122784.6015625000,157804.8437500000,131176.0312500000,117315.3359375000,123027.2578125000,115069.7343750000,132704.1562500000,,,
1.5319999976,11,144619.4687500000,122797.1015625000,157818.7343750000,131189.7656250000,117326.3046875000,123035.8671875000,115074.0234375000,132716.5000000000,,,
1.5359999975,12,144632.2343750000,122812.6796875000,157835.1718750000,131203.8906250000,117340.3593750000,123046.1171875000,115082.7187500000,132731.7031250000,,,
1.5399999975,12,144627.9531250000,122811.3437500000,157833.4531250000,131207.0625000000,117338.4296875000,123038.7656250000,115077.0312500000,132731.0625000000,,,
1.5439999974,12,144614.3750000000,122798.5156250000,157820.7500000000,131190.7500000000,117326.2500000000,123023.5000000000,115065.1484375000,132717.9687500000,,,
1.5479999974,12,144610.0781250000,122794.9218750000,157814.3281250000,131176.7500000000,117321.5312500000,123026.2109375000,115064.8515625000,132714.5937500000,,,
1.5519999973,12,144612.4218750000,122800.2890625000,157814.5156250000,131181.7187500000,117323.1640625000,123036.7812500000,115067.7500000000,132719.7500000000,,,
1.5559999973,12,144616.7968750000,122803.9140625000,157815.5156250000,131188.6875000000,117327.2968750000,123041.0468750000,115071.4218750000,132723.5312500000,,,
1.5599999975,12,144616.5781250000,122802.1640625000,157814.5468750000,131188.9843750000,117328.0468750000,123037.5546875000,115072.7656250000,132722.4062500000,,,
1.5639999975,12,144607.1093750000,122789.2890625000,157803.7343750000,131178.2187500000,117317.8281250000,123021.7578125000,115064.2109375000,132709.4218750000,,,
1.5679999974,12,144609.9218750000,122789.6953125000,157807.5000000000,131191.8437500000,117318.5781250000,123020.4453125000,115063.8593750000,132709.1562500000,,,
1.5719999974,12,144615.2656250000,122795.2734375000,157814.8125000000,131202.4375000000,117322.8437500000,123022.5625000000,115061.4687500000,132714.1093750000,,,
1.5759999973,12,144622.0781250000,122800.6953125000,157824.1250000000,131215.6406250000,117330.7265625000,123022.0312500000,115064.3125000000,132720.2031250000,,,
1.5799999975,12,144618.5312500000,122797.9062500000,157823.2968750000,131206.4687500000,117327.7265625000,123015.3203125000,115059.6250000000,132717.3593750000,,,
1.5839999975,12,144602.0937500000,122781.5937500000,157808.1875000000,131175.6250000000,117312.5703125000,122998.0781250000,115042.6718750000,132700.0625000000,,,
1.5879999974,12,144603.6406250000,122776.0703125000,157802.7812500000,131166.7656250000,117312.8125000000,122995.9843750000,115044.1484375000,132694.4218750000,,,
1.5919999974,12,144629.4531250000,122794.0937500000,157818.8593750000,131188.5312500000,117334.2187500000,123018.4062500000,115067.3984375000,132712.8281250000,,,
1.5959999973,12,144640.0781250000,122803.4843750000,157824.2656250000,131198.0937500000,117342.2656250000,123030.5000000000,115076.8125000000,132722.7968750000,,,
1.5999999973,12,144640.0156250000,122803.9921875000,157823.6875000000,131195.5468750000,117342.2343750000,123026.0000000000,115077.3515625000,132722.6406250000,,,
1.6039999975,12,144631.9531250000,122800.3671875000,157818.5937500000,131192.3125000000,117334.0000000000,123018.1406250000,115071.6875000000,132719.0937500000,,,
1.6079999974,12,144630.4687500000,122802.6250000000,157819.3281250000,131194.0468750000,117331.8515625000,123019.5312500000,115071.9609375000,132721.4531250000,,,
1.6119999974,12,144633.4687500000,122809.3593750000,157824.8750000000,131196.7812500000,117333.7578125000,123028.2812500000,115071.2343750000,132728.0781250000,,,
1.6159999974,12,144636.5625000000,122816.1718750000,157832.0156250000,131202.9843750000,117336.3046875000,123038.2812500000,115072.0937500000,132734.3281250000,,,
1.6199999973,12,144629.6406250000,122810.2109375000,157830.7187500000,131200.9218750000,117331.5859375000,123031.2812500000,115072.4140625000,132728.7343750000,,,
1.6239999975,12,144627.0312500000,122809.0859375000,157831.8437500000,131202.9843750000,117331.3203125000,123029.5625000000,115076.6015625000,132728.4062500000,,,
1.6279999975,12,144620.1718750000,122802.8125000000,157822.5156250000,131195.5781250000,117323.8046875000,123026.7187500000,115074.2890625000,132722.0781250000,,,
1.6319999974,12,144627.7656250000,122809.8125000000,157824.6093750000,131196.1875000000,117329.6015625000,123044.3437500000,115085.9375000000,132729.1093750000,,,
1.6359999974,12,144638.3750000000,122817.1328125000,157827.9843750000,131199.4687500000,117338.6171875000,123057.5703125000,115103.2109375000,132735.9218750000,,,
1.6399999973,12,144635.0781250000,122810.7500000000,157819.7500000000,131195.6562500000,117335.3437500000,123051.0468750000,115101.0312500000,132729.9843750000,,,
1.6439999973,12,144624.1875000000,122798.2812500000,157806.8437500000,131187.7187500000,117326.4609375000,123037.7187500000,115087.2187500000,132717.2187500000,,,
1.6479999975,12,144622.1250000000,122797.5546875000,157804.0000000000,131184.3593750000,117323.7578125000,123044.1328125000,115086.9531250000,132716.6562500000,,,
1.6519999974,12,144628.5156250000,122803.6953125000,157809.9375000000,131188.9843750000,117329.0625000000,123064.8359375000,115103.3437500000,132722.7187500000,,,
1.6559999974,12,144641.0312500000,122814.2343750000,157821.3593750000,131206.6875000000,117340.4375000000,123085.6250000000,115123.0546875000,132733.2343750000,,,
1.6599999974,12,144644.9843750000,122814.9375000000,157825.0312500000,131213.9218750000,117344.4062500000,123087.6875000000,115134.1328125000,132733.6875000000,,,
1.6639999973,13,144635.1562500000,122803.9140625000,157817.1562500000,131202.5781250000,117334.8828125000,123084.2578125000,115131.9062500000,132722.5000000000,,,
1.6679999973,13,144643.7968750000,122810.3515625000,157828.7343750000,131214.8437500000,117343.5468750000,123098.8984375000,115143.3046875000,132728.7500000000,,,
1.6719999972,13,144658.6093750000,122825.1250000000,157845.2343750000,131227.7343750000,117355.5625000000,123123.0156250000,115155.2656250000,132743.7187500000,,,
1.6759999972,13,144667.4843750000,122833.4687500000,157852.8750000000,131239.1406250000,117360.3906250000,123134.8984375000,115163.5312500000,132751.6406250000,,,
1.6799999971,13,144665.3437500000,122829.1796875000,157846.8437500000,131230.0781250000,117356.9296875000,123125.9609375000,115159.9921875000,132747.1250000000,,,
1.6839999971,13,144667.9375000000,122827.5156250000,157842.4375000000,131209.4218750000,117358.3046875000,123121.4296875000,115161.2265625000,132745.9687500000,,,
1.6879999973,13,144672.2343750000,122825.9843750000,157839.5468750000,131183.2343750000,117363.3671875000,123128.7812500000,115164.7656250000,132744.3125000000,,,
1.6919999972,13,144680.8750000000,122832.2343750000,157843.9531250000,131181.2500000000,117369.5703125000,123146.7812500000,115171.5000000000,132750.0781250000,,,
1.6959999972,13,144693.0937500000,122848.1171875000,157858.3750000000,131192.8750000000,117381.3437500000,123163.5390625000,115178.8203125000,132765.6875000000,,,
1.6999999972,13,144686.6406250000,122846.7968750000,157856.0625000000,131195.9218750000,117377.9062500000,123159.7578125000,115175.7890625000,132764.7812500000,,,
1.7039999971,13,144668.4843750000,122832.2578125000,157842.7343750000,131190.1406250000,117363.3984375000,123143.5625000000,115163.2890625000,132750.8281250000,,,
1.7079999973,13,144653.8593750000,122820.8593750000,157829.4687500000,131181.1250000000,117349.9843750000,123133.5546875000,115150.2265625000,132739.3281250000,,,
1.7119999973,13,144652.7031250000,122821.2656250000,157826.8281250000,131182.9687500000,117348.4062500000,123138.7812500000,115152.5859375000,132740.5000000000,,,
1.7159999972,13,144662.1406250000,122830.4609375000,157837.3281250000,131199.7968750000,117357.2031250000,123151.6562500000,115165.9140625000,132750.3750000000,,,
1.7199999972,13,144660.6250000000,122828.2656250000,157837.8593750000,131204.9062500000,117356.6640625000,123146.3750000000,115163.7187500000,132748.0156250000,,,
1.7239999971,13,144650.0000000000,122820.1093750000,157830.0312500000,131196.8437500000,117346.2890625000,123136.4218750000,115154.2500000000,132739.4375000000,,,
1.7279999971,13,144652.2968750000,122823.6796875000,157832.0625000000,131201.5000000000,117348.0312500000,123144.0390625000,115158.2421875000,132742.7343750000,,,
1.7319999973,13,144660.9375000000,122832.2109375000,157840.2187500000,131211.5156250000,117354.0390625000,123156.6250000000,115165.9687500000,132751.6406250000,,,
1.7359999972,13,144671.2187500000,122843.8203125000,157851.5937500000,131222.7968750000,117361.4687500000,123167.2421875000,115168.9453125000,132762.4375000000,,,
1.7399999972,13,144677.9375000000,122848.4375000000,157857.4062500000,131227.5781250000,117366.9140625000,123163.6484375000,115171.9218750000,132766.5156250000,,,
1.7439999972,13,144683.8125000000,122854.1250000000,157862.4531250000,131244.3125000000,117372.2734375000,123169.3906250000,115176.4296875000,132772.4687500000,,,
1.7479999971,13,144683.9062500000,122852.7812500000,157860.0625000000,131234.9062500000,117372.4609375000,123175.7421875000,115180.1093750000,132770.2812500000,,,
1.7519999973,13,144687.2500000000,122852.5156250000,157861.1875000000,131214.0000000000,117375.2500000000,123181.9687500000,115186.2734375000,132769.4375000000,,,
1.7559999973,13,144695.8906250000,122858.9218750000,157871.5781250000,131225.9687500000,117386.7578125000,123187.3046875000,115188.5000000000,132776.7656250000,,,
1.7599999972,13,144692.8281250000,122856.3203125000,157869.6406250000,131220.5781250000,117386.6562500000,123184.2500000000,115187.3203125000,132774.2968750000,,,
1.7639999972,13,144688.0625000000,122851.0937500000,157862.9375000000,131214.5468750000,117383.0312500000,123184.0078125000,115191.8828125000,132768.7968750000,,,
1.7679999971,13,144678.5312500000,122840.9218750000,157851.5937500000,131199.7343750000,117372.4921875000,123169.7656250000,115180.8281250000,132758.5000000000,,,
1.7719999971,13,144681.5468750000,122842.1015625000,157851.9687500000,131195.7656250000,117372.9453125000,123167.9687500000,115176.7265625000,132759.3906250000,,,
1.7759999973,13,144686.8437500000,122848.7031250000,157856.4375000000,131201.0156250000,117377.6171875000,123177.9687500000,115183.1640625000,132766.6875000000,,,
1.7799999972,13,144698.7343750000,122863.8593750000,157871.3593750000,131223.5468750000,117391.6718750000,123187.0078125000,115197.4843750000,132782.2656250000,,,
1.7839999972,13,144694.8906250000,122864.7421875000,157873.9531250000,131223.0937500000,117390.8906250000,123173.1718750000,115188.6875000000,132782.9375000000,,,
1.7879999971,13,144687.0937500000,122863.8046875000,157872.3281250000,131212.4218750000,117382.3906250000,123166.7578125000,115176.9687500000,132781.7343750000,,,
1.7919999971,14,144684.7343750000,122865.0390625000,157872.2500000000,131212.2343750000,117376.8906250000,123171.5625000000,115174.1250000000,132782.7812500000,,,
1.7959999971,14,144684.2187500000,122866.2187500000,157871.1718750000,131219.8750000000,117375.8984375000,123170.1953125000,115171.3593750000,132784.2187500000,,,
1.7999999970,14,144673.5156250000,122853.7187500000,157861.0000000000,131217.9218750000,117368.4140625000,123145.2734375000,115166.2109375000,132772.3906250000,,,
1.8039999970,14,144657.0312500000,122837.8906250000,157846.3125000000,131202.7187500000,117354.6796875000,123121.8046875000,115156.6406250000,132756.9687500000,,,
1.8079999969,14,144649.0000000000,122831.4843750000,157840.0000000000,131201.4531250000,117347.4375000000,123115.1796875000,115144.3515625000,132750.4843750000,,,
1.8119999969,14,144656.5937500000,122838.9140625000,157845.7500000000,131209.5468750000,117353.7656250000,123127.3281250000,115145.2890625000,132757.5312500000,,,
1.8159999971,14,144653.9687500000,122832.6093750000,157838.4531250000,131205.2031250000,117350.2265625000,123125.3750000000,115141.0234375000,132751.6875000000,,,
1.8199999970,14,144652.8593750000,122825.0468750000,157834.2656250000,131203.9687500000,117350.9765625000,123116.3046875000,115138.1015625000,132743.9062500000,,,
1.8239999970,14,144654.9531250000,122818.5546875000,157832.8906250000,131205.1875000000,117354.9453125000,123107.2656250000,115135.0156250000,132737.4218750000,,,
1.8279999970,14,144657.0312500000,122812.1953125000,157831.2031250000,131198.7968750000,117356.7421875000,123097.1796875000,115133.1171875000,132731.5156250000,,,
1.8319999969,14,144663.1093750000,122814.1015625000,157833.4843750000,131201.3437500000,117360.6875000000,123104.5078125000,115137.7265625000,132733.1562500000,,,
1.8359999971,14,144662.4375000000,122816.0625000000,157835.0625000000,131201.6406250000,117356.4765625000,123108.2109375000,115135.6093750000,132734.6562500000,,,
1.8399999971,14,144664.5625000000,122822.0703125000,157844.1562500000,131211.1562500000,117360.4453125000,123100.1093750000,115134.8828125000,132740.4218750000,,,
1.8439999970,14,144660.6406250000,122824.3750000000,157846.4375000000,131218.6718750000,117356.9609375000,123088.2265625000,115127.3750000000,132743.2343750000,,,
1.8479999970,14,144646.1562500000,122813.5156250000,157832.1718750000,131194.4531250000,117340.4921875000,123074.6562500000,115106.7734375000,132731.6562500000,,,
1.8519999969,14,144644.4375000000,122814.5078125000,157828.3125000000,131191.6875000000,117336.4921875000,123080.6640625000,115102.3515625000,132732.7031250000,,,
1.8559999969,14,144647.1875000000,122820.0546875000,157832.0625000000,131203.1093750000,117339.5234375000,123084.9531250000,115107.8984375000,132738.2812500000,,,
1.8599999971,14,144637.0156250000,122814.7734375000,157827.0156250000,131204.1406250000,117330.5390625000,123071.5703125000,115101.0859375000,132733.3906250000,,,
1.8639999970,14,144624.1718750000,122806.7265625000,157819.6406250000,131193.1093750000,117320.7500000000,123055.8203125000,115093.7890625000,132726.1250000000,,,
1.8679999970,14,144619.5781250000,122803.8281250000,157815.9687500000,131192.0625000000,117318.6562500000,123050.8359375000,115090.8984375000,132723.2812500000,,,
1.8719999969,14,144627.4375000000,122813.7265625000,157823.7968750000,131204.4062500000,117326.5468750000,123063.9531250000,115094.9453125000,132734.1250000000,,,
1.8759999969,14,144635.8281250000,122817.2656250000,157828.7968750000,131217.4375000000,117336.2812500000,123066.2343750000,115106.2890625000,132737.4687500000,,,
1.8799999971,14,144633.6875000000,122812.0625000000,157826.8281250000,131223.3125000000,117336.5468750000,123057.8359375000,115101.9218750000,132732.5312500000,,,
1.8839999971,14,144619.2343750000,122795.2734375000,157814.2031250000,131200.7500000000,117324.0781250000,123038.1250000000,115083.7890625000,132715.4062500000,,,
1.8879999970,14,144619.3437500000,122791.6562500000,157814.5468750000,131200.1093750000,117326.1718750000,123032.9687500000,115083.5234375000,132711.5312500000,,,
1.8919999970,14,144639.8281250000,122808.8203125000,157835.8750000000,131224.7656250000,117349.8515625000,123050.7265625000,115100.0937500000,132728.6718750000,,,
1.8959999969,14,144647.9531250000,122817.5937500000,157845.4218750000,131240.6718750000,117359.4296875000,123057.8593750000,115101.8906250000,132737.1562500000,,,
1.8999999969,14,144645.0937500000,122818.2578125000,157842.3437500000,131227.9843750000,117355.1875000000,123058.1562500000,115097.1171875000,132737.9531250000,,,
1.9039999971,14,144642.3281250000,122812.7109375000,157836.7343750000,131211.8125000000,117353.1015625000,123051.4765625000,115094.2734375000,132732.0625000000,,,
1.9079999970,14,144629.6406250000,122797.6328125000,157822.0625000000,131204.2656250000,117339.9843750000,123036.1875000000,115080.6796875000,132716.9062500000,,,
1.9119999970,14,144636.5000000000,122803.1562500000,157828.6875000000,131210.3593750000,117345.4531250000,123038.1484375000,115089.1015625000,132722.7812500000,,,
1.9159999969,14,144643.9843750000,122810.1875000000,157836.1093750000,131211.9375000000,117353.3125000000,123044.3984375000,115094.9453125000,132729.5625000000,,,
1.9199999969,15,144639.9687500000,122807.2109375000,157834.2968750000,131217.2968750000,117351.1093750000,123035.6015625000,115091.5390625000,132727.1406250000,,,
1.9239999969,15,144634.8437500000,122798.2812500000,157831.6406250000,131219.8750000000,117348.4062500000,123021.6796875000,115085.9843750000,132719.2812500000,,,
1.9279999968,15,144626.5000000000,122785.2187500000,157823.1875000000,131204.3750000000,117339.9843750000,123012.3750000000,115075.5000000000,132706.3125000000,,,
1.9319999968,15,144627.7343750000,122784.8906250000,157825.1718750000,131200.6718750000,117340.4609375000,123015.0312500000,115073.8359375000,132706.0156250000,,,
1.9359999967,15,144640.0781250000,122801.0156250000,157840.3437500000,131217.4375000000,117352.1562500000,123031.0937500000,115085.5312500000,132722.2343750000,,,
1.9399999967,15,144641.5937500000,122808.3359375000,157845.0937500000,131234.5781250000,117351.4375000000,123035.7109375000,115083.1406250000,132729.1562500000,,,
1.9439999969,15,144631.3281250000,122802.0312500000,157835.1718750000,131224.1718750000,117340.4609375000,123021.7031250000,115072.2265625000,132722.5312500000,,,
1.9479999968,15,144617.5156250000,122793.2109375000,157820.8281250000,131218.1406250000,117326.1953125000,123008.8828125000,115059.4843750000,132712.7968750000,,,
1.9519999968,15,144622.1562500000,122800.3437500000,157823.5625000000,131225.7500000000,117328.9843750000,123020.4453125000,115065.5234375000,132719.8281250000,,,
1.9559999967,15,144619.7343750000,122799.5156250000,157820.2031250000,131227.9531250000,117325.7421875000,123022.7265625000,115062.7031250000,132720.0156250000,,,
1.9599999967,15,144613.7812500000,122794.9765625000,157814.7343750000,131228.7343750000,117321.4765625000,123013.3125000000,115055.9218750000,132715.9375000000,,,
1.9639999969,15,144605.8750000000,122788.4609375000,157807.2187500000,131227.9218750000,117315.1718750000,123005.0234375000,115052.7031250000,132708.6406250000,,,
1.9679999969,15,144601.3437500000,122784.7578125000,157801.6250000000,131229.7187500000,117310.3984375000,123004.0859375000,115050.3906250000,132705.2656250000,,,
1.9719999968,15,144609.8906250000,122789.4296875000,157807.2187500000,131242.8593750000,117318.7109375000,123009.4218750000,115057.0468750000,132710.0000000000,,,
1.9759999968,15,144622.2656250000,122796.4531250000,157816.8281250000,131254.2968750000,117332.2812500000,123021.1171875000,115070.7500000000,132717.6718750000,,,
1.9799999967,15,144625.3437500000,122794.9765625000,157818.6250000000,131246.8906250000,117338.4531250000,123024.2265625000,115072.0703125000,132716.0156250000,,,
1.9839999967,15,144622.4218750000,122791.1171875000,157817.9218750000,131232.3281250000,117337.9140625000,123018.4843750000,115068.9531250000,132712.0781250000,,,
1.9879999969,15,144615.5625000000,122783.7109375000,157812.6250000000,131222.0468750000,117331.1875000000,123009.7187500000,115063.4062500000,132703.8593750000,,,
1.9919999968,15,144629.1875000000,122796.0546875000,157825.4687500000,131232.8906250000,117343.6562500000,123024.6328125000,115074.4531250000,132716.2031250000,,,
1.9959999968,15,144640.6406250000,122805.6562500000,157836.1718750000,131239.1875000000,117354.2500000000,123032.3046875000,115080.5937500000,132725.4062500000,,,
1.9999999967,15,144641.7656250000,122806.7265625000,157834.5312500000,131226.7656250000,117353.4218750000,123030.0234375000,115078.8281250000,132726.0937500000,,,
2.0039999967,15,144634.5781250000,122800.6640625000,157826.6250000000,131219.2812500000,117345.6718750000,123023.0703125000,115073.1953125000,132720.5156250000,,,
2.0079999969,15,144632.7500000000,122802.5703125000,157826.7812500000,131221.2812500000,117343.1171875000,123022.6953125000,115073.6484375000,132723.2500000000,,,
2.0119999968,15,144632.0781250000,122806.0312500000,157827.4843750000,131212.6406250000,117341.6953125000,123026.5312500000,115075.2343750000,132726.1875000000,,,
2.0159999968,15,144636.2968750000,122811.4765625000,157832.5781250000,131216.5312500000,117346.3359375000,123036.0000000000,115081.6171875000,132731.5937500000,,,
2.0199999968,15,144637.4218750000,122813.0312500000,157834.0156250000,131221.7500000000,117349.0234375000,123036.5390625000,115088.2656250000,132733.0468750000,,,
2.0239999967,15,144629.3750000000,122805.9218750000,157826.3750000000,131228.7031250000,117343.7656250000,123029.0000000000,115083.2500000000,132726.3906250000,,,
2.0279999967,15,144621.2656250000,122796.0781250000,157817.6562500000,131226.1093750000,117336.3046875000,123023.6406250000,115073.9140625000,132717.0937500000,,,
2.0319999969,15,144625.5156250000,122797.8750000000,157822.0312500000,131227.7343750000,117339.4453125000,123031.9531250000,115076.9453125000,132718.3281250000,,,
2.0359999968,15,144631.2812500000,122803.0234375000,157828.2500000000,131232.0000000000,117343.1718750000,123036.3750000000,115081.7734375000,132723.9843750000,,,
2.0399999968,15,144629.2656250000,122801.2031250000,157827.2343750000,131229.7187500000,117340.1171875000,123030.2109375000,115079.2265625000,132722.5000000000,,,
2.0439999967,15,144625.6093750000,122799.7500000000,157823.2343750000,131225.5625000000,117337.2968750000,123025.2734375000,115073.1953125000,132720.3906250000,,,
2.0479999967,16,144617.7031250000,122793.1015625000,157812.5156250000,131213.7031250000,117327.4531250000,123018.0078125000,115064.9296875000,132712.9843750000,,,
2.0519999966,16,144625.9375000000,122802.5390625000,157817.9531250000,131217.0312500000,117332.8437500000,123030.1562500000,115073.4375000000,132722.0468750000,,,
2.0559999966,16,144640.2656250000,122817.2421875000,157830.8906250000,131230.1718750000,117346.8750000000,123043.1093750000,115089.6875000000,132736.7500000000,,,
2.0599999966,16,144636.3750000000,122813.9453125000,157827.4531250000,131231.4375000000,117343.4140625000,123037.5859375000,115088.2968750000,132734.1250000000,,,
2.0639999965,16,144624.6718750000,122801.8203125000,157816.1250000000,131212.6875000000,117333.5468750000,123028.4921875000,115079.8437500000,132721.9687500000,,,
2.0679999965,16,144619.2031250000,122791.0390625000,157808.6250000000,131198.6093750000,117329.5781250000,123022.3515625000,115075.4765625000,132711.2656250000,,,
2.0719999967,16,144631.5937500000,122798.7109375000,157817.7187500000,131205.3750000000,117341.1875000000,123031.2265625000,115086.0703125000,132718.8906250000,,,
2.0759999966,16,144640.0468750000,122802.8359375000,157823.8593750000,131218.4062500000,117347.7890625000,123036.0000000000,115091.6718750000,132722.9843750000,,,
2.0799999966,16,144644.9531250000,122805.2265625000,157829.7343750000,131229.1093750000,117352.5859375000,123037.2109375000,115094.8906250000,132725.5312500000,,,
2.0839999965,16,144635.0625000000,122796.4843750000,157823.0000000000,131214.5625000000,117343.4140625000,123029.6171875000,115086.6015625000,132716.6875000000,,,
2.0879999965,16,144628.8906250000,122792.5625000000,157819.5156250000,131226.3125000000,117339.0468750000,123026.2656250000,115080.8125000000,132713.1250000000,,,
2.0919999967,16,144627.7812500000,122795.3515625000,157817.8750000000,131218.4062500000,117336.5781250000,123027.5234375000,115075.9843750000,132715.6875000000,,,
2.0959999966,16,144624.0937500000,122793.5859375000,157814.3281250000,131209.6875000000,117332.8750000000,123022.9921875000,115070.0781250000,132714.1406250000,,,
2.0999999966,16,144625.8281250000,122792.0546875000,157814.6562500000,131211.1562500000,117335.2343750000,123020.6875000000,115075.0703125000,132713.2187500000,,,
2.1039999966,16,144619.2343750000,122781.0312500000,157805.5625000000,131208.9843750000,117329.7656250000,123007.6796875000,115072.1484375000,132701.5312500000,,,
2.1079999965,16,144614.5625000000,122778.3515625000,157802.9687500000,131216.1718750000,117325.9843750000,123002.7187500000,115065.7656250000,132698.5312500000,,,
2.1119999965,16,144625.7187500000,122789.7734375000,157812.9687500000,131224.0312500000,117335.3125000000,123013.2031250000,115072.2578125000,132709.5781250000,,,
2.1159999967,16,144638.8437500000,122800.1562500000,157824.4687500000,131218.3437500000,117346.7656250000,123023.8515625000,115083.1953125000,132719.9375000000,,,
2.1199999966,16,144644.5468750000,122804.1015625000,157829.0625000000,131213.7656250000,117352.5312500000,123030.9843750000,115092.7500000000,132723.9218750000,,,
2.1239999966,16,144639.7031250000,122797.1796875000,157821.0468750000,131207.4843750000,117346.9531250000,123026.3203125000,115090.5234375000,132716.9531250000,,,
2.1279999965,16,144638.8593750000,122798.1953125000,157818.8593750000,131212.1875000000,117345.0234375000,123028.0859375000,115089.6875000000,132717.8906250000,,,
2.1319999965,16,144637.4687500000,122798.7109375000,157817.5468750000,131213.8437500000,117342.1796875000,123030.9609375000,115090.1484375000,132718.5156250000,,,
2.1359999967,16,144638.8593750000,122802.6796875000,157821.6875000000,131221.1718750000,117342.8750000000,123034.9531250000,115094.3593750000,132722.9375000000,,,
2.1399999966,16,144636.9687500000,122807.7187500000,157825.2031250000,131225.6250000000,117342.4531250000,123040.1875000000,115092.2109375000,132728.4375000000,,,
2.1439999966,16,144629.7656250000,122806.4062500000,157822.7500000000,131220.0937500000,117339.2343750000,123033.5078125000,115086.5468750000,132727.2031250000,,,
2.1479999966,16,144626.0468750000,122802.0312500000,157819.0468750000,131206.6875000000,117337.6250000000,123025.8671875000,115084.0000000000,132722.7812500000,,,
2.1519999965,16,144630.0625000000,122806.0000000000,157821.5156250000,131203.2812500000,117338.8281250000,123031.0937500000,115081.9921875000,132725.8281250000,,,
2.1559999965,16,144637.1718750000,122812.5468750000,157827.6875000000,131208.0312500000,117343.4921875000,123035.3046875000,115081.9921875000,132732.1875000000,,,
2.1599999967,16,144640.9843750000,122814.0468750000,157829.4687500000,131205.6562500000,117346.7656250000,123035.5156250000,115085.7187500000,132733.9062500000,,,
2.1639999966,16,144633.0156250000,122805.9218750000,157820.6562500000,131205.2656250000,117338.6171875000,123024.8750000000,115077.0546875000,132725.8281250000,,,
2.1679999966,16,144621.0000000000,122793.6093750000,157808.3593750000,131201.9843750000,117327.0546875000,123014.0625000000,115063.8046875000,132713.4062500000,,,
2.1719999965,16,144626.8750000000,122794.8984375000,157811.6562500000,131214.9375000000,117332.1484375000,123018.8906250000,115069.4375000000,132714.3281250000,,,
2.1759999965,17,144646.0000000000,122809.4921875000,157828.9218750000,131233.0781250000,117352.0546875000,123035.1953125000,115087.2187500000,132728.5468750000,,,
2.1799999964,17,144645.4062500000,122807.6640625000,157827.9531250000,131223.1562500000,117353.3359375000,123037.0234375000,115090.0625000000,132727.1406250000,,,
2.1839999964,17,144635.2500000000,122795.7812500000,157817.7968750000,131212.0468750000,117344.9687500000,123026.1875000000,115082.2890625000,132715.1093750000,,,
2.1879999964,17,144630.1250000000,122789.9921875000,157813.0000000000,131204.0312500000,117339.7421875000,123021.5156250000,115076.6796875000,132709.3437500000,,,
2.1919999963,17,144637.5000000000,122794.8750000000,157818.8125000000,131208.8281250000,117346.0703125000,123028.0390625000,115088.4531250000,132714.4062500000,,,
2.1959999963,17,144646.5156250000,122804.9296875000,157828.0156250000,131221.8593750000,117353.7187500000,123035.7109375000,115099.4531250000,132724.3593750000,,,
2.1999999965,17,144651.6875000000,122810.9140625000,157834.2968750000,131230.6406250000,117358.7031250000,123037.7421875000,115105.0312500000,132730.6562500000,,,
2.2039999964,17,144652.2500000000,122811.3906250000,157836.4375000000,131229.7968750000,117359.2968750000,123031.4453125000,115106.8046875000,132731.4687500000,,,
2.2079999964,17,144643.8593750000,122805.5703125000,157830.4218750000,131230.9531250000,117351.3281250000,123022.0546875000,115096.2343750000,132725.7812500000,,,
2.2119999963,17,144646.7187500000,122808.0703125000,157831.2812500000,131233.1562500000,117353.1796875000,123030.0781250000,115098.2187500000,132728.2187500000,,,
2.2159999963,17,144656.0625000000,122815.6015625000,157836.6250000000,131222.0468750000,117359.8281250000,123043.1640625000,115106.6171875000,132735.3281250000,,,
2.2199999965,17,144651.9843750000,122811.9062500000,157830.5625000000,131220.5000000000,117355.7500000000,123041.1796875000,115101.8359375000,132731.7656250000,,,
2.2239999964,17,144633.2031250000,122795.1640625000,157809.4531250000,131198.8750000000,117337.9453125000,123021.8906250000,115087.4062500000,132714.8593750000,,,
2.2279999964,17,144620.9218750000,122783.7109375000,157795.0000000000,131179.0312500000,117325.5000000000,123011.5156250000,115077.1875000000,132703.0000000000,,,
2.2319999964,17,144633.9843750000,122795.0625000000,157805.8906250000,131191.0468750000,117336.7343750000,123030.3437500000,115088.5078125000,132714.6250000000,,,
2.2359999963,17,144653.1093750000,122813.3828125000,157825.2968750000,131212.5000000000,117355.4843750000,123048.5000000000,115107.3671875000,132732.6250000000,,,
2.2399999963,17,144650.9062500000,122815.6562500000,157827.3437500000,131214.0000000000,117353.6093750000,123047.0234375000,115109.1328125000,132734.7343750000,,,
2.2439999965,17,144642.1875000000,122812.4375000000,157823.4531250000,131204.1562500000,117346.4765625000,123040.0234375000,115103.9062500000,132731.6250000000,,,
2.2479999964,17,144630.5781250000,122804.3671875000,157816.0781250000,131202.4375000000,117335.8281250000,123027.3671875000,115091.8359375000,132723.8281250000,,,
2.2519999964,17,144625.4218750000,122800.8281250000,157811.3281250000,131204.1562500000,117329.6015625000,123032.6484375000,115089.1796875000,132719.8750000000,,,
2.2559999963,17,144635.8593750000,122810.7500000000,157820.6562500000,131219.6875000000,117338.5312500000,123053.9765625000,115103.6875000000,132730.0937500000,,,
2.2599999963,17,144639.3750000000,122813.3828125000,157824.5312500000,131225.5312500000,117343.0703125000,123057.5390625000,115105.4296875000,132732.7187500000,,,
2.2639999965,17,144628.1562500000,122801.6015625000,157812.6250000000,131215.5312500000,117334.1328125000,123042.8984375000,115093.8750000000,132720.3906250000,,,
2.2679999964,17,144620.0312500000,122789.9062500000,157800.6250000000,131207.0625000000,117326.2500000000,123032.3828125000,115085.8515625000,132708.5781250000,,,
2.2719999964,17,144628.3437500000,122791.8671875000,157805.7500000000,131210.0312500000,117334.0000000000,123034.8515625000,115090.9218750000,132710.6718750000,,,
2.2759999963,17,144644.3437500000,122803.1093750000,157820.6875000000,131216.2031250000,117349.2109375000,123043.6171875000,115102.1328125000,132721.2500000000,,,
2.2799999963,17,144647.9375000000,122804.7968750000,157825.1093750000,131222.4843750000,117353.4453125000,123036.5937500000,115101.6484375000,132722.9375000000,,,
2.2839999963,17,144645.2187500000,122800.1250000000,157822.6718750000,131212.7656250000,117352.1875000000,123027.3359375000,115095.9687500000,132718.7500000000,,,
2.2879999964,17,144642.4531250000,122796.5312500000,157819.6406250000,131203.8593750000,117349.9062500000,123025.6484375000,115089.9296875000,132715.2031250000,,,
2.2919999964,17,144651.6093750000,122806.9140625000,157827.0156250000,131211.9687500000,117358.8906250000,123040.4843750000,115096.3906250000,132725.7031250000,,,
2.2959999964,17,144658.4687500000,122816.0625000000,157833.4375000000,131219.2656250000,117363.8515625000,123051.7187500000,115106.3984375000,132735.4687500000,,,
2.2999999963,17,144650.3750000000,122810.0781250000,157827.3906250000,131216.7656250000,117354.6796875000,123047.8593750000,115103.7734375000,132729.7500000000,,,
2.3039999963,18,144629.5625000000,122792.1875000000,157810.7187500000,131208.4062500000,117336.1171875000,123030.9609375000,115086.1250000000,132711.9062500000,,,
2.3079999962,18,144616.3906250000,122780.2031250000,157799.5781250000,131204.0000000000,117326.4375000000,123017.7656250000,115077.0859375000,132699.7343750000,,,
2.3119999962,18,144621.4843750000,122785.4843750000,157804.1093750000,131213.2031250000,117330.5937500000,123023.8281250000,115080.6796875000,132705.0781250000,,,
2.3159999961,18,144633.3906250000,122796.8828125000,157815.0000000000,131232.2968750000,117339.8515625000,123034.7656250000,115086.2031250000,132716.7343750000,,,
2.3199999961,18,144636.3750000000,122801.1250000000,157818.5781250000,131225.9687500000,117342.3671875000,123034.1015625000,115084.9921875000,132720.9218750000,,,
2.3239999961,18,144626.3593750000,122794.8203125000,157810.5468750000,131208.1250000000,117332.0156250000,123020.2031250000,115075.4765625000,132714.5625000000,,,
2.3279999963,18,144621.3437500000,122793.9296875000,157807.7031250000,131198.8437500000,117326.7031250000,123013.8750000000,115068.4218750000,132713.1250000000,,,
2.3319999962,18,144624.5937500000,122798.7109375000,157809.0000000000,131198.4218750000,117328.4453125000,123018.6718750000,115065.8671875000,132717.2187500000,,,
2.3359999962,18,144635.0781250000,122806.9453125000,157815.3593750000,131208.8281250000,117339.0937500000,123034.5234375000,115077.8906250000,132725.5937500000,,,
2.3399999961,18,144647.7656250000,122816.7890625000,157825.8125000000,131233.8281250000,117354.2265625000,123048.2578125000,115093.6875000000,132735.9375000000,,,
2.3439999961,18,144637.0625000000,122807.2890625000,157815.2656250000,131232.8906250000,117344.7578125000,123037.2343750000,115086.8437500000,132727.0156250000,,,
2.3479999963,18,144621.3437500000,122793.7968750000,157802.9843750000,131221.9687500000,117329.9218750000,123027.3359375000,115074.2109375000,132713.3906250000,,,
2.3519999962,18,144620.6562500000,122789.5078125000,157802.3750000000,131200.2968750000,117327.6953125000,123029.2968750000,115075.8203125000,132708.5000000000,,,
2.3559999962,18,144638.0000000000,122801.5468750000,157820.1875000000,131223.3125000000,117346.5234375000,123042.0078125000,115094.0078125000,132721.3750000000,,,
2.3599999961,18,144650.3125000000,122811.0156250000,157833.0000000000,131235.2500000000,117360.7187500000,123052.8203125000,115107.0390625000,132730.4218750000,,,
2.3639999961,18,144644.3437500000,122806.7031250000,157828.9218750000,131226.7968750000,117354.1406250000,123042.6796875000,115097.3359375000,132725.8906250000,,,
2.3679999961,18,144640.0468750000,122804.2343750000,157824.7656250000,131219.6875000000,117347.2265625000,123035.5703125000,115088.1328125000,132723.7187500000,,,
2.3719999962,18,144647.1562500000,122812.0625000000,157828.8125000000,131231.2500000000,117350.8984375000,123040.2421875000,115090.6796875000,132731.2500000000,,,
2.3759999962,18,144661.7187500000,122828.1328125000,157842.3437500000,131242.5937500000,117363.2343750000,123058.5625000000,115102.4531250000,132746.1875000000,,,
2.3799999962,18,144663.2500000000,122828.8828125000,157842.6562500000,131239.7343750000,117365.6796875000,123063.0937500000,115102.4843750000,132747.2968750000,,,
2.3839999961,18,144660.0781250000,122824.6953125000,157840.9218750000,131237.2656250000,117365.1406250000,123056.5234375000,115097.2265625000,132743.5937500000,,,
2.3879999961,18,144654.0000000000,122817.2109375000,157833.1875000000,131229.2656250000,117359.7500000000,123044.3984375000,115090.1953125000,132736.3750000000,,,
2.3919999963,18,144653.3281250000,122816.8359375000,157828.8125000000,131231.5781250000,117357.2812500000,123044.3203125000,115093.0703125000,132736.2656250000,,,
2.3959999962,18,144652.0625000000,122819.9765625000,157827.6406250000,131233.0781250000,117356.0234375000,123053.3593750000,115098.1875000000,132739.6718750000,,,
2.3999999962,18,144647.3437500000,122816.4375000000,157824.1562500000,131227.6562500000,117351.7812500000,123050.3515625000,115098.0546875000,132736.5937500000,,,
2.4039999961,18,144642.8125000000,122807.7968750000,157820.0781250000,131217.3281250000,117348.0859375000,123039.2734375000,115095.1640625000,132727.3281250000,,,
2.4079999961,18,144637.2343750000,122796.8046875000,157814.3906250000,131195.3437500000,117340.6796875000,123031.1718750000,115088.0546875000,132716.6250000000,,,
2.4119999961,18,144639.7187500000,122793.1562500000,157817.3437500000,131199.0156250000,117342.0234375000,123030.6093750000,115085.2343750000,132713.0937500000,,,
2.4159999962,18,144650.6875000000,122802.0859375000,157828.5468750000,131217.2031250000,117351.8671875000,123039.8906250000,115094.1718750000,132722.0468750000,,,
2.4199999962,18,144650.5312500000,122803.8046875000,157827.6093750000,131213.8437500000,117351.0078125000,123041.4453125000,115092.6640625000,132723.3125000000,,,
2.4239999962,18,144651.2500000000,122809.3593750000,157828.3125000000,131217.6875000000,117353.2343750000,123043.5156250000,115094.0078125000,132728.3750000000,,,
2.4279999961,18,144646.4062500000,122810.8281250000,157825.1093750000,131225.1875000000,117349.9609375000,123041.3671875000,115090.1171875000,132729.3437500000,,,
2.4319999961,19,144648.8750000000,122817.3984375000,157827.4843750000,131229.6718750000,117351.4921875000,123046.4062500000,115094.1953125000,132736.2187500000,,,
2.4359999960,19,144653.9062500000,122825.5546875000,157833.7812500000,131225.6718750000,117356.3984375000,123052.4140625000,115100.2812500000,132744.8437500000,,,
2.4399999960,19,144649.5625000000,122825.1796875000,157833.1562500000,131218.2500000000,117354.6562500000,123046.8359375000,115094.6484375000,132744.2031250000,,,
2.4439999959,19,144645.9531250000,122824.7812500000,157832.4687500000,131223.3125000000,117353.4765625000,123041.3906250000,115090.7578125000,132743.4843750000,,,
2.4479999959,19,144640.0937500000,122821.2656250000,157828.1718750000,131237.7187500000,117348.3515625000,123032.9687500000,115085.3437500000,132739.5937500000,,,
2.4519999959,19,144640.1562500000,122819.3046875000,157826.1093750000,131242.0312500000,117347.0078125000,123031.5000000000,115084.8593750000,132737.2031250000,,,
2.4559999960,19,144639.7500000000,122814.1875000000,157823.1562500000,131234.9062500000,117345.2656250000,123031.8750000000,115084.0312500000,132731.9218750000,,,
2.4599999960,19,144641.2187500000,122809.1953125000,157822.4062500000,131216.3906250000,117346.3671875000,123033.3437500000,115086.6015625000,132727.2031250000,,,
2.4639999960,19,144632.4062500000,122797.1250000000,157814.0937500000,131198.0937500000,117337.1640625000,123021.7578125000,115074.6171875000,132715.5625000000,,,
2.4679999959,19,144629.9375000000,122793.2890625000,157811.0937500000,131195.2500000000,117333.6015625000,123017.0625000000,115071.1015625000,132712.0000000000,,,
2.4719999959,19,144638.6250000000,122802.4921875000,157818.4062500000,131203.6562500000,117340.4375000000,123026.7500000000,115080.0078125000,132721.2500000000,,,
2.4759999961,19,144649.9687500000,122816.5937500000,157830.1562500000,131217.2968750000,117350.2031250000,123038.1718750000,115089.5312500000,132735.0625000000,,,
2.4799999960,19,144656.8906250000,122827.0859375000,157839.1406250000,131228.0000000000,117358.1406250000,123039.2734375000,115093.4687500000,132745.6250000000,,,
2.4839999960,19,144645.0937500000,122819.0937500000,157829.5156250000,131215.6406250000,117348.4843750000,123029.2734375000,115082.9062500000,132737.8750000000,,,
2.4879999959,19,144638.1093750000,122815.4140625000,157823.8593750000,131212.1875000000,117342.3671875000,123023.6093750000,115081.4843750000,132733.6875000000,,,
2.4919999959,19,144643.3750000000,122818.0156250000,157828.4218750000,131227.4687500000,117348.4296875000,123027.8203125000,115090.5703125000,132736.2968750000,,,
2.4959999959,19,144650.5937500000,122818.4765625000,157832.5000000000,131221.2187500000,117357.0156250000,123035.8671875000,115104.8437500000,132737.3906250000,,,
2.4999999960,19,144651.7187500000,122816.9218750000,157831.6562500000,131214.9687500000,117358.0312500000,123036.1875000000,115109.4062500000,132735.8593750000,,,
2.5039999960,19,144645.1718750000,122814.2109375000,157828.4218750000,131216.6093750000,117352.5312500000,123026.5859375000,115097.8437500000,132733.1250000000,,,
2.5079999960,19,144642.5625000000,122811.1796875000,157827.6093750000,131218.7812500000,117350.3046875000,123021.2265625000,115092.6953125000,132729.9687500000,,,
2.5119999959,19,144644.8125000000,122812.4921875000,157831.4218750000,131222.2656250000,117350.5234375000,123027.3125000000,115090.8437500000,132730.9062500000,,,
2.5159999959,19,144647.0937500000,122818.2343750000,157836.4687500000,131215.4062500000,117351.9140625000,123035.0625000000,115092.7187500000,132737.7343750000,,,
2.5199999961,19,144648.1250000000,122823.2734375000,157842.6875000000,131210.3593750000,117355.9687500000,123037.6406250000,115094.5468750000,132743.7031250000,,,
2.5239999960,19,144639.0468750000,122813.1406250000,157834.4218750000,131200.2968750000,117350.3359375000,123026.6171875000,115082.1484375000,132733.0156250000,,,
2.5279999960,19,144631.1875000000,122802.4921875000,157820.8750000000,131194.9843750000,117342.9062500000,123015.9375000000,115072.4453125000,132722.1093750000,,,
2.5319999959,19,144632.8906250000,122802.9218750000,157815.8593750000,131198.3750000000,117342.6406250000,123020.3671875000,115077.2734375000,132722.2187500000,,,
2.5359999959,19,144643.3437500000,122813.1406250000,157822.6718750000,131217.9218750000,117350.2265625000,123031.5000000000,115090.6015625000,132732.0000000000,,,
2.5399999958,19,144650.2968750000,122819.7343750000,157829.0000000000,131235.1718750000,117357.8437500000,123035.6250000000,115099.2343750000,132738.9531250000,,,
2.5439999960,19,144641.6250000000,122811.7421875000,157821.7968750000,131223.8437500000,117350.3593750000,123027.2578125000,115089.7187500000,132731.2812500000,,,
2.5479999960,19,144630.3125000000,122802.7812500000,157812.5625000000,131214.4062500000,117337.6250000000,123021.9453125000,115075.4453125000,132721.9218750000,,,
2.5519999960,19,144627.0625000000,122797.8515625000,157808.8125000000,131205.2343750000,117332.6875000000,123018.9687500000,115074.1328125000,132716.4218750000,,,
2.5559999959,19,144640.5781250000,122806.1093750000,157822.3593750000,131215.9062500000,117346.5546875000,123029.5078125000,115089.1562500000,132724.8906250000,,,
2.5599999959,20,144648.2187500000,122813.0000000000,157832.1406250000,131225.4531250000,117355.8906250000,123037.8515625000,115098.0546875000,132732.2187500000,,,
2.5639999958,20,144634.2187500000,122798.4687500000,157816.4843750000,131216.5781250000,117343.7343750000,123026.3984375000,115084.9140625000,132718.1875000000,,,
2.5679999958,20,144619.0468750000,122782.5312500000,157796.3437500000,131205.4531250000,117328.6328125000,123012.9609375000,115073.0625000000,132702.7656250000,,,
2.5719999957,20,144615.2812500000,122786.6406250000,157793.1250000000,131197.8281250000,117322.8125000000,123017.4140625000,115071.1796875000,132706.0937500000,,,
2.5759999957,20,144620.1093750000,122800.0234375000,157800.5468750000,131203.2812500000,117326.0859375000,123027.4218750000,115074.7734375000,132719.0468750000,,,
2.5799999957,20,144630.5781250000,122811.4453125000,157810.7187500000,131215.6406250000,117336.5234375000,123035.9218750000,115086.2265625000,132730.1718750000,,,
2.5839999958,20,144626.0156250000,122804.7656250000,157807.7343750000,131202.6875000000,117333.2265625000,123025.8671875000,115083.0625000000,132723.9843750000,,,
2.5879999958,20,144615.0937500000,122791.5468750000,157799.2031250000,131186.3437500000,117323.4296875000,123012.5078125000,115066.7031250000,132711.1875000000,,,
2.5919999958,20,144621.5312500000,122796.3203125000,157807.3281250000,131194.9375000000,117330.5156250000,123016.3437500000,115071.4218750000,132715.6093750000,,,
2.5959999957,20,144632.2656250000,122807.0468750000,157818.7343750000,131207.6718750000,117340.7031250000,123026.2656250000,115082.7187500000,132726.3906250000,,,
2.5999999957,20,144637.7656250000,122813.8359375000,157825.7031250000,131217.1093750000,117347.5703125000,123032.9453125000,115088.3750000000,132733.6406250000,,,
2.6039999959,20,144638.2500000000,122815.8984375000,157828.6875000000,131223.5468750000,117351.1093750000,123032.6484375000,115091.6718750000,132735.8593750000,,,
2.6079999958,20,144635.7500000000,122811.8203125000,157826.6406250000,131235.2500000000,117350.0703125000,123028.5468750000,115085.2343750000,132731.3906250000,,,
2.6119999958,20,144634.0156250000,122807.3203125000,157823.7968750000,131243.5156250000,117347.7031250000,123027.1484375000,115080.4375000000,132727.1406250000,,,
2.6159999957,20,144645.0625000000,122814.9843750000,157831.2343750000,131236.0468750000,117357.4140625000,123038.3359375000,115095.6953125000,132734.9218750000,,,
2.6199999957,20,144643.5937500000,122815.0156250000,157827.5312500000,131214.6250000000,117353.4765625000,123043.4609375000,115098.9140625000,132734.3125000000,,,
2.6239999956,20,144636.6093750000,122811.5546875000,157821.6562500000,131204.0468750000,117346.7656250000,123042.6015625000,115092.6093750000,132730.7187500000,,,
2.6279999958,20,144631.0625000000,122805.4375000000,157817.0468750000,131201.2656250000,117341.0312500000,123035.6562500000,115086.0390625000,132724.7812500000,,,
2.6319999958,20,144636.1875000000,122808.4140625000,157821.1718750000,131201.5937500000,117344.2187500000,123039.3046875000,115091.0312500000,132727.3906250000,,,
2.6359999957,20,144644.4375000000,122817.0546875000,157828.4687500000,131209.5781250000,117349.6953125000,123047.1328125000,115101.0859375000,132736.3125000000,,,
2.6399999957,20,144639.5625000000,122814.3750000000,157823.8593750000,131209.4218750000,117344.0078125000,123044.9843750000,115097.0390625000,132733.5000000000,,,
2.6439999957,20,144623.6093750000,122800.9296875000,157810.0937500000,131197.4843750000,117329.7109375000,123031.1718750000,115084.7500000000,132720.5156250000,,,
2.6479999959,20,144609.3281250000,122787.6328125000,157797.1718750000,131182.8593750000,117316.7031250000,123017.8203125000,115074.1328125000,132707.4531250000,,,
2.6519999958,20,144614.5937500000,122792.3750000000,157801.7500000000,131191.9843750000,117323.5703125000,123021.0625000000,115080.5937500000,132712.5781250000,,,
2.6559999958,20,144633.7500000000,122810.6171875000,157819.2187500000,131212.8281250000,117342.9843750000,123037.2656250000,115095.4531250000,132730.7656250000,,,
2.6599999957,20,144639.7812500000,122818.9296875000,157824.5781250000,131210.0937500000,117346.0468750000,123042.7109375000,115097.2265625000,132738.5468750000,,,
2.6639999957,20,144638.7343750000,122816.3593750000,157821.2812500000,131193.7812500000,117342.5312500000,123039.0859375000,115094.8125000000,132735.9218750000,,,
2.6679999956,20,144645.4375000000,122820.4609375000,157826.4531250000,131197.4062500000,117347.2265625000,123041.0468750000,115100.9296875000,132739.3281250000,,,
2.6719999958,20,144660.3437500000,122832.1015625000,157840.0625000000,131201.5000000000,117360.1484375000,123049.2500000000,115111.6328125000,132750.4843750000,,,
2.6759999958,20,144669.6875000000,122842.2968750000,157850.6562500000,131208.8593750000,117368.7890625000,123058.1328125000,115118.1484375000,132760.7500000000,,,
2.6799999957,20,144661.1250000000,122840.0390625000,157846.0625000000,131205.5312500000,117362.2968750000,123053.4609375000,115113.6640625000,132759.3125000000,,,
2.6839999957,20,144647.3750000000,122832.7968750000,157835.6562500000,131198.0937500000,117351.4375000000,123047.7500000000,115105.7265625000,132752.2187500000,,,
2.6879999957,21,144639.5156250000,122826.9765625000,157828.1250000000,131198.8750000000,117345.4296875000,123047.8593750000,115100.9843750000,132746.2500000000,,,
2.6919999956,21,144644.5468750000,122830.2734375000,157831.2656250000,131212.2343750000,117350.1484375000,123055.1015625000,115107.3906250000,132749.5937500000,,,
2.6959999956,21,144661.0468750000,122841.8125000000,157844.8906250000,131235.3281250000,117365.5937500000,123068.9375000000,115120.8593750000,132761.2031250000,,,
2.6999999955,21,144673.1718750000,122849.2421875000,157856.2812500000,131260.0312500000,117378.6328125000,123072.4531250000,115129.4375000000,132769.0468750000,,,
2.7039999955,21,144666.7812500000,122839.6640625000,157847.9687500000,131240.0468750000,117371.4453125000,123062.5546875000,115120.5078125000,132758.5312500000,,,
2.7079999954,21,144650.5625000000,122820.5937500000,157829.6562500000,131198.6875000000,117352.5859375000,123046.9218750000,115106.0234375000,132738.5156250000,,,
2.7119999956,21,144651.2812500000,122821.6171875000,157831.3906250000,131199.6250000000,117351.1953125000,123048.0468750000,115107.5781250000,132740.0468750000,,,
2.7159999956,21,144656.7031250000,122827.8359375000,157839.0156250000,131212.8593750000,117356.8828125000,123055.1562500000,115115.7578125000,132745.8437500000,,,
2.7199999955,21,144654.0937500000,122826.4375000000,157839.6562500000,131219.2343750000,117355.4062500000,123056.3906250000,115113.1328125000,132745.0312500000,,,
2.7239999955,21,144641.8750000000,122814.3750000000,157827.7656250000,131214.1718750000,117346.4218750000,123046.0078125000,115103.6875000000,132734.0937500000,,,
2.7279999955,21,144626.3593750000,122797.5234375000,157810.4375000000,131207.2968750000,117333.3593750000,123032.8125000000,115093.3359375000,132716.7968750000,,,
2.7319999957,21,144626.7187500000,122795.9140625000,157806.9062500000,131212.2343750000,117333.4921875000,123036.7265625000,115093.2578125000,132714.9218750000,,,
2.7359999956,21,144642.3281250000,122810.8281250000,157818.4062500000,131223.9062500000,117346.5000000000,123054.1640625000,115107.4453125000,132730.0156250000,,,
2.7399999956,21,144641.5156250000,122809.0078125000,157816.7187500000,131223.8281250000,117345.7500000000,123054.1875000000,115105.0312500000,132728.5625000000,,,
2.7439999955,21,144639.4531250000,122804.3671875000,157813.7656250000,131208.0781250000,117344.8906250000,123045.6562500000,115100.1796875000,132724.1718750000,,,
2.7479999955,21,144640.3750000000,122803.2656250000,157811.3906250000,131188.8437500000,117345.6718750000,123037.9843750000,115097.8437500000,132722.7500000000,,,
2.7519999954,21,144650.0468750000,122814.2890625000,157822.0781250000,131199.5781250000,117355.1328125000,123041.0156250000,115104.2812500000,132734.0937500000,,,
2.7559999956,21,144656.8906250000,122822.2812500000,157828.6875000000,131203.4375000000,117359.4843750000,123049.0390625000,115115.2265625000,132741.8437500000,,,
2.7599999956,21,144656.8593750000,122827.2187500000,157831.9218750000,131217.2500000000,117359.0781250000,123052.5000000000,115120.2109375000,132747.2031250000,,,
2.7639999955,21,144646.9687500000,122821.1562500000,157824.8281250000,131213.3906250000,117351.5156250000,123043.8046875000,115116.9140625000,132740.9843750000,,,
2.7679999955,21,144633.7500000000,122809.2187500000,157811.8906250000,131203.7812500000,117338.3203125000,123030.7421875000,115106.5312500000,132728.6250000000,,,
2.7719999955,21,144636.6875000000,122812.0937500000,157815.5156250000,131203.1093750000,117338.8828125000,123034.2578125000,115107.5234375000,132731.5156250000,,,
2.7759999956,21,144648.7968750000,122825.4453125000,157831.0781250000,131227.6093750000,117349.6406250000,123046.7578125000,115115.3828125000,132744.6875000000,,,
2.7799999956,21,144662.7656250000,122839.8515625000,157848.2343750000,131236.1875000000,117364.0937500000,123059.4218750000,115126.3515625000,132759.3125000000,,,
2.7839999956,21,144651.0937500000,122824.9140625000,157835.3281250000,131202.0156250000,117353.5000000000,123044.0468750000,115113.5312500000,132743.7187500000,,,
2.7879999955,21,144641.7812500000,122810.5625000000,157822.7343750000,131175.4375000000,117344.4609375000,123026.7187500000,115101.1171875000,132728.7812500000,,,
2.7919999955,21,144654.9531250000,122819.5234375000,157833.9062500000,131198.4687500000,117358.8125000000,123035.2812500000,115110.2109375000,132738.0625000000,,,
2.7959999954,21,144664.7187500000,122829.2031250000,157843.0000000000,131214.3750000000,117369.1875000000,123046.9218750000,115118.3359375000,132747.3125000000,,,
2.7999999956,21,144664.9843750000,122829.0468750000,157843.0937500000,131223.6875000000,117369.5390625000,123049.1484375000,115119.7812500000,132747.6093750000,,,
2.8039999956,21,144656.1093750000,122817.5625000000,157833.0781250000,131223.0156250000,117360.9843750000,123040.1328125000,115113.5312500000,132736.1250000000,,,
2.8079999955,21,144642.4062500000,122804.3125000000,157820.5000000000,131217.0156250000,117348.3750000000,123031.3593750000,115100.5781250000,132722.5312500000,,,
2.8119999955,21,144640.6875000000,122806.5156250000,157821.9843750000,131221.1093750000,117346.8203125000,123036.2968750000,115099.2890625000,132724.6718750000,,,
2.8159999955,22,144652.5156250000,122822.0390625000,157836.5468750000,131230.7343750000,117357.4140625000,123051.6406250000,115110.2109375000,132741.0937500000,,,
2.8199999954,22,144657.6406250000,122830.0625000000,157845.8750000000,131232.7031250000,117362.4062500000,123056.3359375000,115114.6328125000,132749.1718750000,,,
2.8239999954,22,144653.0468750000,122824.7812500000,157842.4218750000,131231.7812500000,117359.0000000000,123047.9140625000,115111.7109375000,132744.9062500000,,,
2.8279999953,22,144644.3593750000,122814.8281250000,157832.3281250000,131225.5312500000,117349.1796875000,123036.8046875000,115100.8437500000,132735.4375000000,,,
2.8319999953,22,144646.0312500000,122816.5937500000,157831.9531250000,131221.2187500000,117348.7812500000,123036.2187500000,115102.0000000000,132736.9375000000,,,
2.8359999952,22,144652.7343750000,122822.2031250000,157834.3125000000,131214.4687500000,117355.0546875000,123041.0703125000,115106.4531250000,132742.2812500000,,,
2.8399999954,22,144658.6875000000,122830.6796875000,157838.1250000000,131212.2031250000,117361.7109375000,123049.8671875000,115112.8125000000,132750.6718750000,,,
2.8439999954,22,144649.7812500000,122824.5937500000,157829.5156250000,131204.7187500000,117353.4765625000,123042.9765625000,115105.8593750000,132743.9843750000,,,
2.8479999953,22,144639.5625000000,122813.2187500000,157819.0000000000,131198.3437500000,117343.2812500000,123030.6406250000,115096.7968750000,132732.4062500000,,,
2.8519999953,22,144657.2656250000,122830.6562500000,157838.9843750000,131239.1093750000,117361.1484375000,123042.7890625000,115109.1875000000,132749.6250000000,,,
2.8559999953,22,144671.5156250000,122848.0859375000,157856.8125000000,131262.5781250000,117373.9687500000,123058.0468750000,115118.2812500000,132766.7031250000,,,
2.8599999954,22,144667.2656250000,122843.5781250000,157850.3750000000,131218.1406250000,117367.0703125000,123061.8281250000,115118.9218750000,132762.1718750000,,,
2.8639999954,22,144658.5781250000,122832.6875000000,157843.0312500000,131195.3906250000,117358.8125000000,123052.2812500000,115113.5625000000,132751.6875000000,,,
2.8679999954,22,144651.5312500000,122821.9609375000,157838.2031250000,131196.8593750000,117354.4140625000,123040.6953125000,115106.3203125000,132741.1718750000,,,
2.8719999953,22,144655.2343750000,122826.7656250000,157843.1093750000,131210.2968750000,117358.9453125000,123045.8750000000,115103.3671875000,132745.9531250000,,,
2.8759999953,22,144663.2812500000,122835.3203125000,157851.4062500000,131228.4062500000,117366.8593750000,123052.7656250000,115107.5234375000,132754.7812500000,,,
2.8799999952,22,144664.4843750000,122837.9765625000,157851.6718750000,131239.0625000000,117369.1093750000,123055.6640625000,115113.0781250000,132757.7187500000,,,
2.8839999954,22,144655.8125000000,122831.6718750000,157843.0625000000,131240.3437500000,117362.4296875000,123053.4609375000,115110.2578125000,132751.7187500000,,,
2.8879999954,22,144641.8750000000,122819.3359375000,157829.9218750000,131227.0937500000,117349.2343750000,123043.8906250000,115098.5937500000,132739.2968750000,,,
2.8919999953,22,144638.4375000000,122816.4375000000,157824.7968750000,131227.2812500000,117343.9218750000,123041.8515625000,115092.6406250000,132736.5312500000,,,
2.8959999953,22,144649.2656250000,122826.3593750000,157832.4062500000,131236.3437500000,117352.8593750000,123055.0156250000,115104.7343750000,132746.6718750000,,,
2.8999999953,22,144659.7656250000,122836.0156250000,157842.6875000000,131245.0156250000,117361.3359375000,123067.2734375000,115112.6718750000,132756.0000000000,,,
2.9039999954,22,144654.6093750000,122827.7265625000,157837.0000000000,131232.3281250000,117355.0312500000,123057.5937500000,115103.9296875000,132747.1250000000,,,
2.9079999954,22,144643.4218750000,122813.0312500000,157823.8593750000,131213.5156250000,117344.3281250000,123042.2265625000,115095.9375000000,132732.2187500000,,,
2.9119999954,22,144646.4062500000,122815.9531250000,157825.4375000000,131213.8906250000,117346.7109375000,123046.3046875000,115099.1875000000,132735.7031250000,,,
2.9159999953,22,144653.1562500000,122825.3671875000,157832.4375000000,131221.4687500000,117352.2968750000,123053.8906250000,115103.7187500000,132744.7656250000,,,
2.9199999953,22,144660.4531250000,122835.1328125000,157841.5625000000,131229.7500000000,117360.0156250000,123058.8281250000,115112.5390625000,132754.5000000000,,,
2.9239999952,22,144657.6406250000,122834.9453125000,157840.8593750000,131238.7812500000,117358.1406250000,123054.7500000000,115112.8359375000,132754.7812500000,,,
2.9279999954,22,144645.9218750000,122827.7578125000,157830.5312500000,131231.6562500000,117346.3671875000,123047.5390625000,115105.5703125000,132747.5781250000,,,
2.9319999954,22,144635.6250000000,122819.5468750000,157819.5312500000,131216.9843750000,117336.3046875000,123040.6718750000,115095.1640625000,132738.4062500000,,,
2.9359999953,22,144639.5937500000,122823.4375000000,157823.8593750000,131206.4687500000,117338.4531250000,123045.5781250000,115097.8671875000,132742.2968750000,,,
2.9399999953,22,144645.2031250000,122827.2734375000,157831.6406250000,131204.3750000000,117342.9296875000,123051.1562500000,115102.1328125000,132746.2968750000,,,
2.9439999952,23,144648.8125000000,122827.9140625000,157836.4687500000,131201.7500000000,117347.0625000000,123054.1093750000,115103.6093750000,132746.9218750000,,,
