Time:250Hz,Epoch,Channel 1,Channel 2,Channel 3,Channel 4,Channel 5,Channel 6,Channel 7,Channel 8,Event Id,Event Date,Event Duration
0.0000000000,0,164182.9218750000,165649.1718750000,189949.0468750000,188686.5625000000,169772.4218750000,171223.3750000000,-15152.7929687500,176988.0312500000,,,
0.0040000000,0,164179.9218750000,165643.7031250000,189946.7187500000,188688.3125000000,169768.6250000000,171213.1718750000,-15155.7968750000,176976.1406250000,,,
0.0079999999,0,164185.8906250000,165651.6718750000,189950.7500000000,188700.0625000000,169774.0937500000,171217.2500000000,-15151.7207031250,176982.2031250000,,,
0.0119999999,0,164191.2031250000,165657.0000000000,189959.7031250000,188700.0312500000,169783.1250000000,171222.9687500000,-15144.4785156250,176991.3593750000,,,
0.0159999998,0,164194.0468750000,165662.8593750000,189964.4218750000,188691.8750000000,169788.0312500000,171225.7812500000,-15145.3906250000,176998.8906250000,,,
0.0199999998,0,164218.3437500000,165685.2968750000,189991.0781250000,188685.7656250000,169808.3906250000,171243.1875000000,-15117.6562500000,177013.1875000000,,,
0.0240000000,0,164239.8281250000,165709.0937500000,190014.3437500000,188693.4375000000,169828.3281250000,171263.3593750000,-15103.7089843750,177027.0468750000,,,
0.0279999999,0,164203.5937500000,165674.0937500000,189968.7187500000,188706.5468750000,169794.0156250000,171244.0000000000,-15146.4902343750,177004.5468750000,,,
0.0319999999,0,164177.6562500000,165636.1406250000,189941.4375000000,188712.9062500000,169769.1250000000,171217.6093750000,-15145.2832031250,176981.2656250000,,,
0.0359999998,0,164204.9687500000,165662.6406250000,189975.1562500000,188724.1093750000,169798.0156250000,171236.0312500000,-15108.9931640625,177003.0937500000,,,
0.0399999998,0,164196.0000000000,165654.6250000000,189964.9843750000,188706.2500000000,169788.7968750000,171227.7656250000,-15122.0820312500,176991.4062500000,,,
0.0440000000,0,164204.5156250000,165665.6093750000,189976.6562500000,188702.2343750000,169797.5000000000,171237.9062500000,-15116.9853515625,176995.7187500000,,,
0.0480000000,0,164194.8750000000,165652.8281250000,189966.9375000000,188708.5781250000,169789.5468750000,171227.5781250000,-15124.8984375000,176986.7187500000,,,
0.0519999999,0,164185.3125000000,165644.4218750000,189951.6562500000,188706.1406250000,169777.7656250000,171217.9843750000,-15140.4814453125,176982.3906250000,,,
0.0559999999,0,164195.6093750000,165659.5000000000,189962.8125000000,188697.2968750000,169788.2031250000,171228.3906250000,-15133.2666015625,176997.5468750000,,,
0.0599999998,0,164204.2656250000,165666.5312500000,189976.2968750000,188694.2656250000,169798.8437500000,171234.1718750000,-15121.6796875000,177001.5781250000,,,
0.0639999998,0,164208.5000000000,165666.3125000000,189981.8906250000,188709.0625000000,169802.0468750000,171235.2812500000,-15119.3193359375,176995.8906250000,,,
0.0680000000,0,164208.6406250000,165674.0156250000,189978.0468750000,188689.3281250000,169801.0781250000,171245.4375000000,-15118.6484375000,177000.0156250000,,,
0.0719999999,0,164209.7343750000,165665.5312500000,189989.0468750000,188684.0625000000,169810.4687500000,171244.3750000000,-15107.1953125000,177000.2343750000,,,
0.0759999999,0,164212.2656250000,165677.0156250000,189983.3906250000,188703.8593750000,169808.2343750000,171256.8125000000,-15109.7167968750,177009.5312500000,,,
0.0799999998,0,164207.4062500000,165671.3906250000,189976.6250000000,188707.1875000000,169800.1875000000,171252.6093750000,-15116.4492187500,177004.7656250000,,,
0.0839999998,0,164188.8125000000,165646.9687500000,189964.1562500000,188706.5156250000,169787.6406250000,171230.2031250000,-15122.6181640625,176979.2500000000,,,
0.0880000000,0,164172.8593750000,165634.8281250000,189940.9531250000,188694.2656250000,169769.0000000000,171223.3750000000,-15138.1748046875,176966.0000000000,,,
0.0919999999,0,164182.3750000000,165646.2500000000,189950.4218750000,188688.0156250000,169779.3750000000,171232.6718750000,-15132.9990234375,176981.3437500000,,,
0.0959999999,0,164189.7812500000,165651.7812500000,189959.4062500000,188686.3437500000,169788.3906250000,171235.3125000000,-15127.8486328125,176989.6406250000,,,
0.0999999999,0,164211.2656250000,165677.7187500000,189983.6875000000,188696.4062500000,169808.9375000000,171252.2500000000,-15105.5332031250,177005.7812500000,,,
0.1039999998,0,164225.6406250000,165694.9843750000,190003.6406250000,188690.9687500000,169825.2968750000,171264.8906250000,-15099.2031250000,177014.5781250000,,,
0.1079999998,0,164197.8281250000,165656.4218750000,189980.3593750000,188680.2656250000,169802.1718750000,171236.3750000000,-15111.0849609375,176987.1093750000,,,
0.1120000000,0,164161.0312500000,165625.5937500000,189924.0000000000,188693.0000000000,169757.0000000000,171215.1875000000,-15143.0566406250,176962.7812500000,,,
0.1159999999,0,164165.4531250000,165629.0625000000,189928.4531250000,188697.1093750000,169759.6093750000,171217.0468750000,-15139.2753906250,176966.8906250000,,,
0.1199999999,0,164174.5468750000,165636.3750000000,189940.8750000000,188692.5156250000,169766.9531250000,171221.7656250000,-15130.5039062500,176973.2187500000,,,
0.1239999998,0,164186.7500000000,165647.9687500000,189955.9218750000,188683.8750000000,169779.4218750000,171230.3750000000,-15116.5566406250,176980.5781250000,,,
0.1279999998,1,164187.6718750000,165652.7343750000,189954.9062500000,188680.3906250000,169780.4531250000,171233.0781250000,-15116.8251953125,176986.2031250000,,,
0.1319999998,1,164197.3281250000,165658.8281250000,189972.4687500000,188677.4687500000,169796.2187500000,171240.5156250000,-15105.1035156250,177000.1562500000,,,
0.1359999997,1,164186.5625000000,165653.2500000000,189953.8750000000,188687.4687500000,169783.7500000000,171239.9218750000,-15116.4228515625,177003.2343750000,,,
0.1399999997,1,164176.6718750000,165646.5156250000,189939.7500000000,188679.0781250000,169770.4687500000,171231.7031250000,-15128.8408203125,176994.1406250000,,,
0.1439999996,1,164180.3906250000,165646.0937500000,189949.5937500000,188681.6875000000,169774.7031250000,171230.7187500000,-15122.4570312500,176986.6875000000,,,
0.1479999996,1,164184.5312500000,165651.2968750000,189957.9375000000,188668.0000000000,169781.2500000000,171236.5312500000,-15114.7597656250,176992.6718750000,,,
0.1519999998,1,164175.4687500000,165637.0468750000,189947.5781250000,188672.5312500000,169772.4218750000,171224.7343750000,-15125.5419921875,176989.2343750000,,,
0.1559999997,1,164172.8906250000,165634.0781250000,189939.2343750000,188687.6406250000,169766.0468750000,171220.2343750000,-15131.3085937500,176984.0781250000,,,
0.1599999997,1,164184.6406250000,165653.3593750000,189951.1718750000,188690.3437500000,169777.1250000000,171233.4062500000,-15120.5527343750,176993.2500000000,,,
0.1639999996,1,164187.1093750000,165655.0781250000,189957.6406250000,188680.6093750000,169782.9375000000,171235.3125000000,-15112.8281250000,176988.3437500000,,,
0.1679999996,1,164193.8906250000,165655.9062500000,189972.0156250000,188685.2812500000,169794.1562500000,171237.7656250000,-15103.5742187500,176989.1875000000,,,
0.1719999998,1,164187.1875000000,165647.8906250000,189965.5156250000,188686.7031250000,169791.3437500000,171230.2031250000,-15110.1464843750,176987.1093750000,,,
0.1759999997,1,164192.5937500000,165653.9218750000,189974.9843750000,188681.7343750000,169800.5156250000,171237.4218750000,-15105.3720703125,176991.8437500000,,,
0.1799999997,1,164184.4531250000,165644.5937500000,189963.6250000000,188692.5937500000,169787.6875000000,171229.7812500000,-15112.3994140625,176982.2656250000,,,
0.1839999997,1,164182.6718750000,165646.8437500000,189955.9687500000,188689.3750000000,169780.5781250000,171227.8437500000,-15116.4228515625,176976.6250000000,,,
0.1879999996,1,164189.5937500000,165655.5781250000,189962.8906250000,188698.2031250000,169787.0937500000,171234.3906250000,-15113.7675781250,176987.7656250000,,,
0.1919999996,1,164185.5937500000,165652.9531250000,189956.3281250000,188690.2187500000,169780.3437500000,171227.5468750000,-15124.1474609375,176992.2343750000,,,
0.1959999998,1,164185.9218750000,165656.6875000000,189951.7812500000,188683.8281250000,169775.9375000000,171229.8906250000,-15124.5224609375,177000.5781250000,,,
0.1999999997,1,164189.8125000000,165656.7343750000,189956.2343750000,188686.9375000000,169778.4687500000,171231.6093750000,-15117.9511718750,177001.0312500000,,,
0.2039999997,1,164182.0937500000,165647.6250000000,189943.3437500000,188688.3593750000,169765.5625000000,171223.7500000000,-15129.2167968750,176988.5156250000,,,
0.2079999996,1,164207.6406250000,165677.5000000000,189971.8750000000,188689.7500000000,169790.4843750000,171244.1250000000,-15107.5712890625,177008.3281250000,,,
0.2119999996,1,164195.5312500000,165659.3750000000,189962.6718750000,188690.5312500000,169784.2500000000,171235.7343750000,-15119.8017578125,177005.4375000000,,,
0.2159999998,1,164171.8750000000,165634.7187500000,189939.1562500000,188685.8125000000,169765.3437500000,171215.1406250000,-15139.1679687500,176982.2343750000,,,
0.2199999997,1,164173.0468750000,165642.9062500000,189939.7187500000,188676.1093750000,169765.1875000000,171218.8906250000,-15130.7451171875,176983.1718750000,,,
0.2239999997,1,164179.1093750000,165655.0156250000,189945.7031250000,188675.5468750000,169768.7812500000,171225.7343750000,-15119.5878906250,176987.8593750000,,,
0.2279999997,1,164193.6406250000,165671.5156250000,189960.5625000000,188684.9843750000,169783.8593750000,171240.0312500000,-15107.1152343750,177003.3906250000,,,
0.2319999996,1,164182.6250000000,165653.5937500000,189949.9687500000,188684.5312500000,169776.1250000000,171226.8281250000,-15118.0859375000,176998.8593750000,,,
0.2359999996,1,164183.7812500000,165646.2812500000,189954.1250000000,188682.6406250000,169779.1562500000,171223.5781250000,-15118.0322265625,176996.3750000000,,,
0.2399999998,1,164186.7812500000,165643.8437500000,189961.6875000000,188680.5781250000,169784.2031250000,171221.7031250000,-15112.7744140625,176989.5625000000,,,
0.2439999997,1,164198.0468750000,165662.3906250000,189969.1718750000,188685.5937500000,169790.7500000000,171236.0781250000,-15095.3935546875,176995.0468750000,,,
0.2479999997,1,164181.2500000000,165643.4062500000,189946.2968750000,188688.2812500000,169770.6093750000,171216.0000000000,-15114.4111328125,176978.8281250000,,,
0.2519999996,1,164173.8593750000,165633.3437500000,189936.7343750000,188683.4531250000,169763.2812500000,171205.4531250000,-15124.7373046875,176975.4687500000,,,
0.2559999996,2,164184.8437500000,165645.4218750000,189949.3281250000,188681.6562500000,169775.6250000000,171212.4843750000,-15116.4228515625,176986.8125000000,,,
0.2599999995,2,164192.2187500000,165657.1406250000,189957.1875000000,188685.7812500000,169783.4531250000,171218.4531250000,-15104.7285156250,176993.1718750000,,,
0.2639999995,2,164197.0468750000,165657.1406250000,189961.1250000000,188697.1093750000,169787.1250000000,171217.9531250000,-15092.2822265625,176988.2968750000,,,
0.2679999995,2,164197.7968750000,165659.6875000000,189962.2812500000,188689.8437500000,169787.3906250000,171220.3906250000,-15088.8496093750,176993.4687500000,,,
0.2719999994,2,164205.9375000000,165663.2031250000,189978.7500000000,188700.7500000000,169801.0000000000,171222.6718750000,-15077.6113281250,177004.5468750000,,,
0.2759999994,2,164211.6718750000,165661.5156250000,189992.4531250000,188697.1562500000,169812.0468750000,171220.7968750000,-15067.8212890625,177008.0937500000,,,
0.2799999996,2,164196.6250000000,165659.5000000000,189962.2812500000,188689.3750000000,169787.5625000000,171215.7812500000,-15088.5273437500,177002.4531250000,,,
0.2839999995,2,164189.3750000000,165656.3593750000,189944.7031250000,188695.2500000000,169772.0312500000,171212.4218750000,-15102.2070312500,176992.5312500000,,,
0.2879999995,2,164198.0468750000,165664.6250000000,189955.2968750000,188705.3125000000,169781.0937500000,171216.3906250000,-15101.4824218750,176997.9843750000,,,
0.2919999994,2,164204.7031250000,165669.1093750000,189967.6875000000,188709.6875000000,169792.1718750000,171218.4531250000,-15097.5937500000,177010.6093750000,,,
0.2959999994,2,164203.9531250000,165673.1875000000,189968.9062500000,188689.0781250000,169794.0156250000,171222.0781250000,-15093.5166015625,177020.3750000000,,,
0.2999999996,2,164192.1250000000,165657.7031250000,189956.2968750000,188677.5000000000,169783.3906250000,171208.8906250000,-15092.4169921875,177008.5468750000,,,
0.3039999995,2,164196.1406250000,165664.0937500000,189960.4531250000,188675.0781250000,169787.9062500000,171215.5937500000,-15091.4238281250,177004.2343750000,,,
0.3079999995,2,164201.0468750000,165673.7968750000,189969.2500000000,188680.5781250000,169795.7343750000,171228.9531250000,-15094.7236328125,177015.2500000000,,,
0.3119999995,2,164190.8906250000,165658.9843750000,189963.1562500000,188700.8281250000,169790.4531250000,171227.3125000000,-15076.7255859375,177016.0625000000,,,
0.3159999994,2,164192.5937500000,165658.7500000000,189962.2812500000,188703.9687500000,169789.0781250000,171231.6250000000,-15064.4414062500,177019.9531250000,,,
0.3199999994,2,164188.9843750000,165653.5000000000,189954.5781250000,188688.4218750000,169781.0156250000,171228.4375000000,-15073.9902343750,177010.9062500000,,,
0.3239999996,2,164185.0625000000,165643.2187500000,189946.0000000000,188691.8750000000,169772.3437500000,171219.6093750000,-15083.9140625000,176993.2500000000,,,
0.3279999995,2,164205.4531250000,165658.2343750000,189969.8906250000,188700.8281250000,169793.3750000000,171230.1875000000,-15070.2080078125,177002.5312500000,,,
0.3319999995,2,164218.3281250000,165678.5781250000,189980.9375000000,188693.9687500000,169807.8906250000,171244.6875000000,-15059.4257812500,177028.7187500000,,,
0.3359999994,2,164209.3906250000,165661.9375000000,189971.9062500000,188697.9687500000,169801.7187500000,171231.4687500000,-15065.5947265625,177026.0937500000,,,
0.3399999994,2,164204.5312500000,165656.6875000000,189964.6093750000,188701.3750000000,169794.0937500000,171225.2187500000,-15075.8945312500,177017.0468750000,,,
0.3439999996,2,164212.4531250000,165670.7656250000,189970.2656250000,188704.6406250000,169797.3437500000,171232.9218750000,-15079.7568359375,177020.2968750000,,,
0.3479999995,2,164212.6093750000,165673.0000000000,189971.1875000000,188701.4531250000,169796.5937500000,171236.8593750000,-15083.5117187500,177024.3750000000,,,
0.3519999995,2,164214.5937500000,165680.0156250000,189972.7656250000,188707.7500000000,169795.7656250000,171243.1562500000,-15077.5302734375,177036.5156250000,,,
0.3559999994,2,164206.0156250000,165676.4218750000,189963.4843750000,188708.3906250000,169786.4843750000,171237.5312500000,-15078.7109375000,177037.9218750000,,,
0.3599999994,2,164194.0781250000,165663.9062500000,189950.5312500000,188704.6406250000,169773.3125000000,171226.8593750000,-15086.9716796875,177020.7968750000,,,
0.3639999994,2,164197.9062500000,165667.0937500000,189955.7343750000,188696.2187500000,169777.7656250000,171229.5625000000,-15081.9833984375,177014.3125000000,,,
0.3679999996,2,164203.3281250000,165670.5781250000,189960.1093750000,188692.2031250000,169783.3750000000,171233.5625000000,-15079.6230468750,177017.8593750000,,,
0.3719999995,2,164204.1406250000,165668.5156250000,189965.8906250000,188693.8593750000,169790.5937500000,171232.1875000000,-15076.0019531250,177021.0468750000,,,
0.3759999995,2,164206.1406250000,165664.8125000000,189975.4218750000,188695.7031250000,169800.7812500000,171229.5312500000,-15070.9052734375,177021.9062500000,,,
0.3799999994,2,164205.2656250000,165663.3437500000,189969.0312500000,188698.6406250000,169795.6875000000,171230.8750000000,-15074.9824218750,177018.3437500000,,,
0.3839999994,3,164202.7656250000,165664.6718750000,189960.4531250000,188695.8437500000,169787.3750000000,171231.4218750000,-15076.4042968750,177014.8750000000,,,
0.3879999993,3,164197.4531250000,165658.9843750000,189953.2343750000,188691.4531250000,169780.7656250000,171226.5937500000,-15076.1357421875,177010.6406250000,,,
0.3919999993,3,164203.8906250000,165667.0937500000,189965.9531250000,188689.6250000000,169792.4687500000,171236.3437500000,-15066.0234375000,177026.3906250000,,,
0.3959999993,3,164220.3593750000,165684.9062500000,189988.2187500000,188686.9375000000,169811.9687500000,171251.9062500000,-15050.7890625000,177048.5156250000,,,
0.3999999992,3,164228.5156250000,165694.9062500000,189996.6093750000,188695.7343750000,169820.0156250000,171254.6093750000,-15046.3632812500,177054.7656250000,,,
0.4039999992,3,164215.8593750000,165683.9375000000,189976.2968750000,188705.7187500000,169805.3593750000,171245.2343750000,-15064.7363281250,177042.7968750000,,,
0.4079999994,3,164196.7656250000,165655.6406250000,189959.6250000000,188695.5156250000,169790.5312500000,171226.4843750000,-15084.6923828125,177019.7031250000,,,
0.4119999993,3,164204.8906250000,165666.8437500000,189968.4687500000,188690.7968750000,169798.0468750000,171235.0937500000,-15065.1123046875,177030.6250000000,,,
0.4159999993,3,164214.1875000000,165678.0312500000,189969.8125000000,188690.1875000000,169800.5312500000,171241.5781250000,-15061.4375000000,177041.9062500000,,,
0.4199999992,3,164219.0468750000,165682.8593750000,189972.9218750000,188693.1406250000,169803.3281250000,171245.8750000000,-15057.6552734375,177044.5468750000,,,
0.4239999992,3,164223.3125000000,165682.6250000000,189980.9687500000,188696.3281250000,169809.6250000000,171246.8593750000,-15048.6425781250,177040.6562500000,,,
0.4279999994,3,164236.0781250000,165692.4375000000,189997.8906250000,188700.4843750000,169823.6562500000,171252.0468750000,-15037.4853515625,177047.3593750000,,,
0.4319999993,3,164250.9375000000,165709.1250000000,190015.4375000000,188714.7343750000,169839.5937500000,171265.7968750000,-15025.1201171875,177068.3593750000,,,
0.4359999993,3,164224.9531250000,165682.4375000000,189982.3125000000,188712.8281250000,169812.2656250000,171246.4062500000,-15051.6201171875,177053.0781250000,,,
0.4399999992,3,164222.2343750000,165683.4062500000,189976.0156250000,188718.7187500000,169805.9218750000,171246.7656250000,-15057.7353515625,177047.2968750000,,,
0.4439999992,3,164225.2656250000,165682.3750000000,189979.4375000000,188718.1875000000,169808.2343750000,171251.3125000000,-15051.6474609375,177043.2343750000,,,
0.4479999992,3,164219.3437500000,165676.7187500000,189977.2968750000,188698.3593750000,169805.4218750000,171247.4218750000,-15054.1416015625,177038.1250000000,,,
0.4519999993,3,164215.7500000000,165676.0781250000,189980.4375000000,188694.3437500000,169807.3437500000,171247.0468750000,-15049.4208984375,177043.2812500000,,,
0.4559999993,3,164213.2031250000,165676.8593750000,189982.2031250000,188696.4843750000,169808.6718750000,171252.4218750000,-15043.2783203125,177048.1093750000,,,
0.4599999993,3,164220.4375000000,165692.2812500000,189986.9843750000,188700.8281250000,169811.7812500000,171264.7343750000,-15038.9873046875,177056.5781250000,,,
0.4639999992,3,164222.7031250000,165685.1093750000,189993.1718750000,188699.5156250000,169815.1562500000,171259.5781250000,-15036.7607421875,177048.3281250000,,,
0.4679999992,3,164186.3437500000,165639.1093750000,189954.7656250000,188690.9062500000,169783.2031250000,171230.9375000000,-15059.4794921875,177011.9531250000,,,
0.4719999994,3,164192.4062500000,165645.6406250000,189963.0781250000,188685.9531250000,169790.2656250000,171235.8906250000,-15053.3906250000,177016.6718750000,,,
0.4759999993,3,164200.3281250000,165659.1562500000,189967.6718750000,188693.2656250000,169794.5625000000,171244.4218750000,-15053.0419921875,177030.1875000000,,,
0.4799999993,3,164204.0000000000,165663.4218750000,189969.4375000000,188698.7343750000,169795.4218750000,171244.7968750000,-15054.4638671875,177030.5468750000,,,
0.4839999992,3,164203.0625000000,165663.7656250000,189970.2968750000,188700.4375000000,169796.0781250000,171244.9375000000,-15053.2832031250,177025.0937500000,,,
0.4879999992,3,164199.9218750000,165660.5937500000,189969.7343750000,188689.5156250000,169797.7968750000,171245.0156250000,-15047.9726562500,177020.5156250000,,,
0.4919999992,3,164190.9062500000,165653.3593750000,189954.7656250000,188683.3125000000,169784.9062500000,171240.8593750000,-15061.7050781250,177020.6093750000,,,
0.4959999993,3,164187.7187500000,165652.0468750000,189946.7500000000,188687.7500000000,169777.8437500000,171241.4531250000,-15068.0888671875,177023.4531250000,,,
0.4999999993,3,164194.8750000000,165659.9062500000,189955.7812500000,188688.5156250000,169784.7968750000,171248.3906250000,-15061.1953125000,177026.6562500000,,,
0.5039999993,3,164205.1250000000,165670.7343750000,189970.6250000000,188682.5468750000,169794.6562500000,171256.5468750000,-15049.5283203125,177028.7500000000,,,
0.5079999992,3,164194.8593750000,165662.2031250000,189957.0468750000,188683.4843750000,169780.7968750000,171250.7031250000,-15057.0654296875,177022.4062500000,,,
0.5119999992,4,164202.1718750000,165663.3125000000,189966.3750000000,188700.0781250000,169789.0312500000,171249.7812500000,-15049.2597656250,177027.0781250000,,,
0.5159999991,4,164200.2968750000,165657.4843750000,189965.2500000000,188697.7187500000,169789.9687500000,171246.5468750000,-15054.4365234375,177026.7031250000,,,
0.5199999991,4,164193.4375000000,165651.3437500000,189956.3281250000,188703.2500000000,169782.5156250000,171244.1093750000,-15066.0771484375,177018.9062500000,,,
0.5239999990,4,164186.0312500000,165641.2968750000,189950.5312500000,188699.9687500000,169773.7500000000,171237.3125000000,-15060.7128906250,177003.5781250000,,,
0.5279999990,4,164184.5781250000,165641.3437500000,189950.6875000000,188696.1406250000,169771.0000000000,171237.1875000000,-15054.7851562500,177001.4843750000,,,
0.5319999990,4,164183.7500000000,165642.8750000000,189948.9218750000,188697.5625000000,169769.2343750000,171236.7812500000,-15057.1455078125,177006.7500000000,,,
0.5359999991,4,164192.7656250000,165651.2968750000,189962.2812500000,188705.7343750000,169781.9531250000,171241.2031250000,-15047.0869140625,177015.1250000000,,,
0.5399999991,4,164203.0156250000,165662.8593750000,189975.3593750000,188689.2500000000,169795.5468750000,171249.2500000000,-15040.7304687500,177023.3750000000,,,
0.5439999991,4,164195.1562500000,165660.6250000000,189959.7343750000,188689.7500000000,169785.2968750000,171250.5625000000,-15049.1796875000,177013.8281250000,,,
0.5479999990,4,164186.0312500000,165638.1250000000,189961.8750000000,188683.4062500000,169784.3125000000,171236.8906250000,-15049.3134765625,176996.3906250000,,,
0.5519999990,4,164175.5156250000,165629.7812500000,189948.1875000000,188690.1250000000,169772.4218750000,171229.7812500000,-15065.4873046875,176995.6718750000,,,
0.5559999992,4,164171.9687500000,165631.0625000000,189936.9218750000,188691.5000000000,169762.5000000000,171229.4062500000,-15065.3261718750,177001.7343750000,,,
0.5599999991,4,164176.2656250000,165632.2968750000,189943.5000000000,188690.4218750000,169766.7343750000,171229.2656250000,-15053.6054687500,176998.3593750000,,,
0.5639999991,4,164185.3281250000,165637.1250000000,189961.4687500000,188680.3750000000,169778.9687500000,171230.9843750000,-15044.6201171875,176994.5468750000,,,
0.5679999990,4,164206.2031250000,165667.7343750000,189978.4218750000,188682.2656250000,169793.0468750000,171248.4218750000,-15040.2207031250,177012.3750000000,,,
0.5719999990,4,164183.7500000000,165649.9218750000,189943.9531250000,188705.6406250000,169766.0156250000,171233.7812500000,-15069.3496093750,177011.0468750000,,,
0.5759999990,4,164166.9375000000,165624.2343750000,189927.7812500000,188702.2500000000,169750.6250000000,171211.4375000000,-15081.1787109375,176996.6875000000,,,
0.5799999991,4,164186.2968750000,165643.8906250000,189943.9062500000,188699.2187500000,169766.5000000000,171224.2343750000,-15055.7773437500,177009.6250000000,,,
0.5839999991,4,164210.4843750000,165665.6406250000,189971.8593750000,188699.4375000000,169792.3906250000,171240.7812500000,-15030.1894531250,177020.4843750000,,,
0.5879999991,4,164215.0781250000,165674.2812500000,189975.6406250000,188710.8437500000,169798.7968750000,171250.0312500000,-15028.7412109375,177030.2187500000,,,
0.5919999990,4,164195.3125000000,165654.5625000000,189953.0156250000,188700.3750000000,169781.6875000000,171233.7031250000,-15048.3212890625,177021.0937500000,,,
0.5959999990,4,164202.4687500000,165664.0312500000,189963.7500000000,188698.9062500000,169790.5937500000,171241.9843750000,-15042.8759765625,177031.4062500000,,,
0.5999999992,4,164212.9375000000,165669.2343750000,189981.5312500000,188698.4531250000,169803.0781250000,171246.0937500000,-15032.2812500000,177035.0468750000,,,
0.6039999991,4,164204.6718750000,165661.5156250000,189969.3281250000,188709.8750000000,169792.6718750000,171243.1562500000,-15038.2363281250,177024.4218750000,,,
0.6079999991,4,164203.5468750000,165659.3437500000,189969.7031250000,188704.2656250000,169791.5312500000,171244.3750000000,-15039.8457031250,177024.0000000000,,,
0.6119999990,4,164203.0625000000,165659.3906250000,189972.3593750000,188699.8750000000,169794.6562500000,171244.2343750000,-15036.0371093750,177030.8281250000,,,
0.6159999990,4,164207.1093750000,165666.9375000000,189979.2343750000,188707.0781250000,169801.2656250000,171251.9843750000,-15030.9941406250,177040.1406250000,,,
0.6199999989,4,164197.6093750000,165657.3750000000,189964.9375000000,188704.1250000000,169786.3750000000,171243.3593750000,-15045.9873046875,177030.7343750000,,,
0.6239999991,4,164214.3593750000,165673.0000000000,189982.3906250000,188711.6093750000,169799.7656250000,171259.2812500000,-15030.3505859375,177036.1250000000,,,
0.6279999991,4,164202.8437500000,165653.6875000000,189970.5156250000,188707.5937500000,169789.0781250000,171247.6718750000,-15037.1904296875,177023.6250000000,,,
0.6319999991,4,164209.7968750000,165656.0625000000,189978.3437500000,188713.3281250000,169797.9687500000,171250.4531250000,-15029.1699218750,177027.7968750000,,,
0.6359999990,4,164212.9843750000,165650.6562500000,189987.4843750000,188699.5781250000,169806.9531250000,171247.6093750000,-15021.8750000000,177028.8437500000,,,
0.6399999990,5,164199.5000000000,165638.9531250000,189964.7500000000,188680.5312500000,169790.1093750000,171244.4218750000,-15043.6005859375,177016.8906250000,,,
0.6439999989,5,164203.2031250000,165643.4375000000,189964.8281250000,188688.3906250000,169791.1718750000,171249.3593750000,-15039.8720703125,177013.7031250000,,,
0.6479999989,5,164215.8281250000,165658.5156250000,189975.2812500000,188697.1250000000,169800.7187500000,171263.1718750000,-15015.2500000000,177027.9375000000,,,
0.6519999988,5,164212.8593750000,165660.4687500000,189970.1406250000,188698.1562500000,169796.5156250000,171264.0000000000,-15013.5058593750,177037.1718750000,,,
0.6559999988,5,164206.4687500000,165659.2343750000,189965.0312500000,188694.5781250000,169792.3593750000,171261.5937500000,-15020.9355468750,177039.6562500000,,,
0.6599999988,5,164221.2968750000,165676.3437500000,189983.9218750000,188693.3281250000,169808.8281250000,171273.7187500000,-15008.7587890625,177049.2656250000,,,
0.6639999989,5,164230.4531250000,165677.8750000000,189999.5000000000,188707.7343750000,169820.9687500000,171271.1875000000,-15000.3095703125,177045.4531250000,,,
0.6679999989,5,164203.1406250000,165654.6250000000,189963.5625000000,188708.0781250000,169791.2031250000,171255.4218750000,-15028.3652343750,177026.0625000000,,,
0.6719999989,5,164193.3281250000,165642.7656250000,189959.4531250000,188688.8906250000,169786.1875000000,171247.1093750000,-15031.1279296875,177020.2968750000,,,
0.6759999988,5,164196.6250000000,165647.4375000000,189963.7500000000,188685.7343750000,169790.1093750000,171249.8437500000,-15027.7753906250,177027.3750000000,,,
0.6799999988,5,164213.7968750000,165667.4062500000,189982.0937500000,188712.6406250000,169806.3281250000,171263.1250000000,-15012.7285156250,177039.1250000000,,,
0.6839999990,5,164209.4375000000,165666.4687500000,189974.6875000000,188722.1250000000,169801.0937500000,171265.9843750000,-15018.2001953125,177034.9062500000,,,
0.6879999989,5,164196.6250000000,165651.4062500000,189965.7031250000,188686.1093750000,169793.0000000000,171257.4375000000,-15019.9970703125,177023.8281250000,33029,0.6915496751,0.0000000000
0.6919999989,5,164191.3906250000,165644.9687500000,189959.0781250000,188678.4687500000,169788.9218750000,171256.7343750000,-15019.6484375000,177020.2343750000,,,
0.6959999988,5,164203.8125000000,165660.7812500000,189971.7656250000,188681.3906250000,169801.5000000000,171271.1093750000,-15010.6894531250,177040.0156250000,,,
0.6999999988,5,164211.7812500000,165666.9062500000,189977.3750000000,188689.8125000000,169807.2656250000,171266.9218750000,-15021.6064453125,177046.9062500000,,,
0.7039999987,5,164198.4531250000,165646.7343750000,189956.0468750000,188693.8593750000,169786.4218750000,171247.1093750000,-15040.1669921875,177025.9218750000,,,
0.7079999989,5,164190.8281250000,165640.4062500000,189946.5312500000,188679.0468750000,169774.4062500000,171253.2968750000,-15031.3427734375,177016.5625000000,,,
0.7119999989,5,164182.8906250000,165632.2187500000,189941.9375000000,188677.3593750000,169767.9218750000,171254.5625000000,-15032.5498046875,177015.5937500000,,,
0.7159999989,5,164175.1875000000,165624.0937500000,189934.2812500000,188687.6406250000,169762.9843750000,171246.9687500000,-15041.7500000000,177011.9531250000,,,
0.7199999988,5,164186.1562500000,165636.0625000000,189948.6562500000,188699.6250000000,169778.6718750000,171257.7500000000,-15026.5957031250,177016.3750000000,,,
0.7239999988,5,164213.2031250000,165665.0468750000,189979.3906250000,188716.8750000000,169808.4843750000,171284.0937500000,-14997.0107421875,177031.4218750000,,,
0.7279999990,5,164228.7031250000,165674.8906250000,190000.7656250000,188729.7187500000,169827.5468750000,171290.2031250000,-14979.0937500000,177040.3906250000,,,
0.7319999989,5,164210.2031250000,165652.1562500000,189976.2812500000,188711.4531250000,169807.4843750000,171275.2968750000,-14996.7958984375,177029.4687500000,,,
0.7359999989,5,164198.1250000000,165629.3281250000,189966.4843750000,188696.9375000000,169798.2500000000,171259.5000000000,-15004.7353515625,177014.5781250000,,,
0.7399999988,5,164199.6093750000,165624.3906250000,189972.3125000000,188700.3437500000,169802.0625000000,171252.3906250000,-15003.0722656250,177004.5781250000,,,
0.7439999988,5,164202.4687500000,165627.8281250000,189973.7500000000,188701.0156250000,169803.0312500000,171254.0000000000,-15001.9990234375,176999.5000000000,,,
0.7479999987,5,164206.5781250000,165636.1718750000,189973.3750000000,188702.6562500000,169801.7656250000,171258.5625000000,-15003.6621093750,177004.9218750000,,,
0.7519999989,5,164206.0312500000,165644.0312500000,189971.4531250000,188694.9375000000,169799.4843750000,171261.3281250000,-15004.7080078125,177021.0781250000,,,
0.7559999989,5,164209.2343750000,165655.4843750000,189972.6562500000,188703.6718750000,169799.1093750000,171269.1250000000,-15006.5595703125,177037.0625000000,,,
0.7599999988,5,164217.5781250000,165665.3281250000,189986.5312500000,188710.2812500000,169806.6875000000,171273.5000000000,-14999.8808593750,177045.6093750000,,,
0.7639999988,5,164228.5625000000,165680.6875000000,190000.4218750000,188701.0781250000,169818.3437500000,171286.1875000000,-14985.6113281250,177053.9218750000,,,
0.7679999988,6,164197.3750000000,165647.7031250000,189958.7031250000,188711.2968750000,169783.3437500000,171264.7812500000,-15014.0429687500,177029.0312500000,,,
0.7719999987,6,164192.7812500000,165642.6875000000,189955.3593750000,188716.2343750000,169780.2031250000,171257.2968750000,-15016.9121093750,177029.7343750000,,,
0.7759999987,6,164192.0156250000,165642.4687500000,189959.1875000000,188703.0937500000,169784.2031250000,171256.2187500000,-15012.0312500000,177032.2343750000,,,
0.7799999986,6,164195.0937500000,165644.5312500000,189961.8750000000,188701.6875000000,169787.8437500000,171257.0312500000,-15008.3564453125,177028.4218750000,,,
0.7839999986,6,164192.2031250000,165639.7343750000,189957.2812500000,188689.0000000000,169783.2343750000,171252.1718750000,-15020.6943359375,177017.0781250000,,,
0.7879999985,6,164194.0000000000,165643.7031250000,189957.3437500000,188690.2968750000,169783.1250000000,171257.4843750000,-15018.0654296875,177017.9843750000,,,
0.7919999987,6,164201.0781250000,165651.1562500000,189964.8281250000,188689.0000000000,169790.6875000000,171269.7187500000,-15003.6621093750,177031.0468750000,,,
0.7959999987,6,164203.6718750000,165650.4843750000,189970.5625000000,188689.1406250000,169796.6250000000,171269.3750000000,-15000.1757812500,177037.9687500000,,,
0.7999999986,6,164197.7968750000,165642.0937500000,189962.0625000000,188687.0781250000,169790.1562500000,171262.7187500000,-15006.7197265625,177031.0468750000,,,
0.8039999986,6,164203.7656250000,165645.9843750000,189968.2343750000,188689.7031250000,169795.2031250000,171267.6718750000,-14999.2636718750,177026.5781250000,,,
0.8079999986,6,164211.9375000000,165648.1093750000,189979.5468750000,188693.9062500000,169802.5156250000,171271.7500000000,-14992.6923828125,177026.7031250000,,,
0.8119999988,6,164228.0937500000,165668.2968750000,189994.2812500000,188702.0156250000,169814.9375000000,171287.6875000000,-14985.6113281250,177048.2500000000,,,
0.8159999987,6,164230.4531250000,165670.9218750000,189996.2812500000,188700.1093750000,169817.7500000000,171289.7343750000,-14982.9023437500,177061.0937500000,,,
0.8199999987,6,164207.0312500000,165638.4218750000,189970.7187500000,188703.8593750000,169797.4843750000,171270.5468750000,-14998.7539062500,177037.0781250000,,,
0.8239999986,6,164201.4843750000,165632.4062500000,189964.5625000000,188694.7968750000,169793.4375000000,171267.6250000000,-15000.6318359375,177027.5312500000,,,
0.8279999986,6,164203.2187500000,165635.4218750000,189964.3125000000,188695.5468750000,169795.6875000000,171270.1718750000,-14998.2978515625,177029.5468750000,,,
0.8319999985,6,164205.1562500000,165639.8125000000,189968.5000000000,188692.9687500000,169802.3125000000,171275.4843750000,-14993.3623046875,177042.3750000000,,,
0.8359999987,6,164214.8906250000,165651.2656250000,189987.7343750000,188687.3437500000,169819.6093750000,171287.7656250000,-14978.5029296875,177060.0156250000,,,
0.8399999987,6,164216.8750000000,165658.0312500000,189987.9375000000,188709.4375000000,169820.0625000000,171295.9843750000,-14981.6416015625,177063.4531250000,,,
0.8439999986,6,164198.4531250000,165637.7812500000,189966.9218750000,188697.0312500000,169800.1406250000,171281.9531250000,-14994.9179687500,177039.0156250000,,,
0.8479999986,6,164212.0468750000,165654.3437500000,189981.7187500000,188696.0000000000,169811.0781250000,171293.5156250000,-14981.8564453125,177045.6718750000,,,
0.8519999986,6,164210.7031250000,165651.3750000000,189981.0468750000,188703.4375000000,169810.1406250000,171287.6093750000,-14981.9628906250,177049.9062500000,,,
0.8559999987,6,164195.0937500000,165637.3437500000,189962.9531250000,188696.7343750000,169796.1718750000,171277.4687500000,-14990.2246093750,177038.0000000000,,,
0.8599999987,6,164201.3437500000,165647.3281250000,189968.7656250000,188698.1562500000,169800.9062500000,171283.1093750000,-14982.0703125000,177038.1562500000,,,
0.8639999987,6,164211.7812500000,165663.1562500000,189977.5937500000,188698.8437500000,169807.3437500000,171293.2187500000,-14971.5830078125,177040.4062500000,,,
0.8679999986,6,164224.7343750000,165674.6562500000,189993.3125000000,188700.8593750000,169819.0781250000,171300.2656250000,-14959.7275390625,177046.8750000000,,,
0.8719999986,6,164236.2343750000,165688.7656250000,190008.2031250000,188693.4531250000,169833.2343750000,171313.6250000000,-14948.1406250000,177068.0937500000,,,
0.8759999985,6,164218.7031250000,165672.8593750000,189984.3437500000,188690.6875000000,169815.1093750000,171311.4531250000,-14955.8925781250,177063.3437500000,,,
0.8799999987,6,164218.2500000000,165670.4375000000,189984.4843750000,188696.7500000000,169816.4218750000,171312.9218750000,-14944.6533203125,177061.4687500000,,,
0.8839999987,6,164219.9375000000,165669.2968750000,189987.4062500000,188709.0625000000,169818.7500000000,171310.0625000000,-14943.7148437500,177056.1562500000,,,
0.8879999986,6,164232.9218750000,165685.1093750000,190000.6250000000,188699.0156250000,169834.8437500000,171329.3750000000,-14929.7138671875,177068.9687500000,,,
0.8919999986,6,164233.4218750000,165690.7812500000,190003.5781250000,188699.2187500000,169842.7343750000,171345.9531250000,-14914.2109375000,177086.7812500000,,,
0.8959999986,7,164220.4687500000,165668.1406250000,189994.3593750000,188707.2656250000,169835.3750000000,171330.5468750000,-14912.8427734375,177079.6250000000,,,
0.8999999985,7,164229.0312500000,165675.0000000000,190004.2031250000,188710.0937500000,169845.5937500000,171336.0000000000,-14898.2246093750,177083.9375000000,,,
0.9039999985,7,164237.6875000000,165677.7343750000,190021.0937500000,188696.9218750000,169859.7812500000,171342.6250000000,-14874.1113281250,177079.6562500000,,,
0.9079999984,7,164249.7656250000,165690.8281250000,190037.8281250000,188693.7500000000,169875.0000000000,171355.9218750000,-14857.2675781250,177089.2031250000,,,
0.9119999984,7,164255.9062500000,165696.4687500000,190039.8437500000,188708.0781250000,169879.1562500000,171360.6718750000,-14852.0908203125,177101.1406250000,,,
0.9159999983,7,164246.7031250000,165681.2500000000,190027.3125000000,188711.2343750000,169870.6250000000,171353.1875000000,-14851.7958984375,177094.1093750000,,,
0.9199999985,7,164263.6718750000,165702.5781250000,190044.4062500000,188711.6718750000,169886.9062500000,171375.6875000000,-14840.9326171875,177106.9843750000,,,
0.9239999985,7,164279.1093750000,165714.5468750000,190058.1406250000,188728.8593750000,169898.7656250000,171387.7031250000,-14831.4111328125,177114.3281250000,,,
0.9279999984,7,164272.1093750000,165707.1875000000,190045.1562500000,188736.0312500000,169888.8281250000,171386.3125000000,-14821.2187500000,177107.9531250000,,,
0.9319999984,7,164264.9062500000,165700.1875000000,190042.2031250000,188729.4531250000,169886.9062500000,171387.7812500000,-14812.7431640625,177112.2187500000,,,
0.9359999984,7,164259.4375000000,165695.1250000000,190042.6093750000,188694.3125000000,169887.5000000000,171382.6718750000,-14811.2939453125,177117.6250000000,,,
0.9399999985,7,164257.6718750000,165694.5000000000,190037.1875000000,188695.8125000000,169882.5000000000,171377.7343750000,-14819.2070312500,177112.1562500000,,,
0.9439999985,7,164284.7656250000,165730.3125000000,190058.1718750000,188702.4375000000,169903.2968750000,171406.8906250000,-14797.9365234375,177129.5468750000,,,
0.9479999985,7,164301.1718750000,165743.2187500000,190080.4843750000,188703.0000000000,169923.1406250000,171418.9218750000,-14769.9082031250,177147.0000000000,,,
0.9519999984,7,164288.4062500000,165732.1406250000,190059.2343750000,188709.6875000000,169906.3437500000,171406.8593750000,-14788.3886718750,177144.4843750000,,,
0.9559999984,7,164291.5156250000,165743.4531250000,190055.0000000000,188719.8281250000,169907.3437500000,171415.4687500000,-14787.1279296875,177156.6093750000,,,
0.9599999983,7,164293.2968750000,165735.9687500000,190062.7187500000,188728.0781250000,169914.0156250000,171411.7187500000,-14778.2226562500,177152.7343750000,,,
0.9639999985,7,164302.4687500000,165748.8437500000,190072.1406250000,188730.0468750000,169921.4218750000,171417.5625000000,-14769.1035156250,177155.8281250000,,,
0.9679999985,7,164300.7187500000,165747.6406250000,190072.1718750000,188730.3437500000,169921.3437500000,171411.9843750000,-14765.0263671875,177152.4531250000,,,
0.9719999984,7,164316.1406250000,165764.5937500000,190094.1562500000,188732.5156250000,169942.1875000000,171424.7187500000,-14743.0859375000,177174.8437500000,,,
0.9759999984,7,164327.0312500000,165772.8281250000,190112.6875000000,188741.5000000000,169959.4531250000,171427.8906250000,-14727.9042968750,177191.0468750000,,,
0.9799999984,7,164330.3906250000,165786.7187500000,190110.2812500000,188743.6718750000,169960.5625000000,171441.2656250000,-14725.8925781250,177203.8593750000,,,
0.9839999985,7,164314.2968750000,165765.5000000000,190093.2187500000,188747.0937500000,169944.8125000000,171431.2656250000,-14734.6103515625,177185.1093750000,,,
0.9879999985,7,164314.2968750000,165760.2500000000,190093.4062500000,188751.2343750000,169943.8437500000,171428.7656250000,-14730.6132812500,177180.6875000000,,,
0.9919999985,7,164311.4687500000,165756.4843750000,190083.5156250000,188757.6093750000,169933.3593750000,171422.0937500000,-14740.4033203125,177181.9531250000,,,
0.9959999984,7,164317.8125000000,165768.5000000000,190085.5312500000,188738.8437500000,169935.7812500000,171429.5468750000,-14734.1005859375,177197.7031250000,,,
0.9999999984,7,164329.1562500000,165779.6093750000,190100.4375000000,188722.1250000000,169948.0312500000,171439.4687500000,-14721.6015625000,177206.9687500000,,,
1.0039999983,7,164332.4531250000,165774.5156250000,190103.2812500000,188724.2500000000,169951.2968750000,171435.4218750000,-14718.8652343750,177200.1093750000,,,
1.0079999985,7,164319.9531250000,165754.2031250000,190094.0781250000,188729.2656250000,169945.2656250000,171424.0000000000,-14721.2792968750,177184.9531250000,,,
1.0119999985,7,164310.9062500000,165749.5468750000,190082.3125000000,188737.6406250000,169939.3750000000,171423.4375000000,-14728.0117187500,177185.3906250000,,,
1.0159999984,7,164312.6250000000,165746.1562500000,190088.6093750000,188745.1093750000,169945.7187500000,171421.0156250000,-14723.5322265625,177186.5937500000,,,
1.0199999984,7,164311.6093750000,165741.1406250000,190091.3437500000,188741.2031250000,169947.4687500000,171418.8437500000,-14719.9111328125,177178.3281250000,,,
1.0239999983,8,164324.5312500000,165756.9531250000,190105.4843750000,188746.4843750000,169959.4375000000,171433.9218750000,-14709.9609375000,177181.7343750000,,,
1.0279999983,8,164328.5937500000,165762.4218750000,190115.0781250000,188750.0312500000,169966.0781250000,171442.6718750000,-14696.0664062500,177186.1406250000,,,
1.0319999983,8,164319.0937500000,165756.2968750000,190108.6406250000,188748.2343750000,169957.6093750000,171434.7031250000,-14696.4687500000,177186.9062500000,,,
1.0359999982,8,164309.1406250000,165756.7656250000,190090.5468750000,188739.0625000000,169941.8437500000,171434.1093750000,-14703.9257812500,177191.5312500000,,,
1.0399999982,8,164305.9531250000,165746.6250000000,190090.2500000000,188746.4531250000,169937.7343750000,171419.4375000000,-14705.6689453125,177183.0312500000,,,
1.0439999981,8,164313.1718750000,165756.9687500000,190089.4687500000,188749.3750000000,169933.6562500000,171421.7656250000,-14714.0371093750,177183.0000000000,,,
1.0479999983,8,164322.3125000000,165768.8750000000,190095.9843750000,188754.0000000000,169939.4531250000,171430.7500000000,-14709.6923828125,177192.6250000000,,,
1.0519999983,8,164324.2968750000,165771.9062500000,190094.8281250000,188758.9062500000,169942.6718750000,171441.2968750000,-14707.1445312500,177203.7500000000,,,
1.0559999982,8,164327.3750000000,165770.1718750000,190098.8750000000,188760.5156250000,169949.0781250000,171444.9218750000,-14705.5078125000,177213.0156250000,,,
1.0599999982,8,164333.8125000000,165776.6093750000,190104.6250000000,188759.7031250000,169955.8125000000,171445.7812500000,-14706.8222656250,177216.5468750000,,,
1.0639999982,8,164338.8593750000,165785.1406250000,190107.7031250000,188750.4531250000,169957.8437500000,171445.6093750000,-14700.6796875000,177216.6875000000,,,
1.0679999983,8,164331.3593750000,165768.5937500000,190104.3750000000,188761.5312500000,169954.5468750000,171434.2500000000,-14702.9062500000,177202.5468750000,,,
1.0719999983,8,164325.7656250000,165762.4375000000,190100.9531250000,188754.6718750000,169951.3593750000,171430.0000000000,-14708.2978515625,177202.9531250000,,,
1.0759999983,8,164322.5312500000,165759.3593750000,190101.8125000000,188743.5312500000,169954.2500000000,171427.6250000000,-14701.8066406250,177204.8281250000,,,
1.0799999982,8,164327.9218750000,165764.0781250000,190110.6093750000,188751.5781250000,169962.6250000000,171433.3593750000,-14690.9707031250,177205.9375000000,,,
1.0839999982,8,164325.8750000000,165762.1562500000,190109.6875000000,188748.7656250000,169961.0468750000,171431.4218750000,-14690.9707031250,177198.6406250000,,,
1.0879999981,8,164329.6562500000,165765.3437500000,190114.2968750000,188748.2031250000,169964.8281250000,171433.0937500000,-14689.8437500000,177199.5000000000,,,
1.0919999983,8,164336.7968750000,165775.6875000000,190122.0000000000,188749.0937500000,169973.4843750000,171436.6875000000,-14680.5898437500,177212.4687500000,,,
1.0959999983,8,164338.5625000000,165774.2187500000,190127.3437500000,188748.3906250000,169977.2187500000,171437.1406250000,-14673.7509765625,177217.5781250000,,,
1.0999999982,8,164329.2031250000,165764.4843750000,190108.0000000000,188740.4687500000,169957.8750000000,171434.5156250000,-14691.0507812500,177206.2187500000,,,
1.1039999982,8,164335.4531250000,165776.8437500000,190105.6875000000,188743.0312500000,169957.0937500000,171452.1562500000,-14689.8974609375,177206.3281250000,,,
1.1079999981,8,164340.4218750000,165780.7031250000,190109.5781250000,188749.0625000000,169960.3906250000,171457.9062500000,-14684.1845703125,177207.5937500000,,,
1.1119999983,8,164337.1250000000,165775.1093750000,190099.6250000000,188753.0625000000,169954.9531250000,171454.4687500000,-14680.0537109375,177212.6562500000,,,
1.1159999983,8,164346.2968750000,165786.2343750000,190108.3281250000,188751.9843750000,169965.6562500000,171460.6093750000,-14671.7392578125,177228.9687500000,,,
1.1199999982,8,164355.2187500000,165792.7031250000,190117.8906250000,188756.4375000000,169974.5000000000,171465.7656250000,-14667.9843750000,177234.6875000000,,,
1.1239999982,8,164358.3593750000,165793.6406250000,190121.9531250000,188764.3437500000,169977.8125000000,171468.9218750000,-14665.2744140625,177231.2187500000,,,
1.1279999982,8,164358.3593750000,165791.0937500000,190127.0781250000,188768.8281250000,169982.0468750000,171465.7656250000,-14661.3320312500,177225.9375000000,,,
1.1319999981,8,164355.5781250000,165785.4531250000,190125.6562500000,188767.2656250000,169981.9687500000,171459.5625000000,-14662.4052734375,177224.4687500000,,,
1.1359999983,8,164350.9843750000,165782.1093750000,190122.6406250000,188759.3906250000,169977.8125000000,171454.1250000000,-14668.3867187500,177226.6093750000,,,
1.1399999983,8,164360.5000000000,165792.8281250000,190136.8125000000,188759.3593750000,169987.3750000000,171463.8281250000,-14662.9140625000,177234.1718750000,,,
1.1439999982,8,164353.9687500000,165789.5156250000,190130.3125000000,188756.9687500000,169980.8125000000,171467.2968750000,-14669.3251953125,177226.2031250000,,,
1.1479999982,8,164347.5781250000,165782.0781250000,190126.7187500000,188751.3437500000,169975.7343750000,171464.8750000000,-14674.3408203125,177216.6250000000,,,
1.1519999981,9,164344.6093750000,165780.6875000000,190126.2968750000,188740.9843750000,169975.6093750000,171463.4843750000,-14671.7929687500,177223.5312500000,,,
1.1559999981,9,164348.0625000000,165784.3593750000,190130.1093750000,188754.3437500000,169979.0937500000,171463.6875000000,-14670.8535156250,177232.0468750000,,,
1.1599999981,9,164336.6875000000,165774.2500000000,190114.2968750000,188749.5937500000,169966.0625000000,171451.7812500000,-14681.5019531250,177222.0468750000,,,
1.1639999980,9,164342.3281250000,165780.9531250000,190126.1562500000,188736.2187500000,169975.3125000000,171460.5000000000,-14669.6464843750,177220.6093750000,,,
1.1679999980,9,164357.3125000000,165802.0312500000,190140.0000000000,188736.8281250000,169988.7968750000,171480.2968750000,-14655.4580078125,177236.2656250000,,,
1.1719999979,9,164349.0781250000,165787.3281250000,190129.7343750000,188753.3750000000,169982.2812500000,171468.5781250000,-14661.8144531250,177232.0312500000,,,
1.1759999981,9,164356.0000000000,165784.5000000000,190141.2343750000,188756.8437500000,169994.5625000000,171469.9687500000,-14651.9980468750,177232.1093750000,,,
1.1799999981,9,164375.0781250000,165806.1406250000,190158.8750000000,188750.9375000000,170011.1250000000,171485.3437500000,-14655.7802734375,177246.0625000000,,,
1.1839999980,9,164360.6093750000,165785.3750000000,190137.5625000000,188754.0000000000,169992.5781250000,171475.2812500000,-14670.1025390625,177227.7031250000,,,
1.1879999980,9,164356.1093750000,165773.6250000000,190131.6250000000,188768.1250000000,169985.3125000000,171465.0312500000,-14655.1093750000,177210.5156250000,,,
1.1919999979,9,164368.9062500000,165791.8750000000,190142.1250000000,188774.4375000000,169995.8593750000,171475.2812500000,-14641.0273437500,177230.0937500000,,,
1.1959999981,9,164358.7968750000,165784.2500000000,190129.9218750000,188749.0937500000,169986.6562500000,171471.8437500000,-14647.8134765625,177231.1093750000,,,
1.1999999981,9,164353.9687500000,165785.4375000000,190122.1406250000,188742.6250000000,169980.2656250000,171471.8750000000,-14651.9443359375,177228.7343750000,,,
1.2039999980,9,164358.6562500000,165793.6406250000,190130.1562500000,188744.8281250000,169986.8906250000,171480.9687500000,-14642.8251953125,177229.1250000000,,,
1.2079999980,9,164363.7187500000,165796.0468750000,190142.5937500000,188750.4218750000,169996.8281250000,171485.5781250000,-14631.9082031250,177228.6718750000,,,
1.2119999980,9,164357.7968750000,165792.5312500000,190134.0781250000,188748.3281250000,169992.6093750000,171483.0312500000,-14640.1162109375,177229.6406250000,,,
1.2159999979,9,164348.7031250000,165786.3750000000,190122.1562500000,188755.5468750000,169983.8437500000,171475.8125000000,-14653.6337890625,177226.2656250000,,,
1.2199999981,9,164349.8281250000,165787.2343750000,190122.1406250000,188755.9062500000,169982.8437500000,171475.0156250000,-14650.9785156250,177225.7187500000,,,
1.2239999981,9,164353.9843750000,165789.7187500000,190124.7968750000,188750.5937500000,169983.5781250000,171476.4375000000,-14645.1855468750,177221.6250000000,,,
1.2279999980,9,164363.5156250000,165798.0312500000,190134.1250000000,188744.3437500000,169991.5937500000,171482.7656250000,-14639.1503906250,177222.8593750000,,,
1.2319999980,9,164365.0937500000,165795.7812500000,190137.5625000000,188742.7500000000,169994.3281250000,171482.3906250000,-14638.2646484375,177228.9218750000,,,
1.2359999979,9,164357.5000000000,165790.6406250000,190132.1718750000,188734.1406250000,169989.3437500000,171483.2500000000,-14643.7363281250,177232.8281250000,,,
1.2399999981,9,164353.8281250000,165790.0781250000,190130.9843750000,188736.5312500000,169988.6406250000,171485.9843750000,-14641.3222656250,177230.2500000000,,,
1.2439999981,9,164361.5781250000,165800.2656250000,190141.2812500000,188743.5312500000,169996.3593750000,171492.6875000000,-14632.7128906250,177229.4531250000,,,
1.2479999980,9,164370.1562500000,165813.3750000000,190151.8281250000,188743.8750000000,170003.6875000000,171498.8125000000,-14627.4824218750,177236.6093750000,,,
1.2519999980,9,164377.7343750000,165824.5937500000,190161.7031250000,188757.6718750000,170012.5468750000,171506.5000000000,-14619.2216796875,177251.7343750000,,,
1.2559999980,9,164369.4062500000,165815.2812500000,190150.5937500000,188761.2968750000,170003.9843750000,171501.7343750000,-14619.9726562500,177251.5781250000,,,
1.2599999979,9,164356.7187500000,165796.0312500000,190135.6562500000,188763.3750000000,169990.0937500000,171480.9375000000,-14628.5556640625,177233.1875000000,,,
1.2639999981,9,164372.5781250000,165813.2968750000,190144.7968750000,188749.0312500000,169999.6718750000,171489.2031250000,-14620.8847656250,177234.6250000000,,,
1.2679999981,9,164379.2812500000,165817.5156250000,190149.9531250000,188741.9218750000,170004.7656250000,171490.1718750000,-14615.0107421875,177231.6250000000,,,
1.2719999980,9,164368.6562500000,165803.2187500000,190139.4062500000,188747.7968750000,169997.5156250000,171481.1093750000,-14623.4326171875,177223.3437500000,,,
1.2759999980,9,164362.8437500000,165785.1093750000,190139.2187500000,188752.6875000000,169997.5781250000,171475.0937500000,-14626.9189453125,177215.4531250000,,,
1.2799999979,10,164372.3281250000,165794.8437500000,190146.7656250000,188742.7343750000,170005.1562500000,171485.4218750000,-14622.0908203125,177222.6406250000,,,
1.2839999979,10,164379.6562500000,165807.3437500000,190151.4218750000,188750.0468750000,170008.7031250000,171494.0781250000,-14624.5859375000,177225.9062500000,,,
1.2879999978,10,164370.8593750000,165793.4218750000,190148.6562500000,188764.5156250000,170002.6718750000,171482.9843750000,-14619.6777343750,177213.3281250000,,,
1.2919999978,10,164356.8906250000,165781.4375000000,190130.7656250000,188768.1250000000,169988.1093750000,171473.1093750000,-14624.2910156250,177207.2500000000,,,
1.2959999978,10,164344.8437500000,165771.7812500000,190116.5000000000,188760.4375000000,169975.3125000000,171465.1718750000,-14636.5214843750,177202.6093750000,,,
1.2999999977,10,164345.6718750000,165779.6718750000,190116.4843750000,188762.7187500000,169974.3750000000,171474.7968750000,-14636.4677734375,177205.3906250000,,,
1.3039999979,10,164355.2812500000,165794.3906250000,190130.3125000000,188762.0625000000,169981.5625000000,171484.7812500000,-14627.2675781250,177209.7656250000,,,
1.3079999979,10,164387.8593750000,165837.0625000000,190163.9531250000,188743.7500000000,170009.2656250000,171515.3281250000,-14603.2617187500,177239.1406250000,,,
1.3119999978,10,164361.9062500000,165814.1250000000,190128.7031250000,188745.2031250000,169982.3437500000,171497.3281250000,-14625.7119140625,177231.5156250000,,,
1.3159999978,10,164331.2968750000,165767.4531250000,190103.3125000000,188731.3281250000,169961.0937500000,171465.5937500000,-14642.6367187500,177201.1093750000,,,
1.3199999977,10,164333.2031250000,165766.5156250000,190106.7187500000,188724.2968750000,169967.1562500000,171467.0156250000,-14638.0771484375,177195.9531250000,,,
1.3239999979,10,164344.4687500000,165779.1250000000,190120.9843750000,188719.2812500000,169982.1250000000,171477.5156250000,-14627.2675781250,177202.7343750000,,,
1.3279999979,10,164359.4062500000,165797.9062500000,190136.1562500000,188724.2187500000,169998.2187500000,171497.5937500000,-14611.3085937500,177220.2187500000,,,
1.3319999978,10,164368.7187500000,165808.1250000000,190145.0625000000,188729.6718750000,170009.0000000000,171505.1562500000,-14601.6796875000,177235.2968750000,,,
1.3359999978,10,164364.3125000000,165794.0156250000,190146.4375000000,188734.0156250000,170010.2031250000,171491.6718750000,-14600.5263671875,177234.9843750000,,,
1.3399999978,10,164376.0156250000,165804.8750000000,190163.5000000000,188737.2343750000,170023.6093750000,171495.1250000000,-14590.9511718750,177245.3593750000,,,
1.3439999977,10,164371.5000000000,165804.8750000000,190154.7187500000,188737.5781250000,170014.6250000000,171493.3906250000,-14596.1542968750,177235.5625000000,,,
1.3479999979,10,164362.1093750000,165800.2031250000,190143.7343750000,188740.8750000000,170003.6093750000,171495.8750000000,-14604.7910156250,177228.1406250000,,,
1.3519999979,10,164359.9687500000,165797.9062500000,190142.6875000000,188738.5937500000,170000.9843750000,171493.1250000000,-14608.7871093750,177227.7031250000,,,
1.3559999978,10,164364.7500000000,165801.2812500000,190149.7656250000,188741.3281250000,170006.5781250000,171494.1718750000,-14603.1816406250,177234.7343750000,,,
1.3599999978,10,164370.0781250000,165804.7656250000,190155.4218750000,188751.1718750000,170011.0937500000,171499.6406250000,-14593.9550781250,177236.4062500000,,,
1.3639999977,10,164373.8593750000,165805.3281250000,190149.8437500000,188766.8906250000,170005.5625000000,171502.5937500000,-14594.8671875000,177229.2187500000,,,
1.3679999979,10,164378.0781250000,165805.5781250000,190150.5156250000,188764.3437500000,170005.4843750000,171506.6093750000,-14593.2841796875,177225.8593750000,,,
1.3719999979,10,164377.4531250000,165801.8750000000,190154.4375000000,188750.7968750000,170008.5156250000,171508.4843750000,-14592.4531250000,177226.5625000000,,,
1.3759999978,10,164370.3437500000,165792.8125000000,190149.0625000000,188755.6093750000,170006.3906250000,171507.2031250000,-14600.7138671875,177226.6875000000,,,
1.3799999978,10,164348.5156250000,165766.6093750000,190126.7187500000,188762.0156250000,169988.3125000000,171488.5625000000,-14611.4433593750,177205.2812500000,,,
1.3839999977,10,164339.2031250000,165760.7812500000,190117.9531250000,188742.6250000000,169978.0000000000,171478.3593750000,-14616.4853515625,177194.0000000000,,,
1.3879999977,10,164339.2656250000,165763.6562500000,190116.5625000000,188745.5937500000,169976.8125000000,171477.8906250000,-14619.1679687500,177191.1250000000,,,
1.3919999979,10,164349.2343750000,165780.3906250000,190127.3437500000,188744.0468750000,169989.4531250000,171492.6562500000,-14613.2128906250,177206.5000000000,,,
1.3959999979,10,164342.8125000000,165780.4687500000,190121.3281250000,188734.1718750000,169985.6406250000,171491.8593750000,-14621.0185546875,177215.6093750000,,,
1.3999999978,10,164341.3906250000,165781.9375000000,190119.2187500000,188746.1562500000,169985.4531250000,171498.4531250000,-14614.3398437500,177217.2187500000,,,
1.4039999978,10,164337.1718750000,165772.0937500000,190117.6875000000,188743.9375000000,169983.3593750000,171489.4218750000,-14607.5273437500,177206.6875000000,,,
1.4079999977,11,164347.8437500000,165789.0000000000,190125.4062500000,188734.8125000000,169991.1406250000,171503.1250000000,-14598.3808593750,177217.9531250000,,,
1.4119999977,11,164359.4375000000,165802.3750000000,190134.7500000000,188731.3593750000,170002.6406250000,171516.6093750000,-14588.8857421875,177235.5468750000,,,
1.4159999976,11,164356.6406250000,165794.3906250000,190132.7500000000,188728.7343750000,170002.0781250000,171512.9062500000,-14587.8935546875,177238.7656250000,,,
1.4199999976,11,164368.2812500000,165806.1093750000,190143.7343750000,188729.4531250000,170010.9375000000,171521.2031250000,-14581.3212890625,177248.2031250000,,,
1.4239999976,11,164383.8437500000,165821.2343750000,190157.5468750000,188724.8906250000,170021.7656250000,171529.7031250000,-14576.7080078125,177255.8437500000,,,
1.4279999975,11,164392.2187500000,165827.6250000000,190164.9375000000,188718.1406250000,170025.8906250000,171533.8125000000,-14572.8730468750,177256.5937500000,,,
1.4319999977,11,164407.9218750000,165837.3906250000,190182.5625000000,188725.3281250000,170040.9218750000,171538.8437500000,-14558.1201171875,177265.9062500000,,,
1.4359999977,11,164399.1250000000,165825.7968750000,190173.4218750000,188726.6562500000,170032.0312500000,171526.1406250000,-14569.8691406250,177263.8593750000,,,
1.4399999976,11,164388.1093750000,165814.2187500000,190165.3750000000,188733.1562500000,170024.7656250000,171519.7500000000,-14577.7275390625,177254.6875000000,,,
1.4439999976,11,164381.1562500000,165810.2968750000,190156.0156250000,188737.7656250000,170016.3437500000,171518.5468750000,-14575.4208984375,177243.1093750000,,,
1.4479999975,11,164378.8281250000,165809.5156250000,190152.4218750000,188747.0937500000,170012.8281250000,171518.4062500000,-14570.4589843750,177237.7187500000,,,
1.4519999977,11,164381.9843750000,165813.7031250000,190159.8281250000,188740.4687500000,170019.5625000000,171523.9687500000,-14563.7529296875,177245.5937500000,,,
1.4559999977,11,164370.0312500000,165803.1562500000,190142.5781250000,188760.2968750000,170007.7187500000,171522.2812500000,-14574.5625000000,177244.0937500000,,,
1.4599999976,11,164358.8906250000,165788.7031250000,190130.2031250000,188761.8593750000,169997.2031250000,171510.5000000000,-14587.0888671875,177231.0937500000,,,
1.4639999976,11,164352.6718750000,165776.7187500000,190126.5625000000,188762.1718750000,169991.4843750000,171499.9062500000,-14592.1308593750,177213.4687500000,,,
1.4679999975,11,164352.1406250000,165770.4687500000,190132.6250000000,188753.1875000000,169994.7031250000,171493.7968750000,-14587.7050781250,177201.5312500000,,,
1.4719999975,11,164363.0625000000,165776.2656250000,190154.1093750000,188756.0312500000,170011.7656250000,171499.8750000000,-14572.2294921875,177209.2812500000,,,
1.4759999977,11,164337.5937500000,165755.6562500000,190120.8437500000,188762.3437500000,169983.5781250000,171482.9062500000,-14595.1083984375,177198.6875000000,,,
1.4799999977,11,164338.7812500000,165762.0937500000,190120.1250000000,188757.2187500000,169982.5000000000,171485.7968750000,-14597.3076171875,177202.0625000000,,,
1.4839999976,11,164340.4218750000,165772.7500000000,190112.7500000000,188754.1250000000,169976.4843750000,171496.6250000000,-14602.1621093750,177203.4843750000,,,
1.4879999976,11,164345.3593750000,165780.4375000000,190115.6406250000,188748.4375000000,169979.6562500000,171510.1718750000,-14596.1005859375,177205.5781250000,,,
1.4919999975,11,164348.7343750000,165782.7500000000,190123.2031250000,188735.0312500000,169987.8125000000,171515.3281250000,-14586.8203125000,177214.0000000000,,,
1.4959999977,11,164353.4062500000,165795.1875000000,190123.0000000000,188731.8437500000,169993.3593750000,171523.0781250000,-14581.9384765625,177230.9843750000,,,
1.4999999977,11,164361.6562500000,165801.3437500000,190131.2031250000,188727.1250000000,170003.1718750000,171525.4375000000,-14571.3173828125,177239.8906250000,,,
1.5039999976,11,164367.8593750000,165801.5312500000,190137.4843750000,188719.2812500000,170009.4062500000,171527.5625000000,-14563.4853515625,177237.7656250000,,,
1.5079999976,11,164372.3125000000,165804.7500000000,190137.5781250000,188722.1093750000,170009.9062500000,171529.8593750000,-14563.5390625000,177236.9687500000,,,
1.5119999975,11,164378.9375000000,165808.9062500000,190144.4531250000,188722.3750000000,170016.7031250000,171537.9687500000,-14556.6992187500,177246.1406250000,,,
1.5159999975,11,164386.9531250000,165814.0000000000,190158.4062500000,188710.7500000000,170027.6093750000,171541.1562500000,-14549.3769531250,177256.8593750000,,,
1.5199999977,11,164392.7500000000,165817.8281250000,190164.1406250000,188710.3593750000,170031.7656250000,171545.9531250000,-14547.2578125000,177263.2500000000,,,
1.5239999976,11,164397.2031250000,165816.5937500000,190165.8593750000,188731.7343750000,170033.6406250000,171542.8437500000,-14543.9853515625,177257.3281250000,,,
1.5279999976,11,164404.9843750000,165823.1093750000,190176.1875000000,188733.2812500000,170042.0156250000,171544.4218750000,-14532.4521484375,177255.0625000000,,,
1.5319999976,11,164397.8437500000,165815.5000000000,190167.1718750000,188735.9375000000,170034.0312500000,171537.0312500000,-14543.4492187500,177252.5000000000,,,
1.5359999975,12,164389.0937500000,165802.7031250000,190158.6406250000,188747.2656250000,170026.1718750000,171522.0312500000,-14555.7333984375,177242.8437500000,,,
1.5399999975,12,164384.2656250000,165796.7031250000,190152.3125000000,188752.6250000000,170020.0000000000,171510.3125000000,-14562.8945312500,177232.8906250000,,,
1.5439999974,12,164382.2656250000,165789.0000000000,190150.0781250000,188757.1406250000,170015.8593750000,171502.6406250000,-14564.5849609375,177214.9375000000,,,
1.5479999974,12,164380.6250000000,165791.8906250000,190149.2187500000,188760.2500000000,170013.3125000000,171504.7031250000,-14564.5849609375,177209.6250000000,,,
1.5519999973,12,164380.7031250000,165798.1718750000,190154.1875000000,188763.5937500000,170016.6718750000,171510.7343750000,-14560.9101562500,177216.8750000000,,,
1.5559999973,12,164370.9687500000,165780.8906250000,190150.3281250000,188769.1250000000,170011.4687500000,171502.1562500000,-14563.7529296875,177208.6406250000,,,
1.5599999975,12,164360.6093750000,165777.2031250000,190135.4687500000,188766.4687500000,169996.4531250000,171496.8281250000,-14575.0449218750,177202.1406250000,,,
1.5639999975,12,164357.0468750000,165775.3125000000,190132.9531250000,188762.6093750000,169990.8593750000,171495.2656250000,-14575.4746093750,177193.1406250000,,,
1.5679999974,12,164342.7500000000,165760.8906250000,190119.2187500000,188766.3281250000,169977.7187500000,171491.5156250000,-14585.9082031250,177178.9687500000,,,
1.5719999974,12,164342.0000000000,165768.5625000000,190114.0312500000,188762.0156250000,169976.0312500000,171500.1406250000,-14581.4560546875,177193.9062500000,,,
1.5759999973,12,164336.7187500000,165768.5312500000,190106.8750000000,188752.0156250000,169972.6250000000,171498.7031250000,-14583.0917968750,177204.0312500000,,,
1.5799999975,12,164348.7812500000,165782.2187500000,190122.9687500000,188741.5156250000,169989.0937500000,171509.2187500000,-14569.7343750000,177219.3125000000,,,
1.5839999975,12,164348.2968750000,165778.4531250000,190123.4218750000,188731.6718750000,169993.0468750000,171507.2812500000,-14564.7187500000,177213.9218750000,,,
1.5879999974,12,164350.8437500000,165782.5625000000,190122.1875000000,188729.8750000000,169996.4531250000,171508.0625000000,-14560.9638671875,177212.4218750000,,,
1.5919999974,12,164355.5468750000,165783.2343750000,190129.5156250000,188715.4218750000,170004.8437500000,171508.4687500000,-14559.0595703125,177218.8281250000,,,
1.5959999973,12,164375.2656250000,165807.0468750000,190150.7031250000,188706.5937500000,170023.7968750000,171526.0312500000,-14548.2236328125,177242.2968750000,,,
1.5999999973,12,164380.2968750000,165811.2031250000,190156.5156250000,188712.3125000000,170027.6406250000,171532.5468750000,-14543.1806640625,177248.9062500000,,,
1.6039999975,12,164374.0781250000,165799.9375000000,190151.3125000000,188716.0625000000,170020.3906250000,171527.2343750000,-14545.4072265625,177234.2500000000,,,
1.6079999974,12,164371.1250000000,165795.9687500000,190146.7656250000,188723.0468750000,170015.4375000000,171526.0625000000,-14549.2158203125,177226.5781250000,,,
1.6119999974,12,164367.7812500000,165783.3125000000,190148.8437500000,188729.1562500000,170016.5937500000,171517.6562500000,-14548.7060546875,177217.4843750000,,,
1.6159999974,12,164367.1562500000,165778.1562500000,190148.7656250000,188711.3437500000,170016.1093750000,171514.8750000000,-14546.2119140625,177214.5468750000,,,
1.6199999973,12,164377.2187500000,165786.7968750000,190156.5000000000,188718.3750000000,170021.8437500000,171518.8125000000,-14537.8964843750,177215.5781250000,,,
1.6239999975,12,164393.4375000000,165799.8593750000,190171.6718750000,188742.2812500000,170032.7343750000,171521.7656250000,-14528.8847656250,177217.3593750000,,,
1.6279999975,12,164416.9375000000,165824.9375000000,190191.2031250000,188777.3906250000,170049.0156250000,171531.4218750000,-14518.4775390625,177232.6406250000,,,
1.6319999974,12,164431.6875000000,165842.8593750000,190203.1406250000,188797.1718750000,170059.8281250000,171540.5937500000,-14512.7109375000,177252.1718750000,,,
1.6359999974,12,164408.8125000000,165818.9062500000,190179.4218750000,188770.2968750000,170036.6718750000,171523.0781250000,-14532.8544921875,177244.1250000000,,,
1.6399999973,12,164372.5312500000,165779.2812500000,190140.7812500000,188759.1406250000,169999.2343750000,171493.6875000000,-14562.6806640625,177213.5937500000,,,
1.6439999973,12,164364.6875000000,165781.4843750000,190127.7187500000,188775.0781250000,169986.9843750000,171494.4062500000,-14568.2060546875,177206.1250000000,,,
1.6479999975,12,164359.9218750000,165788.5468750000,190124.0156250000,188765.7187500000,169983.4375000000,171498.1093750000,-14564.4501953125,177209.1718750000,,,
1.6519999974,12,164374.3281250000,165807.0468750000,190150.2187500000,188772.7187500000,170005.2187500000,171506.5000000000,-14542.4560546875,177227.8125000000,,,
1.6559999974,12,164349.4531250000,165773.9218750000,190125.7343750000,188781.2500000000,169986.1718750000,171484.0312500000,-14559.3007812500,177209.4375000000,,,
1.6599999974,12,164326.3125000000,165761.8593750000,190095.9843750000,188750.5156250000,169961.1718750000,171476.4375000000,-14586.7128906250,177197.2968750000,,,
1.6639999973,13,164316.7031250000,165755.4218750000,190084.4843750000,188722.3125000000,169948.4375000000,171471.7187500000,-14589.7705078125,177184.4531250000,,,
1.6679999973,13,164324.4375000000,165761.5000000000,190091.8750000000,188724.6562500000,169956.6718750000,171480.3593750000,-14572.8193359375,177182.0312500000,,,
1.6719999972,13,164326.9843750000,165765.4531250000,190090.8593750000,188732.3750000000,169959.7812500000,171482.4375000000,-14570.8613281250,177189.2500000000,,,
1.6759999972,13,164338.1406250000,165775.5312500000,190104.7343750000,188756.9375000000,169975.5781250000,171488.5000000000,-14562.2783203125,177202.9218750000,,,
1.6799999971,13,164351.4218750000,165787.4687500000,190121.5937500000,188758.8750000000,169990.8125000000,171499.2812500000,-14549.4306640625,177215.0468750000,,,
1.6839999971,13,164379.5781250000,165821.4062500000,190153.7031250000,188721.0312500000,170019.6250000000,171527.7656250000,-14520.6767578125,177235.4062500000,,,
1.6879999973,13,164358.5156250000,165798.5468750000,190133.7031250000,188697.0000000000,170002.4062500000,171513.5000000000,-14535.9121093750,177220.5156250000,,,
1.6919999972,13,164327.8125000000,165752.3281250000,190109.3437500000,188698.7187500000,169981.3437500000,171483.5468750000,-14554.1777343750,177188.8125000000,,,
1.6959999972,13,164340.0156250000,165766.8750000000,190118.1875000000,188705.1250000000,169992.7500000000,171496.7968750000,-14544.4951171875,177204.3750000000,,,
1.6999999972,13,164367.9062500000,165795.9218750000,190145.0625000000,188704.8281250000,170018.9218750000,171518.0156250000,-14522.2324218750,177227.6093750000,,,
1.7039999971,13,164375.1250000000,165789.5156250000,190158.9375000000,188721.0781250000,170029.1718750000,171514.2500000000,-14510.8330078125,177219.9062500000,,,
1.7079999973,13,164387.2187500000,165798.8750000000,190164.3750000000,188735.3750000000,170034.3437500000,171522.1093750000,-14505.1738281250,177221.1718750000,,,
1.7119999973,13,164402.1406250000,165815.0937500000,190167.3906250000,188745.2968750000,170038.1562500000,171534.7812500000,-14508.5537109375,177240.2031250000,,,
1.7159999972,13,164398.5468750000,165808.5781250000,190159.4687500000,188738.3906250000,170030.3750000000,171528.1718750000,-14514.1591796875,177246.0312500000,,,
1.7199999972,13,164408.5468750000,165816.6250000000,190166.0937500000,188736.3750000000,170032.7968750000,171532.5000000000,-14505.7636718750,177252.6875000000,,,
1.7239999971,13,164410.2343750000,165816.8906250000,190165.2656250000,188745.4062500000,170029.0625000000,171527.2656250000,-14507.1318359375,177248.1250000000,,,
1.7279999971,13,164409.6250000000,165816.6250000000,190165.5000000000,188748.5156250000,170025.2812500000,171518.3125000000,-14512.2548828125,177241.6875000000,,,
1.7319999973,13,164430.0312500000,165838.8593750000,190194.5625000000,188760.8281250000,170048.8906250000,171527.4218750000,-14494.0429687500,177260.1093750000,,,
1.7359999972,13,164439.6562500000,165860.4062500000,190201.4687500000,188772.1250000000,170058.0000000000,171545.8437500000,-14488.6250000000,177288.6562500000,,,
1.7399999972,13,164410.6093750000,165838.2968750000,190167.5000000000,188789.0000000000,170029.5781250000,171534.4531250000,-14516.2783203125,177276.6875000000,,,
1.7439999972,13,164402.0312500000,165825.6718750000,190168.3437500000,188782.5937500000,170027.9843750000,171527.3750000000,-14515.2324218750,177257.5312500000,,,
1.7479999971,13,164373.1875000000,165793.8281250000,190139.0625000000,188779.6406250000,170000.7968750000,171503.0937500000,-14537.0917968750,177223.8437500000,,,
1.7519999973,13,164367.0781250000,165791.5000000000,190132.2187500000,188773.3906250000,169996.7656250000,171500.4218750000,-14540.1767578125,177220.7031250000,,,
1.7559999973,13,164368.8437500000,165794.1718750000,190134.3125000000,188771.8281250000,170001.8437500000,171500.9843750000,-14535.6171875000,177227.4687500000,,,
1.7599999972,13,164365.3281250000,165792.7343750000,190129.8593750000,188756.7500000000,169998.3750000000,171504.2500000000,-14533.4443359375,177225.8125000000,,,
1.7639999972,13,164364.0468750000,165790.5312500000,190134.2812500000,188739.6406250000,170001.3593750000,171502.4531250000,-14524.1904296875,177219.0000000000,,,
1.7679999971,13,164362.2187500000,165785.1562500000,190139.2968750000,188725.9062500000,170004.2812500000,171498.1562500000,-14521.2666015625,177209.9531250000,,,
1.7719999971,13,164355.6718750000,165786.7187500000,190126.7812500000,188723.8437500000,169996.7656250000,171501.7031250000,-14531.9150390625,177213.6250000000,,,
1.7759999973,13,164364.3750000000,165801.8437500000,190134.8281250000,188718.5156250000,170006.1093750000,171518.7812500000,-14526.3632812500,177233.0468750000,,,
1.7799999972,13,164373.9375000000,165803.7968750000,190153.5156250000,188723.2812500000,170022.2812500000,171527.6718750000,-14509.4121093750,177239.2187500000,,,
1.7839999972,13,164384.1093750000,165801.5468750000,190170.9531250000,188739.8281250000,170035.1250000000,171523.9062500000,-14497.3955078125,177233.8750000000,,,
1.7879999971,13,164373.4062500000,165791.2500000000,190150.1093750000,188734.6250000000,170020.5312500000,171517.2656250000,-14512.1474609375,177222.1250000000,,,
1.7919999971,14,164380.5156250000,165800.3437500000,190155.5312500000,188739.3281250000,170027.9062500000,171527.8593750000,-14507.8564453125,177234.7031250000,,,
1.7959999971,14,164393.7656250000,165813.9375000000,190169.1562500000,188718.4843750000,170041.0468750000,171542.8750000000,-14496.4570312500,177252.3125000000,,,
1.7999999970,14,164387.0625000000,165797.9375000000,190159.9843750000,188729.9843750000,170031.9062500000,171529.5468750000,-14504.9589843750,177241.3906250000,,,
1.8039999970,14,164383.6562500000,165790.6562500000,190152.2500000000,188735.8593750000,170024.0937500000,171521.0156250000,-14512.1474609375,177224.4687500000,,,
1.8079999969,14,164399.0312500000,165809.7343750000,190164.7812500000,188743.6718750000,170033.5937500000,171532.7343750000,-14505.9248046875,177232.2968750000,,,
1.8119999969,14,164406.7500000000,165814.4062500000,190171.8125000000,188750.5156250000,170040.0000000000,171534.1250000000,-14499.8095703125,177243.4062500000,,,
1.8159999971,14,164405.5937500000,165814.0000000000,190169.5312500000,188738.8125000000,170038.6406250000,171527.7187500000,-14501.5527343750,177248.7968750000,,,
1.8199999970,14,164410.8281250000,165821.5937500000,190179.2343750000,188737.8750000000,170047.1406250000,171531.9375000000,-14493.8544921875,177254.7187500000,,,
1.8239999970,14,164423.1562500000,165842.4218750000,190195.7031250000,188749.1718750000,170062.0000000000,171551.9687500000,-14471.2167968750,177265.7968750000,,,
1.8279999970,14,164415.5781250000,165837.8437500000,190181.5000000000,188768.7812500000,170049.9531250000,171548.5000000000,-14479.1562500000,177259.9218750000,,,
1.8319999969,14,164379.6875000000,165797.6562500000,190143.8593750000,188752.5937500000,170013.5312500000,171513.4531250000,-14515.2050781250,177233.5781250000,,,
1.8359999971,14,164371.3125000000,165794.5000000000,190135.0312500000,188748.6093750000,170002.6718750000,171509.7968750000,-14523.9765625000,177235.7812500000,,,
1.8399999971,14,164375.0468750000,165799.8125000000,190141.3750000000,188760.0000000000,170005.9687500000,171518.7343750000,-14516.8955078125,177240.8281250000,,,
1.8439999970,14,164374.8906250000,165801.0156250000,190144.5937500000,188756.9375000000,170006.1093750000,171523.6093750000,-14514.8837890625,177239.2656250000,,,
1.8479999970,14,164363.0000000000,165793.4843750000,190128.7656250000,188732.9062500000,169990.8125000000,171519.8906250000,-14528.7773437500,177230.0156250000,,,
1.8519999969,14,164355.2031250000,165783.8750000000,190125.7031250000,188728.8125000000,169988.2656250000,171513.8281250000,-14526.5507812500,177226.4687500000,,,
1.8559999969,14,164344.1250000000,165769.2812500000,190123.1250000000,188720.3281250000,169985.7187500000,171502.8281250000,-14527.2216796875,177225.1406250000,,,
1.8599999971,14,164350.3125000000,165777.4687500000,190134.7968750000,188715.9062500000,169995.9843750000,171508.1875000000,-14518.7998046875,177233.8750000000,,,
1.8639999970,14,164348.1093750000,165783.0937500000,190126.2187500000,188715.5312500000,169992.0468750000,171513.0156250000,-14524.3251953125,177233.0156250000,,,
1.8679999970,14,164347.8750000000,165781.0000000000,190129.0781250000,188718.4062500000,169995.9687500000,171518.5468750000,-14527.8652343750,177231.1406250000,,,
1.8719999969,14,164344.8906250000,165773.7968750000,190126.1250000000,188724.1406250000,169992.9062500000,171515.1875000000,-14533.2568359375,177230.8750000000,,,
1.8759999969,14,164357.2812500000,165789.6406250000,190134.7500000000,188726.0000000000,170001.1093750000,171528.0468750000,-14525.5048828125,177250.6093750000,,,
1.8799999971,14,164358.3125000000,165782.6093750000,190134.2656250000,188736.1875000000,170000.9843750000,171527.5781250000,-14511.6650390625,177251.2812500000,,,
1.8839999971,14,164358.6562500000,165779.1562500000,190132.3281250000,188745.4843750000,169998.9062500000,171525.3906250000,-14508.5000000000,177244.0937500000,,,
1.8879999970,14,164379.7187500000,165800.5312500000,190150.1093750000,188752.3281250000,170015.2187500000,171544.1562500000,-14494.8203125000,177254.5625000000,,,
1.8919999970,14,164395.5625000000,165815.3437500000,190164.2812500000,188758.2031250000,170029.7656250000,171554.8125000000,-14486.8007812500,177269.1250000000,,,
1.8959999969,14,164399.9062500000,165815.3437500000,190171.0312500000,188752.2031250000,170035.0156250000,171545.7500000000,-14489.8046875000,177274.4375000000,,,
1.8999999969,14,164395.2656250000,165813.8906250000,190161.7031250000,188734.7031250000,170029.2812500000,171542.6562500000,-14494.5791015625,177270.8125000000,,,
1.9039999971,14,164384.3750000000,165800.2968750000,190144.9375000000,188733.0468750000,170015.7812500000,171530.9375000000,-14507.1054687500,177252.3593750000,,,
1.9079999970,14,164390.2187500000,165806.6250000000,190148.6406250000,188738.2187500000,170019.1718750000,171534.9687500000,-14508.8750000000,177251.6093750000,,,
1.9119999970,14,164389.6562500000,165806.6250000000,190150.8281250000,188726.0781250000,170020.3750000000,171535.1718750000,-14504.4765625000,177254.9843750000,,,
1.9159999969,14,164400.5312500000,165821.9375000000,190164.4375000000,188727.4375000000,170031.6562500000,171545.5000000000,-14490.8779296875,177271.8281250000,,,
1.9199999969,15,164394.6718750000,165814.8281250000,190158.0468750000,188737.5000000000,170024.7500000000,171536.1093750000,-14493.6132812500,177267.2656250000,,,
1.9239999969,15,164381.5312500000,165800.9843750000,190141.6406250000,188744.2031250000,170008.8125000000,171522.5937500000,-14506.0048828125,177249.8906250000,,,
1.9279999968,15,164384.0625000000,165803.8281250000,190146.0625000000,188746.7031250000,170012.3281250000,171521.6250000000,-14502.6259765625,177243.8593750000,,,
1.9319999968,15,164384.1406250000,165810.4531250000,190148.7500000000,188735.7500000000,170013.0781250000,171527.5000000000,-14500.6142578125,177251.2343750000,,,
1.9359999967,15,164372.8750000000,165797.4531250000,190143.5937500000,188730.0625000000,170007.3593750000,171518.8125000000,-14504.4228515625,177248.6562500000,,,
1.9399999967,15,164378.8593750000,165807.8593750000,190149.3125000000,188747.9375000000,170013.9687500000,171533.8125000000,-14495.6787109375,177259.5468750000,,,
1.9439999969,15,164385.1250000000,165816.2812500000,190150.5625000000,188759.7656250000,170014.9062500000,171542.1250000000,-14496.1083984375,177262.8750000000,,,
1.9479999968,15,164375.3437500000,165806.9218750000,190138.2812500000,188740.0000000000,170003.0937500000,171538.0156250000,-14507.1054687500,177255.3593750000,,,
1.9519999968,15,164373.3750000000,165809.4687500000,190137.1875000000,188729.0468750000,170002.2968750000,171541.0468750000,-14504.3955078125,177263.0312500000,,,
1.9559999967,15,164361.9218750000,165791.3906250000,190127.7187500000,188732.0312500000,169994.8437500000,171522.7500000000,-14506.0859375000,177255.8125000000,,,
1.9599999967,15,164370.1406250000,165796.4062500000,190139.1093750000,188737.7968750000,170006.9843750000,171527.2031250000,-14488.0615234375,177261.2656250000,,,
1.9639999969,15,164374.6718750000,165799.1093750000,190142.8437500000,188739.2187500000,170011.6562500000,171530.7968750000,-14481.1679687500,177259.7343750000,,,
1.9679999969,15,164383.0625000000,165807.6875000000,190150.6250000000,188746.8593750000,170020.3750000000,171535.1562500000,-14475.1064453125,177262.0937500000,,,
1.9719999968,15,164388.1406250000,165814.0781250000,190160.8437500000,188732.6250000000,170029.4375000000,171539.7343750000,-14468.9638671875,177270.4062500000,,,
1.9759999968,15,164398.7812500000,165822.8750000000,190171.0937500000,188742.0781250000,170039.9843750000,171552.6406250000,-14460.4082031250,177288.6250000000,,,
1.9799999967,15,164396.0156250000,165812.4687500000,190170.5781250000,188740.0000000000,170040.2968750000,171547.1406250000,-14458.1279296875,177284.4062500000,,,
1.9839999967,15,164385.0156250000,165792.4531250000,190153.2968750000,188739.5937500000,170025.8906250000,171529.2500000000,-14470.8681640625,177261.0156250000,,,
1.9879999969,15,164390.0156250000,165792.0781250000,190153.5468750000,188739.2187500000,170024.8281250000,171525.9531250000,-14473.7119140625,177254.1250000000,,,
1.9919999968,15,164398.0781250000,165798.1250000000,190160.9218750000,188738.1718750000,170031.2343750000,171531.3125000000,-14467.7841796875,177262.2812500000,,,
1.9959999968,15,164399.6718750000,165803.1875000000,190160.8125000000,188737.8437500000,170032.9218750000,171539.6562500000,-14468.5615234375,177273.4218750000,,,
1.9999999967,15,164399.2656250000,165807.6406250000,190159.9531250000,188730.7656250000,170032.2500000000,171545.0937500000,-14471.8339843750,177280.0156250000,,,
2.0039999967,15,164408.3281250000,165820.0312500000,190171.3593750000,188723.8437500000,170040.5937500000,171550.5937500000,-14465.6113281250,177285.1562500000,,,
2.0079999969,15,164418.0156250000,165832.4218750000,190180.7500000000,188726.9375000000,170048.3437500000,171554.9687500000,-14457.3496093750,177289.0468750000,,,
2.0119999968,15,164406.5312500000,165828.1250000000,190164.2500000000,188734.1406250000,170035.0625000000,171549.1250000000,-14468.8300781250,177287.0468750000,,,
2.0159999968,15,164405.5468750000,165832.3125000000,190165.5000000000,188740.4531250000,170036.2031250000,171550.0937500000,-14467.9980468750,177297.0781250000,,,
2.0199999968,15,164398.0625000000,165824.5937500000,190165.6406250000,188747.5000000000,170032.8437500000,171547.0781250000,-14470.7070312500,177294.1250000000,,,
2.0239999967,15,164383.3125000000,165815.4687500000,190145.0625000000,188742.9687500000,170014.6875000000,171547.2500000000,-14480.6855468750,177280.6093750000,,,
2.0279999967,15,164363.3281250000,165789.1093750000,190125.1093750000,188733.0156250000,169995.9843750000,171528.1562500000,-14493.6132812500,177253.8906250000,,,
2.0319999969,15,164373.4843750000,165798.9218750000,190139.1875000000,188740.9531250000,170006.4531250000,171535.2031250000,-14485.0302734375,177260.7500000000,,,
2.0359999968,15,164377.9375000000,165805.0937500000,190145.4218750000,188741.5468750000,170012.0312500000,171542.3125000000,-14478.9150390625,177272.9375000000,,,
2.0399999968,15,164366.0000000000,165795.0000000000,190131.6562500000,188726.5781250000,170001.5625000000,171538.8750000000,-14487.3369140625,177265.9062500000,,,
2.0439999967,15,164368.9531250000,165798.8750000000,190131.7968750000,188742.3593750000,170002.9843750000,171544.2187500000,-14484.8427734375,177262.0625000000,,,
2.0479999967,16,164378.7187500000,165807.8593750000,190140.7812500000,188759.8750000000,170010.4687500000,171549.9531250000,-14479.5585937500,177266.6562500000,,,
2.0519999966,16,164379.0468750000,165804.4531250000,190146.0937500000,188750.9843750000,170014.1250000000,171546.2812500000,-14475.6162109375,177269.2031250000,,,
2.0559999966,16,164369.9218750000,165795.2500000000,190141.8750000000,188715.9062500000,170011.0625000000,171537.2343750000,-14477.6806640625,177268.2968750000,,,
2.0599999966,16,164354.7968750000,165780.9531250000,190123.4218750000,188708.8593750000,169996.3593750000,171529.5937500000,-14491.7363281250,177256.4687500000,,,
2.0639999965,16,164353.8750000000,165780.4375000000,190123.0000000000,188704.1875000000,169996.0781250000,171532.5468750000,-14490.0996093750,177249.5468750000,,,
2.0679999965,16,164358.9843750000,165782.7500000000,190129.4531250000,188706.6250000000,170001.0312500000,171536.5468750000,-14482.8847656250,177246.4375000000,,,
2.0719999967,16,164370.2187500000,165791.7656250000,190137.6406250000,188723.4687500000,170008.4375000000,171543.2812500000,-14477.1982421875,177257.6718750000,,,
2.0759999966,16,164382.7656250000,165800.1250000000,190147.8906250000,188748.4687500000,170017.0937500000,171546.4375000000,-14473.5771484375,177270.9531250000,,,
2.0799999966,16,164388.7500000000,165800.1562500000,190157.1875000000,188743.2968750000,170024.9531250000,171547.4375000000,-14466.0673828125,177272.4687500000,,,
2.0839999965,16,164391.1093750000,165800.2656250000,190159.5781250000,188715.9687500000,170025.3593750000,171543.5468750000,-14463.9746093750,177265.3125000000,,,
2.0879999965,16,164391.7812500000,165804.8750000000,190155.6093750000,188714.5937500000,170022.2968750000,171546.7656250000,-14463.3310546875,177263.9218750000,,,
2.0919999967,16,164388.1406250000,165799.6250000000,190154.7031250000,188729.7968750000,170021.0937500000,171541.5937500000,-14462.9560546875,177264.5312500000,,,
2.0959999966,16,164386.3906250000,165798.9687500000,190155.8750000000,188735.8437500000,170022.4843750000,171541.6093750000,-14463.0634765625,177273.3281250000,,,
2.0999999966,16,164375.9062500000,165797.9843750000,190140.7031250000,188730.3906250000,170009.1875000000,171542.3906250000,-14473.0947265625,177275.2968750000,,,
2.1039999966,16,164378.2343750000,165805.5937500000,190142.6875000000,188721.4843750000,170009.3281250000,171548.4531250000,-14468.5615234375,177275.4843750000,,,
2.1079999965,16,164368.9531250000,165799.1875000000,190132.9218750000,188722.3906250000,169999.9375000000,171542.0156250000,-14478.2978515625,177264.1406250000,,,
2.1119999965,16,164359.8906250000,165790.9843750000,190126.5312500000,188715.0156250000,169995.2343750000,171534.3437500000,-14484.9228515625,177258.5312500000,,,
2.1159999967,16,164348.2031250000,165781.9375000000,190116.0156250000,188715.1875000000,169987.5468750000,171524.3125000000,-14490.3681640625,177258.0781250000,,,
2.1199999966,16,164351.4687500000,165784.5468750000,190119.7812500000,188727.2500000000,169992.2031250000,171527.1562500000,-14485.3525390625,177262.3593750000,,,
2.1239999966,16,164357.5000000000,165788.4687500000,190126.8281250000,188722.6406250000,169999.7968750000,171530.0000000000,-14475.2675781250,177261.6875000000,,,
2.1279999965,16,164373.4843750000,165802.0312500000,190143.2656250000,188725.4531250000,170016.6718750000,171543.0937500000,-14459.4960937500,177268.0468750000,,,
2.1319999965,16,164380.3750000000,165800.3125000000,190153.9687500000,188743.4062500000,170027.0156250000,171547.1093750000,-14451.7177734375,177270.7343750000,,,
2.1359999967,16,164376.6562500000,165787.1250000000,190154.5937500000,188743.9375000000,170028.0468750000,171539.7031250000,-14451.7177734375,177268.2968750000,,,
2.1399999966,16,164387.3593750000,165798.4062500000,190166.3593750000,188735.4843750000,170038.5781250000,171551.3750000000,-14441.4716796875,177276.8437500000,,,
2.1439999966,16,164394.2500000000,165807.5312500000,190168.6250000000,188745.7343750000,170039.5781250000,171564.2500000000,-14440.6933593750,177282.2656250000,,,
2.1479999966,16,164388.4531250000,165798.5156250000,190160.1406250000,188744.6562500000,170029.8906250000,171558.3750000000,-14450.0273437500,177273.4687500000,,,
2.1519999965,16,164404.5000000000,165815.6250000000,190181.5000000000,188741.4687500000,170047.5625000000,171573.3125000000,-14435.5439453125,177290.5312500000,,,
2.1559999965,16,164395.4218750000,165808.9062500000,190169.1562500000,188750.4843750000,170037.0781250000,171567.7968750000,-14445.4951171875,177293.6875000000,,,
2.1599999967,16,164385.2656250000,165796.0468750000,190154.5156250000,188765.0156250000,170024.5781250000,171554.0781250000,-14458.1279296875,177283.4687500000,,,
2.1639999966,16,164392.1562500000,165803.0781250000,190161.8281250000,188746.5312500000,170030.3281250000,171557.0312500000,-14452.1728515625,177280.7968750000,,,
2.1679999966,16,164399.6093750000,165813.4531250000,190168.7187500000,188718.6093750000,170036.4687500000,171566.8750000000,-14440.0498046875,177281.2500000000,,,
2.1719999965,16,164396.3437500000,165810.5937500000,190162.9062500000,188724.2031250000,170035.1562500000,171567.2031250000,-14438.6552734375,177282.8593750000,,,
2.1759999965,17,164397.9843750000,165810.5312500000,190169.2968750000,188722.7812500000,170042.5000000000,171566.1250000000,-14433.6123046875,177291.0625000000,,,
2.1799999964,17,164398.7343750000,165814.4843750000,190169.6406250000,188723.7187500000,170044.3750000000,171572.2656250000,-14431.9228515625,177295.4062500000,,,
2.1839999964,17,164390.1718750000,165808.7968750000,190159.3125000000,188722.3906250000,170033.5156250000,171566.0781250000,-14442.1689453125,177284.9531250000,,,
2.1879999964,17,164396.7656250000,165819.4375000000,190167.6562500000,188729.1250000000,170038.3437500000,171568.7031250000,-14437.2871093750,177286.3750000000,,,
2.1919999963,17,164398.2500000000,165823.0625000000,190168.8906250000,188727.9218750000,170038.0781250000,171570.6562500000,-14441.6591796875,177293.9062500000,,,
2.1959999963,17,164385.8593750000,165813.6718750000,190153.8437500000,188727.1718750000,170023.6718750000,171568.7500000000,-14454.8828125000,177292.3281250000,,,
2.1999999965,17,164375.2031250000,165803.9687500000,190143.7500000000,188721.9687500000,170010.3906250000,171564.5781250000,-14467.9179687500,177285.9687500000,,,
2.2039999964,17,164377.7500000000,165810.1093750000,190146.9687500000,188720.3593750000,170010.8750000000,171570.5781250000,-14470.2246093750,177287.2812500000,,,
2.2079999964,17,164380.7031250000,165811.8437500000,190151.3750000000,188715.0000000000,170015.4843750000,171573.7656250000,-14452.2265625000,177284.4687500000,,,
2.2119999963,17,164372.1406250000,165796.7187500000,190141.5625000000,188726.3125000000,170010.6406250000,171562.7812500000,-14448.2304687500,177274.8593750000,,,
2.2159999963,17,164359.7812500000,165782.9375000000,190128.1718750000,188726.8437500000,170001.7343750000,171549.6406250000,-14458.6103515625,177270.3281250000,,,
2.2199999965,17,164372.5000000000,165792.6718750000,190140.3281250000,188739.2968750000,170013.6093750000,171558.9375000000,-14450.3759765625,177277.8437500000,,,
2.2239999964,17,164382.4218750000,165799.8593750000,190150.3593750000,188737.3593750000,170022.3281250000,171567.5000000000,-14444.7431640625,177275.9843750000,,,
2.2279999964,17,164395.1875000000,165814.0000000000,190163.3593750000,188745.0156250000,170033.5468750000,171582.7031250000,-14436.5625000000,177281.1718750000,,,
2.2319999964,17,164393.9531250000,165809.8593750000,190167.6562500000,188736.1875000000,170035.8437500000,171582.3281250000,-14433.8271484375,177283.2812500000,,,
2.2359999963,17,164378.3437500000,165796.0312500000,190146.3281250000,188734.0625000000,170018.7656250000,171573.3437500000,-14448.4179687500,177278.8281250000,,,
2.2399999963,17,164364.0781250000,165779.2031250000,190131.8750000000,188724.3281250000,170004.8437500000,171559.2343750000,-14459.7099609375,177267.5625000000,,,
2.2439999965,17,164366.7812500000,165782.9687500000,190135.1406250000,188715.9375000000,170005.3750000000,171559.4218750000,-14457.1621093750,177262.6875000000,,,
2.2479999964,17,164372.5781250000,165788.0625000000,190140.1093750000,188716.6093750000,170007.9531250000,171561.4687500000,-14451.4218750000,177264.5937500000,,,
2.2519999964,17,164388.2656250000,165800.2343750000,190162.7656250000,188718.1406250000,170029.2968750000,171571.5000000000,-14428.1943359375,177279.5781250000,,,
2.2559999963,17,164394.2500000000,165803.8593750000,190170.8750000000,188721.9687500000,170039.7968750000,171573.7968750000,-14420.6845703125,177291.6875000000,,,
2.2599999963,17,164386.6093750000,165797.8437500000,190156.0156250000,188737.7656250000,170030.2343750000,171563.7343750000,-14430.4472656250,177289.1562500000,,,
2.2639999965,17,164391.5625000000,165803.1562500000,190161.0000000000,188729.4531250000,170036.1093750000,171568.5468750000,-14425.1904296875,177286.7968750000,,,
2.2679999964,17,164394.5937500000,165806.4375000000,190166.6875000000,188720.2812500000,170039.8125000000,171572.0312500000,-14423.4736328125,177281.4062500000,,,
2.2719999964,17,164403.9375000000,165821.7812500000,190179.6093750000,188695.8750000000,170050.7031250000,171587.6093750000,-14416.4726562500,177293.5000000000,,,
2.2759999963,17,164387.3906250000,165797.6093750000,190166.3437500000,188712.3593750000,170038.5000000000,171567.3593750000,-14428.8115234375,177281.0000000000,,,
2.2799999963,17,164380.7031250000,165792.4062500000,190159.2343750000,188718.7031250000,170032.0312500000,171564.3125000000,-14433.4785156250,177275.0781250000,,,
2.2839999963,17,164372.6250000000,165784.7031250000,190148.5000000000,188721.7031250000,170017.9843750000,171555.4062500000,-14446.7011718750,177259.6562500000,,,
2.2879999964,17,164368.5312500000,165782.4843750000,190144.1875000000,188729.4062500000,170010.0468750000,171549.9062500000,-14456.5185546875,177247.8750000000,,,
2.2919999964,17,164369.2500000000,165785.6406250000,190147.8125000000,188736.7187500000,170011.7812500000,171550.1093750000,-14454.1044921875,177250.5312500000,,,
2.2959999964,17,164360.7187500000,165779.7968750000,190140.0312500000,188735.3593750000,170003.1562500000,171543.5937500000,-14458.2617187500,177253.4843750000,,,
2.2999999963,17,164355.8593750000,165773.1406250000,190139.9218750000,188734.8125000000,169999.4843750000,171538.0000000000,-14459.0400390625,177250.4843750000,,,
2.3039999963,18,164351.6562500000,165767.5156250000,190133.8281250000,188733.5000000000,169990.2187500000,171534.6093750000,-14460.0859375000,177242.0312500000,,,
2.3079999962,18,164349.1093750000,165764.3750000000,190122.2656250000,188746.0000000000,169978.4687500000,171531.7968750000,-14466.6845703125,177234.8906250000,,,
2.3119999962,18,164366.2968750000,165783.5781250000,190136.9375000000,188744.0781250000,169991.7500000000,171547.6406250000,-14454.0781250000,177255.2343750000,,,
2.3159999961,18,164386.4687500000,165808.8125000000,190153.7812500000,188745.4062500000,170009.5937500000,171571.3906250000,-14440.8007812500,177287.7656250000,,,
2.3199999961,18,164365.2500000000,165788.1093750000,190126.5625000000,188729.4531250000,169989.7343750000,171559.0468750000,-14455.6337890625,177281.7500000000,,,
2.3239999961,18,164351.2812500000,165767.4531250000,190111.4062500000,188722.9062500000,169978.6875000000,171546.5000000000,-14463.5458984375,177261.8750000000,,,
2.3279999963,18,164352.9687500000,165767.8125000000,190114.8125000000,188723.9843750000,169981.5937500000,171546.8125000000,-14464.1630859375,177258.7187500000,,,
2.3319999962,18,164358.6250000000,165773.6875000000,190126.5156250000,188724.2031250000,169992.1562500000,171549.9843750000,-14458.1279296875,177267.6406250000,,,
2.3359999962,18,164366.5468750000,165778.6250000000,190141.5000000000,188712.2812500000,170007.8437500000,171551.4375000000,-14446.4062500000,177278.5625000000,,,
2.3399999961,18,164375.0937500000,165785.8281250000,190155.7656250000,188700.9062500000,170022.6718750000,171558.4375000000,-14433.0224609375,177288.3750000000,,,
2.3439999961,18,164372.3281250000,165786.1875000000,190153.2500000000,188686.0000000000,170021.6250000000,171556.6093750000,-14435.7851562500,177283.3906250000,,,
2.3479999963,18,164364.8750000000,165778.6718750000,190144.7968750000,188691.7968750000,170016.1562500000,171548.1875000000,-14440.7207031250,177269.1250000000,,,
2.3519999962,18,164355.2968750000,165761.9062500000,190137.1093750000,188704.0468750000,170010.8750000000,171536.8125000000,-14446.2988281250,177259.2812500000,,,
2.3559999962,18,164348.7031250000,165754.2656250000,190132.2187500000,188699.2187500000,170006.9843750000,171534.3750000000,-14447.1308593750,177260.2656250000,,,
2.3599999961,18,164350.5625000000,165757.0781250000,190132.9687500000,188701.0468750000,170005.9218750000,171535.4218750000,-14447.1572265625,177262.8125000000,,,
2.3639999961,18,164353.0000000000,165758.3750000000,190132.3593750000,188702.8750000000,170002.7812500000,171532.8437500000,-14452.2265625000,177256.9218750000,,,
2.3679999961,18,164372.3906250000,165781.6718750000,190153.1406250000,188708.3125000000,170020.2968750000,171549.6406250000,-14432.8613281250,177269.4375000000,,,
2.3719999962,18,164370.2968750000,165784.3281250000,190146.2812500000,188712.7656250000,170013.9375000000,171547.2656250000,-14439.1914062500,177275.2968750000,,,
2.3759999962,18,164368.1562500000,165780.3593750000,190142.5937500000,188705.2812500000,170008.4843750000,171535.2812500000,-14444.8505859375,177277.2187500000,,,
2.3799999962,18,164373.7031250000,165784.4687500000,190148.5000000000,188721.2500000000,170010.4218750000,171536.5468750000,-14439.8085937500,177281.0000000000,,,
2.3839999961,18,164370.2187500000,165783.9218750000,190143.6250000000,188721.1406250000,170001.9375000000,171536.6562500000,-14443.0810546875,177273.7656250000,,,
2.3879999961,18,164368.0937500000,165787.9843750000,190140.4062500000,188725.5156250000,169999.3437500000,171541.8750000000,-14439.5136718750,177268.5937500000,,,
2.3919999963,18,164359.8593750000,165775.4062500000,190129.0000000000,188732.1406250000,169989.6875000000,171531.2031250000,-14449.4912109375,177258.7187500000,,,
2.3959999962,18,164351.6875000000,165764.4531250000,190116.5625000000,188739.6718750000,169980.8906250000,171523.9062500000,-14457.2158203125,177254.9843750000,,,
2.3999999962,18,164353.5937500000,165762.3593750000,190121.6250000000,188749.4687500000,169986.6562500000,171523.7500000000,-14452.7099609375,177255.0468750000,,,
2.4039999961,18,164363.7187500000,165770.7656250000,190129.8593750000,188756.2187500000,169996.4531250000,171537.2968750000,-14442.2490234375,177261.0000000000,,,
2.4079999961,18,164376.0625000000,165784.5781250000,190142.0156250000,188735.5625000000,170009.4531250000,171552.7187500000,-14425.7539062500,177271.9375000000,,,
2.4119999961,18,164386.4375000000,165794.7656250000,190156.0468750000,188731.3593750000,170023.0000000000,171560.3593750000,-14413.3613281250,177284.1718750000,,,
2.4159999962,18,164371.9843750000,165773.5156250000,190143.2656250000,188746.7031250000,170010.7500000000,171541.6093750000,-14428.3281250000,177275.7187500000,,,
2.4199999962,18,164369.8125000000,165777.9531250000,190139.5781250000,188722.5312500000,170009.7187500000,171550.2500000000,-14427.5507812500,177279.9843750000,,,
2.4239999962,18,164355.0156250000,165761.2656250000,190116.7500000000,188712.4218750000,169989.5312500000,171539.6562500000,-14442.5976562500,177261.9375000000,,,
2.4279999961,18,164353.9687500000,165759.9531250000,190112.6718750000,188721.2187500000,169983.6250000000,171534.5781250000,-14444.7705078125,177252.5781250000,,,
2.4319999961,19,164362.0156250000,165769.3906250000,190124.9531250000,188720.7812500000,169993.0156250000,171542.7968750000,-14433.5585937500,177264.9062500000,,,
2.4359999960,19,164364.3906250000,165768.6093750000,190131.6562500000,188708.2656250000,170000.2500000000,171545.7187500000,-14428.0605468750,177272.6562500000,,,
2.4399999960,19,164369.4062500000,165771.2187500000,190142.4375000000,188702.2812500000,170011.7812500000,171550.8906250000,-14420.9257812500,177279.3125000000,,,
2.4439999959,19,164377.8281250000,165778.0000000000,190155.2031250000,188705.5781250000,170024.9375000000,171557.4375000000,-14407.9433593750,177281.1718750000,,,
2.4479999959,19,164385.1875000000,165785.6250000000,190162.6875000000,188709.7343750000,170032.7343750000,171566.0000000000,-14401.2646484375,177281.1718750000,,,
2.4519999959,19,164385.0781250000,165786.1093750000,190160.7031250000,188713.5468750000,170032.8437500000,171567.8125000000,-14401.6943359375,177283.8750000000,,,
2.4559999960,19,164374.4531250000,165775.7812500000,190150.4062500000,188706.8125000000,170023.1093750000,171558.1562500000,-14410.2773437500,177281.9218750000,,,
2.4599999960,19,164367.0781250000,165767.6718750000,190144.5312500000,188697.2656250000,170015.3281250000,171549.0156250000,-14418.2167968750,177275.5625000000,,,
2.4639999960,19,164366.5625000000,165768.0000000000,190142.5468750000,188701.2343750000,170011.1250000000,171545.6406250000,-14422.5078125000,177269.4375000000,,,
2.4679999959,19,164368.2656250000,165779.5312500000,190143.1875000000,188712.6875000000,170010.0781250000,171553.0937500000,-14422.4003906250,177271.6250000000,,,
2.4719999959,19,164369.0156250000,165780.6875000000,190148.2343750000,188721.3593750000,170011.1718750000,171554.2656250000,-14417.5996093750,177273.8125000000,,,
2.4759999961,19,164383.6875000000,165795.2968750000,190165.1875000000,188734.4375000000,170023.1875000000,171568.5625000000,-14402.7666015625,177292.0312500000,,,
2.4799999960,19,164361.2656250000,165776.8437500000,190130.3906250000,188754.8750000000,169994.1093750000,171561.0312500000,-14426.1826171875,177283.5468750000,,,
2.4839999960,19,164350.0468750000,165768.9687500000,190109.0468750000,188745.0625000000,169975.6562500000,171551.6718750000,-14440.3984375000,177269.6093750000,,,
2.4879999959,19,164353.6093750000,165769.7187500000,190110.7031250000,188739.5156250000,169977.9375000000,171545.5781250000,-14435.3017578125,177263.2968750000,,,
2.4919999959,19,164361.4531250000,165773.5000000000,190120.3437500000,188743.2968750000,169988.6875000000,171546.9531250000,-14428.2480468750,177267.4843750000,,,
2.4959999959,19,164366.1718750000,165773.5000000000,190127.1718750000,188735.5625000000,169996.3593750000,171551.1406250000,-14427.0146484375,177273.7031250000,,,
2.4999999960,19,164369.7812500000,165774.7343750000,190133.6093750000,188730.2031250000,170003.6406250000,171552.5625000000,-14425.7802734375,177278.5937500000,,,
2.5039999960,19,164374.0312500000,165775.1093750000,190137.9687500000,188734.3125000000,170006.3125000000,171549.7187500000,-14425.0830078125,177273.9531250000,,,
2.5079999960,19,164380.3281250000,165777.8437500000,190147.1406250000,188736.0000000000,170012.7500000000,171549.1250000000,-14416.5537109375,177268.2968750000,,,
2.5119999959,19,164380.5625000000,165776.6093750000,190153.2187500000,188725.5937500000,170018.3906250000,171551.8125000000,-14406.6298828125,177270.0156250000,,,
2.5159999959,19,164374.1406250000,165772.3125000000,190144.0781250000,188727.4062500000,170013.5625000000,171557.6875000000,-14411.3769531250,177272.7500000000,,,
2.5199999961,19,164370.0625000000,165770.2968750000,190139.9218750000,188722.3750000000,170009.9062500000,171559.1562500000,-14414.0322265625,177273.7031250000,,,
2.5239999960,19,164371.2343750000,165773.0625000000,190141.6562500000,188710.9687500000,170010.0781250000,171559.7187500000,-14412.1015625000,177271.7187500000,,,
2.5279999960,19,164377.7500000000,165780.5000000000,190150.0625000000,188712.5781250000,170017.0156250000,171563.0781250000,-14404.3759765625,177271.7187500000,,,
2.5319999959,19,164375.4687500000,165782.0781250000,190151.5312500000,188708.7187500000,170018.4375000000,171562.1875000000,-14403.5449218750,177275.4218750000,,,
2.5359999959,19,164369.7031250000,165778.4843750000,190144.5312500000,188705.2031250000,170013.2031250000,171557.6250000000,-14409.5800781250,177276.9062500000,,,
2.5399999958,19,164368.8437500000,165778.6718750000,190140.2343750000,188701.8593750000,170009.9843750000,171560.2500000000,-14413.6572265625,177279.2343750000,,,
2.5439999960,19,164365.3281250000,165775.5625000000,190131.1406250000,188698.3593750000,170000.6250000000,171559.5312500000,-14421.5429687500,177272.2343750000,,,
2.5479999960,19,164373.4375000000,165784.5156250000,190135.8125000000,188697.5312500000,170004.5468750000,171569.0312500000,-14419.3164062500,177273.3125000000,,,
2.5519999960,19,164377.1406250000,165788.1718750000,190138.4687500000,188701.6093750000,170008.9218750000,171570.5000000000,-14416.7148437500,177279.5781250000,,,
2.5559999959,19,164377.9687500000,165787.0468750000,190141.5312500000,188710.4843750000,170013.9687500000,171571.3593750000,-14408.7216796875,177285.3281250000,,,
2.5599999959,20,164374.4843750000,165781.5625000000,190141.2343750000,188717.3750000000,170012.6250000000,171562.7968750000,-14409.9550781250,177283.5468750000,,,
2.5639999958,20,164373.4375000000,165775.9843750000,190140.6718750000,188725.5937500000,170009.8593750000,171551.7812500000,-14413.0937500000,177271.6406250000,,,
2.5679999958,20,164377.1562500000,165779.0937500000,190144.8750000000,188731.4843750000,170011.2812500000,171551.3437500000,-14410.4384765625,177265.2812500000,,,
2.5719999957,20,164381.8281250000,165784.5781250000,190152.0937500000,188731.2812500000,170017.8437500000,171556.1718750000,-14404.5107421875,177270.0156250000,,,
2.5759999957,20,164370.4375000000,165773.3593750000,190137.5625000000,188744.8750000000,170005.8906250000,171546.9531250000,-14419.1015625000,177267.3281250000,,,
2.5799999957,20,164361.4687500000,165763.5937500000,190127.2656250000,188737.0937500000,169995.9843750000,171540.7031250000,-14430.6347656250,177260.9375000000,,,
2.5839999958,20,164360.1250000000,165761.6875000000,190124.3593750000,188729.1093750000,169992.4687500000,171540.7343750000,-14432.2714843750,177253.4375000000,,,
2.5879999958,20,164365.6875000000,165764.6406250000,190131.6093750000,188729.5312500000,169996.9843750000,171541.6718750000,-14424.1445312500,177248.9218750000,,,
2.5919999958,20,164371.6718750000,165767.5156250000,190141.3437500000,188723.0156250000,170004.7031250000,171542.6875000000,-14418.5917968750,177252.7812500000,,,
2.5959999957,20,164366.8125000000,165761.8593750000,190135.5781250000,188722.6406250000,169999.4531250000,171538.1562500000,-14427.4433593750,177252.6875000000,,,
2.5999999957,20,164369.5156250000,165765.0000000000,190134.9843750000,188736.8750000000,170000.5781250000,171544.7500000000,-14427.5234375000,177256.8593750000,,,
2.6039999959,20,164367.6406250000,165767.1875000000,190130.0000000000,188726.1562500000,169995.7187500000,171548.5312500000,-14429.5888671875,177253.4531250000,,,
2.6079999958,20,164365.7031250000,165762.2500000000,190131.7343750000,188719.0156250000,169995.5937500000,171546.8437500000,-14423.7421875000,177242.2812500000,,,
2.6119999958,20,164359.7343750000,165752.7812500000,190125.1875000000,188706.8125000000,169992.0000000000,171542.6562500000,-14424.2783203125,177233.7500000000,,,
2.6159999957,20,164361.5468750000,165753.8906250000,190127.2031250000,188701.9843750000,169997.2968750000,171546.8437500000,-14420.3623046875,177238.2031250000,,,
2.6199999957,20,164361.2656250000,165759.0937500000,190123.4843750000,188697.6875000000,169997.5156250000,171552.7187500000,-14420.9257812500,177244.1250000000,,,
2.6239999956,20,164368.1718750000,165772.4218750000,190127.2656250000,188701.9843750000,170003.5781250000,171561.5937500000,-14410.7333984375,177249.3750000000,,,
2.6279999958,20,164371.7968750000,165780.8125000000,190129.2968750000,188702.9062500000,170006.2968750000,171565.4843750000,-14405.2080078125,177250.6406250000,,,
2.6319999958,20,164373.3750000000,165784.2968750000,190132.1875000000,188697.5937500000,170009.5156250000,171566.1562500000,-14402.4179687500,177255.4375000000,,,
2.6359999957,20,164374.5937500000,165787.6250000000,190135.5000000000,188686.7031250000,170013.5625000000,171569.5312500000,-14398.2880859375,177265.5625000000,,,
2.6399999957,20,164377.4531250000,165792.1562500000,190141.0937500000,188677.9531250000,170018.6562500000,171573.7187500000,-14390.9384765625,177273.8437500000,,,
2.6439999957,20,164376.4062500000,165795.4843750000,190133.2187500000,188688.7968750000,170011.2812500000,171571.5781250000,-14393.3789062500,177271.5156250000,,,
2.6479999959,20,164382.8437500000,165801.4687500000,190134.1562500000,188696.5468750000,170009.6718750000,171570.0937500000,-14393.0039062500,177270.4062500000,,,
2.6519999958,20,164393.7968750000,165807.0156250000,190147.8125000000,188700.3750000000,170020.9375000000,171574.2031250000,-14386.4052734375,177276.8437500000,,,
2.6559999958,20,164380.3750000000,165788.8125000000,190137.6093750000,188702.8750000000,170007.4375000000,171559.3750000000,-14403.5986328125,177270.2500000000,,,
2.6599999957,20,164372.3125000000,165772.3906250000,190129.2187500000,188722.5625000000,169996.4687500000,171545.3750000000,-14413.6298828125,177256.8125000000,,,
2.6639999957,20,164385.1875000000,165780.7031250000,190144.2031250000,188716.3125000000,170007.4375000000,171553.2343750000,-14398.8779296875,177257.7187500000,,,
2.6679999956,20,164393.2031250000,165787.9531250000,190152.5312500000,188717.0625000000,170013.5625000000,171563.1250000000,-14389.9726562500,177259.5468750000,,,
2.6719999958,20,164386.4375000000,165780.8125000000,190140.5625000000,188718.0468750000,170003.3437500000,171562.0468750000,-14397.6435546875,177258.0468750000,,,
2.6759999958,20,164388.5312500000,165786.2656250000,190138.3125000000,188717.9531250000,170003.6093750000,171569.8281250000,-14395.9277343750,177271.0468750000,,,
2.6799999957,20,164379.2031250000,165769.3437500000,190132.0000000000,188723.8750000000,169995.9687500000,171552.2656250000,-14403.5712890625,177262.8125000000,,,
2.6839999957,20,164377.9375000000,165763.5781250000,190131.4687500000,188728.4375000000,169994.3281250000,171548.8281250000,-14401.9619140625,177251.2343750000,,,
2.6879999957,21,164378.1093750000,165768.9375000000,190130.1250000000,188725.5156250000,169992.0156250000,171553.5468750000,-14402.1230468750,177247.7968750000,,,
2.6919999956,21,164372.0625000000,165769.7656250000,190123.9843750000,188720.0156250000,169986.1250000000,171555.0312500000,-14409.1503906250,177249.7500000000,,,
2.6959999956,21,164388.7500000000,165791.7343750000,190145.1562500000,188720.2812500000,170005.7812500000,171571.6875000000,-14395.2568359375,177271.6718750000,,,
2.6999999955,21,164384.4531250000,165791.9687500000,190138.6250000000,188721.8125000000,170002.2656250000,171575.0625000000,-14401.9892578125,177277.0312500000,,,
2.7039999955,21,164361.8437500000,165763.4843750000,190115.3437500000,188723.5468750000,169981.1093750000,171556.9062500000,-14419.6650390625,177251.9062500000,,,
2.7079999954,21,164346.5312500000,165741.9531250000,190101.8281250000,188717.3281250000,169969.8593750000,171544.5156250000,-14425.3515625000,177227.7656250000,,,
2.7119999956,21,164346.9062500000,165747.4843750000,190105.3125000000,188720.2031250000,169974.6718750000,171547.8906250000,-14419.1289062500,177229.0781250000,,,
2.7159999956,21,164338.1718750000,165741.1718750000,190097.9375000000,188713.9687500000,169971.1562500000,171546.1406250000,-14423.8222656250,177228.8125000000,,,
2.7199999955,21,164338.6718750000,165742.7343750000,190098.4062500000,188701.9843750000,169975.0468750000,171550.4375000000,-14425.4853515625,177230.2343750000,,,
2.7239999955,21,164342.5312500000,165749.0312500000,190101.6718750000,188690.6875000000,169978.7656250000,171558.0000000000,-14417.8144531250,177230.1718750000,,,
2.7279999955,21,164349.7187500000,165761.7968750000,190108.4062500000,188677.1562500000,169982.0156250000,171563.7187500000,-14408.1855468750,177234.5468750000,,,
2.7319999957,21,164340.4687500000,165747.6093750000,190102.1562500000,188679.0468750000,169975.4375000000,171550.7343750000,-14411.4843750000,177226.8281250000,,,
2.7359999956,21,164337.1250000000,165745.8125000000,190098.9375000000,188681.9218750000,169975.6562500000,171549.3593750000,-14412.7451171875,177231.2968750000,,,
2.7399999956,21,164349.6718750000,165759.5000000000,190113.4218750000,188681.8125000000,169987.6250000000,171557.9531250000,-14408.2382812500,177244.1250000000,,,
2.7439999955,21,164352.7812500000,165760.4375000000,190114.2031250000,188681.8750000000,169987.8906250000,171560.3906250000,-14404.8320312500,177243.5312500000,,,
2.7479999955,21,164357.1250000000,165758.8750000000,190112.0781250000,188695.4687500000,169985.7187500000,171556.3593750000,-14406.0664062500,177236.2187500000,,,
2.7519999954,21,164368.2343750000,165765.2031250000,190121.5000000000,188702.2500000000,169993.7031250000,171556.8750000000,-14399.2802734375,177240.7187500000,,,
2.7559999956,21,164383.4375000000,165783.0156250000,190137.5312500000,188706.7812500000,170008.1718750000,171569.4062500000,-14385.4667968750,177261.4843750000,,,
2.7599999956,21,164388.6406250000,165783.6093750000,190146.4687500000,188712.2812500000,170015.2968750000,171572.7812500000,-14376.2939453125,177267.9375000000,,,
2.7639999955,21,164377.7500000000,165772.0937500000,190133.9843750000,188712.0468750000,170001.6718750000,171563.6093750000,-14389.1679687500,177253.8906250000,,,
2.7679999955,21,164364.3906250000,165761.1875000000,190118.3750000000,188710.7031250000,169985.7968750000,171552.2656250000,-14404.4833984375,177236.2187500000,,,
2.7719999955,21,164372.2031250000,165769.9218750000,190126.1875000000,188715.7187500000,169992.0000000000,171553.5000000000,-14403.3300781250,177241.6875000000,,,
2.7759999956,21,164379.4687500000,165784.3593750000,190131.9843750000,188716.8125000000,169998.4531250000,171566.5781250000,-14401.8017578125,177259.4375000000,,,
2.7799999956,21,164371.8750000000,165779.9531250000,190123.9843750000,188717.5937500000,169992.5312500000,171567.6093750000,-14404.9931640625,177261.7812500000,,,
2.7839999956,21,164360.0468750000,165767.9375000000,190115.2187500000,188717.7031250000,169982.9531250000,171558.1093750000,-14409.4453125000,177249.1875000000,,,
2.7879999955,21,164348.4687500000,165750.9843750000,190105.5000000000,188715.2656250000,169973.4531250000,171547.5625000000,-14416.7685546875,177228.8437500000,,,
2.7919999955,21,164350.5781250000,165753.5156250000,190104.6250000000,188712.6875000000,169975.2031250000,171548.9062500000,-14415.3193359375,177230.5781250000,,,
2.7959999954,21,164349.8281250000,165752.3906250000,190107.2031250000,188708.4843750000,169980.0781250000,171549.1718750000,-14407.4873046875,177235.4062500000,,,
2.7999999956,21,164360.6875000000,165768.1875000000,190120.6093750000,188706.8125000000,169995.2968750000,171569.4843750000,-14385.9492187500,177249.5468750000,,,
2.8039999956,21,164348.9687500000,165753.4062500000,190108.1875000000,188710.2500000000,169984.2343750000,171563.0781250000,-14389.1416015625,177236.7968750000,,,
2.8079999955,21,164346.1875000000,165750.8593750000,190098.2968750000,188710.4062500000,169975.1250000000,171561.8906250000,-14397.7509765625,177231.7812500000,,,
2.8119999955,21,164353.2343750000,165758.9531250000,190100.0156250000,188714.8281250000,169976.0625000000,171569.0468750000,-14395.6328125000,177242.2500000000,,,
2.8159999955,22,164362.0156250000,165769.2812500000,190107.5937500000,188717.4843750000,169980.0000000000,171573.9843750000,-14394.9345703125,177257.3750000000,,,
2.8199999954,22,164363.6250000000,165772.3750000000,190107.5781250000,188726.9843750000,169978.7500000000,171575.1875000000,-14398.4755859375,177262.2031250000,,,
2.8239999954,22,164364.6875000000,165777.8750000000,190114.5781250000,188707.1093750000,169985.5000000000,171583.0468750000,-14392.1718750000,177262.9843750000,,,
2.8279999953,22,164374.7812500000,165793.5312500000,190128.1406250000,188699.9531250000,169999.9375000000,171597.7187500000,-14375.9990234375,177271.7500000000,,,
2.8319999953,22,164360.5312500000,165771.7812500000,190120.8750000000,188692.8437500000,169995.1562500000,171585.3125000000,-14381.8730468750,177260.0312500000,,,
2.8359999952,22,164361.7656250000,165763.4375000000,190130.0156250000,188691.0468750000,170003.9531250000,171575.0937500000,-14380.7197265625,177257.4062500000,,,
2.8399999954,22,164376.8437500000,165772.8281250000,190148.0781250000,188678.8437500000,170019.2187500000,171577.4687500000,-14365.8066406250,177263.3906250000,,,
2.8439999954,22,164392.5000000000,165785.8281250000,190166.1250000000,188695.0937500000,170033.1875000000,171582.2812500000,-14345.9843750000,177271.6250000000,,,
2.8479999953,22,164390.1406250000,165786.3125000000,190156.2031250000,188718.0781250000,170024.6406250000,171581.0156250000,-14364.0898437500,177265.1562500000,,,
2.8519999953,22,164387.1406250000,165786.1093750000,190148.7656250000,188713.6250000000,170019.6406250000,171584.4531250000,-14374.7382812500,177266.4375000000,,,
2.8559999953,22,164361.9218750000,165760.8281250000,190114.2968750000,188707.6718750000,169988.1250000000,171559.9062500000,-14399.5488281250,177253.0781250000,,,
2.8599999954,22,164353.2656250000,165752.3281250000,190105.1093750000,188692.8437500000,169976.2187500000,171552.2343750000,-14404.4296875000,177249.5156250000,,,
2.8639999954,22,164349.8125000000,165746.3281250000,190103.5468750000,188707.8593750000,169971.7968750000,171552.3437500000,-14402.3642578125,177240.7500000000,,,
2.8679999954,22,164355.2968750000,165753.9375000000,190110.2812500000,188717.8437500000,169975.8750000000,171564.2500000000,-14397.8583984375,177240.4218750000,,,
2.8719999953,22,164365.8125000000,165766.8125000000,190121.8437500000,188721.1875000000,169985.1250000000,171575.6562500000,-14391.5556640625,177251.8437500000,,,
2.8759999953,22,164367.2656250000,165769.9843750000,190123.9062500000,188730.1562500000,169988.4843750000,171576.4218750000,-14389.5439453125,177260.2500000000,,,
2.8799999952,22,164359.6562500000,165762.9843750000,190117.7968750000,188731.1093750000,169984.3281250000,171574.2500000000,-14388.2031250000,177257.2656250000,,,
2.8839999954,22,164361.2656250000,165761.1093750000,190118.8437500000,188735.9687500000,169985.9062500000,171575.2500000000,-14383.9375000000,177249.3593750000,,,
2.8879999954,22,164354.7187500000,165754.2031250000,190107.7031250000,188735.3593750000,169977.3281250000,171567.7187500000,-14392.6552734375,177235.8125000000,,,
2.8919999953,22,164359.4687500000,165760.1875000000,190108.2187500000,188727.3281250000,169980.9218750000,171574.1250000000,-14392.9228515625,177239.9375000000,,,
2.8959999953,22,164345.4843750000,165746.9375000000,190092.2812500000,188711.1093750000,169969.7812500000,171567.5312500000,-14404.0546875000,177236.7500000000,,,
2.8999999953,22,164349.9062500000,165750.8906250000,190099.6093750000,188720.0937500000,169979.5781250000,171574.1250000000,-14390.9121093750,177243.7031250000,,,
2.9039999954,22,164356.6250000000,165754.8281250000,190112.2187500000,188721.3593750000,169990.4843750000,171574.3437500000,-14385.4130859375,177244.5312500000,,,
2.9079999954,22,164361.9843750000,165766.2500000000,190114.2031250000,188712.5000000000,169992.2343750000,171581.1250000000,-14388.3369140625,177248.3281250000,,,
2.9119999954,22,164361.7656250000,165763.9218750000,190116.1562500000,188707.2968750000,169993.2343750000,171581.2031250000,-14378.8955078125,177249.3281250000,,,
2.9159999953,22,164356.2656250000,165758.7500000000,190114.2812500000,188693.1093750000,169992.5625000000,171579.0781250000,-14374.4160156250,177252.6250000000,,,
2.9199999953,22,164362.6562500000,165765.0781250000,190120.0781250000,188697.6718750000,169998.1875000000,171579.4375000000,-14372.1093750000,177260.7343750000,,,
2.9239999952,22,164368.4218750000,165769.6406250000,190123.4531250000,188704.9843750000,169999.5000000000,171579.6718750000,-14374.5498046875,177258.9843750000,,,
2.9279999954,22,164369.7812500000,165772.4687500000,190122.1406250000,188708.8593750000,169994.1718750000,171577.6562500000,-14380.7197265625,177252.6562500000,,,
2.9319999954,22,164369.8437500000,165775.1875000000,190118.5625000000,188718.7031250000,169988.8593750000,171580.1562500000,-14382.5166015625,177253.7031250000,,,
2.9359999953,22,164374.7968750000,165783.5781250000,190121.7343750000,188715.7500000000,169990.0156250000,171591.1250000000,-14375.5156250000,177265.7500000000,,,
2.9399999953,22,164377.0312500000,165780.0625000000,190123.4531250000,188695.3281250000,169991.0312500000,171590.1093750000,-14372.9941406250,177268.0468750000,,,
2.9439999952,23,164367.1250000000,165763.3906250000,190110.4218750000,188678.4843750000,169977.0468750000,171575.4843750000,-14390.2675781250,177250.5312500000,,,
