Time:250Hz,Epoch,Channel 1,Channel 2,Channel 3,Channel 4,Channel 5,Channel 6,Channel 7,Channel 8,Event Id,Event Date,Event Duration
0.0000000000,0,146928.3750000000,194254.8906250000,176084.9843750000,148236.0312500000,119861.3906250000,151845.9062500000,133759.3906250000,144372.8906250000,,,
0.0040000000,0,146830.5468750000,194058.5468750000,176089.2656250000,148064.9531250000,119776.5546875000,151773.7812500000,133668.0937500000,144294.5156250000,,,
0.0079999999,0,146572.1718750000,194061.1250000000,174217.5781250000,147625.1250000000,119539.4765625000,151558.2968750000,133430.6406250000,144060.5781250000,,,
0.0119999999,0,146513.2812500000,194340.2656250000,173238.7812500000,147532.1406250000,119481.1093750000,151492.4218750000,133374.0468750000,144004.7968750000,,,
0.0159999998,0,146713.4531250000,194469.5156250000,174371.4531250000,147899.3281250000,119653.3359375000,151665.3750000000,133545.9375000000,144186.3437500000,,,
0.0199999998,0,146906.9218750000,194249.0625000000,176072.7812500000,148237.4843750000,119830.4140625000,151837.7812500000,133722.2968750000,144366.9218750000,,,
0.0240000000,0,146822.1093750000,194041.2500000000,176082.4531250000,148059.6718750000,119766.7890625000,151765.5000000000,133652.8906250000,144294.4687500000,,,
0.0279999999,0,146577.7343750000,194040.9531250000,174237.0937500000,147610.1093750000,119554.6015625000,151559.6562500000,133431.7656250000,144071.9062500000,,,
0.0319999999,0,146517.5625000000,194325.9062500000,173245.4531250000,147528.9218750000,119489.4218750000,151499.6406250000,133366.8281250000,144019.2968750000,,,
0.0359999998,0,146726.8281250000,194468.2031250000,174375.6093750000,147904.7812500000,119672.8906250000,151673.9531250000,133559.6562500000,144204.2343750000,,,
0.0399999998,0,146915.4218750000,194251.3437500000,176082.5937500000,148245.2343750000,119851.5234375000,151839.0937500000,133745.4531250000,144374.6093750000,,,
0.0440000000,0,146838.7031250000,194052.7187500000,176117.1875000000,148070.8125000000,119795.4921875000,151775.6562500000,133666.9687500000,144308.4687500000,,,
0.0480000000,0,146581.0312500000,194053.9843750000,174266.1718750000,147626.9062500000,119566.6484375000,151559.9375000000,133431.8906250000,144074.2656250000,,,
0.0519999999,0,146510.9687500000,194336.6093750000,173258.8125000000,147537.8281250000,119491.7031250000,151488.3906250000,133372.1406250000,144009.2500000000,,,
0.0559999999,0,146708.5625000000,194483.0625000000,174369.0625000000,147899.2812500000,119654.5703125000,151659.2500000000,133541.5000000000,144187.7187500000,,,
0.0599999998,0,146934.6250000000,194289.9687500000,176104.2656250000,148254.2656250000,119862.0390625000,151857.6875000000,133756.6562500000,144398.8593750000,,,
0.0639999998,0,146844.6093750000,194089.2812500000,176142.7812500000,148097.6250000000,119788.7031250000,151783.8437500000,133674.8281250000,144320.6250000000,,,
0.0680000000,0,146593.0468750000,194082.8437500000,174297.6562500000,147645.9375000000,119576.3281250000,151559.7656250000,133428.2187500000,144083.6718750000,,,
0.0719999999,0,146517.1093750000,194347.7656250000,173268.0156250000,147542.0625000000,119500.3671875000,151483.1718750000,133360.6093750000,144012.0000000000,,,
0.0759999999,0,146718.4062500000,194482.9531250000,174365.5468750000,147916.8750000000,119668.6484375000,151662.0156250000,133562.3906250000,144193.1875000000,,,
0.0799999998,0,146946.8593750000,194279.5937500000,176106.2968750000,148250.2187500000,119880.1406250000,151875.2187500000,133778.3906250000,144409.2656250000,,,
0.0839999998,0,146829.2656250000,194068.3593750000,176151.7968750000,148073.1406250000,119781.5703125000,151768.5000000000,133674.7187500000,144303.2187500000,,,
0.0880000000,0,146595.0781250000,194068.3593750000,174315.4687500000,147636.5312500000,119577.9921875000,151569.5000000000,133462.9531250000,144087.2500000000,,,
0.0919999999,0,146528.0000000000,194349.8125000000,173274.5156250000,147529.9062500000,119501.4375000000,151504.3281250000,133381.8750000000,144030.7343750000,,,
0.0959999999,0,146719.8906250000,194483.4062500000,174369.2031250000,147906.9218750000,119673.9843750000,151658.7656250000,133549.9375000000,144201.0000000000,,,
0.0999999999,0,146910.5625000000,194248.4687500000,176081.0312500000,148247.9375000000,119843.1015625000,151828.6406250000,133713.8281250000,144377.0000000000,,,
0.1039999998,0,146844.3593750000,194036.7656250000,176152.6562500000,148083.5000000000,119786.2890625000,151780.6250000000,133670.8281250000,144321.9843750000,,,
0.1079999998,0,146601.2968750000,194051.5156250000,174325.5312500000,147651.9218750000,119571.2890625000,151567.3281250000,133461.0781250000,144097.8437500000,,,
0.1120000000,0,146510.8281250000,194343.3906250000,173271.6875000000,147527.1718750000,119486.4765625000,151480.1562500000,133380.4531250000,144016.0781250000,,,
0.1159999999,0,146698.2656250000,194477.4531250000,174339.7968750000,147878.8125000000,119649.0937500000,151639.6250000000,133535.2187500000,144182.5156250000,,,
0.1199999999,0,146925.4218750000,194249.1718750000,176074.2812500000,148228.9218750000,119861.0468750000,151848.0312500000,133743.2968750000,144394.0937500000,,,
0.1239999998,0,146854.6718750000,194040.3593750000,176169.7656250000,148078.9531250000,119805.7890625000,151799.5625000000,133676.7343750000,144341.2968750000,,,
0.1279999998,1,146589.3906250000,194048.3281250000,174342.4062500000,147634.0156250000,119576.7578125000,151565.7031250000,133420.8750000000,144095.7187500000,,,
0.1319999998,1,146513.1093750000,194334.2812500000,173272.3593750000,147524.6875000000,119495.0312500000,151492.3437500000,133341.5000000000,144025.9218750000,,,
0.1359999997,1,146717.5468750000,194478.4531250000,174340.2812500000,147889.8125000000,119666.7421875000,151665.6093750000,133540.9062500000,144210.2968750000,,,
0.1399999997,1,146928.0468750000,194258.7812500000,176077.3593750000,148244.7187500000,119855.2265625000,151850.4375000000,133741.3750000000,144403.7500000000,,,
0.1439999996,1,146847.1562500000,194046.4218750000,176176.6093750000,148094.5937500000,119788.2500000000,151783.3906250000,133643.6875000000,144332.8593750000,,,
0.1479999996,1,146580.2187500000,194053.2968750000,174348.0156250000,147642.6406250000,119554.2031250000,151548.4843750000,133425.0625000000,144082.6093750000,,,
0.1519999998,1,146497.4687500000,194338.1093750000,173258.5468750000,147529.1875000000,119466.3828125000,151469.8125000000,133358.4531250000,144004.2343750000,,,
0.1559999997,1,146701.9062500000,194484.3281250000,174319.4687500000,147896.6250000000,119642.7890625000,151641.5468750000,133539.1875000000,144184.6093750000,,,
0.1599999997,1,146914.5937500000,194252.4375000000,176056.4375000000,148242.8750000000,119838.9140625000,151828.6875000000,133728.8906250000,144381.0000000000,,,
0.1639999996,1,146846.2187500000,194036.3593750000,176180.1406250000,148093.7187500000,119786.7500000000,151772.0937500000,133667.3125000000,144324.4843750000,,,
0.1679999996,1,146611.6875000000,194053.2343750000,174376.2031250000,147650.0468750000,119583.5703125000,151573.5625000000,133454.4531250000,144109.7656250000,,,
0.1719999998,1,146503.1562500000,194341.8750000000,173272.8437500000,147523.3593750000,119475.5000000000,151468.1250000000,133344.1562500000,144011.0468750000,,,
0.1759999997,1,146684.7500000000,194484.7031250000,174302.5156250000,147880.5312500000,119631.2578125000,151621.4375000000,133501.5000000000,144171.5781250000,,,
0.1799999997,1,146934.3281250000,194260.5781250000,176059.1250000000,148254.9062500000,119863.4843750000,151846.7343750000,133722.8593750000,144402.4062500000,,,
0.1839999997,1,146849.3750000000,194044.7656250000,176194.0468750000,148103.4218750000,119789.8593750000,151793.4375000000,133650.8125000000,144339.4218750000,,,
0.1879999996,1,146575.6093750000,194047.0156250000,174371.7968750000,147635.3281250000,119548.2968750000,151548.4843750000,133445.7343750000,144084.3125000000,,,
0.1919999996,1,146502.2968750000,194343.2656250000,173268.0156250000,147516.2031250000,119476.3593750000,151471.7187500000,133385.0937500000,144015.2500000000,,,
0.1959999998,1,146725.9531250000,194503.9062500000,174318.0000000000,147905.7500000000,119673.6953125000,151663.3281250000,133576.5156250000,144217.0625000000,,,
0.1999999997,1,146942.2187500000,194277.1250000000,176066.8281250000,148265.7187500000,119872.6015625000,151861.2968750000,133769.0000000000,144418.9531250000,,,
0.2039999997,1,146868.6875000000,194043.1562500000,176221.3750000000,148112.7812500000,119817.0546875000,151793.3593750000,133704.0937500000,144351.9218750000,,,
0.2079999996,1,146612.2812500000,194047.5781250000,174412.7812500000,147656.8125000000,119586.5234375000,151578.3281250000,133458.3437500000,144119.5156250000,,,
0.2119999996,1,146538.5625000000,194359.2812500000,173302.8593750000,147536.1093750000,119514.5000000000,151507.9843750000,133366.9843750000,144054.4062500000,,,
0.2159999998,1,146728.9531250000,194517.6562500000,174325.3750000000,147908.0468750000,119678.4375000000,151661.8750000000,133543.6875000000,144218.7812500000,,,
0.2199999997,1,146936.7343750000,194289.0781250000,176076.1250000000,148266.3437500000,119866.2187500000,151843.1250000000,133746.6562500000,144407.2343750000,,,
0.2239999997,1,146839.8593750000,194050.4531250000,176223.2812500000,148109.4843750000,119779.9609375000,151767.1875000000,133663.8750000000,144325.1562500000,,,
0.2279999997,1,146595.7031250000,194051.7031250000,174419.8906250000,147661.8281250000,119568.6796875000,151564.1093750000,133451.3125000000,144102.5781250000,,,
0.2319999996,1,146527.3750000000,194357.4531250000,173300.5312500000,147550.2656250000,119502.7578125000,151504.6562500000,133386.6406250000,144044.2500000000,,,
0.2359999996,1,146721.5781250000,194522.4843750000,174314.1093750000,147906.0312500000,119669.5078125000,151668.1093750000,133551.4375000000,144217.7812500000,,,
0.2399999998,1,146941.8906250000,194287.3906250000,176071.1406250000,148267.9687500000,119874.5078125000,151855.6406250000,133755.1875000000,144416.3750000000,,,
0.2439999997,1,146866.9843750000,194047.7656250000,176245.5312500000,148129.5156250000,119809.7578125000,151794.8437500000,133688.3125000000,144352.4375000000,,,
0.2479999997,1,146619.4375000000,194060.9531250000,174461.4375000000,147677.9218750000,119592.6093750000,151581.4218750000,133465.9843750000,144123.4531250000,,,
0.2519999996,1,146530.4062500000,194390.6562500000,173336.3281250000,147551.3906250000,119506.9921875000,151483.5625000000,133367.7656250000,144035.4531250000,,,
0.2559999996,2,146680.7031250000,194546.7656250000,174311.4218750000,147881.9843750000,119635.4687500000,151600.8281250000,133475.0781250000,144159.1718750000,,,
0.2599999995,2,146914.9843750000,194270.7968750000,176044.1875000000,148238.1718750000,119845.2187500000,151816.3750000000,133693.9218750000,144372.1718750000,,,
0.2639999995,2,146888.6250000000,194037.0312500000,176258.7812500000,148127.5156250000,119821.3437500000,151811.5468750000,133707.1406250000,144365.8437500000,,,
0.2679999995,2,146603.3906250000,194063.0468750000,174476.0000000000,147668.6562500000,119569.1093750000,151567.2500000000,133464.9687500000,144108.2500000000,,,
0.2719999994,2,146504.6562500000,194390.8125000000,173321.3437500000,147531.8906250000,119476.4921875000,151468.8437500000,133374.7343750000,144016.4062500000,,,
0.2759999994,2,146699.9843750000,194541.3906250000,174292.8125000000,147875.0625000000,119646.2265625000,151633.9062500000,133542.5937500000,144193.0312500000,,,
0.2799999996,2,146920.5937500000,194263.3593750000,176028.2812500000,148239.1718750000,119847.0703125000,151825.6250000000,133731.7343750000,144393.4375000000,,,
0.2839999995,2,146904.7187500000,194026.0625000000,176265.3906250000,148148.7812500000,119848.3046875000,151823.6718750000,133710.7656250000,144391.0312500000,,,
0.2879999995,2,146631.1250000000,194052.2187500000,174494.8125000000,147692.7500000000,119605.3750000000,151583.4218750000,133475.6718750000,144142.0937500000,,,
0.2919999994,2,146503.3750000000,194372.9062500000,173318.2343750000,147536.1875000000,119482.3671875000,151457.3125000000,133367.1250000000,144019.2500000000,,,
0.2959999994,2,146711.3593750000,194536.3750000000,174291.1406250000,147882.3593750000,119672.2968750000,151638.8437500000,133526.7656250000,144203.0625000000,,,
0.2999999996,2,146970.2656250000,194277.9531250000,176053.0156250000,148258.9375000000,119911.7656250000,151876.3750000000,133711.8906250000,144446.2500000000,,,
0.3039999995,2,146883.5000000000,194021.7968750000,176275.9843750000,148139.5000000000,119835.3750000000,151801.3281250000,133700.5468750000,144372.9843750000,,,
0.3079999995,2,146618.0937500000,194045.4062500000,174503.1250000000,147689.5312500000,119587.0859375000,151575.2500000000,133497.2656250000,144130.9062500000,,,
0.3119999995,2,146524.6250000000,194391.5468750000,173336.9531250000,147542.7812500000,119498.6250000000,151489.4218750000,133396.5468750000,144045.8593750000,,,
0.3159999994,2,146715.8125000000,194562.9375000000,174296.7187500000,147891.5000000000,119678.4921875000,151653.9218750000,133506.6718750000,144215.2343750000,,,
0.3199999994,2,146942.2656250000,194274.0156250000,176036.0000000000,148250.3750000000,119887.4921875000,151845.3125000000,133730.7812500000,144415.5156250000,,,
0.3239999996,2,146876.7968750000,194013.7031250000,176269.2500000000,148142.9062500000,119819.8750000000,151802.8906250000,133710.3593750000,144368.6875000000,,,
0.3279999995,2,146628.7500000000,194051.6250000000,174521.0156250000,147702.0781250000,119600.1484375000,151594.8593750000,133490.7187500000,144145.8437500000,,,
0.3319999995,2,146513.8437500000,194404.0625000000,173338.8593750000,147557.8125000000,119488.0859375000,151476.6718750000,133384.8437500000,144036.4218750000,,,
0.3359999994,2,146711.7812500000,194562.1562500000,174271.4375000000,147895.6250000000,119664.3281250000,151640.0156250000,133565.7968750000,144201.9375000000,,,
0.3399999994,2,146940.6562500000,194266.8125000000,176005.8593750000,148267.2500000000,119874.3203125000,151848.6718750000,133758.0781250000,144411.3906250000,,,
0.3439999996,2,146883.7968750000,193996.2187500000,176253.7656250000,148147.4375000000,119826.5546875000,151807.9062500000,133719.0781250000,144366.7343750000,,,
0.3479999995,2,146644.2656250000,194033.1718750000,174527.6406250000,147696.7968750000,119627.8828125000,151601.5312500000,133471.7343750000,144151.2343750000,,,
0.3519999995,2,146551.3593750000,194392.5156250000,173362.6250000000,147552.0468750000,119558.0859375000,151503.2343750000,133308.0937500000,144064.6562500000,,,
0.3559999994,2,146740.0312500000,194574.6093750000,174289.3437500000,147887.9843750000,119692.0078125000,151663.8906250000,133589.7968750000,144236.1093750000,,,
0.3599999994,2,146973.2968750000,194290.2031250000,176015.2656250000,148283.2656250000,119891.0546875000,151887.3281250000,133854.9375000000,144458.1718750000,,,
0.3639999994,2,146907.1093750000,194011.6093750000,176272.0937500000,148171.6093750000,119845.9140625000,151836.5000000000,133770.4687500000,144406.1093750000,,,
0.3679999996,2,146618.1250000000,194035.9687500000,174529.0781250000,147695.8125000000,119601.2968750000,151579.7187500000,133453.9375000000,144141.3125000000,,,
0.3719999995,2,146513.7031250000,194397.7343750000,173333.5781250000,147539.8125000000,119508.6250000000,151477.8281250000,133322.2187500000,144040.9218750000,,,
0.3759999995,2,146716.4843750000,194577.8750000000,174254.6875000000,147884.3437500000,119682.5703125000,151647.3750000000,133563.9218750000,144217.4062500000,,,
0.3799999994,2,146951.0156250000,194282.5625000000,175991.7968750000,148258.0468750000,119888.6718750000,151856.4687500000,133823.3593750000,144428.9843750000,,,
0.3839999994,3,146914.2968750000,194019.7812500000,176283.8593750000,148167.5781250000,119860.5859375000,151837.4531250000,133788.3906250000,144407.7343750000,,,
0.3879999993,3,146637.2500000000,194045.2187500000,174553.0625000000,147695.4375000000,119620.6406250000,151595.9843750000,133528.0468750000,144154.5156250000,,,
0.3919999993,3,146531.0781250000,194401.3281250000,173339.1562500000,147531.3281250000,119518.1484375000,151500.7343750000,133388.2812500000,144060.1562500000,,,
0.3959999993,3,146720.6406250000,194596.2187500000,174242.6250000000,147866.9531250000,119682.1640625000,151657.1875000000,133530.3281250000,144226.9843750000,,,
0.3999999992,3,146950.4218750000,194307.7187500000,175978.4218750000,148245.9218750000,119883.1718750000,151860.7656250000,133793.4062500000,144435.2343750000,,,
0.4039999992,3,146915.4375000000,194032.8437500000,176283.4375000000,148157.8750000000,119869.3828125000,151844.5468750000,133720.7187500000,144414.0625000000,,,
0.4079999994,3,146638.9062500000,194056.4531250000,174565.2656250000,147703.8281250000,119640.8046875000,151600.1875000000,133400.8437500000,144160.5781250000,,,
0.4119999993,3,146509.6250000000,194395.4531250000,173323.5156250000,147536.2343750000,119495.7812500000,151467.8281250000,133429.4843750000,144036.9218750000,,,
0.4159999993,3,146702.9375000000,194579.7031250000,174204.7500000000,147872.2343750000,119647.1406250000,151642.7812500000,133631.5000000000,144207.5468750000,,,
0.4199999992,3,146987.9218750000,194297.9843750000,175965.8906250000,148274.5781250000,119913.1562500000,151912.4531250000,133856.8593750000,144472.7500000000,,,
0.4239999992,3,146925.0937500000,194025.5000000000,176285.9531250000,148176.6718750000,119868.0468750000,151853.7968750000,133794.1875000000,144420.3437500000,,,
0.4279999994,3,146667.6406250000,194054.8750000000,174585.2187500000,147720.8906250000,119647.0859375000,151627.0156250000,133556.8906250000,144182.0312500000,,,
0.4319999993,3,146525.4218750000,194420.7187500000,173347.5156250000,147546.4843750000,119505.6796875000,151495.0781250000,133387.6406250000,144052.2187500000,,,
0.4359999993,3,146686.6718750000,194605.7187500000,174206.8437500000,147863.6093750000,119642.4687500000,151630.2812500000,133533.6875000000,144191.0781250000,,,
0.4399999992,3,146948.6718750000,194308.3906250000,175948.4062500000,148258.2187500000,119884.2421875000,151868.4375000000,133781.7343750000,144431.2968750000,,,
0.4439999992,3,146911.2031250000,194027.2968750000,176290.2500000000,148167.2343750000,119864.3984375000,151841.3281250000,133740.7031250000,144405.4062500000,,,
0.4479999992,3,146660.1562500000,194052.7031250000,174598.6562500000,147717.2968750000,119642.6562500000,151621.5156250000,133538.7031250000,144178.2187500000,,,
0.4519999993,3,146562.4375000000,194425.7656250000,173371.7187500000,147575.6406250000,119549.0234375000,151524.2812500000,133480.1250000000,144092.5781250000,,,
0.4559999993,3,146766.9375000000,194629.9687500000,174257.4531250000,147917.3281250000,119727.8203125000,151697.6562500000,133652.7812500000,144273.2031250000,,,
0.4599999993,3,146969.8593750000,194316.2187500000,175978.9843750000,148277.5312500000,119913.2968750000,151887.2343750000,133800.2500000000,144457.3281250000,,,
0.4639999992,3,146936.2812500000,194036.1562500000,176314.2500000000,148182.9687500000,119876.2812500000,151881.6406250000,133776.2968750000,144448.5312500000,,,
0.4679999992,3,146599.8593750000,194047.0468750000,174591.2812500000,147702.9218750000,119586.2265625000,151570.8750000000,133483.2656250000,144137.5312500000,,,
0.4719999994,3,146476.9531250000,194386.8750000000,173314.9062500000,147518.1875000000,119475.0468750000,151458.5937500000,133342.7968750000,144018.1250000000,,,
0.4759999993,3,146684.9062500000,194579.0312500000,174172.7500000000,147851.0000000000,119647.2968750000,151646.8281250000,133582.4531250000,144211.0312500000,,,
0.4799999993,3,146934.2656250000,194285.6562500000,175923.3437500000,148237.9843750000,119875.3437500000,151872.5468750000,133816.5781250000,144440.6718750000,,,
0.4839999992,3,146868.6406250000,193988.4843750000,176271.2031250000,148135.3593750000,119821.8046875000,151807.0937500000,133749.3437500000,144380.6562500000,,,
0.4879999992,3,146613.6093750000,194010.7968750000,174582.0781250000,147683.8437500000,119592.2343750000,151582.0625000000,133506.0937500000,144150.5937500000,,,
0.4919999992,3,146515.1250000000,194381.5937500000,173321.1718750000,147524.2500000000,119496.2890625000,151492.0781250000,133395.7343750000,144063.5000000000,,,
0.4959999993,3,146698.2656250000,194582.8125000000,174173.2968750000,147843.1406250000,119660.2578125000,151642.7656250000,133565.0156250000,144221.2968750000,,,
0.4999999993,3,146928.4218750000,194266.2031250000,175903.0156250000,148229.1093750000,119870.8906250000,151843.2812500000,133774.3593750000,144421.1562500000,,,
0.5039999993,3,146900.0468750000,193979.3750000000,176274.9687500000,148151.6250000000,119846.2421875000,151839.4375000000,133762.4843750000,144412.5468750000,,,
0.5079999992,3,146662.2187500000,194017.2656250000,174611.1093750000,147707.2031250000,119640.5937500000,151634.0468750000,133562.3281250000,144198.0781250000,,,
0.5119999992,4,146548.8437500000,194398.8593750000,173353.5781250000,147543.1406250000,119542.1562500000,151504.1093750000,133452.6250000000,144088.4531250000,,,
0.5159999991,4,146714.0156250000,194592.5781250000,174170.6406250000,147846.2812500000,119676.9609375000,151655.0937500000,133585.8906250000,144233.8750000000,,,
0.5199999991,4,146941.7031250000,194272.4843750000,175893.8125000000,148230.2031250000,119886.2031250000,151846.0468750000,133785.1406250000,144434.6406250000,,,
0.5239999990,4,146928.7968750000,193979.3750000000,176289.9843750000,148155.9062500000,119888.0781250000,151842.5000000000,133761.4531250000,144428.0156250000,,,
0.5279999990,4,146647.8906250000,194012.7031250000,174613.8750000000,147696.8281250000,119630.7500000000,151598.8281250000,133492.0312500000,144179.2343750000,,,
0.5319999990,4,146521.0781250000,194382.6406250000,173314.6875000000,147511.2968750000,119506.6171875000,151484.1562500000,133409.3906250000,144068.2812500000,,,
0.5359999991,4,146699.3906250000,194582.0625000000,174127.5312500000,147831.7343750000,119661.4375000000,151655.7187500000,133572.7968750000,144227.6093750000,,,
0.5399999991,4,146946.7968750000,194260.3750000000,175865.2343750000,148227.9531250000,119897.3046875000,151849.4218750000,133785.5156250000,144449.0781250000,,,
0.5439999991,4,146905.9218750000,193956.0312500000,176261.3593750000,148147.2187500000,119867.4843750000,151818.6093750000,133763.8750000000,144409.2968750000,,,
0.5479999990,4,146649.3750000000,193983.0468750000,174601.9531250000,147702.5937500000,119640.5703125000,151609.2812500000,133550.6875000000,144182.2187500000,,,
0.5519999990,4,146545.2968750000,194360.0000000000,173306.9687500000,147520.8437500000,119531.7187500000,151534.2031250000,133457.2500000000,144096.4375000000,,,
0.5559999992,4,146721.8750000000,194561.9687500000,174118.5156250000,147827.6406250000,119698.2578125000,151664.1562500000,133604.5000000000,144244.5000000000,,,
0.5599999991,4,146927.7343750000,194244.9375000000,175835.7812500000,148211.6718750000,119885.4531250000,151854.5937500000,133787.7656250000,144432.7656250000,,,
0.5639999991,4,146902.6562500000,193949.6562500000,176244.3906250000,148127.7968750000,119860.3203125000,151836.5937500000,133761.0781250000,144420.8281250000,,,
0.5679999990,4,146650.8906250000,193975.7968750000,174602.1250000000,147683.7968750000,119642.4687500000,151614.1093750000,133535.7500000000,144189.0781250000,,,
0.5719999990,4,146522.6562500000,194344.3906250000,173296.7187500000,147494.0312500000,119517.6406250000,151490.1406250000,133433.5000000000,144069.8593750000,,,
0.5759999990,4,146685.1250000000,194551.4062500000,174080.5937500000,147816.0468750000,119668.1093750000,151629.4062500000,133570.0625000000,144219.4531250000,,,
0.5799999991,4,146952.4375000000,194260.1093750000,175829.6406250000,148220.8281250000,119907.7421875000,151896.9218750000,133819.3750000000,144455.5625000000,,,
0.5839999991,4,146928.6406250000,193970.4062500000,176265.2500000000,148157.3906250000,119898.7578125000,151855.4062500000,133876.7343750000,144454.3906250000,,,
0.5879999991,4,146651.7343750000,193995.5625000000,174628.4843750000,147698.0312500000,119652.5000000000,151578.7343750000,133564.4531250000,144195.5468750000,,,
0.5919999990,4,146516.3281250000,194352.2812500000,173301.0937500000,147489.5468750000,119526.3281250000,151457.2812500000,133514.8281250000,144064.5312500000,,,
0.5959999990,4,146698.4062500000,194552.3437500000,174068.7656250000,147806.4687500000,119670.7656250000,151627.7343750000,133520.4843750000,144235.2500000000,,,
0.5999999992,4,146924.8593750000,194248.0937500000,175796.9375000000,148191.6406250000,119863.2734375000,151853.5000000000,133640.9531250000,144428.2343750000,,,
0.6039999991,4,146890.7968750000,193945.8593750000,176227.2656250000,148128.3437500000,119833.5781250000,151809.1093750000,133718.7656250000,144393.4687500000,,,
0.6079999991,4,146632.0625000000,193962.4687500000,174594.1093750000,147689.7656250000,119606.2343750000,151608.9062500000,133528.8593750000,144157.4062500000,,,
0.6119999990,4,146515.4531250000,194334.3593750000,173275.1562500000,147491.2031250000,119514.9843750000,151470.5312500000,133410.8750000000,144064.5000000000,,,
0.6159999990,4,146707.8906250000,194554.5937500000,174050.9062500000,147801.2656250000,119676.2656250000,151622.2968750000,133584.1093750000,144224.1718750000,,,
0.6199999989,4,146942.2343750000,194268.1562500000,175785.4375000000,148201.8125000000,119866.9453125000,151879.1875000000,133786.7031250000,144464.0156250000,,,
0.6239999991,4,146869.4218750000,193954.9375000000,176216.1406250000,148117.0156250000,119814.8828125000,151790.3906250000,133696.7187500000,144386.4687500000,,,
0.6279999991,4,146628.6875000000,193968.6718750000,174598.1562500000,147670.7343750000,119624.5000000000,151516.3437500000,133489.6406250000,144169.4531250000,,,
0.6319999991,4,146514.4218750000,194335.4843750000,173271.6406250000,147484.9843750000,119525.2031250000,151422.0312500000,133395.7656250000,144045.4531250000,,,
0.6359999990,4,146682.4375000000,194548.7812500000,174004.3906250000,147792.7656250000,119642.0390625000,151585.5781250000,133612.4687500000,144192.3593750000,,,
0.6399999990,5,146905.4375000000,194248.9843750000,175728.1093750000,148176.1406250000,119832.2890625000,151784.4062500000,133738.5468750000,144388.3125000000,,,
0.6439999989,5,146872.0000000000,193939.0468750000,176184.8593750000,148112.3281250000,119816.3046875000,151769.6875000000,133693.6250000000,144374.9687500000,,,
0.6479999989,5,146634.5312500000,193964.8906250000,174585.2187500000,147657.5781250000,119622.5390625000,151572.0000000000,133526.0625000000,144168.0000000000,,,
0.6519999988,5,146479.8750000000,194331.8125000000,173223.9531250000,147456.0468750000,119456.3828125000,151416.5156250000,133386.0312500000,144027.6406250000,,,
0.6559999988,5,146646.0937500000,194549.2343750000,173953.0468750000,147763.2343750000,119597.1953125000,151570.0156250000,133518.8593750000,144179.4531250000,,,
0.6599999988,5,146913.6718750000,194253.3750000000,175704.4531250000,148161.3906250000,119850.5000000000,151828.9531250000,133732.6562500000,144440.3593750000,33029,0.6617400423,0.0000000000
0.6639999989,5,146921.5625000000,193946.1406250000,176209.8437500000,148107.8281250000,119877.0000000000,151800.5781250000,133776.8906250000,144436.2812500000,,,
0.6679999989,5,146650.0156250000,193967.1093750000,174612.4218750000,147664.2968750000,119635.7421875000,151581.8750000000,133536.5625000000,144176.3750000000,,,
0.6719999989,5,146474.8125000000,194325.5625000000,173239.2656250000,147449.2812500000,119466.7890625000,151439.5000000000,133368.1875000000,144023.0312500000,,,
0.6759999988,5,146654.5156250000,194542.7343750000,173969.4375000000,147743.9843750000,119622.8125000000,151582.0000000000,133544.2812500000,144175.4062500000,,,
0.6799999988,5,146901.2812500000,194243.4375000000,175708.5625000000,148137.0625000000,119832.9062500000,151809.5625000000,133696.1718750000,144404.2812500000,,,
0.6839999990,5,146879.0156250000,193940.6562500000,176209.9375000000,148094.8906250000,119832.9375000000,151770.1093750000,133722.1718750000,144399.2968750000,,,
0.6879999989,5,146638.3125000000,193973.2812500000,174626.8437500000,147653.1250000000,119621.6562500000,151550.6250000000,133572.1718750000,144196.1406250000,,,
0.6919999989,5,146500.7968750000,194350.4218750000,173262.0312500000,147457.2187500000,119484.8125000000,151457.4218750000,133388.2343750000,144061.0937500000,,,
0.6959999988,5,146644.5625000000,194578.1406250000,173975.5625000000,147742.3906250000,119611.3593750000,151578.0312500000,133525.5312500000,144167.5937500000,,,
0.6999999988,5,146901.5000000000,194275.9375000000,175727.0156250000,148148.5625000000,119846.9375000000,151815.0156250000,133753.4062500000,144403.0156250000,,,
0.7039999987,5,146884.2968750000,193958.8281250000,176238.9375000000,148080.7343750000,119836.9062500000,151804.7031250000,133719.5156250000,144406.7500000000,,,
0.7079999989,5,146646.5468750000,193986.6875000000,174658.5625000000,147644.9218750000,119630.9921875000,151599.3281250000,133530.0156250000,144210.2812500000,,,
0.7119999989,5,146477.9218750000,194360.0781250000,173271.9843750000,147439.0312500000,119462.3593750000,151428.0156250000,133412.2343750000,144023.4375000000,,,
0.7159999989,5,146651.8906250000,194590.0312500000,173969.8906250000,147735.9375000000,119597.2734375000,151599.7812500000,133513.5156250000,144180.9843750000,,,
0.7199999988,5,146921.0468750000,194281.3593750000,175723.7656250000,148134.9687500000,119853.2109375000,151816.1875000000,133760.9218750000,144422.9218750000,,,
0.7239999988,5,146905.3593750000,193961.5781250000,176259.9375000000,148100.4218750000,119847.2578125000,151799.5937500000,133751.6093750000,144418.9531250000,,,
0.7279999990,5,146636.7343750000,193965.7968750000,174672.5781250000,147656.8125000000,119605.5937500000,151570.2500000000,133506.1875000000,144168.1093750000,,,
0.7319999989,5,146492.1093750000,194323.4218750000,173267.8906250000,147452.7187500000,119453.3984375000,151462.8593750000,133374.5000000000,144045.2656250000,,,
0.7359999989,5,146639.0468750000,194554.2656250000,173954.0468750000,147744.3750000000,119586.4687500000,151556.2500000000,133502.1406250000,144173.2031250000,,,
0.7399999988,5,146902.0937500000,194257.8125000000,175705.4218750000,148146.3125000000,119830.1484375000,151808.4062500000,133737.1875000000,144401.5937500000,,,
0.7439999988,5,146938.3281250000,193957.9375000000,176273.1406250000,148124.4218750000,119867.5078125000,151871.7187500000,133776.5000000000,144451.0000000000,,,
0.7479999987,5,146653.9218750000,193953.1406250000,174697.6875000000,147675.5312500000,119620.1796875000,151592.2187500000,133528.0468750000,144191.5468750000,,,
0.7519999989,5,146512.6875000000,194293.8281250000,173288.9062500000,147462.5312500000,119492.3203125000,151469.1718750000,133389.0625000000,144062.2187500000,,,
0.7559999989,5,146669.0781250000,194537.9062500000,173970.7500000000,147736.0156250000,119621.6875000000,151615.0781250000,133513.2812500000,144207.8906250000,,,
0.7599999988,5,146923.3906250000,194263.0312500000,175726.0937500000,148135.0468750000,119851.9218750000,151816.8593750000,133757.3593750000,144421.0156250000,,,
0.7639999988,5,146933.4218750000,193964.0781250000,176298.2968750000,148099.6875000000,119867.0234375000,151839.7343750000,133760.5468750000,144436.6562500000,,,
0.7679999988,6,146671.4218750000,193948.8906250000,174734.2187500000,147675.2031250000,119640.4609375000,151586.1406250000,133529.6875000000,144199.5468750000,,,
0.7719999987,6,146517.7187500000,194276.0937500000,173301.6250000000,147455.7187500000,119491.2187500000,151463.3125000000,133401.0781250000,144062.8281250000,,,
0.7759999987,6,146675.0312500000,194523.0312500000,173967.8125000000,147742.2031250000,119625.3593750000,151603.5468750000,133546.4062500000,144201.3906250000,,,
0.7799999986,6,146928.7968750000,194274.8906250000,175730.1250000000,148157.5468750000,119859.1093750000,151821.2656250000,133785.5937500000,144427.2187500000,,,
0.7839999986,6,146938.5937500000,193991.0156250000,176320.9062500000,148141.4843750000,119884.4609375000,151850.4375000000,133807.7343750000,144460.5468750000,,,
0.7879999985,6,146691.2968750000,193973.2500000000,174765.4375000000,147698.5625000000,119668.2187500000,151622.1562500000,133575.5781250000,144231.4687500000,,,
0.7919999987,6,146556.0781250000,194317.8593750000,173344.0781250000,147486.0000000000,119535.1015625000,151504.5468750000,133418.6250000000,144096.8125000000,,,
0.7959999987,6,146696.6093750000,194571.1406250000,173996.9843750000,147757.9062500000,119651.8593750000,151644.3593750000,133563.5937500000,144232.3750000000,,,
0.7999999986,6,146949.5937500000,194326.1562500000,175747.7812500000,148170.3125000000,119878.2656250000,151851.2187500000,133795.3125000000,144463.8437500000,,,
0.8039999986,6,146936.3593750000,194030.2500000000,176330.5625000000,148143.9531250000,119875.9609375000,151825.4687500000,133773.6875000000,144447.9531250000,,,
0.8079999986,6,146698.8281250000,194004.9218750000,174776.4687500000,147715.5000000000,119661.5156250000,151640.4218750000,133560.3281250000,144232.3437500000,,,
0.8119999988,6,146571.7500000000,194343.2343750000,173347.9218750000,147500.0000000000,119546.8515625000,151546.9531250000,133457.2500000000,144132.4375000000,,,
0.8159999987,6,146668.2031250000,194591.3750000000,173973.7343750000,147762.7500000000,119627.1015625000,151627.3125000000,133519.3437500000,144221.4843750000,,,
0.8199999987,6,146911.0781250000,194339.4843750000,175722.1093750000,148162.7500000000,119848.9218750000,151854.7656250000,133768.1718750000,144434.2656250000,,,
0.8239999986,6,146922.3906250000,194037.3593750000,176320.8750000000,148143.7343750000,119863.0000000000,151895.0937500000,133788.9062500000,144455.3281250000,,,
0.8279999986,6,146684.7968750000,194002.9218750000,174781.0781250000,147702.6250000000,119660.2265625000,151672.4218750000,133581.9062500000,144238.9531250000,,,
0.8319999985,6,146536.0937500000,194340.2343750000,173338.6718750000,147472.6718750000,119524.2109375000,151538.8281250000,133435.0156250000,144110.5312500000,,,
0.8359999987,6,146675.8437500000,194603.6562500000,173973.5468750000,147739.9062500000,119650.5156250000,151653.8281250000,133559.0312500000,144236.9687500000,,,
0.8399999987,6,146915.7968750000,194353.3281250000,175722.2656250000,148145.0156250000,119857.2343750000,151871.6562500000,133791.2031250000,144460.0156250000,,,
0.8439999986,6,146932.4531250000,194047.6250000000,176336.9218750000,148139.0937500000,119876.6562500000,151880.4843750000,133801.5000000000,144474.8281250000,,,
0.8479999986,6,146708.3281250000,194025.9062500000,174811.2812500000,147723.7812500000,119684.3671875000,151713.5625000000,133641.8281250000,144259.8125000000,,,
0.8519999986,6,146570.1093750000,194375.8593750000,173365.2500000000,147468.0625000000,119563.5625000000,151581.6562500000,133506.2812500000,144146.5156250000,,,
0.8559999987,6,146695.4218750000,194644.8437500000,173968.0781250000,147757.5781250000,119654.3281250000,151700.9687500000,133543.7500000000,144264.2656250000,,,
0.8599999987,6,146942.5000000000,194391.4375000000,175713.6250000000,148167.0937500000,119885.4531250000,151916.7656250000,133790.2343750000,144485.7343750000,,,
0.8639999987,6,146949.0312500000,194077.8281250000,176341.1250000000,148147.1875000000,119901.9765625000,151912.5000000000,133825.8593750000,144496.0312500000,,,
0.8679999986,6,146697.7812500000,194043.4687500000,174805.7812500000,147711.3906250000,119681.1484375000,151693.1875000000,133580.9531250000,144264.4531250000,,,
0.8719999986,6,146542.5312500000,194383.2343750000,173322.6562500000,147485.8750000000,119537.4062500000,151565.8593750000,133420.6250000000,144127.5625000000,,,
0.8759999985,6,146679.8593750000,194640.7187500000,173913.7343750000,147748.5625000000,119653.5468750000,151666.8125000000,133561.5000000000,144244.1718750000,,,
0.8799999987,6,146940.2812500000,194379.4687500000,175668.9218750000,148156.7500000000,119888.4062500000,151904.9375000000,133831.5937500000,144481.9218750000,,,
0.8839999987,6,146952.0781250000,194054.9843750000,176306.8593750000,148147.5937500000,119904.7656250000,151925.9531250000,133858.4218750000,144501.5937500000,,,
0.8879999986,6,146717.9062500000,194023.8906250000,174788.4218750000,147722.1250000000,119708.1015625000,151722.8437500000,133652.7968750000,144289.9843750000,,,
0.8919999986,6,146569.0156250000,194381.7812500000,173313.0468750000,147495.8437500000,119566.3203125000,151568.4531250000,133483.6562500000,144164.0312500000,,,
0.8959999986,7,146694.1406250000,194643.6718750000,173891.3125000000,147756.0156250000,119667.7109375000,151669.8281250000,133592.2187500000,144244.9531250000,,,
0.8999999985,7,146961.7187500000,194375.5312500000,175644.5312500000,148178.8125000000,119916.2968750000,151918.5468750000,133847.4218750000,144492.6562500000,,,
0.9039999985,7,146968.0625000000,194053.5000000000,176312.4531250000,148159.6093750000,119946.7421875000,151946.2031250000,133844.1562500000,144529.8281250000,,,
0.9079999984,7,146706.1718750000,194029.8750000000,174793.8437500000,147719.7343750000,119695.0390625000,151718.7500000000,133607.8750000000,144293.8593750000,,,
0.9119999984,7,146532.6875000000,194378.1875000000,173281.7187500000,147482.5937500000,119513.9687500000,151534.9843750000,133448.7968750000,144108.3437500000,,,
0.9159999983,7,146678.7968750000,194648.2500000000,173857.3593750000,147738.9062500000,119651.0781250000,151663.0937500000,133580.9687500000,144235.9687500000,,,
0.9199999985,7,146941.7031250000,194390.9218750000,175623.9062500000,148145.7500000000,119900.1250000000,151895.9531250000,133841.2500000000,144476.2187500000,,,
0.9239999985,7,146963.3750000000,194064.0937500000,176299.5000000000,148154.6718750000,119921.6640625000,151912.4062500000,133864.4062500000,144507.4062500000,,,
0.9279999984,7,146715.8906250000,194025.0937500000,174793.4375000000,147737.8593750000,119702.6093750000,151705.1250000000,133624.0312500000,144276.7968750000,,,
0.9319999984,7,146562.5000000000,194377.5937500000,173289.8750000000,147507.0000000000,119555.2968750000,151577.3125000000,133477.8437500000,144148.5781250000,,,
0.9359999984,7,146692.6875000000,194659.1250000000,173856.5781250000,147754.7343750000,119674.5234375000,151688.1406250000,133614.9531250000,144259.1718750000,,,
0.9399999985,7,146944.8906250000,194400.6093750000,175619.5625000000,148159.9062500000,119917.1328125000,151964.2812500000,133889.3750000000,144494.3437500000,,,
0.9439999985,7,146957.2031250000,194059.3281250000,176308.0312500000,148174.4531250000,119933.3281250000,151913.9531250000,133854.5312500000,144505.6718750000,,,
0.9479999985,7,146695.2343750000,194012.4375000000,174802.2968750000,147733.3593750000,119680.3437500000,151663.7812500000,133582.9531250000,144272.0937500000,,,
0.9519999984,7,146527.6562500000,194361.7187500000,173279.6875000000,147475.1718750000,119527.1328125000,151549.7968750000,133489.6250000000,144119.9687500000,,,
0.9559999984,7,146656.2968750000,194642.9218750000,173827.6093750000,147718.2343750000,119631.4765625000,151658.3750000000,133555.2031250000,144229.4531250000,,,
0.9599999983,7,146909.9531250000,194371.8281250000,175571.5468750000,148140.3750000000,119857.4531250000,151882.5000000000,133779.3281250000,144458.6406250000,,,
0.9639999985,7,146935.4218750000,194014.1562500000,176266.5937500000,148142.0781250000,119901.4375000000,151907.2812500000,133800.0781250000,144487.9687500000,,,
0.9679999985,7,146695.4687500000,193982.7968750000,174801.4687500000,147705.7343750000,119689.7890625000,151715.9218750000,133610.5937500000,144278.8906250000,,,
0.9719999984,7,146534.2968750000,194344.4375000000,173281.6718750000,147467.4375000000,119534.9687500000,151562.6875000000,133485.4062500000,144133.2343750000,,,
0.9759999984,7,146681.9843750000,194625.8125000000,173824.0468750000,147728.0781250000,119671.0390625000,151700.2968750000,133601.1406250000,144265.5312500000,,,
0.9799999984,7,146926.1250000000,194368.9531250000,175577.9843750000,148135.3437500000,119887.1718750000,151904.4843750000,133791.8437500000,144494.7500000000,,,
0.9839999985,7,146946.3906250000,194021.7500000000,176284.6718750000,148149.9843750000,119910.6093750000,151922.4531250000,133839.5156250000,144512.9062500000,,,
0.9879999985,7,146726.5625000000,193983.3437500000,174836.3906250000,147722.5781250000,119730.9296875000,151733.9843750000,133669.8125000000,144307.4218750000,,,
0.9919999985,7,146555.8125000000,194335.9375000000,173316.0000000000,147470.2343750000,119575.3906250000,151575.8125000000,133468.4531250000,144162.5312500000,,,
0.9959999984,7,146656.2968750000,194605.2812500000,173800.0937500000,147719.4375000000,119621.6562500000,151664.5312500000,133538.0625000000,144244.7656250000,,,
0.9999999984,7,146908.4687500000,194331.7812500000,175533.8750000000,148127.2343750000,119857.3984375000,151889.4375000000,133793.8593750000,144460.2812500000,,,
1.0039999983,7,146944.2812500000,193981.9687500000,176260.4218750000,148142.2343750000,119905.3828125000,151946.5156250000,133851.5781250000,144508.6250000000,,,
1.0079999985,7,146680.1093750000,193946.6250000000,174796.6875000000,147711.0937500000,119665.1640625000,151694.3906250000,133567.5312500000,144263.0000000000,,,
1.0119999985,7,146528.1093750000,194291.2343750000,173259.5156250000,147471.5468750000,119529.5468750000,151556.2343750000,133431.8437500000,144129.1406250000,,,
1.0159999984,7,146652.6406250000,194580.1875000000,173770.9062500000,147717.6718750000,119634.8281250000,151659.3125000000,133538.2812500000,144238.2031250000,,,
1.0199999984,7,146911.6875000000,194335.0781250000,175528.6093750000,148131.9375000000,119877.9453125000,151903.6250000000,133796.4687500000,144476.1562500000,,,
1.0239999983,8,146955.3750000000,194006.2968750000,176288.2968750000,148150.0312500000,119946.3359375000,151950.2968750000,133885.3750000000,144528.5156250000,,,
1.0279999983,8,146740.7500000000,193972.7187500000,174872.3750000000,147744.2500000000,119771.2968750000,151709.8125000000,133733.5937500000,144347.1406250000,,,
1.0319999983,8,146538.4843750000,194301.4218750000,173305.1406250000,147478.2812500000,119543.7109375000,151550.6562500000,133449.7343750000,144141.4531250000,,,
1.0359999982,8,146654.0625000000,194579.1093750000,173778.2812500000,147716.6250000000,119638.4218750000,151677.3125000000,133602.4843750000,144228.6718750000,,,
1.0399999982,8,146915.0937500000,194322.6562500000,175533.7656250000,148138.9062500000,119894.1953125000,151878.7343750000,133759.4218750000,144465.2656250000,,,
1.0439999981,8,146935.1875000000,193970.9687500000,176276.5937500000,148151.9218750000,119911.1484375000,151927.0156250000,133837.0156250000,144496.2812500000,,,
1.0479999983,8,146703.1250000000,193941.0312500000,174838.8281250000,147728.6875000000,119684.4218750000,151742.9062500000,133553.6406250000,144314.0781250000,,,
1.0519999983,8,146518.2031250000,194271.1093750000,173255.2031250000,147470.9375000000,119503.7734375000,151509.5937500000,133383.6718750000,144128.4375000000,,,
1.0559999982,8,146668.3906250000,194558.0468750000,173750.5937500000,147733.6250000000,119655.9609375000,151653.7031250000,133576.6250000000,144244.9531250000,,,
1.0599999982,8,146899.7812500000,194311.1093750000,175491.7812500000,148129.0312500000,119873.0625000000,151853.3125000000,133750.8437500000,144450.5000000000,,,
1.0639999982,8,146924.3750000000,193977.0000000000,176251.8906250000,148145.9375000000,119899.5312500000,151892.9531250000,133792.6562500000,144488.1250000000,,,
1.0679999983,8,146693.7812500000,193943.9687500000,174834.5312500000,147733.5781250000,119676.6171875000,151756.7500000000,133616.7500000000,144285.6718750000,,,
1.0719999983,8,146525.1093750000,194292.6562500000,173273.5937500000,147468.8593750000,119521.9296875000,151559.9062500000,133389.9687500000,144148.0781250000,,,
1.0759999983,8,146650.5156250000,194589.5937500000,173749.7968750000,147713.3750000000,119636.8906250000,151652.5000000000,133540.0156250000,144232.2187500000,,,
1.0799999982,8,146907.9062500000,194352.4375000000,175491.7500000000,148134.5156250000,119872.1250000000,151838.6406250000,133762.5625000000,144470.3125000000,,,
1.0839999982,8,146948.5468750000,194012.6875000000,176279.3593750000,148158.7031250000,119933.3593750000,151907.4062500000,133890.0937500000,144519.5000000000,,,
1.0879999981,8,146717.3593750000,193974.7812500000,174874.9843750000,147749.3906250000,119705.2343750000,151759.7031250000,133654.1718750000,144325.2031250000,,,
1.0919999983,8,146526.0937500000,194300.4218750000,173289.1250000000,147471.0156250000,119530.6796875000,151520.7656250000,133457.4843750000,144121.5000000000,,,
1.0959999983,8,146630.3281250000,194578.9218750000,173726.4531250000,147700.4531250000,119611.7031250000,151611.5937500000,133473.7968750000,144200.4843750000,,,
1.0999999982,8,146908.3906250000,194337.0156250000,175475.2031250000,148120.6406250000,119873.3828125000,151896.4218750000,133767.8750000000,144466.4531250000,,,
1.1039999982,8,146933.4687500000,194016.9687500000,176272.6875000000,148147.8437500000,119914.3671875000,151895.8437500000,133805.8750000000,144513.1250000000,,,
1.1079999981,8,146695.5000000000,193969.5000000000,174888.0781250000,147739.9531250000,119720.2812500000,151683.0156250000,133695.8750000000,144277.8906250000,,,
1.1119999983,8,146513.7812500000,194278.6718750000,173281.7031250000,147482.7343750000,119511.7656250000,151502.5625000000,133446.5156250000,144109.0156250000,,,
1.1159999983,8,146626.0000000000,194564.7031250000,173710.5000000000,147717.3437500000,119606.1562500000,151625.0781250000,133449.0625000000,144189.0000000000,,,
1.1199999982,8,146888.0781250000,194337.9843750000,175453.6718750000,148132.2812500000,119849.2187500000,151856.0156250000,133734.0000000000,144430.7500000000,,,
1.1239999982,8,146916.1718750000,194012.2187500000,176257.5312500000,148149.2031250000,119885.7734375000,151911.7812500000,133777.8437500000,144477.2656250000,,,
1.1279999982,8,146705.2187500000,193966.6875000000,174891.6093750000,147743.9531250000,119723.6640625000,151691.5937500000,133618.4687500000,144288.2968750000,,,
1.1319999981,8,146536.0937500000,194283.2656250000,173295.6406250000,147479.4843750000,119544.0859375000,151524.7187500000,133459.7343750000,144161.1406250000,,,
1.1359999983,8,146649.3906250000,194587.6718750000,173707.5468750000,147712.5156250000,119619.1875000000,151644.2343750000,133505.9218750000,144272.9843750000,,,
1.1399999983,8,146899.9375000000,194355.8125000000,175453.0000000000,148129.6875000000,119880.1718750000,151902.1562500000,133745.5312500000,144454.1718750000,,,
1.1439999982,8,146928.6093750000,194027.5468750000,176282.5312500000,148167.4218750000,119936.3046875000,152034.9218750000,133859.3906250000,144489.8906250000,,,
1.1479999982,8,146688.2656250000,193969.7656250000,174890.2187500000,147755.0000000000,119682.4921875000,151702.9218750000,133573.4843750000,144285.0781250000,,,
1.1519999981,9,146522.0468750000,194268.9375000000,173291.4531250000,147476.5312500000,119551.1953125000,151595.6093750000,133464.4062500000,144164.4375000000,,,
1.1559999981,9,146624.4843750000,194558.5156250000,173700.6250000000,147718.5468750000,119621.5000000000,151608.0000000000,133478.9687500000,144208.5000000000,,,
1.1599999981,9,146873.2031250000,194342.7031250000,175416.5937500000,148137.9218750000,119823.4921875000,151808.2968750000,133707.9843750000,144420.6875000000,,,
1.1639999980,9,146888.8593750000,194008.7187500000,176223.9218750000,148172.5937500000,119844.7656250000,151825.9531250000,133740.5156250000,144451.6406250000,,,
1.1679999980,9,146643.1250000000,193929.9062500000,174845.1250000000,147750.4687500000,119627.3203125000,151596.6562500000,133460.6562500000,144225.5625000000,,,
1.1719999979,9,146475.5312500000,194231.7656250000,173230.0156250000,147480.9062500000,119475.0234375000,151509.3125000000,133365.3750000000,144072.2968750000,,,
1.1759999981,9,146619.7500000000,194537.2343750000,173644.5156250000,147708.0937500000,119613.3437500000,151840.7656250000,133535.2500000000,144232.7500000000,,,
1.1799999981,9,146893.2031250000,194354.6406250000,175404.6406250000,148137.1562500000,119856.3515625000,151991.5781250000,133755.8281250000,144532.8125000000,,,
1.1839999980,9,146869.2812500000,194023.2812500000,176220.0000000000,148162.8125000000,119819.4140625000,151689.4531250000,133718.9531250000,144407.0156250000,,,
1.1879999980,9,146657.1250000000,193959.7031250000,174882.3906250000,147746.7968750000,119678.4140625000,151645.5000000000,133540.8750000000,144243.1093750000,,,
1.1919999979,9,146488.5781250000,194265.8750000000,173273.0000000000,147479.8281250000,119515.7109375000,151417.6093750000,133398.7500000000,144131.0937500000,,,
1.1959999981,9,146572.2500000000,194550.5156250000,173620.8906250000,147710.6093750000,119535.5546875000,151561.2187500000,133375.8906250000,144154.6250000000,,,
1.1999999981,9,146814.8281250000,194326.6093750000,175343.1875000000,148104.3125000000,119776.3671875000,151830.4531250000,133645.0468750000,144373.7500000000,,,
1.2039999980,9,146906.8593750000,194008.3906250000,176232.0468750000,148174.3125000000,119908.9765625000,151965.6406250000,133864.7500000000,144496.0312500000,,,
1.2079999980,9,146706.2031250000,193944.7343750000,174918.8906250000,147773.8906250000,119728.2734375000,151821.1718750000,133603.7187500000,144311.5625000000,,,
1.2119999980,9,146472.1875000000,194247.2968750000,173253.0312500000,147461.2500000000,119449.8593750000,151439.7187500000,133280.9375000000,144092.4687500000,,,
1.2159999979,9,146589.1562500000,194551.0781250000,173614.3437500000,147685.6093750000,119585.2031250000,151645.1250000000,133601.3593750000,144189.3593750000,,,
1.2199999981,9,146853.7031250000,194335.7812500000,175357.7500000000,148113.5312500000,119827.6796875000,151787.8437500000,133740.7031250000,144431.5000000000,,,
1.2239999981,9,146878.6718750000,193997.3906250000,176207.5000000000,148168.1406250000,119826.6328125000,151882.5156250000,133681.4843750000,144440.5937500000,,,
1.2279999980,9,146643.8437500000,193918.2187500000,174859.6093750000,147744.7031250000,119628.1718750000,151718.9531250000,133426.2656250000,144254.3125000000,,,
1.2319999980,9,146474.4375000000,194247.9687500000,173254.4218750000,147451.2656250000,119505.0078125000,151655.2031250000,133373.3906250000,144118.1718750000,,,
1.2359999979,9,146606.4218750000,194569.8281250000,173629.6875000000,147692.2656250000,119618.1718750000,151703.8906250000,133577.4843750000,144228.7031250000,,,
1.2399999981,9,146832.7500000000,194344.5000000000,175344.7656250000,148123.0781250000,119797.5859375000,151712.4218750000,133710.4218750000,144408.5781250000,,,
1.2439999981,9,146890.3437500000,194008.3281250000,176219.0937500000,148157.1718750000,119849.6718750000,151764.9375000000,133784.4531250000,144528.2812500000,,,
1.2479999980,9,146663.0000000000,193947.2656250000,174917.0468750000,147760.4687500000,119674.2265625000,151689.1093750000,133595.2656250000,144244.3593750000,,,
1.2519999980,9,146446.2187500000,194232.1093750000,173253.0312500000,147473.7500000000,119459.6015625000,151484.7968750000,133292.2812500000,144009.3281250000,,,
1.2559999980,9,146571.4531250000,194529.5156250000,173583.1718750000,147675.9375000000,119572.6250000000,151615.2187500000,133409.5781250000,144173.4531250000,,,
1.2599999979,9,146844.8281250000,194302.3125000000,175319.2031250000,148108.8125000000,119844.6796875000,151845.8750000000,133675.2343750000,144427.4843750000,,,
1.2639999981,9,146891.1093750000,193959.2500000000,176219.6250000000,148175.7343750000,119868.8515625000,151922.9218750000,133807.4531250000,144480.1250000000,,,
1.2679999981,9,146635.0468750000,193904.1093750000,174903.5156250000,147758.9687500000,119601.0312500000,151668.6406250000,133444.2031250000,144253.2656250000,,,
1.2719999980,9,146482.9062500000,194248.7656250000,173270.0312500000,147455.4843750000,119504.6562500000,151662.3906250000,133548.3593750000,144191.7656250000,,,
1.2759999980,9,146605.8906250000,194578.8906250000,173636.3906250000,147684.0781250000,119658.8593750000,151686.3437500000,133549.5625000000,144274.3281250000,,,
1.2799999979,10,146818.0468750000,194333.8750000000,175318.7031250000,148111.2812500000,119784.4375000000,151813.2187500000,133641.7187500000,144386.0937500000,,,
1.2839999979,10,146864.4062500000,193967.8906250000,176203.3750000000,148162.9687500000,119823.6562500000,151893.2812500000,133708.2500000000,144436.6875000000,,,
1.2879999978,10,146667.1718750000,193923.0468750000,174949.7343750000,147749.8750000000,119706.9218750000,151771.6406250000,133639.9843750000,144299.8281250000,,,
1.2919999978,10,146500.9843750000,194251.3906250000,173324.2656250000,147467.5156250000,119602.3750000000,151648.7968750000,133490.9375000000,144163.3593750000,,,
1.2959999978,10,146570.2968750000,194564.6250000000,173619.7968750000,147681.3437500000,119595.1328125000,151507.3281250000,133443.4531250000,144199.1406250000,,,
1.2999999977,10,146800.4843750000,194332.9062500000,175296.3906250000,148089.4687500000,119778.9140625000,151769.7031250000,133774.4687500000,144397.0312500000,,,
1.3039999979,10,146835.1093750000,193959.9687500000,176202.5937500000,148140.4687500000,119830.8671875000,151871.8750000000,133682.2812500000,144377.8125000000,,,
1.3079999979,10,146586.7343750000,193888.5468750000,174893.5781250000,147726.6718750000,119575.5468750000,151634.9218750000,133453.5625000000,144179.5156250000,,,
1.3119999978,10,146405.8281250000,194192.5000000000,173224.6250000000,147436.4687500000,119421.3515625000,151473.7031250000,133280.1406250000,144006.0468750000,,,
1.3159999978,10,146580.9531250000,194522.4375000000,173574.0625000000,147681.3750000000,119624.8515625000,151587.0156250000,133480.7968750000,144198.4687500000,,,
1.3199999977,10,146797.0000000000,194308.3750000000,175270.6562500000,148077.3437500000,119778.1093750000,151754.6093750000,133759.0000000000,144402.7812500000,,,
1.3239999979,10,146846.6406250000,193942.6250000000,176201.2031250000,148146.6875000000,119859.9687500000,151720.6718750000,133766.0156250000,144421.9843750000,,,
1.3279999979,10,146629.1718750000,193887.8281250000,174955.9375000000,147760.3437500000,119665.0546875000,151647.4531250000,133525.6718750000,144214.9218750000,,,
1.3319999978,10,146400.0000000000,194193.3281250000,173238.1875000000,147475.5937500000,119363.6015625000,151542.6250000000,133208.3281250000,144001.8750000000,,,
1.3359999978,10,146496.1875000000,194494.4062500000,173502.7343750000,147666.2500000000,119497.7890625000,151575.5468750000,133447.9062500000,144098.2656250000,,,
1.3399999978,10,146815.9062500000,194290.7500000000,175249.2812500000,148098.6718750000,119811.0234375000,151878.1250000000,133682.4218750000,144443.5781250000,,,
1.3439999977,10,146879.0156250000,193941.5156250000,176210.9062500000,148179.4843750000,119904.2578125000,151930.2968750000,133811.0781250000,144475.5937500000,,,
1.3479999979,10,146640.7031250000,193888.8750000000,174964.3281250000,147778.3593750000,119666.9296875000,151683.0781250000,133479.8593750000,144272.0937500000,,,
1.3519999979,10,146428.1406250000,194204.3750000000,173290.5156250000,147466.2656250000,119481.8593750000,151430.5468750000,133304.3906250000,144012.6250000000,,,
1.3559999978,10,146497.8281250000,194513.2656250000,173513.1718750000,147648.7656250000,119485.5312500000,151586.5156250000,133411.8906250000,144087.0781250000,,,
1.3599999978,10,146797.0781250000,194303.3593750000,175233.7500000000,148080.1406250000,119824.8046875000,151827.0781250000,133664.3437500000,144403.7500000000,,,
1.3639999977,10,146883.0937500000,193959.9218750000,176205.3906250000,148166.8750000000,119864.0234375000,151879.7343750000,133717.4218750000,144542.3906250000,,,
1.3679999979,10,146637.2187500000,193907.1875000000,174938.1250000000,147765.5781250000,119607.4687500000,151580.7968750000,133440.8750000000,144295.1875000000,,,
1.3719999979,10,146438.0156250000,194200.8906250000,173264.8281250000,147460.7343750000,119461.8203125000,151506.8281250000,133276.9531250000,144062.2187500000,,,
1.3759999978,10,146501.3125000000,194495.7968750000,173483.5000000000,147656.8125000000,119481.2968750000,151533.6250000000,133333.5156250000,144074.3437500000,,,
1.3799999978,10,146780.8437500000,194274.8125000000,175205.1406250000,148077.8281250000,119794.6875000000,151825.9218750000,133664.9531250000,144327.9375000000,,,
1.3839999977,10,146823.6875000000,193930.1562500000,176156.3593750000,148151.9218750000,119791.6015625000,151831.2343750000,133618.2343750000,144399.7968750000,,,
1.3879999977,10,146629.9218750000,193868.9687500000,174920.6875000000,147759.9062500000,119612.5937500000,151806.0468750000,133618.0468750000,144267.8906250000,,,
1.3919999979,10,146440.1875000000,194161.0000000000,173245.5937500000,147466.1093750000,119469.1718750000,151480.8281250000,133286.7968750000,144068.2812500000,,,
1.3959999979,10,146563.1875000000,194477.1562500000,173539.5312500000,147672.7656250000,119649.5546875000,151549.0937500000,133319.2187500000,144157.9687500000,,,
1.3999999978,10,146809.4218750000,194296.3750000000,175227.6406250000,148094.3750000000,119788.1718750000,151894.1562500000,133626.8437500000,144423.4531250000,,,
1.4039999978,10,146862.6250000000,193952.9531250000,176186.2656250000,148177.8750000000,119832.3437500000,151862.2500000000,133726.6250000000,144449.9375000000,,,
1.4079999977,11,146651.9687500000,193877.5468750000,174987.5781250000,147784.4531250000,119648.5625000000,151600.5625000000,133486.2656250000,144260.1406250000,,,
1.4119999977,11,146430.7968750000,194163.3437500000,173258.5468750000,147462.4843750000,119416.7890625000,151411.6875000000,133246.3750000000,144051.2968750000,,,
1.4159999976,11,146509.6718750000,194475.8437500000,173461.1093750000,147644.9843750000,119490.6015625000,151521.7031250000,133288.0000000000,144118.9531250000,,,
1.4199999976,11,146767.1406250000,194291.1718750000,175146.0937500000,148069.9687500000,119721.8671875000,151810.4687500000,133466.6250000000,144366.4062500000,,,
1.4239999976,11,146845.4375000000,193950.3125000000,176166.3281250000,148137.5937500000,119853.9375000000,151856.1875000000,133717.3593750000,144416.1093750000,,,
1.4279999975,11,146623.3281250000,193861.8593750000,174951.1093750000,147753.9531250000,119619.7500000000,151686.3750000000,133467.2968750000,144229.2343750000,,,
1.4319999977,11,146463.7656250000,194134.6718750000,173257.1562500000,147446.7656250000,119478.6171875000,151561.9375000000,133419.7812500000,144123.0000000000,,,
1.4359999977,11,146541.7343750000,194472.8125000000,173479.8281250000,147653.8906250000,119543.3906250000,151558.0781250000,133205.3593750000,144168.0312500000,,,
1.4399999976,11,146761.6406250000,194299.1875000000,175146.5625000000,148079.4375000000,119719.5859375000,151804.3906250000,133481.5156250000,144328.1875000000,,,
1.4439999976,11,146879.3906250000,193999.8906250000,176190.5468750000,148146.8437500000,119871.7968750000,151955.0468750000,133686.8906250000,144498.3906250000,,,
1.4479999975,11,146628.8281250000,193912.5468750000,174976.0156250000,147751.1875000000,119621.7343750000,151753.4062500000,133458.6406250000,144293.9531250000,,,
1.4519999977,11,146442.1718750000,194187.3125000000,173253.6406250000,147462.6718750000,119421.9921875000,151416.3281250000,133209.0937500000,144122.8281250000,,,
1.4559999977,11,146469.0156250000,194484.0312500000,173427.1875000000,147610.5312500000,119470.2734375000,151396.0000000000,133175.8750000000,144025.9531250000,,,
1.4599999976,11,146739.2812500000,194302.8750000000,175112.9531250000,148038.0625000000,119693.3828125000,151695.9531250000,133605.0937500000,144288.3281250000,,,
1.4639999976,11,146848.8437500000,193997.5312500000,176160.3750000000,148148.4218750000,119830.3359375000,151835.1250000000,133712.3281250000,144435.2656250000,,,
1.4679999975,11,146603.9375000000,193897.6875000000,174976.3750000000,147743.0468750000,119594.6718750000,151765.4375000000,133426.0468750000,144199.0156250000,,,
1.4719999975,11,146445.5468750000,194159.3437500000,173248.5937500000,147464.7812500000,119433.4218750000,151643.2187500000,133234.9375000000,144097.6250000000,,,
1.4759999977,11,146497.6093750000,194481.9531250000,173411.8906250000,147646.7187500000,119449.1640625000,151416.9218750000,133179.6406250000,144092.1562500000,,,
1.4799999977,11,146681.7656250000,194289.9375000000,175043.4062500000,148029.9531250000,119598.6953125000,151586.7500000000,133413.2500000000,144230.5468750000,,,
1.4839999976,11,146781.4687500000,193956.8125000000,176068.9375000000,148113.3750000000,119741.5000000000,151748.4687500000,133744.9375000000,144379.1406250000,,,
1.4879999976,11,146627.6093750000,193872.3281250000,174966.0156250000,147763.7812500000,119675.4609375000,151641.6093750000,133473.7343750000,144253.7343750000,,,
1.4919999975,11,146457.9687500000,194138.1250000000,173289.3125000000,147468.5468750000,119507.7968750000,151480.2968750000,133287.4062500000,144084.7812500000,,,
1.4959999977,11,146464.6718750000,194458.2968750000,173395.5781250000,147623.9218750000,119403.1875000000,151493.5937500000,133173.5781250000,144081.3125000000,,,
1.4999999977,11,146684.6875000000,194275.7500000000,175030.2031250000,148022.9218750000,119596.0703125000,151775.6562500000,133402.1718750000,144272.0000000000,,,
1.5039999976,11,146799.2500000000,193943.7187500000,176089.1406250000,148152.0000000000,119753.7578125000,151787.3281250000,133557.8281250000,144377.2656250000,,,
1.5079999976,11,146600.4687500000,193848.0468750000,174954.9062500000,147761.5937500000,119572.1171875000,151645.2500000000,133292.6875000000,144210.5625000000,,,
1.5119999975,11,146392.0937500000,194094.9687500000,173211.1875000000,147437.2968750000,119384.3046875000,151470.4218750000,133205.8750000000,143998.2656250000,,,
1.5159999975,11,146494.1718750000,194428.1562500000,173385.9062500000,147608.7187500000,119496.6640625000,151489.2812500000,133435.5468750000,144114.7031250000,,,
1.5199999977,11,146751.1093750000,194262.4531250000,175079.3125000000,148049.1406250000,119721.0078125000,151809.2500000000,133539.1562500000,144350.9531250000,,,
1.5239999976,11,146827.1718750000,193936.6718750000,176144.9062500000,148132.5468750000,119811.3437500000,151846.2031250000,133735.7968750000,144441.0000000000,,,
1.5279999976,11,146622.9687500000,193842.0937500000,175023.2500000000,147758.4843750000,119606.5859375000,151562.6406250000,133499.1093750000,144247.9062500000,,,
1.5319999976,11,146396.1093750000,194104.5000000000,173265.5468750000,147434.1093750000,119381.7890625000,151436.0156250000,133011.8593750000,144025.9843750000,,,
1.5359999975,12,146421.8906250000,194431.2656250000,173375.0156250000,147590.8750000000,119377.0390625000,151522.8125000000,133094.0781250000,144025.3593750000,,,
1.5399999975,12,146705.0312500000,194273.9218750000,175065.2812500000,148032.7187500000,119671.4140625000,151684.4687500000,133530.8125000000,144294.5468750000,,,
1.5439999974,12,146781.6562500000,193919.8281250000,176124.7656250000,148130.3281250000,119730.9062500000,151834.2343750000,133585.2343750000,144354.5468750000,,,
1.5479999974,12,146591.7500000000,193798.4218750000,174993.3437500000,147746.5312500000,119568.4140625000,151759.5625000000,133403.7031250000,144214.8125000000,,,
1.5519999973,12,146409.3125000000,194069.3593750000,173264.1875000000,147448.7812500000,119410.9687500000,151474.7656250000,133226.3906250000,144062.1875000000,,,
1.5559999973,12,146496.8125000000,194430.0000000000,173433.8593750000,147624.7343750000,119492.1875000000,151531.5468750000,133343.3281250000,144124.1562500000,,,
1.5599999975,12,146686.3906250000,194263.0156250000,175083.7343750000,148007.0468750000,119631.5000000000,151659.4687500000,133411.8281250000,144250.6406250000,,,
1.5639999975,12,146778.7031250000,193906.1406250000,176163.7031250000,148108.2812500000,119737.7187500000,151756.0781250000,133493.6093750000,144394.9375000000,,,
1.5679999974,12,146573.9687500000,193790.9375000000,175021.5625000000,147740.7656250000,119517.4296875000,151623.4531250000,133317.0468750000,144191.1562500000,,,
1.5719999974,12,146406.6093750000,194053.5000000000,173308.8906250000,147432.9531250000,119425.3437500000,151498.5937500000,133272.3593750000,144037.1406250000,,,
1.5759999973,12,146457.8906250000,194410.2968750000,173435.0312500000,147582.2187500000,119433.4218750000,151541.5625000000,133259.8281250000,144054.8437500000,,,
1.5799999975,12,146701.8125000000,194271.3750000000,175084.7031250000,147987.7187500000,119619.6171875000,151761.9843750000,133463.7031250000,144276.1250000000,,,
1.5839999975,12,146847.1875000000,193928.7343750000,176200.4218750000,148126.8125000000,119796.2656250000,151842.3750000000,133563.0625000000,144458.2500000000,,,
1.5879999974,12,146642.0937500000,193794.8281250000,175114.2343750000,147747.8437500000,119643.1718750000,151684.5468750000,133576.1718750000,144264.3437500000,,,
1.5919999974,12,146392.1250000000,194025.6562500000,173316.0000000000,147420.2031250000,119356.8125000000,151518.0312500000,133165.1562500000,144024.5625000000,,,
1.5959999973,12,146455.6562500000,194368.4531250000,173414.0312500000,147572.9062500000,119411.9921875000,151463.7500000000,133103.6718750000,144075.5000000000,,,
1.5999999973,12,146707.1718750000,194234.8437500000,175094.7031250000,147970.7343750000,119638.8203125000,151712.8906250000,133387.2656250000,144293.0468750000,,,
1.6039999975,12,146831.0625000000,193892.8437500000,176226.2187500000,148095.1875000000,119818.8828125000,151883.4375000000,133717.4375000000,144428.9062500000,,,
1.6079999974,12,146618.4218750000,193753.8750000000,175121.2968750000,147724.6875000000,119612.1640625000,151719.5781250000,133320.6406250000,144230.6093750000,,,
1.6119999974,12,146385.2187500000,193985.8593750000,173307.1250000000,147399.5000000000,119324.6796875000,151389.3125000000,133109.8125000000,144015.3593750000,,,
1.6159999974,12,146446.3750000000,194332.8906250000,173371.2500000000,147550.1093750000,119349.0078125000,151514.0312500000,133115.0000000000,144077.0000000000,,,
1.6199999973,12,146734.2656250000,194223.3750000000,175076.5000000000,147977.0625000000,119673.5078125000,151778.1875000000,133624.6093750000,144344.0156250000,,,
1.6239999975,12,146845.5468750000,193890.5000000000,176214.0781250000,148134.7031250000,119784.5781250000,151903.6250000000,133572.9843750000,144478.9531250000,,,
1.6279999975,12,146570.7500000000,193742.1250000000,175074.5937500000,147747.5156250000,119483.7656250000,151593.0312500000,133245.2656250000,144145.6562500000,,,
1.6319999974,12,146378.5781250000,193978.6718750000,173293.0625000000,147393.7031250000,119333.9921875000,151421.0468750000,133118.5937500000,144000.8281250000,,,
1.6359999974,12,146473.8750000000,194343.1250000000,173391.0312500000,147553.3750000000,119429.7187500000,151551.5625000000,133265.2187500000,144110.9843750000,,,
1.6399999973,12,146723.4843750000,194236.5625000000,175082.2031250000,147975.9062500000,119684.9609375000,151794.5468750000,133577.3750000000,144296.8906250000,,,
1.6439999973,12,146784.7343750000,193884.1562500000,176176.8437500000,148096.5781250000,119724.4140625000,151785.4531250000,133454.1562500000,144377.4531250000,,,
1.6479999975,12,146582.7968750000,193739.8125000000,175075.9062500000,147735.1250000000,119530.2734375000,151632.8125000000,133382.0937500000,144189.3750000000,,,
1.6519999974,12,146373.0781250000,193968.9531250000,173288.2656250000,147386.3906250000,119354.1328125000,151471.0937500000,133200.7656250000,143998.3593750000,,,
1.6559999974,12,146466.5468750000,194341.8906250000,173384.7187500000,147544.2812500000,119463.2187500000,151538.5000000000,133211.4218750000,144103.9062500000,,,
1.6599999974,12,146692.4218750000,194238.0625000000,175031.9687500000,147969.1562500000,119607.5234375000,151717.5312500000,133365.7812500000,144297.6562500000,,,
1.6639999973,13,146789.9375000000,193890.8281250000,176149.1093750000,148080.6562500000,119727.3359375000,151823.0625000000,133513.0000000000,144386.5781250000,,,
1.6679999973,13,146587.6562500000,193754.8437500000,175092.6406250000,147702.5156250000,119556.4765625000,151625.6718750000,133377.0781250000,144190.4062500000,,,
1.6719999972,13,146376.1875000000,193994.3906250000,173292.7812500000,147363.3125000000,119344.5546875000,151486.5937500000,133243.0468750000,144025.0937500000,,,
1.6759999972,13,146442.0937500000,194364.0468750000,173346.0625000000,147530.2656250000,119399.3046875000,151452.7968750000,133270.2656250000,144078.5468750000,,,
1.6799999971,13,146658.5625000000,194243.2656250000,174985.5468750000,147942.5625000000,119583.7031250000,151673.6562500000,133329.2187500000,144266.7343750000,,,
1.6839999971,13,146771.6718750000,193900.6250000000,176134.3906250000,148066.9687500000,119726.8281250000,151829.0312500000,133587.4375000000,144352.5156250000,,,
1.6879999973,13,146614.2343750000,193757.3593750000,175116.8593750000,147734.4531250000,119585.6640625000,151632.1093750000,133379.3281250000,144216.8125000000,,,
1.6919999972,13,146371.6250000000,193965.7656250000,173277.9687500000,147382.7968750000,119303.3046875000,151478.5312500000,133053.6718750000,144000.5468750000,,,
1.6959999972,13,146417.6875000000,194316.2500000000,173297.5781250000,147517.9687500000,119358.2890625000,151487.2187500000,133166.2812500000,144035.1875000000,,,
1.6999999972,13,146664.3593750000,194230.3125000000,174960.2968750000,147933.2656250000,119584.7265625000,151691.6875000000,133416.5625000000,144257.3437500000,,,
1.7039999971,13,146763.9062500000,193900.8906250000,176111.4218750000,148072.2500000000,119688.2578125000,151786.2500000000,133508.9531250000,144355.6562500000,,,
1.7079999973,13,146577.8281250000,193744.7812500000,175073.5937500000,147722.7031250000,119537.6796875000,151620.1250000000,133335.2343750000,144195.3906250000,,,
1.7119999973,13,146384.5468750000,193889.6718750000,173256.6250000000,147388.0781250000,119374.5156250000,151479.7031250000,133169.1250000000,144002.2968750000,,,
1.7159999972,13,146441.3437500000,194201.9687500000,173266.8593750000,147530.6093750000,119396.7812500000,151528.7343750000,133236.6875000000,144059.7500000000,,,
1.7199999972,13,146680.8906250000,194177.4218750000,174949.7656250000,147949.5468750000,119605.7812500000,151760.6875000000,133432.8906250000,144283.9531250000,,,
1.7239999971,13,146769.0468750000,193943.6718750000,176138.8437500000,148083.1406250000,119692.1171875000,151794.4687500000,133522.7968750000,144367.2343750000,,,
1.7279999971,13,146586.2500000000,193802.4531250000,175109.3593750000,147727.0468750000,119545.0234375000,151635.3593750000,133401.3125000000,144199.3125000000,,,
1.7319999973,13,146390.3281250000,193911.5156250000,173263.8593750000,147400.5156250000,119365.6640625000,151457.4375000000,133158.1718750000,144015.3125000000,,,
1.7359999972,13,146454.1875000000,194208.0000000000,173263.8281250000,147548.4687500000,119418.4765625000,151505.5156250000,133183.1562500000,144079.7656250000,,,
1.7399999972,13,146697.2968750000,194204.3281250000,174959.3437500000,147960.9218750000,119639.5703125000,151743.2343750000,133454.6406250000,144297.1718750000,,,
1.7439999972,13,146783.5937500000,193984.2500000000,176163.8437500000,148100.6093750000,119720.0937500000,151826.1406250000,133569.3593750000,144388.6093750000,,,
1.7479999971,13,146592.6718750000,193831.7187500000,175136.7968750000,147749.6718750000,119550.1250000000,151672.9375000000,133427.6875000000,144217.7812500000,,,
1.7519999973,13,146387.5625000000,193929.3750000000,173285.1093750000,147405.0625000000,119372.6406250000,151478.2656250000,133273.5937500000,144029.5156250000,,,
1.7559999973,13,146440.7500000000,194209.6093750000,173256.6718750000,147532.8125000000,119413.5156250000,151505.9687500000,133289.9843750000,144080.3281250000,,,
1.7599999972,13,146677.4843750000,194208.4843750000,174938.7968750000,147953.9687500000,119610.8750000000,151734.1718750000,133434.6406250000,144284.2187500000,,,
1.7639999972,13,146781.0937500000,193997.4531250000,176161.1875000000,148104.3281250000,119712.6875000000,151819.1406250000,133565.6093750000,144388.3750000000,,,
1.7679999971,13,146613.0000000000,193845.3125000000,175170.3281250000,147767.1875000000,119575.6562500000,151668.7187500000,133432.2500000000,144232.7031250000,,,
1.7719999971,13,146400.1875000000,193926.3125000000,173310.9375000000,147424.0468750000,119382.1328125000,151472.0625000000,133238.9062500000,144033.0312500000,,,
1.7759999973,13,146448.7968750000,194202.4531250000,173266.3281250000,147542.4062500000,119423.6796875000,151507.0312500000,133297.7343750000,144076.9218750000,,,
1.7799999972,13,146713.8281250000,194217.2031250000,174967.5781250000,147971.9375000000,119677.9296875000,151748.6562500000,133561.4531250000,144328.6406250000,,,
1.7839999972,13,146806.7812500000,194017.1093750000,176199.6406250000,148132.2500000000,119738.0390625000,151827.7031250000,133529.3125000000,144416.6406250000,,,
1.7879999971,13,146616.3437500000,193861.7031250000,175196.2812500000,147773.0000000000,119568.7656250000,151678.9062500000,133417.6875000000,144242.4062500000,,,
1.7919999971,14,146436.5937500000,193949.5156250000,173344.1718750000,147422.5468750000,119414.1640625000,151501.6406250000,133271.6406250000,144086.2968750000,,,
1.7959999971,14,146479.2343750000,194234.9843750000,173289.6562500000,147553.9375000000,119445.8359375000,151515.1875000000,133300.0468750000,144118.0937500000,,,
1.7999999970,14,146701.9062500000,194242.3906250000,174957.6250000000,147980.8125000000,119637.3750000000,151725.7500000000,133479.9687500000,144300.9531250000,,,
1.8039999970,14,146825.1093750000,194048.5468750000,176210.3750000000,148148.8906250000,119756.8125000000,151836.2031250000,133609.4531250000,144433.2812500000,,,
1.8079999969,14,146663.4218750000,193899.4062500000,175251.1093750000,147788.1250000000,119639.6562500000,151678.9062500000,133456.9218750000,144303.2968750000,,,
1.8119999969,14,146416.2656250000,193955.4218750000,173368.2812500000,147417.1250000000,119404.5312500000,151483.3750000000,133236.9843750000,144049.6718750000,,,
1.8159999971,14,146446.1093750000,194217.5156250000,173269.9687500000,147548.8281250000,119411.9921875000,151518.9218750000,133272.1406250000,144082.8750000000,,,
1.8199999970,14,146721.5156250000,194247.2343750000,174963.7656250000,147990.4687500000,119679.8906250000,151690.2656250000,133531.2187500000,144342.0468750000,,,
1.8239999970,14,146836.7187500000,194068.3593750000,176226.1406250000,148154.6718750000,119770.8671875000,151813.6875000000,133664.3125000000,144471.0625000000,,,
1.8279999970,14,146623.0625000000,193900.9375000000,175250.7031250000,147792.1562500000,119593.6796875000,151661.0781250000,133491.5781250000,144233.1875000000,,,
1.8319999969,14,146420.6562500000,193957.0000000000,173363.9375000000,147442.1562500000,119392.4062500000,151472.3281250000,133234.8906250000,144044.3750000000,,,
1.8359999971,14,146474.9218750000,194231.6875000000,173298.8906250000,147549.9687500000,119470.5156250000,151496.2031250000,133334.3437500000,144114.0312500000,,,
1.8399999971,14,146693.9687500000,194252.2031250000,174957.5468750000,147974.6250000000,119649.0937500000,151727.5156250000,133528.0000000000,144303.9062500000,,,
1.8439999970,14,146808.3750000000,194061.3593750000,176209.8593750000,148152.9687500000,119737.6093750000,151840.2187500000,133570.7031250000,144419.2968750000,,,
1.8479999970,14,146632.7968750000,193908.9375000000,175266.7968750000,147795.6093750000,119598.7812500000,151669.2656250000,133442.8125000000,144267.8281250000,,,
1.8519999969,14,146412.1250000000,193963.1875000000,173379.1093750000,147423.1875000000,119402.6015625000,151430.9218750000,133218.7343750000,144034.6250000000,,,
1.8559999969,14,146453.7031250000,194236.1875000000,173269.9218750000,147563.3281250000,119433.9843750000,151483.7031250000,133249.9843750000,144086.6562500000,,,
1.8599999971,14,146696.8750000000,194264.2500000000,174931.9062500000,147999.5156250000,119652.6328125000,151686.3906250000,133522.5000000000,144305.3593750000,,,
1.8639999970,14,146831.2968750000,194084.6250000000,176226.0156250000,148153.6875000000,119785.2734375000,151820.6406250000,133663.3125000000,144448.7500000000,,,
1.8679999970,14,146648.4375000000,193926.6562500000,175295.2031250000,147807.9687500000,119628.7656250000,151652.2500000000,133504.8281250000,144279.7968750000,,,
1.8719999969,14,146424.8906250000,193970.8437500000,173401.9062500000,147446.2812500000,119410.8359375000,151483.6250000000,133257.1718750000,144035.1562500000,,,
1.8759999969,14,146467.7812500000,194245.7656250000,173268.1718750000,147553.4062500000,119432.4531250000,151509.5000000000,133325.5937500000,144096.8437500000,,,
1.8799999971,14,146698.7500000000,194276.7500000000,174923.6875000000,147981.8906250000,119651.6718750000,151691.4687500000,133537.3593750000,144312.4062500000,,,
1.8839999971,14,146800.2968750000,194076.1406250000,176199.7500000000,148150.7968750000,119733.1015625000,151772.6562500000,133562.3281250000,144407.3906250000,,,
1.8879999970,14,146638.4062500000,193911.4843750000,175286.0312500000,147807.2031250000,119605.4062500000,151661.6718750000,133440.2968750000,144256.0937500000,,,
1.8919999970,14,146432.1875000000,193971.9843750000,173412.3750000000,147437.2656250000,119443.5859375000,151487.6250000000,133262.5937500000,144070.6875000000,,,
1.8959999969,14,146503.9687500000,194260.5156250000,173299.0312500000,147593.7968750000,119493.9843750000,151535.9531250000,133377.9062500000,144146.4062500000,,,
1.8999999969,14,146711.3593750000,194287.9062500000,174924.1718750000,148018.2031250000,119653.8203125000,151704.9062500000,133524.7031250000,144352.9375000000,,,
1.9039999971,14,146807.7500000000,194091.0625000000,176209.2968750000,148165.3281250000,119751.6093750000,151836.5468750000,133681.0156250000,144429.1718750000,,,
1.9079999970,14,146645.7500000000,193926.5781250000,175316.7968750000,147857.5468750000,119633.3515625000,151717.1875000000,133512.9062500000,144266.3593750000,,,
1.9119999970,14,146422.0468750000,193994.6250000000,173422.7500000000,147431.7656250000,119406.8906250000,151415.6250000000,133216.4843750000,144078.1250000000,,,
1.9159999969,14,146443.2656250000,194270.4375000000,173254.6562500000,147528.6562500000,119410.1953125000,151485.4218750000,133260.2968750000,144072.2812500000,,,
1.9199999969,15,146728.3906250000,194285.7031250000,174927.4687500000,147982.7500000000,119702.1250000000,151721.4843750000,133589.3437500000,144321.9843750000,,,
1.9239999969,15,146861.2968750000,194080.5625000000,176258.1406250000,148177.2968750000,119836.4765625000,151831.5781250000,133681.2812500000,144469.6406250000,,,
1.9279999968,15,146676.8906250000,193938.8125000000,175362.9843750000,147832.0937500000,119634.7187500000,151718.4218750000,133469.3906250000,144308.9843750000,,,
1.9319999968,15,146436.0000000000,194025.1250000000,173457.4843750000,147471.3593750000,119412.9531250000,151495.5625000000,133295.9375000000,144089.0468750000,,,
1.9359999967,15,146515.9062500000,194327.5156250000,173323.9218750000,147610.6250000000,119493.1796875000,151565.8593750000,133359.0468750000,144153.2812500000,,,
1.9399999967,15,146744.3437500000,194309.6875000000,174943.6406250000,147987.5156250000,119716.4765625000,151761.6406250000,133563.0781250000,144352.5625000000,,,
1.9439999969,15,146845.2031250000,194054.6562500000,176243.7187500000,148163.1875000000,119803.4843750000,151821.2656250000,133673.5312500000,144444.3593750000,,,
1.9479999968,15,146646.8437500000,193888.1406250000,175335.7343750000,147836.4687500000,119603.9843750000,151676.5468750000,133493.6718750000,144265.2031250000,,,
1.9519999968,15,146475.6718750000,194020.5937500000,173497.0468750000,147457.3281250000,119470.8125000000,151506.8281250000,133344.4531250000,144103.7968750000,,,
1.9559999967,15,146492.5625000000,194330.0156250000,173328.2031250000,147506.3281250000,119477.7031250000,151515.2968750000,133350.5781250000,144127.0781250000,,,
1.9599999967,15,146752.2812500000,194325.2343750000,174930.2656250000,147993.1250000000,119696.3828125000,151746.5625000000,133550.5625000000,144381.9375000000,,,
1.9639999969,15,146840.2812500000,194063.9687500000,176227.6718750000,148146.2343750000,119785.0000000000,151804.4218750000,133627.7031250000,144474.8750000000,,,
1.9679999969,15,146653.5781250000,193906.9687500000,175352.7656250000,147765.8906250000,119620.8828125000,151667.1718750000,133474.8125000000,144303.9843750000,,,
1.9719999968,15,146412.8281250000,194019.7343750000,173474.5468750000,147392.9062500000,119417.7578125000,151496.3437500000,133303.3437500000,144027.7812500000,,,
1.9759999968,15,146535.2343750000,194365.5312500000,173334.4531250000,147496.2968750000,119528.2656250000,151563.7656250000,133404.0781250000,144166.0937500000,,,
1.9799999967,15,146799.4375000000,194358.2343750000,174957.4062500000,147974.6250000000,119771.3281250000,151804.0937500000,133606.6718750000,144414.3125000000,,,
1.9839999967,15,146813.0312500000,194046.3437500000,176198.5781250000,148075.0156250000,119774.8671875000,151814.7656250000,133608.2031250000,144434.3125000000,,,
1.9879999969,15,146640.5937500000,193874.8750000000,175343.3750000000,147746.1562500000,119628.0937500000,151659.6250000000,133482.9062500000,144272.5781250000,,,
1.9919999968,15,146454.5312500000,194017.8593750000,173491.5000000000,147406.2656250000,119453.2421875000,151500.3906250000,133337.1562500000,144106.4687500000,,,
1.9959999968,15,146481.1718750000,194346.7500000000,173287.3906250000,147496.2968750000,119453.7500000000,151517.0156250000,133350.9531250000,144127.7968750000,,,
1.9999999967,15,146764.0937500000,194313.7031250000,174893.5468750000,147917.5781250000,119722.3437500000,151758.9218750000,133626.8906250000,144355.0000000000,,,
2.0039999967,15,146871.1093750000,194029.2031250000,176215.0937500000,148094.8593750000,119820.9453125000,151856.0000000000,133722.2968750000,144490.1562500000,,,
2.0079999969,15,146644.3750000000,193863.5468750000,175361.7500000000,147706.5312500000,119632.9453125000,151671.6406250000,133467.2500000000,144295.4687500000,,,
2.0119999968,15,146416.9531250000,193999.9375000000,173470.8437500000,147340.6250000000,119410.9687500000,151481.6093750000,133280.0000000000,144065.8125000000,,,
2.0159999968,15,146470.5937500000,194331.4843750000,173249.7812500000,147472.1875000000,119457.8515625000,151515.7500000000,133359.9531250000,144125.7343750000,,,
2.0199999968,15,146714.7343750000,194302.8906250000,174837.3437500000,147900.9375000000,119685.5468750000,151745.8281250000,133584.1875000000,144319.4375000000,,,
2.0239999967,15,146822.4218750000,194004.4531250000,176158.6093750000,148028.8281250000,119777.8671875000,151879.4687500000,133695.4843750000,144430.1875000000,,,
2.0279999967,15,146664.7656250000,193834.1562500000,175357.7031250000,147718.8750000000,119649.8203125000,151715.5312500000,133578.5625000000,144306.4531250000,,,
2.0319999969,15,146453.2656250000,193969.7968750000,173488.5000000000,147387.4062500000,119460.8828125000,151503.9062500000,133363.1562500000,144091.6875000000,,,
2.0359999968,15,146479.1875000000,194300.9375000000,173268.1250000000,147487.2968750000,119466.1406250000,151536.4687500000,133369.7187500000,144112.4062500000,,,
2.0399999968,15,146699.7656250000,194225.6406250000,174821.9218750000,147874.5156250000,119653.2031250000,151720.8593750000,133591.9375000000,144320.5937500000,,,
2.0439999967,15,146846.6250000000,193857.9375000000,176168.0156250000,148066.7812500000,119802.0390625000,151838.6093750000,133755.1562500000,144446.4687500000,,,
2.0479999967,16,146641.8593750000,193644.7343750000,175358.3125000000,147765.5781250000,119614.8984375000,151656.6250000000,133501.8281250000,144264.9375000000,,,
2.0519999966,16,146441.0156250000,193800.9218750000,173478.1406250000,147396.2500000000,119443.6953125000,151523.3125000000,133351.2500000000,144107.2031250000,,,
2.0559999966,16,146486.0000000000,194176.1562500000,173269.7343750000,147472.6718750000,119501.2812500000,151565.5156250000,133394.9687500000,144152.4687500000,,,
2.0599999966,16,146694.0625000000,194108.0937500000,174825.3593750000,147883.5937500000,119670.0156250000,151718.2656250000,133589.4843750000,144328.1250000000,,,
2.0639999965,16,146831.6250000000,193718.3593750000,176149.9687500000,148095.4531250000,119782.5859375000,151855.8593750000,133702.4531250000,144453.4218750000,,,
2.0679999965,16,146678.4687500000,193529.7500000000,175387.0625000000,147785.1250000000,119668.1953125000,151690.4531250000,133581.5625000000,144320.3750000000,,,
2.0719999967,16,146456.7343750000,193747.2812500000,173519.6406250000,147396.6562500000,119465.0937500000,151526.7187500000,133373.5937500000,144119.4218750000,,,
2.0759999966,16,146463.9531250000,194134.7812500000,173259.3281250000,147473.6093750000,119450.0468750000,151529.2968750000,133361.1406250000,144119.7812500000,,,
2.0799999966,16,146702.8593750000,194035.5312500000,174809.7812500000,147894.7500000000,119668.1953125000,151731.5625000000,133587.1406250000,144326.5468750000,,,
2.0839999965,16,146856.8437500000,193634.7343750000,176173.0312500000,148090.8750000000,119820.5390625000,151869.4843750000,133750.5781250000,144487.8281250000,,,
2.0879999965,16,146687.7187500000,193467.9843750000,175430.2500000000,147775.4218750000,119697.5078125000,151725.2968750000,133635.5000000000,144311.0781250000,,,
2.0919999967,16,146457.2187500000,193700.6875000000,173550.7812500000,147395.6718750000,119471.1328125000,151518.8437500000,133354.9218750000,144106.5468750000,,,
2.0959999966,16,146458.9843750000,194118.7031250000,173273.1093750000,147469.1875000000,119446.7734375000,151498.6406250000,133349.8281250000,144098.6718750000,,,
2.0999999966,16,146698.2187500000,194070.3281250000,174819.0625000000,147872.7812500000,119675.6250000000,151716.5781250000,133574.9062500000,144312.0156250000,,,
2.1039999966,16,146842.9375000000,193697.8437500000,176172.9843750000,148088.3750000000,119815.6875000000,151861.6875000000,133714.3281250000,144456.0937500000,,,
2.1079999965,16,146677.6406250000,193553.8906250000,175436.1875000000,147788.9375000000,119669.6406250000,151717.5312500000,133593.3593750000,144321.1250000000,,,
2.1119999965,16,146450.3281250000,193835.9218750000,173566.3906250000,147425.6562500000,119460.8593750000,151507.3593750000,133379.9218750000,144104.9218750000,,,
2.1159999967,16,146430.0937500000,194291.5781250000,173261.8437500000,147458.6406250000,119422.1015625000,151471.9218750000,133321.3906250000,144082.8125000000,,,
2.1199999966,16,146685.4218750000,194220.5312500000,174792.9531250000,147863.3906250000,119660.5781250000,151706.3593750000,133554.3593750000,144290.1562500000,,,
2.1239999966,16,146824.1718750000,193803.0156250000,176159.7031250000,148072.3125000000,119787.9531250000,151822.8906250000,133710.5312500000,144430.8125000000,,,
2.1279999965,16,146670.2968750000,193627.1406250000,175420.7656250000,147777.2968750000,119649.2031250000,151701.1562500000,133580.8906250000,144304.9531250000,,,
2.1319999965,16,146480.1250000000,193881.7812500000,173558.9531250000,147418.1406250000,119485.0000000000,151561.7343750000,133396.8125000000,144137.2343750000,,,
2.1359999967,16,146457.2656250000,194290.9062500000,173248.2500000000,147483.2656250000,119451.7656250000,151540.0781250000,133387.2343750000,144121.0625000000,,,
2.1399999966,16,146695.9062500000,194198.7656250000,174769.0937500000,147891.7656250000,119675.3046875000,151700.8593750000,133562.7031250000,144323.4687500000,,,
2.1439999966,16,146828.5468750000,193786.5781250000,176139.3281250000,148105.0781250000,119797.9296875000,151831.0468750000,133715.3281250000,144437.0312500000,,,
2.1479999966,16,146629.5000000000,193605.2031250000,175389.0312500000,147778.1718750000,119601.3515625000,151667.8437500000,133520.5937500000,144255.6875000000,,,
2.1519999965,16,146422.6406250000,193863.7031250000,173510.8125000000,147393.8750000000,119425.1875000000,151499.9375000000,133340.0312500000,144078.8125000000,,,
2.1559999965,16,146465.4531250000,194314.8906250000,173224.6250000000,147477.8281250000,119461.7421875000,151516.4218750000,133380.5000000000,144107.3593750000,,,
2.1599999967,16,146719.1562500000,194272.9843750000,174771.7187500000,147892.7812500000,119703.4921875000,151738.8281250000,133602.2968750000,144338.2187500000,,,
2.1639999966,16,146845.5781250000,193879.1562500000,176169.0625000000,148102.0468750000,119828.5078125000,151829.9218750000,133676.5468750000,144451.1718750000,,,
2.1679999966,16,146660.8437500000,193682.5781250000,175445.1875000000,147782.3125000000,119647.3828125000,151691.3593750000,133536.3906250000,144298.5156250000,,,
2.1719999965,16,146426.2343750000,193872.5312500000,173522.9062500000,147383.2968750000,119426.3359375000,151481.7500000000,133374.9062500000,144085.0937500000,,,
2.1759999965,17,146447.9375000000,194269.0156250000,173196.3750000000,147454.1718750000,119434.9453125000,151491.3750000000,133355.4062500000,144096.8750000000,,,
2.1799999964,17,146681.5781250000,194235.1093750000,174729.2656250000,147880.6406250000,119650.1171875000,151678.4843750000,133521.2968750000,144297.7968750000,,,
2.1839999964,17,146812.2812500000,193870.0625000000,176123.2812500000,148086.3125000000,119764.9687500000,151806.5000000000,133658.6562500000,144419.2500000000,,,
2.1879999964,17,146669.5625000000,193681.0781250000,175427.0937500000,147780.5937500000,119642.3671875000,151695.3750000000,133562.2187500000,144294.3906250000,,,
2.1919999963,17,146479.9531250000,193858.0781250000,173541.5781250000,147418.2031250000,119484.1640625000,151524.3125000000,133416.5000000000,144123.0468750000,,,
2.1959999963,17,146480.3593750000,194258.2343750000,173211.7187500000,147459.8593750000,119481.2734375000,151524.7968750000,133401.3750000000,144118.0625000000,,,
2.1999999965,17,146684.6406250000,194291.0468750000,174749.4843750000,147878.8593750000,119651.4296875000,151686.4843750000,133567.4843750000,144297.0937500000,,,
2.2039999964,17,146819.2812500000,194012.0312500000,176173.3125000000,148087.6718750000,119764.7500000000,151803.8750000000,133689.3281250000,144435.7343750000,,,
2.2079999964,17,146644.9375000000,193805.1250000000,175471.7500000000,147784.5000000000,119622.8125000000,151660.7812500000,133528.0781250000,144271.2968750000,,,
2.2119999963,17,146428.0625000000,193876.2031250000,173524.6250000000,147399.9375000000,119434.9218750000,151476.1093750000,133313.6093750000,144064.7656250000,,,
2.2159999963,17,146439.3593750000,194194.4843750000,173143.5312500000,147445.2812500000,119422.3125000000,151488.3906250000,133322.2812500000,144084.8593750000,,,
2.2199999965,17,146682.7968750000,194229.4062500000,174698.9531250000,147845.6093750000,119643.2500000000,151695.8593750000,133545.4062500000,144309.1718750000,,,
2.2239999964,17,146816.2343750000,193966.4687500000,176162.0625000000,148065.8125000000,119776.9843750000,151817.5781250000,133659.8281250000,144430.2968750000,,,
2.2279999964,17,146666.4062500000,193775.0937500000,175495.8593750000,147778.7187500000,119650.8906250000,151691.5156250000,133545.4062500000,144290.3593750000,,,
2.2319999964,17,146443.8281250000,193853.2812500000,173546.8906250000,147395.9375000000,119446.8828125000,151494.1093750000,133344.4062500000,144080.4843750000,,,
2.2359999963,17,146446.3281250000,194174.8750000000,173150.9062500000,147461.8125000000,119434.4375000000,151484.4843750000,133341.9843750000,144080.9062500000,,,
2.2399999963,17,146674.6562500000,194222.3750000000,174695.2812500000,147867.7656250000,119637.3515625000,151681.1875000000,133528.1093750000,144291.0312500000,,,
2.2439999965,17,146819.2031250000,193968.1562500000,176166.5937500000,148072.7968750000,119782.7265625000,151804.9531250000,133666.0468750000,144427.8281250000,,,
2.2479999964,17,146690.1406250000,193790.0312500000,175532.9531250000,147787.4375000000,119683.3750000000,151700.4843750000,133568.0156250000,144313.0625000000,,,
2.2519999964,17,146440.6875000000,193886.7968750000,173572.4218750000,147403.8437500000,119444.2265625000,151489.1250000000,133334.4062500000,144087.6406250000,,,
2.2559999963,17,146451.3437500000,194227.1562500000,173163.8750000000,147452.6562500000,119441.4921875000,151480.7187500000,133367.2343750000,144098.8281250000,,,
2.2599999963,17,146665.2968750000,194254.2343750000,174682.6718750000,147857.1406250000,119630.3203125000,151668.6875000000,133549.7500000000,144296.9843750000,,,
2.2639999965,17,146822.5000000000,193976.6875000000,176158.5312500000,148087.7812500000,119781.1953125000,151822.6875000000,133679.3281250000,144436.2031250000,,,
2.2679999964,17,146692.9062500000,193792.3437500000,175534.3281250000,147806.8281250000,119672.8906250000,151712.0625000000,133589.3437500000,144318.6406250000,,,
2.2719999964,17,146475.9062500000,193919.9375000000,173612.5156250000,147412.1562500000,119485.3750000000,151513.5625000000,133403.7812500000,144119.2968750000,,,
2.2759999963,17,146467.8437500000,194277.9531250000,173192.4843750000,147457.4843750000,119464.3984375000,151487.4375000000,133371.4375000000,144112.5937500000,,,
2.2799999963,17,146683.5468750000,194296.1406250000,174703.4843750000,147860.4062500000,119652.5000000000,151670.6718750000,133542.7187500000,144310.9843750000,,,
2.2839999963,17,146826.7187500000,193989.8281250000,176179.0937500000,148079.0625000000,119791.7343750000,151821.8750000000,133686.2187500000,144449.4687500000,,,
2.2879999964,17,146680.0468750000,193793.2812500000,175556.7500000000,147799.8281250000,119657.0625000000,151687.2031250000,133557.2656250000,144305.2500000000,,,
2.2919999964,17,146470.8750000000,193929.4531250000,173631.9687500000,147403.3437500000,119485.6953125000,151508.4375000000,133362.8906250000,144122.7812500000,,,
2.2959999964,17,146477.4062500000,194297.4531250000,173207.1875000000,147451.8125000000,119479.0937500000,151510.2031250000,133385.3906250000,144117.0625000000,,,
2.2999999963,17,146713.1250000000,194311.2968750000,174722.0625000000,147877.8750000000,119685.7890625000,151728.4531250000,133601.6562500000,144344.9218750000,,,
2.3039999963,18,146810.0000000000,193983.5468750000,176177.8125000000,148086.5000000000,119771.4843750000,151800.9218750000,133652.9062500000,144433.3593750000,,,
2.3079999962,18,146662.8593750000,193780.4062500000,175559.9375000000,147789.3281250000,119642.3906250000,151685.1562500000,133546.5625000000,144285.1875000000,,,
2.3119999962,18,146430.8750000000,193934.9531250000,173622.1718750000,147395.0781250000,119435.3203125000,151473.2500000000,133358.2968750000,144070.8750000000,,,
2.3159999961,18,146441.1562500000,194315.1562500000,173176.6093750000,147445.3750000000,119435.8046875000,151471.7968750000,133366.7500000000,144084.5000000000,,,
2.3199999961,18,146681.9843750000,194324.8437500000,174686.7500000000,147859.7968750000,119657.6250000000,151676.3593750000,133569.9843750000,144307.1562500000,,,
2.3239999961,18,146826.6406250000,193985.0468750000,176177.4062500000,148089.1250000000,119794.1796875000,151815.2968750000,133710.7968750000,144446.1718750000,,,
2.3279999963,18,146686.9531250000,193782.7812500000,175590.3281250000,147804.4375000000,119664.7343750000,151710.2500000000,133586.6562500000,144325.5625000000,,,
2.3319999962,18,146453.7500000000,193939.2343750000,173654.2812500000,147402.2187500000,119455.8437500000,151513.2812500000,133356.3593750000,144116.6718750000,,,
2.3359999962,18,146453.0000000000,194316.8437500000,173194.8437500000,147450.1406250000,119449.5937500000,151496.9843750000,133358.3281250000,144101.2500000000,,,
2.3399999961,18,146674.1718750000,194325.5000000000,174682.9062500000,147851.9375000000,119643.9218750000,151659.8750000000,133550.7656250000,144301.0937500000,,,
2.3439999961,18,146833.7500000000,193989.4843750000,176183.0468750000,148095.2343750000,119797.3437500000,151812.0781250000,133701.6718750000,144454.0937500000,,,
2.3479999963,18,146685.4218750000,193787.9062500000,175610.7343750000,147802.9531250000,119671.8984375000,151699.5937500000,133579.0156250000,144328.4218750000,,,
2.3519999962,18,146444.2343750000,193949.5468750000,173671.0781250000,147384.6718750000,119458.7109375000,151484.2968750000,133359.3906250000,144105.6093750000,,,
2.3559999962,18,146452.2343750000,194352.1875000000,173210.2187500000,147434.8593750000,119459.5468750000,151478.2031250000,133332.2500000000,144105.6093750000,,,
2.3599999961,18,146677.0000000000,194361.0468750000,174692.8125000000,147854.1093750000,119653.3593750000,151679.8750000000,133542.1875000000,144309.7656250000,,,
2.3639999961,18,146816.8437500000,194004.3125000000,176185.2968750000,148074.5000000000,119778.5937500000,151801.4062500000,133700.0312500000,144442.4531250000,,,
2.3679999961,18,146685.2500000000,193795.0781250000,175632.3593750000,147794.3750000000,119669.7187500000,151701.7656250000,133592.6093750000,144324.8125000000,,,
2.3719999962,18,146465.6406250000,193961.5781250000,173707.8437500000,147392.1875000000,119479.7656250000,151504.1406250000,133387.5937500000,144121.2500000000,,,
2.3759999962,18,146457.5937500000,194359.2968750000,173226.0937500000,147419.0781250000,119469.5781250000,151479.4843750000,133372.5468750000,144112.5625000000,,,
2.3799999962,18,146689.1718750000,194371.2187500000,174703.3750000000,147823.4218750000,119667.9531250000,151690.8437500000,133566.4375000000,144326.2343750000,,,
2.3839999961,18,146831.6718750000,194002.1718750000,176204.4218750000,148070.1093750000,119798.1718750000,151821.5468750000,133693.1250000000,144457.6250000000,,,
2.3879999961,18,146693.8593750000,193777.5000000000,175660.5000000000,147789.5781250000,119681.1718750000,151706.8906250000,133566.3593750000,144330.0312500000,,,
2.3919999963,18,146467.6250000000,193943.6406250000,173728.7656250000,147387.2968750000,119477.7031250000,151509.6875000000,133363.5781250000,144120.6875000000,,,
2.3959999962,18,146456.5156250000,194349.7031250000,173226.2812500000,147418.7656250000,119458.6093750000,151479.4062500000,133355.4843750000,144108.7031250000,,,
2.3999999962,18,146695.6093750000,194353.5156250000,174694.7343750000,147837.5625000000,119671.4140625000,151691.9218750000,133573.1406250000,144321.4531250000,,,
2.4039999961,18,146837.4531250000,193978.0312500000,176202.9218750000,148073.8906250000,119802.1953125000,151829.8906250000,133695.1093750000,144458.5937500000,,,
2.4079999961,18,146688.1875000000,193746.6562500000,175662.9062500000,147797.3593750000,119677.7421875000,151707.8593750000,133567.9687500000,144327.1406250000,,,
2.4119999961,18,146463.3906250000,193914.4843750000,173731.7187500000,147399.7187500000,119476.9765625000,151510.0625000000,133382.9531250000,144123.5937500000,,,
2.4159999962,18,146448.1718750000,194326.3906250000,173207.0468750000,147431.8750000000,119443.2890625000,151490.3593750000,133351.5312500000,144115.5156250000,,,
2.4199999962,18,146670.7500000000,194324.8125000000,174653.6406250000,147838.1562500000,119639.0937500000,151678.7500000000,133545.7031250000,144311.8437500000,,,
2.4239999962,18,146829.1250000000,193948.9843750000,176176.9531250000,148082.8437500000,119789.5625000000,151819.1093750000,133694.9687500000,144456.0937500000,,,
2.4279999961,18,146690.0625000000,193725.4687500000,175670.2500000000,147805.9375000000,119674.7343750000,151702.8437500000,133577.5937500000,144326.1406250000,,,
2.4319999961,19,146458.0937500000,193886.4062500000,173737.9687500000,147394.2187500000,119470.5390625000,151501.8593750000,133375.3906250000,144110.9218750000,,,
2.4359999960,19,146454.4843750000,194288.7656250000,173210.7500000000,147424.6093750000,119460.5625000000,151485.9062500000,133368.9687500000,144108.0781250000,,,
2.4399999960,19,146686.8437500000,194304.5625000000,174663.8906250000,147835.7968750000,119671.0078125000,151685.4843750000,133536.6875000000,144316.4843750000,,,
2.4439999959,19,146856.5625000000,193944.2500000000,176200.0468750000,148079.0937500000,119833.3906250000,151835.3906250000,133683.8906250000,144481.1250000000,,,
2.4479999959,19,146699.1250000000,193721.2656250000,175698.6406250000,147794.5156250000,119688.7421875000,151708.1562500000,133598.7812500000,144343.6093750000,,,
2.4519999959,19,146452.7343750000,193865.5937500000,173754.7343750000,147381.8750000000,119467.6171875000,151488.7968750000,133390.9375000000,144112.2343750000,,,
2.4559999960,19,146463.5937500000,194259.7656250000,173223.7031250000,147404.5156250000,119475.5859375000,151481.7500000000,133394.4843750000,144118.9687500000,,,
2.4599999960,19,146715.4531250000,194285.1406250000,174686.1875000000,147836.1406250000,119699.9531250000,151706.3750000000,133602.0781250000,144350.2343750000,,,
2.4639999960,19,146840.7500000000,193919.1562500000,176200.5312500000,148075.3437500000,119807.4531250000,151824.6093750000,133690.1093750000,144472.2187500000,,,
2.4679999959,19,146712.2656250000,193696.6875000000,175723.5781250000,147806.5000000000,119697.7812500000,151710.7187500000,133601.2031250000,144356.8593750000,,,
2.4719999959,19,146464.3281250000,193830.8593750000,173785.0937500000,147387.4531250000,119474.9140625000,151489.4218750000,133385.3281250000,144121.9843750000,,,
2.4759999961,19,146454.1875000000,194212.0000000000,173224.4375000000,147406.5312500000,119456.7031250000,151478.4218750000,133366.3906250000,144102.2031250000,,,
2.4799999960,19,146689.2500000000,194239.1093750000,174658.0937500000,147818.4687500000,119667.7343750000,151674.5937500000,133569.8125000000,144312.7031250000,,,
2.4839999960,19,146854.3125000000,193906.5468750000,176201.7343750000,148077.6406250000,119823.3046875000,151827.0781250000,133713.6093750000,144469.5937500000,,,
2.4879999959,19,146719.2968750000,193689.3750000000,175740.0468750000,147821.3281250000,119712.8281250000,151712.5468750000,133613.0312500000,144351.2500000000,,,
2.4919999959,19,146478.4375000000,193804.8906250000,173802.9531250000,147385.9843750000,119503.6640625000,151506.2812500000,133385.2343750000,144133.0468750000,,,
2.4959999959,19,146463.2812500000,194165.6406250000,173224.7500000000,147403.0625000000,119481.0000000000,151478.6093750000,133357.3906250000,144123.4531250000,,,
2.4999999960,19,146671.2343750000,194191.8593750000,174636.9843750000,147813.6406250000,119656.0156250000,151662.6093750000,133558.7187500000,144309.6718750000,,,
2.5039999960,19,146840.9375000000,193863.9218750000,176192.2656250000,148109.5625000000,119809.8125000000,151822.8125000000,133735.1250000000,144469.9687500000,,,
2.5079999960,19,146716.6093750000,193640.3437500000,175750.2343750000,147846.8437500000,119702.8984375000,151725.2968750000,133624.6875000000,144361.7187500000,,,
2.5119999959,19,146479.6875000000,193738.6406250000,173820.2500000000,147395.0156250000,119494.1953125000,151525.5468750000,133410.2500000000,144148.7187500000,,,
2.5159999959,19,146439.7500000000,194090.7343750000,173221.9843750000,147394.0781250000,119448.6796875000,151465.0312500000,133366.0000000000,144107.7343750000,,,
2.5199999961,19,146647.0156250000,194147.3750000000,174625.5937500000,147783.7343750000,119630.6406250000,151648.6250000000,133545.8125000000,144284.4687500000,,,
2.5239999960,19,146829.2656250000,193872.6093750000,176193.8281250000,148055.2968750000,119805.7343750000,151811.4687500000,133713.7656250000,144458.4375000000,,,
2.5279999960,19,146697.3593750000,193676.2812500000,175761.7187500000,147787.8906250000,119699.0156250000,151703.8593750000,133582.6875000000,144341.7812500000,,,
2.5319999959,19,146440.1562500000,193782.0625000000,173812.1562500000,147363.1562500000,119466.7890625000,151481.6406250000,133344.2500000000,144103.5000000000,,,
2.5359999959,19,146422.2968750000,194150.7031250000,173203.2656250000,147370.2968750000,119434.0390625000,151451.8593750000,133344.3750000000,144088.6406250000,,,
2.5399999958,19,146660.2812500000,194206.4687500000,174622.1875000000,147789.4375000000,119641.5625000000,151657.5937500000,133553.2656250000,144307.1875000000,,,
2.5439999960,19,146826.0000000000,193892.5937500000,176194.9843750000,148060.6093750000,119789.5078125000,151802.0312500000,133699.1250000000,144462.5625000000,,,
2.5479999960,19,146712.1875000000,193664.1562500000,175787.2500000000,147810.7187500000,119698.6640625000,151713.5156250000,133603.4218750000,144362.9218750000,,,
2.5519999960,19,146486.9687500000,193733.1093750000,173855.4218750000,147401.5156250000,119500.2890625000,151520.8281250000,133391.6093750000,144153.1718750000,,,
2.5559999959,19,146448.6562500000,194062.4687500000,173230.2031250000,147404.5468750000,119458.0390625000,151466.6406250000,133353.8125000000,144113.8437500000,,,
2.5599999959,20,146676.2656250000,194125.8750000000,174634.0625000000,147810.0156250000,119655.4531250000,151663.6562500000,133559.6718750000,144313.7500000000,,,
2.5639999958,20,146858.3906250000,193866.6875000000,176221.3125000000,148069.2500000000,119825.3984375000,151831.7656250000,133731.4531250000,144484.6406250000,,,
2.5679999958,20,146728.3593750000,193671.4218750000,175817.0312500000,147824.0937500000,119719.2656250000,151718.6093750000,133616.8906250000,144364.3437500000,,,
2.5719999957,20,146478.0781250000,193753.8750000000,173860.1718750000,147394.8125000000,119490.8437500000,151505.1562500000,133381.1562500000,144131.2500000000,,,
2.5759999957,20,146446.6718750000,194099.3750000000,173210.6406250000,147399.1875000000,119454.9062500000,151465.0625000000,133346.2343750000,144103.2343750000,,,
2.5799999957,20,146670.9375000000,194188.6875000000,174608.0781250000,147795.7187500000,119650.3046875000,151655.8125000000,133548.2500000000,144308.6562500000,,,
2.5839999958,20,146865.1562500000,193939.5625000000,176217.6093750000,148069.3281250000,119834.5468750000,151835.2812500000,133717.9218750000,144497.5468750000,,,
2.5879999958,20,146732.3906250000,193734.4843750000,175832.0781250000,147816.9687500000,119727.5468750000,151730.2187500000,133598.0312500000,144381.3125000000,,,
2.5919999958,20,146467.3281250000,193788.7968750000,173865.5312500000,147392.6406250000,119492.5390625000,151504.8906250000,133352.7968750000,144134.6406250000,,,
2.5959999957,20,146450.1093750000,194111.5156250000,173207.1875000000,147400.1406250000,119461.3437500000,151476.8593750000,133368.4843750000,144115.0625000000,,,
2.5999999957,20,146661.1718750000,194172.8125000000,174594.3437500000,147787.8906250000,119643.4609375000,151665.4687500000,133573.6250000000,144308.0468750000,,,
2.6039999959,20,146834.1718750000,193905.9218750000,176197.1250000000,148062.5156250000,119807.1562500000,151821.9843750000,133725.4375000000,144474.2656250000,,,
2.6079999958,20,146718.4687500000,193695.7968750000,175834.5937500000,147816.9687500000,119726.8515625000,151729.2031250000,133602.4375000000,144366.6406250000,,,
2.6119999958,20,146478.4843750000,193738.1562500000,173892.8437500000,147391.5937500000,119518.1484375000,151519.8906250000,133382.4062500000,144141.0781250000,,,
2.6159999957,20,146432.7343750000,194044.0312500000,173197.8437500000,147385.5625000000,119452.2187500000,151465.5156250000,133344.8125000000,144096.8125000000,,,
2.6199999957,20,146671.6250000000,194127.4843750000,174583.5312500000,147799.2343750000,119655.5859375000,151668.1093750000,133586.5468750000,144311.2812500000,,,
2.6239999956,20,146845.8125000000,193888.8437500000,176199.6406250000,148074.4218750000,119813.1406250000,151824.6406250000,133748.8750000000,144479.5625000000,,,
2.6279999958,20,146727.3437500000,193700.1718750000,175849.0468750000,147819.4218750000,119718.0312500000,151729.9218750000,133639.2343750000,144374.5937500000,,,
2.6319999958,20,146499.1093750000,193763.5000000000,173911.4843750000,147385.6406250000,119525.8515625000,151528.3906250000,133402.4687500000,144164.5468750000,,,
2.6359999957,20,146453.5937500000,194093.8906250000,173214.9687500000,147374.6718750000,119476.8437500000,151481.8281250000,133314.6093750000,144122.7812500000,,,
2.6399999957,20,146680.0468750000,194201.3750000000,174589.2500000000,147787.0000000000,119674.5234375000,151673.7343750000,133506.9218750000,144327.1093750000,,,
2.6439999957,20,146851.8750000000,193966.5468750000,176203.7500000000,148076.7031250000,119821.0781250000,151826.7812500000,133729.3593750000,144489.3906250000,,,
2.6479999959,20,146743.2968750000,193766.7031250000,175870.6250000000,147862.3125000000,119736.5390625000,151732.0781250000,133677.5000000000,144385.2656250000,,,
2.6519999958,20,146484.2031250000,193803.7343750000,173915.0781250000,147449.6562500000,119501.8671875000,151504.0000000000,133429.1875000000,144143.8593750000,,,
2.6559999958,20,146435.4375000000,194104.1406250000,173186.7656250000,147433.0781250000,119439.4296875000,151445.4218750000,133348.8906250000,144099.1562500000,,,
2.6599999957,20,146644.6250000000,194186.7343750000,174543.5937500000,147827.5000000000,119624.0156250000,151622.8281250000,133516.9531250000,144289.8281250000,,,
2.6639999957,20,146811.9687500000,193939.9687500000,176162.3125000000,148113.0468750000,119776.2890625000,151770.5625000000,133682.0625000000,144446.2343750000,,,
2.6679999956,20,146698.5937500000,193731.2968750000,175841.2968750000,147888.1250000000,119686.4062500000,151679.5625000000,133584.4375000000,144342.3281250000,,,
2.6719999958,20,146456.9687500000,193758.3281250000,173895.8750000000,147474.1250000000,119477.1640625000,151463.5625000000,133350.7656250000,144110.5781250000,,,
2.6759999958,20,146429.0000000000,194062.2968750000,173174.0625000000,147477.9062500000,119440.3359375000,151431.6093750000,133314.6875000000,144087.9062500000,,,
2.6799999957,20,146659.2968750000,194164.3593750000,174535.5468750000,147862.7187500000,119640.5156250000,151629.1875000000,133538.4375000000,144304.7968750000,,,
2.6839999957,20,146840.4531250000,193942.4843750000,176176.7656250000,148145.6406250000,119806.9687500000,151798.8125000000,133709.5000000000,144477.6718750000,,,
2.6879999957,21,146714.5468750000,193745.0781250000,175871.1562500000,147908.7968750000,119703.2265625000,151688.5625000000,133590.3593750000,144355.1406250000,,,
2.6919999956,21,146473.4687500000,193777.2656250000,173921.0781250000,147481.4687500000,119483.6015625000,151471.4218750000,133388.0156250000,144130.6406250000,,,
2.6959999956,21,146428.8593750000,194079.4218750000,173173.0468750000,147456.7656250000,119436.4531250000,151418.5468750000,133335.8437500000,144090.7343750000,,,
2.6999999955,21,146646.7187500000,194186.1718750000,174518.9218750000,147856.7343750000,119630.1875000000,151601.2343750000,133495.5937500000,144290.9062500000,,,
2.7039999955,21,146815.3437500000,193965.2343750000,176153.4062500000,148134.9687500000,119782.3515625000,151745.4531250000,133650.4218750000,144448.2968750000,,,
2.7079999954,21,146708.5625000000,193764.7968750000,175864.8750000000,147901.4218750000,119699.3046875000,151666.1250000000,133539.7187500000,144349.2656250000,,,
2.7119999956,21,146461.9375000000,193783.9375000000,173915.6875000000,147470.5000000000,119478.2421875000,151455.0625000000,133355.7968750000,144116.0156250000,,,
2.7159999956,21,146422.1875000000,194076.8593750000,173158.6406250000,147447.1875000000,119423.5781250000,151406.1875000000,133350.9531250000,144077.3125000000,,,
2.7199999955,21,146635.1562500000,194182.5468750000,174495.0468750000,147835.5156250000,119608.2734375000,151590.5937500000,133534.1718750000,144271.4062500000,,,
2.7239999955,21,146834.0156250000,193975.2031250000,176157.2968750000,148126.4375000000,119800.1875000000,151772.3281250000,133712.1406250000,144459.5312500000,,,
2.7279999955,21,146713.4687500000,193780.1406250000,175881.6093750000,147903.3593750000,119696.6484375000,151667.2968750000,133597.7343750000,144353.3125000000,,,
2.7319999957,21,146466.7968750000,193799.8281250000,173929.1250000000,147468.8437500000,119475.2890625000,151457.1718750000,133375.7031250000,144121.4375000000,,,
2.7359999956,21,146438.4062500000,194100.8437500000,173165.7968750000,147445.7187500000,119441.6015625000,151419.0312500000,133339.0468750000,144092.2656250000,,,
2.7399999956,21,146641.9062500000,194208.5312500000,174490.0625000000,147839.1093750000,119622.6250000000,151587.8281250000,133517.5468750000,144275.1562500000,,,
2.7439999955,21,146804.1250000000,193987.1250000000,176136.0156250000,148124.9531250000,119774.9687500000,151733.7187500000,133670.1875000000,144428.0937500000,,,
2.7479999955,21,146692.1718750000,193784.2343750000,175874.0468750000,147897.2343750000,119681.4140625000,151645.5781250000,133575.5000000000,144329.3593750000,,,
2.7519999954,21,146455.2343750000,193785.0937500000,173927.8906250000,147471.5937500000,119471.0000000000,151437.0625000000,133362.2187500000,144104.3750000000,,,
2.7559999956,21,146419.0156250000,194066.4531250000,173144.6406250000,147440.2187500000,119428.9687500000,151395.9218750000,133318.8437500000,144071.0156250000,,,
2.7599999956,21,146631.1250000000,194186.6250000000,174463.4843750000,147830.4062500000,119613.7187500000,151578.0312500000,133511.7500000000,144266.7031250000,,,
2.7639999955,21,146815.0468750000,193993.1250000000,176129.2343750000,148121.1250000000,119787.6328125000,151743.6875000000,133681.3750000000,144443.8437500000,,,
2.7679999955,21,146712.5937500000,193810.7656250000,175893.0156250000,147894.8281250000,119703.0625000000,151664.1875000000,133580.7656250000,144356.9687500000,,,
2.7719999955,21,146443.7031250000,193816.9843750000,173937.4687500000,147463.4218750000,119457.6953125000,151434.5625000000,133345.3437500000,144106.1562500000,,,
2.7759999956,21,146384.4531250000,194090.6718750000,173119.9843750000,147418.7656250000,119394.9062500000,151387.5781250000,133284.7812500000,144054.2187500000,,,
2.7799999956,21,146610.4531250000,194207.4687500000,174428.2031250000,147819.1406250000,119595.5625000000,151579.4375000000,133494.1562500000,144260.5625000000,,,
2.7839999956,21,146830.2500000000,194024.7500000000,176118.5312500000,148144.3593750000,119797.7734375000,151772.8437500000,133703.2812500000,144466.6406250000,,,
2.7879999955,21,146737.9375000000,193848.1875000000,175911.9843750000,147919.9843750000,119727.0937500000,151702.1718750000,133612.4062500000,144382.8281250000,,,
2.7919999955,21,146467.0000000000,193841.3750000000,173957.9843750000,147459.3125000000,119483.5781250000,151462.2968750000,133362.1562500000,144124.9218750000,,,
2.7959999954,21,146405.9062500000,194119.5625000000,173128.0937500000,147413.8593750000,119416.4921875000,151388.0312500000,133306.1875000000,144065.5937500000,,,
2.7999999956,21,146631.1093750000,194251.7187500000,174434.2968750000,147818.8125000000,119614.4921875000,151582.3281250000,133501.5000000000,144269.8125000000,,,
2.8039999956,21,146822.4218750000,194062.5156250000,176115.7187500000,148130.8125000000,119787.5000000000,151756.5937500000,133687.4531250000,144451.6406250000,,,
2.8079999955,21,146721.5781250000,193868.4843750000,175912.6718750000,147921.3750000000,119705.6875000000,151671.3281250000,133601.0937500000,144359.7031250000,,,
2.8119999955,21,146479.9375000000,193869.1250000000,173978.4531250000,147488.7656250000,119491.8359375000,151465.6718750000,133376.6718750000,144132.2031250000,,,
2.8159999955,22,146445.4375000000,194147.2812500000,173160.0000000000,147438.8281250000,119457.6093750000,151424.3750000000,133335.7656250000,144101.2187500000,,,
2.8199999954,22,146648.4062500000,194265.4062500000,174452.7812500000,147819.2187500000,119638.5546875000,151589.6562500000,133520.9531250000,144285.1093750000,,,
2.8239999954,22,146813.3125000000,194056.9843750000,176121.5937500000,148117.6718750000,119785.5390625000,151743.8750000000,133669.6250000000,144444.1562500000,,,
2.8279999953,22,146716.0156250000,193853.8906250000,175923.8906250000,147908.3437500000,119707.7812500000,151661.1250000000,133571.7187500000,144353.8593750000,,,
2.8319999953,22,146489.1562500000,193853.6718750000,173996.7500000000,147493.8281250000,119506.0781250000,151461.4687500000,133376.2343750000,144139.4375000000,,,
2.8359999952,22,146434.4687500000,194140.9687500000,173151.4687500000,147451.5937500000,119440.4765625000,151413.1562500000,133341.9062500000,144093.6250000000,,,
2.8399999954,22,146637.8593750000,194269.9062500000,174430.0781250000,147833.7500000000,119618.5703125000,151587.8593750000,133524.7812500000,144277.6250000000,,,
2.8439999954,22,146820.5000000000,194065.5781250000,176114.2656250000,148139.0625000000,119789.2109375000,151750.5000000000,133692.5468750000,144447.4687500000,,,
2.8479999953,22,146730.2968750000,193861.6250000000,175940.7812500000,147931.5937500000,119718.8906250000,151681.1718750000,133605.2968750000,144368.3437500000,,,
2.8519999953,22,146484.6875000000,193853.8906250000,174008.6875000000,147495.6562500000,119498.8359375000,151467.6875000000,133388.5781250000,144139.6718750000,,,
2.8559999953,22,146442.0312500000,194137.0781250000,173159.1718750000,147446.3906250000,119451.2031250000,151414.7656250000,133342.8437500000,144098.7812500000,,,
2.8599999954,22,146678.7343750000,194274.7656250000,174451.3750000000,147851.1875000000,119661.2500000000,151611.5625000000,133549.4531250000,144312.7031250000,,,
2.8639999954,22,146844.6406250000,194079.4687500000,176141.9218750000,148148.7500000000,119813.0625000000,151762.1718750000,133689.8750000000,144471.2343750000,,,
2.8679999954,22,146724.5312500000,193879.6718750000,175966.2968750000,147937.0937500000,119713.1484375000,151674.9375000000,133588.8125000000,144367.4843750000,,,
2.8719999953,22,146483.5781250000,193878.4062500000,174037.3281250000,147495.3593750000,119501.8125000000,151468.9531250000,133388.8437500000,144139.0156250000,,,
2.8759999953,22,146431.5000000000,194164.5937500000,173169.7656250000,147447.1406250000,119441.8437500000,151412.8906250000,133333.5937500000,144091.6718750000,,,
2.8799999952,22,146644.6406250000,194298.9531250000,174428.7187500000,147844.0312500000,119623.2656250000,151600.1875000000,133517.5937500000,144290.1718750000,,,
2.8839999954,22,146846.5937500000,194104.1718750000,176134.4218750000,148155.4062500000,119810.0312500000,151786.5468750000,133705.3750000000,144480.6718750000,,,
2.8879999954,22,146736.3281250000,193911.7031250000,175988.8281250000,147940.4218750000,119721.6250000000,151693.0468750000,133614.0781250000,144380.2968750000,,,
2.8919999953,22,146473.3593750000,193906.7812500000,174050.2031250000,147510.1406250000,119490.6562500000,151462.1718750000,133378.3281250000,144130.2187500000,,,
2.8959999953,22,146429.8281250000,194194.7500000000,173170.8437500000,147463.6093750000,119444.4453125000,151419.4843750000,133317.5312500000,144092.1718750000,,,
2.8999999953,22,146646.5781250000,194335.5156250000,174437.2187500000,147823.2343750000,119637.1875000000,151610.2187500000,133491.0468750000,144295.8593750000,,,
2.9039999954,22,146825.2656250000,194135.7968750000,176139.1406250000,148121.3593750000,119801.8750000000,151766.2187500000,133663.6875000000,144467.9062500000,,,
2.9079999954,22,146744.1875000000,193932.9687500000,176012.6406250000,147946.9687500000,119735.5468750000,151703.2343750000,133643.6875000000,144389.0468750000,,,
2.9119999954,22,146482.9843750000,193922.7500000000,174081.8593750000,147521.9218750000,119499.6406250000,151481.2031250000,133420.7187500000,144144.2968750000,,,
2.9159999953,22,146414.8906250000,194194.2656250000,173175.8906250000,147457.8906250000,119428.1328125000,151415.6250000000,133345.1875000000,144081.7968750000,,,
2.9199999953,22,146627.5156250000,194320.3281250000,174422.7343750000,147835.0468750000,119615.1093750000,151598.4218750000,133523.3125000000,144279.0781250000,,,
2.9239999952,22,146827.6562500000,194118.0156250000,176143.6718750000,148154.9218750000,119801.2578125000,151787.0625000000,133704.2812500000,144470.6093750000,,,
2.9279999954,22,146725.4062500000,193912.0937500000,176027.9843750000,147948.2343750000,119718.7500000000,151698.7656250000,133619.4375000000,144374.2343750000,,,
2.9319999954,22,146478.7031250000,193895.3281250000,174105.3281250000,147505.1875000000,119502.0312500000,151484.6718750000,133396.0312500000,144139.0312500000,,,
2.9359999953,22,146422.8281250000,194181.4687500000,173201.9062500000,147440.4375000000,119442.2968750000,151430.9218750000,133337.0312500000,144088.9531250000,,,
2.9399999953,22,146646.5468750000,194321.7500000000,174450.1406250000,147840.7031250000,119642.9843750000,151620.6250000000,133540.6562500000,144294.0156250000,,,
2.9439999952,23,146838.9531250000,194119.7031250000,176177.2187500000,148157.5468750000,119819.9531250000,151788.5312500000,133709.7812500000,144474.4687500000,,,
