Time:250Hz,Epoch,Channel 1,Channel 2,Channel 3,Channel 4,Channel 5,Channel 6,Channel 7,Channel 8,Event Id,Event Date,Event Duration
0.0000000000,0,205055.9531250000,194170.0000000000,202969.3750000000,188920.6406250000,187822.0937500000,165916.0468750000,171621.9531250000,-82391.2500000000,,,
0.0040000000,0,205041.7968750000,194155.5156250000,202957.0937500000,188899.9843750000,187810.8750000000,165899.7187500000,171610.5468750000,-82399.8828125000,,,
0.0079999999,0,205027.8437500000,194151.1406250000,202941.0781250000,188884.9062500000,187790.9687500000,165881.2656250000,171589.4843750000,-82412.1718750000,,,
0.0119999999,0,205033.6875000000,194157.2500000000,202947.3281250000,188902.1406250000,187793.5156250000,165882.4687500000,171593.8125000000,-82409.8359375000,,,
0.0159999998,0,205061.6875000000,194177.1562500000,202977.0781250000,188941.4531250000,187823.4062500000,165908.8906250000,171615.7031250000,-82389.5312500000,,,
0.0199999998,0,205059.5000000000,194165.8125000000,202982.1718750000,188937.2656250000,187831.3437500000,165914.1250000000,171618.4375000000,-82391.3046875000,,,
0.0240000000,0,205055.8750000000,194164.1718750000,202982.4687500000,188920.1562500000,187832.5156250000,165914.7187500000,171624.2812500000,-82385.3750000000,,,
0.0279999999,0,205035.0625000000,194149.3906250000,202958.4375000000,188901.1093750000,187804.0312500000,165890.3125000000,171600.4062500000,-82404.5546875000,,,
0.0319999999,0,205028.0000000000,194146.0937500000,202947.3281250000,188910.2656250000,187788.4062500000,165877.2656250000,171582.8906250000,-82418.7656250000,,,
0.0359999998,0,205048.7187500000,194161.7812500000,202968.1562500000,188940.6250000000,187810.5000000000,165891.3281250000,171603.7031250000,-82409.1093750000,,,
0.0399999998,0,205038.1718750000,194147.2500000000,202963.7968750000,188932.8437500000,187811.8125000000,165886.8125000000,171603.4843750000,-82418.3125000000,,,
0.0440000000,0,205033.1875000000,194147.1718750000,202960.8593750000,188924.2031250000,187811.6250000000,165885.7968750000,171603.6718750000,-82412.9218750000,,,
0.0480000000,0,205021.2656250000,194139.7656250000,202946.1562500000,188897.0156250000,187792.8281250000,165870.1875000000,171588.5312500000,-82424.6718750000,,,
0.0519999999,0,205030.7187500000,194153.6875000000,202952.1093750000,188899.3906250000,187794.0781250000,165873.4687500000,171590.1562500000,-82423.5468750000,,,
0.0559999999,0,205050.6406250000,194169.1093750000,202970.1406250000,188924.0000000000,187812.4062500000,165883.8906250000,171604.6406250000,-82412.0625000000,,,
0.0599999998,0,205045.7812500000,194163.0468750000,202966.3750000000,188920.7187500000,187812.9375000000,165880.6718750000,171602.0781250000,-82411.8515625000,,,
0.0639999998,0,205035.1718750000,194149.1562500000,202957.5312500000,188910.2812500000,187805.9218750000,165877.5625000000,171594.9843750000,-82413.8906250000,,,
0.0680000000,0,205032.4531250000,194155.6718750000,202948.9218750000,188898.5156250000,187794.7031250000,165868.0156250000,171579.0000000000,-82412.8437500000,,,
0.0719999999,0,205040.3750000000,194165.9687500000,202952.2187500000,188913.2031250000,187796.3125000000,165863.8281250000,171574.9531250000,-82410.2656250000,,,
0.0759999999,0,205056.8437500000,194176.7812500000,202967.0156250000,188942.1718750000,187813.6093750000,165873.7031250000,171588.1250000000,-82400.2656250000,,,
0.0799999998,0,205065.1875000000,194174.9062500000,202976.7656250000,188956.4687500000,187828.3125000000,165884.2656250000,171598.7500000000,-82392.7500000000,,,
0.0839999998,0,205065.0468750000,194174.5312500000,202976.4375000000,188941.8906250000,187829.0156250000,165888.7031250000,171597.2500000000,-82388.4062500000,,,
0.0880000000,0,205050.5625000000,194168.7656250000,202960.0156250000,188911.1406250000,187807.3125000000,165870.3437500000,171581.3593750000,-82400.1250000000,,,
0.0919999999,0,205053.2187500000,194178.7031250000,202958.0625000000,188919.2968750000,187801.6250000000,165864.2656250000,171574.4218750000,-82400.8515625000,,,
0.0959999999,0,205073.2500000000,194199.6093750000,202978.3750000000,188956.9375000000,187823.0000000000,165885.5312500000,171591.4687500000,-82382.0781250000,,,
0.0999999999,0,205065.9062500000,194176.4218750000,202978.0156250000,188947.4843750000,187827.3750000000,165889.0781250000,171597.6406250000,-82393.5312500000,,,
0.1039999998,0,205052.5156250000,194163.5781250000,202967.9062500000,188927.2187500000,187818.3593750000,165878.5000000000,171586.6718750000,-82396.8593750000,,,
0.1079999998,0,205042.4062500000,194164.7343750000,202957.0468750000,188912.0781250000,187803.6406250000,165867.3125000000,171566.0000000000,-82401.7343750000,,,
0.1120000000,0,205050.3437500000,194176.0312500000,202965.6875000000,188919.5625000000,187809.0781250000,165867.5312500000,171570.8281250000,-82398.3828125000,,,
0.1159999999,0,205066.7968750000,194183.5937500000,202984.8125000000,188945.9531250000,187831.0468750000,165883.7343750000,171591.5781250000,-82390.4687500000,,,
0.1199999999,0,205060.3593750000,194168.2500000000,202981.0000000000,188947.8125000000,187832.1718750000,165880.7343750000,171586.7343750000,-82399.6953125000,,,
0.1239999998,0,205048.3125000000,194162.7187500000,202965.5781250000,188920.4218750000,187818.7812500000,165871.4687500000,171576.1406250000,-82403.3984375000,,,
0.1279999998,1,205037.0156250000,194157.8125000000,202951.1093750000,188900.8437500000,187801.3593750000,165861.1250000000,171566.6875000000,-82411.8515625000,,,
0.1319999998,1,205042.7031250000,194161.4687500000,202955.7500000000,188921.9531250000,187802.4218750000,165858.6875000000,171568.5625000000,-82417.9140625000,,,
0.1359999997,1,205068.2187500000,194179.7812500000,202981.4062500000,188954.4843750000,187829.7343750000,165881.0468750000,171586.9218750000,-82403.4296875000,,,
0.1399999997,1,205051.7656250000,194162.3281250000,202967.4843750000,188935.1718750000,187821.1250000000,165870.8125000000,171575.0312500000,-82414.8828125000,,,
0.1439999996,1,205041.8750000000,194158.4531250000,202960.3437500000,188913.3125000000,187815.3593750000,165866.2187500000,171575.4687500000,-82412.8671875000,,,
0.1479999996,1,205023.8437500000,194155.9687500000,202938.5625000000,188890.4375000000,187790.4062500000,165845.9375000000,171551.9375000000,-82425.2031250000,,,
0.1519999998,1,205032.7812500000,194168.1093750000,202944.2500000000,188901.7343750000,187792.7968750000,165850.6562500000,171548.7187500000,-82423.8671875000,,,
0.1559999997,1,205056.0000000000,194180.0781250000,202967.5781250000,188933.2187500000,187816.8593750000,165864.6406250000,171568.1718750000,-82408.3906250000,,,
0.1599999997,1,205050.3281250000,194163.6875000000,202963.7968750000,188921.0625000000,187817.3125000000,165862.8906250000,171573.7656250000,-82417.0781250000,,,
0.1639999996,1,205032.9687500000,194147.7812500000,202949.2187500000,188891.6718750000,187803.5000000000,165856.7968750000,171564.0156250000,-82425.4453125000,,,
0.1679999996,1,205020.0625000000,194143.2500000000,202934.7031250000,188892.5625000000,187784.8125000000,165839.8750000000,171544.1562500000,-82432.2031250000,,,
0.1719999998,1,205024.9687500000,194154.6718750000,202935.4843750000,188911.3281250000,187782.6562500000,165834.4062500000,171539.1250000000,-82431.6171875000,,,
0.1759999997,1,205043.5156250000,194170.3437500000,202954.7656250000,188927.9687500000,187804.2031250000,165847.8125000000,171556.4218750000,-82420.4296875000,,,
0.1799999997,1,205052.4375000000,194167.9062500000,202969.8125000000,188935.7656250000,187824.0781250000,165859.4843750000,171572.4062500000,-82411.3125000000,,,
0.1839999997,1,205052.5937500000,194164.7031250000,202972.7343750000,188940.0000000000,187826.4843750000,165857.9843750000,171576.1562500000,-82406.4296875000,,,
0.1879999996,1,205042.4843750000,194164.8906250000,202960.0156250000,188928.0468750000,187807.7187500000,165844.3593750000,171551.8593750000,-82413.7500000000,,,
0.1919999996,1,205041.2031250000,194161.5468750000,202957.9062500000,188939.5000000000,187800.4687500000,165832.0781250000,171546.5781250000,-82425.0156250000,,,
0.1959999998,1,205062.8750000000,194174.5468750000,202980.9218750000,188966.8750000000,187824.1562500000,165847.1718750000,171569.5625000000,-82410.2421875000,,,
0.1999999997,1,205072.1875000000,194178.1718750000,202993.5781250000,188966.9843750000,187842.7656250000,165862.9687500000,171583.5156250000,-82399.4062500000,,,
0.2039999997,1,205061.1250000000,194161.2968750000,202986.7656250000,188942.0468750000,187837.6718750000,165852.4062500000,171579.5156250000,-82410.9921875000,,,
0.2079999996,1,205053.7343750000,194159.7656250000,202975.4687500000,188930.0625000000,187823.6093750000,165839.5000000000,171564.6875000000,-82415.5234375000,,,
0.2119999996,1,205047.6406250000,194157.2031250000,202965.0937500000,188935.3906250000,187809.0000000000,165829.0468750000,171547.2500000000,-82428.0234375000,,,
0.2159999998,1,205049.6718750000,194154.3750000000,202966.9687500000,188938.9375000000,187812.7343750000,165825.8281250000,171551.3437500000,-82438.1875000000,,,
0.2199999997,1,205042.3593750000,194147.9375000000,202965.0312500000,188935.7656250000,187814.0156250000,165827.3750000000,171552.9375000000,-82440.1171875000,,,
0.2239999997,1,205037.5781250000,194140.7500000000,202962.2187500000,188922.0312500000,187811.0937500000,165833.2031250000,171554.7343750000,-82437.8906250000,,,
0.2279999997,1,205025.4375000000,194143.2812500000,202943.4687500000,188896.3125000000,187788.8281250000,165814.6718750000,171533.3593750000,-82445.5937500000,,,
0.2319999996,1,205025.6406250000,194150.7656250000,202940.8125000000,188905.0000000000,187782.4687500000,165812.9531250000,171529.0000000000,-82448.5390625000,,,
0.2359999996,1,205053.8281250000,194175.6718750000,202967.2968750000,188941.4843750000,187810.5312500000,165838.3281250000,171556.7187500000,-82428.2656250000,,,
0.2399999998,1,205051.7968750000,194166.6718750000,202968.1562500000,188943.4687500000,187817.1250000000,165846.6093750000,171562.2656250000,-82429.3671875000,,,
0.2439999997,1,205039.7187500000,194159.2031250000,202959.9687500000,188927.8750000000,187810.9531250000,165843.8281250000,171557.4375000000,-82433.0937500000,,,
0.2479999997,1,205023.2343750000,194155.4062500000,202940.2812500000,188903.4218750000,187786.3906250000,165818.9843750000,171531.7500000000,-82446.3437500000,,,
0.2519999996,1,205018.4218750000,194153.3593750000,202932.1562500000,188906.3125000000,187773.5625000000,165809.2500000000,171514.9531250000,-82458.9218750000,,,
0.2559999996,2,205019.3437500000,194145.9062500000,202933.0156250000,188899.1250000000,187776.2187500000,165814.4062500000,171512.1093750000,-82466.2968750000,,,
0.2599999995,2,205014.3750000000,194137.0000000000,202931.2968750000,188888.3125000000,187781.1093750000,165814.7968750000,171515.3750000000,-82464.5546875000,,,
0.2639999995,2,205023.4218750000,194137.8906250000,202944.0937500000,188915.2187500000,187796.6406250000,165827.9687500000,171535.9062500000,-82451.1171875000,,,
0.2679999995,2,205020.0156250000,194152.0156250000,202935.2968750000,188913.4218750000,187783.9687500000,165820.8437500000,171523.1093750000,-82444.5703125000,,,
0.2719999994,2,205024.8593750000,194158.0781250000,202938.0312500000,188909.5312500000,187781.4531250000,165819.1250000000,171523.2187500000,-82445.8046875000,,,
0.2759999994,2,205048.7343750000,194168.7343750000,202963.6718750000,188927.2187500000,187807.9062500000,165836.9218750000,171544.7500000000,-82432.6875000000,,,
0.2799999996,2,205054.6875000000,194161.8437500000,202975.1562500000,188931.5625000000,187824.0156250000,165844.7812500000,171558.2656250000,-82429.7109375000,,,
0.2839999995,2,205062.0468750000,194171.5156250000,202981.9843750000,188946.4687500000,187833.6250000000,165854.4375000000,171566.8281250000,-82414.0234375000,,,
0.2879999995,2,205043.7968750000,194163.9531250000,202957.7343750000,188919.0312500000,187806.7187500000,165835.7500000000,171541.8750000000,-82428.6953125000,,,
0.2919999994,2,205030.1250000000,194155.0468750000,202940.7656250000,188907.1562500000,187786.2031250000,165813.1718750000,171517.7968750000,-82449.2109375000,,,
0.2959999994,2,205054.3125000000,194165.4375000000,202968.5000000000,188934.9375000000,187815.8593750000,165834.5156250000,171544.5312500000,-82435.5625000000,,,
0.2999999996,2,205064.4531250000,194171.2187500000,202982.2031250000,188952.2343750000,187834.8750000000,165845.8906250000,171564.4687500000,-82421.9375000000,,,
0.3039999995,2,205071.5156250000,194177.3437500000,202992.8281250000,188952.2031250000,187846.2500000000,165863.0468750000,171574.5312500000,-82405.5703125000,,,
0.3079999995,2,205052.4375000000,194167.2031250000,202970.5312500000,188917.2812500000,187819.8593750000,165847.8125000000,171543.3906250000,-82421.1328125000,,,
0.3119999995,2,205053.6718750000,194175.8437500000,202967.6875000000,188919.9218750000,187811.6875000000,165837.1718750000,171534.7187500000,-82425.2031250000,,,
0.3159999994,2,205072.0937500000,194186.3281250000,202986.6875000000,188951.3750000000,187830.4218750000,165844.7031250000,171555.9062500000,-82417.7734375000,,,
0.3199999994,2,205065.6562500000,194174.6093750000,202983.2031250000,188943.0156250000,187833.1093750000,165851.1718750000,171562.5937500000,-82422.0390625000,,,
0.3239999996,2,205049.9218750000,194163.7656250000,202966.4375000000,188914.3593750000,187818.9687500000,165846.1250000000,171550.3593750000,-82432.1796875000,,,
0.3279999995,2,205045.1406250000,194167.3125000000,202958.0312500000,188906.1875000000,187806.3906250000,165832.6718750000,171535.3906250000,-82433.5781250000,,,
0.3319999995,2,205055.9218750000,194185.7656250000,202965.1250000000,188919.5625000000,187810.1718750000,165831.8593750000,171531.0468750000,-82427.1093750000,,,
0.3359999994,2,205082.5937500000,194204.2500000000,202995.2656250000,188950.8125000000,187841.1562500000,165855.4375000000,171552.8593750000,-82408.8750000000,,,
0.3399999994,2,205078.4531250000,194187.9687500000,202998.6406250000,188950.6562500000,187848.2968750000,165857.0781250000,171560.6250000000,-82416.3515625000,,,
0.3439999996,2,205062.3437500000,194178.7031250000,202984.2187500000,188929.5468750000,187835.2812500000,165850.5000000000,171554.8437500000,-82420.7578125000,,,
0.3479999995,2,205051.5000000000,194181.0156250000,202969.7031250000,188913.9375000000,187816.8593750000,165840.4687500000,171541.3437500000,-82424.4843750000,,,
0.3519999995,2,205050.1093750000,194184.8750000000,202965.6250000000,188923.1093750000,187807.0156250000,165831.0625000000,171530.7968750000,-82429.7656250000,,,
0.3559999994,2,205071.8906250000,194198.6875000000,202988.1562500000,188955.6406250000,187830.4062500000,165846.0000000000,171548.9375000000,-82419.6250000000,,,
0.3599999994,2,205077.4843750000,194194.8593750000,202996.0781250000,188948.5625000000,187843.3906250000,165853.5937500000,171559.7968750000,-82416.7812500000,,,
0.3639999994,2,205067.4843750000,194184.2656250000,202986.1406250000,188929.7031250000,187835.4218750000,165850.2343750000,171556.2031250000,-82419.0937500000,,,
0.3679999996,2,205051.3593750000,194176.1562500000,202962.2812500000,188916.3281250000,187807.6093750000,165822.0625000000,171530.0468750000,-82433.8437500000,,,
0.3719999995,2,205041.2343750000,194170.8281250000,202949.5937500000,188912.5468750000,187791.6250000000,165804.7500000000,171507.8750000000,-82447.2578125000,,,
0.3759999995,2,205057.7812500000,194169.4062500000,202971.4687500000,188946.2500000000,187814.4375000000,165822.7343750000,171529.5468750000,-82446.1250000000,,,
0.3799999994,2,205062.7968750000,194165.5156250000,202983.8593750000,188959.6093750000,187831.9531250000,165832.0937500000,171554.0781250000,-82440.9765625000,,,
0.3839999994,3,205061.0468750000,194167.2500000000,202982.9062500000,188956.0468750000,187832.6562500000,165834.9375000000,171560.8437500000,-82434.0859375000,,,
0.3879999993,3,205035.2968750000,194151.4531250000,202952.9375000000,188910.2656250000,187798.8906250000,165809.3281250000,171533.4375000000,-82456.6406250000,,,
0.3919999993,3,205020.5781250000,194137.0000000000,202935.0000000000,188905.1406250000,187775.8125000000,165789.8593750000,171512.3281250000,-82477.9921875000,,,
0.3959999993,3,205042.7500000000,194153.4687500000,202955.7500000000,188922.0937500000,187797.9687500000,165815.4687500000,171531.7500000000,-82463.9375000000,,,
0.3999999992,3,205054.0000000000,194152.6093750000,202973.5937500000,188930.2968750000,187820.3750000000,165828.5000000000,171551.9062500000,-82452.6718750000,,,
0.4039999992,3,205063.1093750000,194164.3906250000,202983.5781250000,188942.3437500000,187832.4687500000,165836.3593750000,171564.3281250000,-82435.7187500000,,,
0.4079999994,3,205051.4531250000,194165.7812500000,202966.0000000000,188926.8593750000,187812.2968750000,165822.4531250000,171543.1093750000,-82443.5000000000,,,
0.4119999993,3,205046.6718750000,194163.7500000000,202959.5312500000,188922.6250000000,187802.5000000000,165811.7500000000,171530.6718750000,-82455.3046875000,,,
0.4159999993,3,205066.1406250000,194180.0312500000,202981.9375000000,188946.5312500000,187824.6406250000,165832.8281250000,171544.9375000000,-82442.0468750000,,,
0.4199999992,3,205068.8593750000,194180.2968750000,202988.0781250000,188937.8593750000,187833.4843750000,165841.3750000000,171553.3906250000,-82435.6406250000,,,
0.4239999992,3,205054.5312500000,194172.4062500000,202974.3750000000,188910.7968750000,187821.5312500000,165832.3125000000,171544.2656250000,-82436.8203125000,,,
0.4279999994,3,205040.0468750000,194162.9687500000,202954.7968750000,188900.5781250000,187799.3906250000,165818.1875000000,171524.5781250000,-82451.2265625000,,,
0.4319999993,3,205048.4687500000,194183.5312500000,202957.3593750000,188915.0937500000,187798.7187500000,165823.6250000000,171523.6718750000,-82441.5703125000,,,
0.4359999993,3,205073.9843750000,194203.1406250000,202985.3437500000,188942.3593750000,187828.2343750000,165853.9687500000,171551.1406250000,-82423.3828125000,,,
0.4399999992,3,205074.6562500000,194190.5625000000,202991.7187500000,188946.2031250000,187839.3593750000,165858.2187500000,171565.8906250000,-82429.8203125000,,,
0.4439999992,3,205060.5468750000,194181.7656250000,202976.7343750000,188933.8906250000,187827.9375000000,165851.8437500000,171553.2500000000,-82432.1796875000,,,
0.4479999992,3,205039.4843750000,194174.2812500000,202952.7031250000,188913.2031250000,187801.2968750000,165828.6875000000,171526.8906250000,-82447.2265625000,,,
0.4519999993,3,205038.9218750000,194174.7656250000,202951.0312500000,188925.8125000000,187796.1250000000,165816.9531250000,171519.4062500000,-82453.8828125000,,,
0.4559999993,3,205067.7031250000,194194.4531250000,202980.7031250000,188969.9062500000,187824.1562500000,165834.9218750000,171540.4843750000,-82436.3125000000,,,
0.4599999993,3,205068.6875000000,194183.5937500000,202985.4687500000,188957.3593750000,187833.4843750000,165842.3437500000,171554.8906250000,-82438.5078125000,,,
0.4639999992,3,205065.3906250000,194176.8125000000,202982.5312500000,188944.7343750000,187834.6406250000,165843.6875000000,171564.6562500000,-82435.9375000000,,,
0.4679999992,3,205059.9843750000,194179.7812500000,202972.2031250000,188931.9843750000,187820.3906250000,165832.1562500000,171551.0000000000,-82436.3906250000,,,
0.4719999994,3,205058.7187500000,194181.6093750000,202967.9687500000,188910.2343750000,187811.4687500000,165823.7343750000,171537.0781250000,-82440.8203125000,,,
0.4759999993,3,205069.9062500000,194181.9218750000,202981.0468750000,188919.1093750000,187825.8437500000,165830.9218750000,171547.6406250000,-82440.8984375000,,,
0.4799999993,3,205077.6250000000,194182.4687500000,202990.5937500000,188937.0312500000,187840.4843750000,165849.4843750000,171562.2187500000,-82431.5937500000,,,
0.4839999992,3,205070.1406250000,194177.1562500000,202985.1250000000,188930.0781250000,187834.8281250000,165842.4531250000,171560.6562500000,-82429.8437500000,,,
0.4879999992,3,205060.7500000000,194175.0937500000,202973.5625000000,188912.4062500000,187819.7343750000,165828.8281250000,171546.0937500000,-82434.7812500000,,,
0.4919999992,3,205047.8281250000,194162.8906250000,202958.5937500000,188910.3125000000,187801.2187500000,165817.2343750000,171520.1875000000,-82455.4375000000,,,
0.4959999993,3,205064.8906250000,194168.1718750000,202977.6093750000,188936.4687500000,187820.8281250000,165833.6250000000,171541.8750000000,-82450.6328125000,,,
0.4999999993,3,205075.8750000000,194173.7500000000,202992.5312500000,188948.0781250000,187839.0937500000,165848.7812500000,171564.7343750000,-82441.0859375000,,,
0.5039999993,3,205070.6718750000,194175.1093750000,202987.0000000000,188939.0156250000,187834.7968750000,165848.7343750000,171561.6250000000,-82438.2187500000,,,
0.5079999992,3,205056.3593750000,194173.8281250000,202969.3281250000,188914.6875000000,187812.1093750000,165830.1406250000,171539.7031250000,-82449.0781250000,,,
0.5119999992,4,205050.8281250000,194177.8750000000,202958.3906250000,188921.0468750000,187798.5312500000,165821.2187500000,171526.0625000000,-82457.3906250000,,,
0.5159999991,4,205067.8125000000,194191.9375000000,202975.9531250000,188945.6718750000,187818.3281250000,165838.2187500000,171545.0937500000,-82446.5312500000,,,
0.5199999991,4,205057.0781250000,194175.6250000000,202971.8437500000,188926.6250000000,187818.7656250000,165836.4531250000,171544.0781250000,-82456.1875000000,,,
0.5239999990,4,205040.6875000000,194162.2968750000,202958.4687500000,188907.4375000000,187807.5312500000,165829.0156250000,171534.6875000000,-82462.1406250000,,,
0.5279999990,4,205035.8125000000,194167.5781250000,202947.6875000000,188898.3437500000,187794.2656250000,165823.5468750000,171520.2968750000,-82459.8906250000,,,
0.5319999990,4,205047.6875000000,194186.4062500000,202953.1562500000,188924.0000000000,187795.6718750000,165821.5937500000,171515.0625000000,-82452.3203125000,,,
0.5359999991,4,205067.0000000000,194208.6406250000,202969.4687500000,188947.6718750000,187813.6406250000,165832.2343750000,171534.4531250000,-82436.6875000000,,,
0.5399999991,4,205059.4375000000,194183.9687500000,202966.5156250000,188936.7656250000,187815.2500000000,165838.4531250000,171539.2812500000,-82452.2968750000,,,
0.5439999991,4,205059.0156250000,194178.6250000000,202970.3281250000,188933.9687500000,187819.0000000000,165842.2968750000,171547.5625000000,-82451.8671875000,,,
0.5479999990,4,205055.1250000000,194184.9531250000,202963.2343750000,188923.5156250000,187807.2031250000,165827.1718750000,171534.9687500000,-82451.5156250000,,,
0.5519999990,4,205044.8750000000,194175.4375000000,202949.2187500000,188912.1406250000,187788.3437500000,165813.7500000000,171511.5468750000,-82468.6015625000,,,
0.5559999992,4,205057.5625000000,194180.6406250000,202963.3750000000,188931.6718750000,187804.5000000000,165829.5000000000,171524.8750000000,-82461.5000000000,,,
0.5599999991,4,205065.9062500000,194179.0312500000,202977.5937500000,188938.0781250000,187823.5312500000,165839.7656250000,171550.7343750000,-82451.6562500000,,,
0.5639999991,4,205058.6875000000,194167.7343750000,202973.5156250000,188921.9843750000,187820.6718750000,165831.8593750000,171551.5156250000,-82454.3593750000,,,
0.5679999990,4,205049.5937500000,194165.6718750000,202963.6406250000,188901.3281250000,187806.9531250000,165823.3906250000,171539.2500000000,-82456.8046875000,,,
0.5719999990,4,205030.4687500000,194150.7812500000,202940.4218750000,188893.0625000000,187779.1406250000,165793.4843750000,171510.8750000000,-82483.6250000000,,,
0.5759999990,4,205061.1875000000,194174.8281250000,202968.9218750000,188943.1718750000,187809.7187500000,165818.1250000000,171531.0781250000,-82462.3046875000,,,
0.5799999991,4,205068.6875000000,194175.3906250000,202975.6250000000,188958.1875000000,187822.9531250000,165833.5781250000,171544.6718750000,-82454.4453125000,,,
0.5839999991,4,205057.6718750000,194158.0000000000,202966.7812500000,188913.4531250000,187816.1562500000,165834.2968750000,171545.3125000000,-82462.0625000000,,,
0.5879999991,4,205055.2500000000,194164.7656250000,202963.1562500000,188883.3281250000,187807.2812500000,165828.5625000000,171538.7968750000,-82458.7343750000,,,
0.5919999990,4,205056.9531250000,194169.5312500000,202965.4062500000,188907.1562500000,187805.9687500000,165827.0000000000,171534.3437500000,-82460.2109375000,,,
0.5959999990,4,205070.0937500000,194179.0625000000,202978.8750000000,188941.8906250000,187821.6875000000,165835.2656250000,171546.0312500000,-82456.4843750000,,,
0.5999999992,4,205066.5156250000,194167.9062500000,202979.7031250000,188935.7343750000,187826.8906250000,165839.4218750000,171550.8906250000,-82461.3359375000,,,
0.6039999991,4,205057.0000000000,194162.3437500000,202972.4687500000,188917.9062500000,187819.6718750000,165839.4531250000,171543.7656250000,-82460.7421875000,,,
0.6079999991,4,205036.2968750000,194158.2656250000,202945.9687500000,188881.4531250000,187788.2343750000,165813.2500000000,171515.4375000000,-82472.4687500000,,,
0.6119999990,4,205047.8281250000,194176.8906250000,202953.7968750000,188908.3750000000,187791.6250000000,165820.4531250000,171520.0156250000,-82462.7343750000,,,
0.6159999990,4,205093.4531250000,194217.1406250000,202998.2968750000,188979.5156250000,187837.3437500000,165861.1562500000,171561.5625000000,-82426.4921875000,,,
0.6199999989,4,205098.3125000000,194214.8437500000,203005.7812500000,188983.5937500000,187850.4375000000,165876.8906250000,171580.1250000000,-82422.9531250000,,,
0.6239999991,4,205081.2812500000,194203.4375000000,202989.1718750000,188944.7031250000,187837.4062500000,165866.5625000000,171572.9687500000,-82432.2578125000,,,
0.6279999991,4,205049.9687500000,194183.0000000000,202954.9843750000,188894.4375000000,187802.9843750000,165843.6093750000,171538.4531250000,-82453.5546875000,,,
0.6319999991,4,205032.9375000000,194167.0625000000,202933.4375000000,188888.7812500000,187780.2187500000,165818.2812500000,171512.6250000000,-82479.8437500000,,,
0.6359999990,4,205052.7031250000,194180.5000000000,202955.4843750000,188927.0000000000,187802.7500000000,165836.6406250000,171531.1250000000,-82468.5234375000,,,
0.6399999990,5,205064.7812500000,194184.6875000000,202971.5781250000,188942.7968750000,187821.2500000000,165851.5000000000,171548.2968750000,-82457.0468750000,,,
0.6439999989,5,205049.5625000000,194167.8437500000,202961.5000000000,188906.4843750000,187812.6250000000,165838.9375000000,171539.2500000000,-82464.9843750000,,,
0.6479999989,5,205029.4218750000,194157.4375000000,202939.6562500000,188881.2656250000,187785.2812500000,165814.9687500000,171513.9375000000,-82482.1484375000,,,
0.6519999988,5,205026.3125000000,194161.5937500000,202934.8125000000,188891.1562500000,187773.9218750000,165801.0625000000,171500.4218750000,-82489.6875000000,,,
0.6559999988,5,205056.9687500000,194178.2343750000,202967.7187500000,188939.7343750000,187808.1406250000,165827.2968750000,171529.1875000000,-82471.3437500000,,,
0.6599999988,5,205065.7500000000,194167.2343750000,202978.5781250000,188944.3750000000,187824.8281250000,165848.1406250000,171549.8437500000,-82466.1093750000,,,
0.6639999989,5,205059.7968750000,194163.1718750000,202968.7187500000,188921.0937500000,187819.2500000000,165844.5156250000,171547.5468750000,-82460.8828125000,,,
0.6679999989,5,205049.8437500000,194163.6875000000,202954.2500000000,188913.5625000000,187802.5625000000,165830.0937500000,171532.5937500000,-82467.1328125000,,,
0.6719999989,5,205049.8593750000,194171.8125000000,202953.2031250000,188922.7812500000,187798.1406250000,165822.9843750000,171528.5468750000,-82470.3203125000,,,
0.6759999988,5,205061.4062500000,194178.7656250000,202967.5781250000,188941.9687500000,187815.4062500000,165833.7343750000,171548.6406250000,-82465.2500000000,,,
0.6799999988,5,205066.2031250000,194175.2031250000,202976.2500000000,188941.2343750000,187828.9843750000,165844.4687500000,171562.0312500000,-82459.4609375000,,,
0.6839999990,5,205041.0156250000,194150.5937500000,202952.9062500000,188900.4375000000,187807.2500000000,165830.2500000000,171542.2500000000,-82479.2500000000,,,
0.6879999989,5,205033.5625000000,194152.2031250000,202942.9062500000,188893.2031250000,187792.2812500000,165819.8750000000,171526.3281250000,-82484.4843750000,,,
0.6919999989,5,205033.9375000000,194159.2656250000,202940.1718750000,188898.2500000000,187783.5468750000,165812.4687500000,171517.1250000000,-82487.7812500000,,,
0.6959999988,5,205058.2343750000,194180.0468750000,202965.6875000000,188934.1093750000,187807.2031250000,165838.8281250000,171536.1875000000,-82469.5937500000,,,
0.6999999988,5,205062.9218750000,194177.0156250000,202973.8593750000,188937.7500000000,187817.4687500000,165847.9531250000,171551.4062500000,-82466.6484375000,,,
0.7039999987,5,205056.0937500000,194168.8593750000,202968.6250000000,188922.7656250000,187814.6562500000,165844.3125000000,171554.4843750000,-82468.4687500000,,,
0.7079999989,5,205045.4062500000,194166.2343750000,202954.5781250000,188920.4218750000,187796.6875000000,165824.7031250000,171533.7500000000,-82476.9453125000,,,
0.7119999989,5,205058.4218750000,194184.6875000000,202965.3593750000,188942.7187500000,187804.0625000000,165825.6875000000,171535.2812500000,-82467.4531250000,,,
0.7159999989,5,205080.3593750000,194197.2968750000,202986.7968750000,188955.8281250000,187830.2187500000,165854.3906250000,171555.0000000000,-82454.7656250000,,,
0.7199999988,5,205082.9062500000,194193.0625000000,202993.0625000000,188940.5468750000,187843.1093750000,165863.9062500000,171568.6250000000,-82451.2812500000,,,
0.7239999988,5,205080.5156250000,194193.6718750000,202993.2343750000,188929.2812500000,187845.6718750000,165867.2968750000,171578.2812500000,-82442.6953125000,,,
0.7279999990,5,205065.5781250000,194185.2031250000,202973.0625000000,188921.5781250000,187822.0937500000,165850.1718750000,171556.4218750000,-82453.8515625000,,,
0.7319999989,5,205063.2968750000,194187.5312500000,202967.4531250000,188929.2812500000,187811.0937500000,165844.8750000000,171538.5625000000,-82461.6562500000,,,
0.7359999989,5,205070.3281250000,194187.3437500000,202975.5000000000,188930.8125000000,187818.8125000000,165853.1250000000,171545.8437500000,-82464.2343750000,,,
0.7399999988,5,205060.5468750000,194166.8750000000,202969.7812500000,188925.6093750000,187816.4218750000,165845.5468750000,171550.2500000000,-82475.9296875000,,,
0.7439999988,5,205047.5000000000,194153.2031250000,202959.7812500000,188911.1718750000,187807.8750000000,165841.3593750000,171547.4062500000,-82481.9062500000,,,
0.7479999987,5,205036.4062500000,194153.0156250000,202946.0937500000,188886.1250000000,187789.2031250000,165829.9218750000,171529.7656250000,-82487.7578125000,,,
0.7519999989,5,205053.0000000000,194173.7500000000,202959.3281250000,188909.3281250000,187798.1093750000,165828.5000000000,171534.8281250000,-82477.7812500000,,,
0.7559999989,5,205074.7031250000,194188.0468750000,202980.2187500000,188928.2656250000,187820.1250000000,165841.8125000000,171552.7968750000,-82467.7734375000,,,
0.7599999988,5,205076.0625000000,194180.2187500000,202985.0468750000,188921.6250000000,187830.9375000000,165843.6093750000,171559.3750000000,-82468.2265625000,,,
0.7639999988,5,205067.1406250000,194172.7343750000,202979.2187500000,188908.4375000000,187830.8125000000,165836.3906250000,171558.6250000000,-82466.4296875000,,,
0.7679999988,6,205059.1718750000,194176.9687500000,202968.5781250000,188901.8437500000,187816.1093750000,165831.7031250000,171547.1093750000,-82466.8359375000,,,
0.7719999987,6,205057.5312500000,194178.0937500000,202963.5312500000,188918.5156250000,187804.6562500000,165826.4687500000,171536.8437500000,-82474.5859375000,,,
0.7759999987,6,205089.6093750000,194201.7500000000,202994.9375000000,188971.7031250000,187833.3593750000,165848.9687500000,171565.6718750000,-82454.3046875000,,,
0.7799999986,6,205083.1250000000,194189.7031250000,202990.7656250000,188955.1562500000,187830.5312500000,165842.3750000000,171568.0937500000,-82465.6796875000,,,
0.7839999986,6,205072.1562500000,194180.1250000000,202980.6406250000,188935.8750000000,187821.1718750000,165839.4218750000,171566.5000000000,-82469.8125000000,,,
0.7879999985,6,205061.5937500000,194180.6093750000,202966.4843750000,188928.4687500000,187803.0937500000,165822.6093750000,171550.4375000000,-82475.9296875000,,,
0.7919999987,6,205071.0000000000,194194.3125000000,202972.5937500000,188953.5000000000,187807.0937500000,165827.1718750000,171550.9218750000,-82470.9140625000,,,
0.7959999987,6,205098.7812500000,194220.0468750000,202998.1875000000,188997.7031250000,187836.0625000000,165855.0937500000,171573.8281250000,-82449.5625000000,,,
0.7999999986,6,205110.8125000000,194222.3437500000,203014.4687500000,188999.7656250000,187857.5156250000,165870.1406250000,171593.5625000000,-82438.3750000000,,,
0.8039999986,6,205089.2343750000,194202.0937500000,202995.6093750000,188954.4375000000,187842.1250000000,165858.3125000000,171579.3750000000,-82451.0859375000,,,
0.8079999986,6,205059.0312500000,194178.9843750000,202960.5000000000,188922.7343750000,187806.1875000000,165826.9531250000,171542.8437500000,-82475.7109375000,,,
0.8119999988,6,205055.1250000000,194183.1406250000,202951.0937500000,188923.8125000000,187793.9843750000,165820.6250000000,171526.1562500000,-82478.9062500000,,,
0.8159999987,6,205072.7500000000,194197.1562500000,202966.7500000000,188940.0312500000,187811.7031250000,165842.3750000000,171546.0937500000,-82468.0703125000,,,
0.8199999987,6,205057.8281250000,194174.0625000000,202955.4375000000,188917.6406250000,187804.6562500000,165842.7031250000,171543.5156250000,-82486.4921875000,,,
0.8239999986,6,205040.4531250000,194158.7812500000,202942.8750000000,188893.7187500000,187792.3750000000,165832.1562500000,171540.5468750000,-82492.3125000000,,,
0.8279999986,6,205021.5937500000,194146.8750000000,202921.1250000000,188882.5000000000,187764.9531250000,165812.5468750000,171518.8750000000,-82503.8515625000,,,
0.8319999985,6,205035.1093750000,194164.8125000000,202932.0937500000,188899.7500000000,187769.0312500000,165816.2500000000,171519.4062500000,-82496.3359375000,,,
0.8359999987,6,205057.1093750000,194172.9375000000,202959.9375000000,188927.5312500000,187795.2968750000,165831.8125000000,171543.1406250000,-82488.6953125000,,,
0.8399999987,6,205060.3593750000,194167.0937500000,202970.2343750000,188920.8281250000,187810.1250000000,165837.3281250000,171555.9062500000,-82489.7109375000,,,
0.8439999986,6,205053.4375000000,194158.7812500000,202967.2656250000,188904.5000000000,187810.2031250000,165830.0156250000,171554.0312500000,-82493.6562500000,,,
0.8479999986,6,205050.2656250000,194161.3281250000,202962.7031250000,188901.4062500000,187802.8906250000,165818.5312500000,171546.4375000000,-82492.8515625000,,,
0.8519999986,6,205064.8281250000,194182.2031250000,202972.8125000000,188932.7656250000,187809.7031250000,165829.9843750000,171543.9531250000,-82481.8046875000,,,
0.8559999987,6,205082.3437500000,194196.3593750000,202989.0468750000,188958.0000000000,187827.5000000000,165837.5000000000,171558.5625000000,-82475.0390625000,,,
0.8599999987,6,205086.1250000000,194193.0312500000,202997.0312500000,188955.5312500000,187840.4062500000,165853.1093750000,171577.5625000000,-82467.9062500000,,,
0.8639999987,6,205077.9687500000,194184.3906250000,202991.5937500000,188948.4531250000,187837.0781250000,165848.6250000000,171580.7187500000,-82468.2578125000,,,
0.8679999986,6,205066.9531250000,194180.1250000000,202976.7343750000,188932.7343750000,187818.9687500000,165831.4531250000,171565.1562500000,-82474.7734375000,,,
0.8719999986,6,205069.7656250000,194189.2187500000,202974.3906250000,188935.9843750000,187811.7656250000,165822.5781250000,171557.2031250000,-82475.3125000000,,,
0.8759999985,6,205099.9687500000,194208.2343750000,203002.9062500000,188967.2500000000,187840.0000000000,165853.5625000000,171588.2500000000,-82457.8750000000,,,
0.8799999987,6,205105.0312500000,194209.8437500000,203006.6093750000,188969.5625000000,187847.8437500000,165864.5625000000,171594.5937500000,-82453.6093750000,,,
0.8839999987,6,205101.2812500000,194209.4218750000,203002.0312500000,188963.3906250000,187846.5156250000,165863.9062500000,171590.5625000000,-82450.5000000000,,,
0.8879999986,6,205082.6093750000,194193.4062500000,202983.5468750000,188938.6875000000,187826.9218750000,165847.5000000000,171567.6875000000,-82464.6328125000,,,
0.8919999986,6,205074.7812500000,194189.5781250000,202973.9375000000,188933.6562500000,187815.3750000000,165832.1875000000,171558.6250000000,-82476.3281250000,,,
0.8959999986,7,205098.2031250000,194211.5156250000,202997.3593750000,188962.6718750000,187843.2500000000,165857.3437500000,171585.5000000000,-82456.4531250000,,,
0.8999999985,7,205098.1718750000,194199.0625000000,203000.6875000000,188967.9843750000,187853.8437500000,165867.7812500000,171594.4531250000,-82458.2265625000,,,
0.9039999985,7,205082.3750000000,194182.6718750000,202987.7031250000,188939.5156250000,187844.5937500000,165861.8750000000,171588.8750000000,-82465.6796875000,,,
0.9079999984,7,205079.8750000000,194187.5937500000,202983.0156250000,188919.5156250000,187837.5156250000,165854.5312500000,171587.1875000000,-82460.0781250000,,,
0.9119999984,7,205067.9218750000,194183.2187500000,202965.9531250000,188910.8750000000,187815.0937500000,165842.6093750000,171566.8281250000,-82474.3437500000,,,
0.9159999983,7,205080.5781250000,194192.8750000000,202981.4531250000,188930.7812500000,187831.0156250000,165856.4531250000,171582.6562500000,-82470.6718750000,,,
0.9199999985,7,205075.1875000000,194187.0468750000,202981.9062500000,188923.7812500000,187836.0625000000,165860.8593750000,171588.3437500000,-82473.8359375000,,,
0.9239999985,7,205059.7031250000,194174.4218750000,202972.7812500000,188909.7187500000,187826.3281250000,165848.0625000000,171577.7187500000,-82481.3437500000,,,
0.9279999984,7,205051.8750000000,194172.6718750000,202964.2656250000,188904.1406250000,187811.3281250000,165836.4218750000,171560.5781250000,-82487.1640625000,,,
0.9319999984,7,205048.8437500000,194176.2968750000,202957.7968750000,188914.1718750000,187799.2031250000,165824.2500000000,171552.3125000000,-82492.4531250000,,,
0.9359999984,7,205080.2343750000,194197.7031250000,202990.8437500000,188963.8750000000,187831.0000000000,165851.8750000000,171583.5156250000,-82473.0859375000,,,
0.9399999985,7,205073.7968750000,194183.2656250000,202988.3750000000,188948.5312500000,187830.7500000000,165851.5781250000,171584.1875000000,-82482.2812500000,,,
0.9439999985,7,205056.5937500000,194167.2812500000,202973.6250000000,188922.1093750000,187817.3906250000,165846.1562500000,171575.8437500000,-82491.5937500000,,,
0.9479999985,7,205056.0937500000,194179.1406250000,202969.2500000000,188914.7968750000,187810.2031250000,165838.6250000000,171568.9375000000,-82484.1640625000,,,
0.9519999984,7,205056.0625000000,194180.4062500000,202965.8125000000,188917.0781250000,187801.8125000000,165823.2500000000,171561.7343750000,-82490.3593750000,,,
0.9559999984,7,205081.6250000000,194199.5000000000,202989.7656250000,188953.9843750000,187827.8281250000,165849.8906250000,171586.4062500000,-82473.5156250000,,,
0.9599999983,7,205086.6718750000,194200.6250000000,202993.2812500000,188944.5156250000,187839.1250000000,165856.0468750000,171595.4218750000,-82469.8125000000,,,
0.9639999985,7,205083.5468750000,194187.0781250000,202992.8593750000,188938.3906250000,187842.8437500000,165859.2968750000,171599.8125000000,-82471.1562500000,,,
0.9679999985,7,205081.5468750000,194195.6093750000,202985.5312500000,188939.6875000000,187833.5468750000,165853.3437500000,171588.8125000000,-82467.6406250000,,,
0.9719999984,7,205073.3906250000,194196.3906250000,202971.7187500000,188937.8125000000,187815.6562500000,165842.4218750000,171577.4218750000,-82475.5546875000,,,
0.9759999984,7,205090.1718750000,194208.7968750000,202989.5468750000,188962.4062500000,187833.2656250000,165862.8906250000,171600.5625000000,-82464.3671875000,,,
0.9799999984,7,205091.8125000000,194198.6406250000,202994.6562500000,188979.7343750000,187842.5781250000,165856.1406250000,171609.2812500000,-82468.4687500000,,,
0.9839999985,7,205086.2031250000,194190.8125000000,202991.5312500000,188954.4687500000,187844.0625000000,165866.1718750000,171612.7500000000,-82465.3046875000,,,
0.9879999985,7,205052.7343750000,194166.9062500000,202956.4062500000,188899.5781250000,187807.6093750000,165844.2187500000,171580.0156250000,-82490.7031250000,,,
0.9919999985,7,205051.3593750000,194168.0625000000,202952.8281250000,188918.3125000000,187800.2343750000,165832.7656250000,171572.1562500000,-82497.6796875000,,,
0.9959999984,7,205084.2031250000,194195.7343750000,202985.5781250000,188970.3906250000,187833.0312500000,165862.0312500000,171603.9531250000,-82472.6250000000,,,
0.9999999984,7,205086.9531250000,194194.9375000000,202990.1093750000,188959.8281250000,187841.4531250000,165875.2343750000,171608.9375000000,-82470.6406250000,,,
1.0039999983,7,205071.8593750000,194181.3125000000,202977.9062500000,188926.0312500000,187830.1875000000,165864.5625000000,171594.5625000000,-82476.8906250000,,,
1.0079999985,7,205064.3281250000,194185.7343750000,202968.0468750000,188913.0781250000,187815.5156250000,165851.3281250000,171585.6562500000,-82475.9531250000,,,
1.0119999985,7,205048.0468750000,194179.0312500000,202949.4062500000,188912.0625000000,187792.5000000000,165830.4843750000,171566.2031250000,-82492.9062500000,,,
1.0159999984,7,205080.9531250000,194209.3125000000,202984.0468750000,188954.9218750000,187827.1562500000,165863.8906250000,171598.4687500000,-82467.1328125000,,,
1.0199999984,7,205082.9062500000,194201.3750000000,202990.2187500000,188956.3125000000,187837.1093750000,165869.2812500000,171605.1875000000,-82471.2890625000,,,
1.0239999983,8,205066.5000000000,194182.6718750000,202977.9375000000,188926.6718750000,187826.7031250000,165857.4687500000,171596.0312500000,-82480.2421875000,,,
1.0279999983,8,205072.5781250000,194191.6875000000,202983.4062500000,188930.0312500000,187828.8437500000,165859.6250000000,171603.8437500000,-82468.9296875000,,,
1.0319999983,8,205070.8593750000,194199.8437500000,202977.1093750000,188923.6406250000,187820.3906250000,165856.2187500000,171594.7500000000,-82472.0078125000,,,
1.0359999982,8,205082.7500000000,194210.5781250000,202987.0000000000,188942.2343750000,187831.9375000000,165871.5625000000,171601.9375000000,-82469.0078125000,,,
1.0399999982,8,205079.0000000000,194201.8281250000,202984.5937500000,188941.2968750000,187836.2968750000,165868.9062500000,171610.2187500000,-82472.7656250000,,,
1.0439999981,8,205068.4843750000,194186.2500000000,202976.3593750000,188932.4375000000,187831.5781250000,165867.5937500000,171608.9843750000,-82478.2578125000,,,
1.0479999983,8,205062.4687500000,194182.2500000000,202967.8593750000,188926.6718750000,187819.2187500000,165861.0156250000,171598.8281250000,-82480.8593750000,,,
1.0519999983,8,205060.2656250000,194184.0781250000,202959.2656250000,188931.9843750000,187804.9687500000,165845.2500000000,171583.3281250000,-82488.6953125000,,,
1.0559999982,8,205072.8281250000,194192.7343750000,202969.5937500000,188953.8750000000,187815.6562500000,165848.8906250000,171587.5000000000,-82486.5781250000,,,
1.0599999982,8,205086.2031250000,194200.6562500000,202984.4375000000,188966.9843750000,187834.5312500000,165860.2343750000,171603.5468750000,-82476.8125000000,,,
1.0639999982,8,205094.3125000000,194206.2031250000,202996.4218750000,188965.4843750000,187849.3125000000,165874.7812500000,171620.0625000000,-82461.3359375000,,,
1.0679999983,8,205086.7968750000,194203.5156250000,202987.9218750000,188957.1250000000,187838.1562500000,165864.4687500000,171611.0625000000,-82463.8281250000,,,
1.0719999983,8,205076.1250000000,194199.2343750000,202974.9062500000,188952.7187500000,187821.9531250000,165851.3125000000,171592.1250000000,-82476.8359375000,,,
1.0759999983,8,205103.2343750000,194213.7656250000,203003.5000000000,188986.8593750000,187850.9218750000,165875.1718750000,171623.9062500000,-82463.5078125000,,,
1.0799999982,8,205107.3750000000,194210.5468750000,203012.3593750000,188976.1562500000,187862.7031250000,165882.5000000000,171643.5312500000,-82462.7578125000,,,
1.0839999982,8,205094.9531250000,194201.2187500000,203003.9843750000,188946.6250000000,187855.1250000000,165878.0468750000,171644.4687500000,-82465.7890625000,,,
1.0879999981,8,205070.5937500000,194186.2187500000,202978.9531250000,188915.1406250000,187823.8593750000,165859.7343750000,171618.2500000000,-82483.8671875000,,,
1.0919999983,8,205056.8593750000,194178.2812500000,202963.1562500000,188901.8593750000,187801.4375000000,165840.5000000000,171596.8906250000,-82503.2031250000,,,
1.0959999983,8,205075.1562500000,194198.1093750000,202979.3125000000,188937.7187500000,187819.4531250000,165856.7031250000,171611.1875000000,-82489.3906250000,,,
1.0999999982,8,205087.4375000000,194210.0625000000,202993.0156250000,188968.1093750000,187839.5156250000,165876.8437500000,171625.9687500000,-82471.6640625000,,,
1.1039999982,8,205078.6718750000,194202.5781250000,202987.1875000000,188961.4687500000,187838.2343750000,165879.5000000000,171622.9843750000,-82467.5078125000,,,
1.1079999981,8,205080.2343750000,194202.3593750000,202988.2968750000,188956.2812500000,187837.7500000000,165883.0937500000,171621.8125000000,-82466.0546875000,,,
1.1119999983,8,205068.6718750000,194200.0937500000,202969.5156250000,188926.6718750000,187816.1093750000,165862.7656250000,171602.8750000000,-82475.9296875000,,,
1.1159999983,8,205078.8906250000,194207.0625000000,202978.5625000000,188929.7812500000,187824.8750000000,165867.1875000000,171612.5781250000,-82473.3515625000,,,
1.1199999982,8,205089.2187500000,194213.4218750000,202991.9687500000,188940.9375000000,187842.4687500000,165880.5937500000,171631.2500000000,-82464.9296875000,,,
1.1239999982,8,205060.2500000000,194185.1250000000,202965.0156250000,188914.9531250000,187818.4375000000,165854.1562500000,171609.4218750000,-82489.0703125000,,,
1.1279999982,8,205040.8750000000,194171.1718750000,202943.3906250000,188894.9375000000,187792.2343750000,165834.5468750000,171587.1875000000,-82503.9062500000,,,
1.1319999981,8,205051.9843750000,194188.1562500000,202949.0781250000,188911.1250000000,187793.1250000000,165843.9375000000,171588.2812500000,-82495.1328125000,,,
1.1359999983,8,205078.4375000000,194208.3437500000,202973.3593750000,188948.4062500000,187820.0781250000,165868.0625000000,171610.5781250000,-82477.7265625000,,,
1.1399999983,8,205065.0781250000,194186.4375000000,202962.2187500000,188938.1562500000,187814.3593750000,165859.4062500000,171601.7812500000,-82494.9453125000,,,
1.1439999982,8,205058.4687500000,194174.9531250000,202959.5625000000,188924.2343750000,187814.9062500000,165856.8906250000,171605.8593750000,-82495.2656250000,,,
1.1479999982,8,205059.7968750000,194186.1875000000,202957.4218750000,188905.0000000000,187810.0156250000,165854.0468750000,171605.6093750000,-82485.5859375000,,,
1.1519999981,9,205055.9843750000,194175.1718750000,202949.7187500000,188902.7187500000,187800.3593750000,165842.3281250000,171600.3281250000,-82498.9687500000,,,
1.1559999981,9,205061.9687500000,194171.5156250000,202954.9531250000,188925.3125000000,187807.2343750000,165837.5781250000,171606.3593750000,-82505.9375000000,,,
1.1599999981,9,205076.9062500000,194182.7812500000,202973.2187500000,188943.9531250000,187829.2812500000,165852.9687500000,171626.7968750000,-82494.5703125000,,,
1.1639999980,9,205066.1250000000,194167.9531250000,202969.1093750000,188922.2031250000,187827.4218750000,165852.0781250000,171626.2656250000,-82502.2421875000,,,
1.1679999980,9,205054.3437500000,194159.7500000000,202957.9843750000,188907.5468750000,187810.6093750000,165835.7187500000,171612.4218750000,-82510.0156250000,,,
1.1719999979,9,205043.2656250000,194157.2812500000,202942.6875000000,188915.5468750000,187787.3593750000,165816.2968750000,171590.1406250000,-82524.2031250000,,,
1.1759999981,9,205068.8281250000,194182.8593750000,202968.0937500000,188951.4375000000,187810.7187500000,165836.6562500000,171608.8906250000,-82507.6875000000,,,
1.1799999981,9,205068.0000000000,194177.2812500000,202970.9062500000,188936.0156250000,187815.5156250000,165841.5156250000,171609.0781250000,-82510.4453125000,,,
1.1839999980,9,205063.4375000000,194171.0312500000,202970.7187500000,188923.9687500000,187817.7656250000,165849.7031250000,171607.3750000000,-82506.0781250000,,,
1.1879999980,9,205060.7343750000,194175.6562500000,202966.6250000000,188927.9843750000,187811.5937500000,165847.0156250000,171607.5468750000,-82500.4921875000,33029,1.1888382586,0.0000000000
1.1919999979,9,205048.5781250000,194179.9375000000,202950.5000000000,188926.8593750000,187791.0625000000,165830.9531250000,171594.0781250000,-82508.5703125000,,,
1.1959999981,9,205074.1875000000,194205.3906250000,202979.7656250000,188955.9062500000,187822.0312500000,165860.5000000000,171625.2656250000,-82486.1718750000,,,
1.1999999981,9,205090.8281250000,194216.3125000000,203000.3125000000,188970.9843750000,187848.6093750000,165881.6718750000,171647.5312500000,-82471.6875000000,,,
1.2039999980,9,205072.2343750000,194202.1562500000,202984.9375000000,188941.8906250000,187838.1562500000,165868.1562500000,171634.9531250000,-82479.6015625000,,,
1.2079999980,9,205064.0000000000,194200.5937500000,202973.9375000000,188920.9843750000,187825.8125000000,165857.1250000000,171624.0156250000,-82479.4140625000,,,
1.2119999980,9,205067.0781250000,194207.4062500000,202971.6875000000,188928.3125000000,187819.1093750000,165852.7812500000,171621.3281250000,-82479.8437500000,,,
1.2159999979,9,205070.0156250000,194206.1562500000,202974.1093750000,188933.7812500000,187821.0625000000,165850.5625000000,171619.2343750000,-82487.1640625000,,,
1.2199999981,9,205078.3281250000,194203.3906250000,202986.9531250000,188934.0000000000,187838.9843750000,165864.0468750000,171635.4062500000,-82485.9062500000,,,
1.2239999981,9,205070.1718750000,194196.1718750000,202981.3125000000,188919.7500000000,187836.5156250000,165866.8437500000,171639.4062500000,-82485.5000000000,,,
1.2279999980,9,205055.2343750000,194186.0000000000,202963.8906250000,188908.0312500000,187817.4218750000,165852.2500000000,171624.2187500000,-82497.5468750000,,,
1.2319999980,9,205050.3437500000,194186.8906250000,202955.2812500000,188885.9531250000,187805.3281250000,165839.9843750000,171614.5468750000,-82504.4921875000,,,
1.2359999979,9,205065.0156250000,194193.5937500000,202969.5781250000,188900.0468750000,187819.3750000000,165845.8906250000,171626.0781250000,-82498.7500000000,,,
1.2399999981,9,205098.2500000000,194210.5781250000,203009.1406250000,188952.7968750000,187863.0468750000,165878.9375000000,171660.4375000000,-82472.4921875000,,,
1.2439999981,9,205096.9062500000,194205.0156250000,203009.7031250000,188953.4218750000,187866.6093750000,165881.2187500000,171661.4843750000,-82471.3125000000,,,
1.2479999980,9,205067.1718750000,194181.9218750000,202976.4687500000,188922.2812500000,187830.8593750000,165850.7500000000,171632.1875000000,-82496.5000000000,,,
1.2519999980,9,205058.6562500000,194180.1875000000,202966.7031250000,188918.2500000000,187814.1718750000,165834.8437500000,171617.8125000000,-82507.1250000000,,,
1.2559999980,9,205086.7656250000,194209.6406250000,202994.7343750000,188950.0937500000,187840.5937500000,165859.0000000000,171641.7187500000,-82485.7421875000,,,
1.2599999979,9,205095.0625000000,194210.1718750000,203005.7812500000,188962.0000000000,187855.0468750000,165879.3593750000,171662.0781250000,-82480.2421875000,,,
1.2639999981,9,205081.2968750000,194197.6718750000,202992.2031250000,188947.7031250000,187841.9375000000,165868.9218750000,171656.2812500000,-82489.1796875000,,,
1.2679999981,9,205071.6406250000,194195.6093750000,202979.9218750000,188940.1406250000,187824.6406250000,165860.2343750000,171641.2812500000,-82494.5390625000,,,
1.2719999980,9,205053.7343750000,194184.0937500000,202958.9687500000,188915.6250000000,187798.9062500000,165845.8906250000,171615.0468750000,-82513.3203125000,,,
1.2759999980,9,205076.2656250000,194208.4062500000,202981.2656250000,188942.4531250000,187821.6875000000,165868.4531250000,171637.9062500000,-82494.0078125000,,,
1.2799999979,10,205091.5781250000,194216.1875000000,202999.1875000000,188963.4218750000,187844.8906250000,165887.6718750000,171661.1250000000,-82478.7734375000,,,
1.2839999979,10,205089.5156250000,194213.7656250000,202999.2343750000,188952.6875000000,187848.4531250000,165890.7812500000,171665.3750000000,-82472.0937500000,,,
1.2879999978,10,205080.4375000000,194217.0156250000,202986.8125000000,188939.1406250000,187834.6093750000,165878.9375000000,171651.7656250000,-82472.3359375000,,,
1.2919999978,10,205066.8750000000,194209.9375000000,202970.7187500000,188930.4531250000,187815.1093750000,165871.1250000000,171629.5937500000,-82488.5859375000,,,
1.2959999978,10,205061.3437500000,194202.3906250000,202966.6250000000,188937.5312500000,187812.4375000000,165860.2656250000,171627.4687500000,-82504.2812500000,,,
1.2999999977,10,205073.7656250000,194206.4687500000,202983.0156250000,188951.2500000000,187833.9218750000,165871.0781250000,171656.8125000000,-82494.8671875000,,,
1.3039999979,10,205070.8437500000,194195.3437500000,202983.7343750000,188940.7031250000,187838.0781250000,165879.4375000000,171663.3125000000,-82491.2968750000,,,
1.3079999979,10,205060.5937500000,194190.4375000000,202971.2812500000,188921.7187500000,187822.4843750000,165871.0156250000,171650.4843750000,-82497.1406250000,,,
1.3119999978,10,205057.6093750000,194195.0781250000,202965.1250000000,188908.5156250000,187812.3437500000,165862.7343750000,171640.8281250000,-82503.6093750000,,,
1.3159999978,10,205069.2812500000,194205.1250000000,202974.1093750000,188931.2812500000,187820.9062500000,165861.7343750000,171643.9062500000,-82501.0078125000,,,
1.3199999977,10,205074.4062500000,194198.0156250000,202979.7968750000,188940.2187500000,187829.7812500000,165863.9062500000,171650.3750000000,-82503.5234375000,,,
1.3239999979,10,205070.5781250000,194175.4062500000,202978.9531250000,188925.6875000000,187831.8750000000,165869.4062500000,171655.3593750000,-82512.3281250000,,,
1.3279999979,10,205074.1875000000,194185.2812500000,202979.0312500000,188917.3750000000,187829.0156250000,165865.5781250000,171653.4375000000,-82500.0156250000,,,
1.3319999978,10,205067.1875000000,194185.2812500000,202970.1562500000,188907.3593750000,187813.9531250000,165845.5156250000,171639.6718750000,-82507.8750000000,,,
1.3359999978,10,205077.8750000000,194194.3125000000,202980.8906250000,188926.4375000000,187822.4687500000,165857.7500000000,171645.5000000000,-82507.0156250000,,,
1.3399999978,10,205104.3437500000,194214.8125000000,203011.8125000000,188963.6093750000,187855.9062500000,165892.7500000000,171680.7656250000,-82482.2578125000,,,
1.3439999977,10,205104.0156250000,194213.9218750000,203014.7343750000,188966.9687500000,187861.0312500000,165897.3281250000,171686.7187500000,-82476.1406250000,,,
1.3479999979,10,205090.6562500000,194215.1875000000,202997.5937500000,188946.5781250000,187841.4531250000,165879.1250000000,171662.3593750000,-82479.7890625000,,,
1.3519999979,10,205074.3593750000,194203.0156250000,202977.7031250000,188922.6250000000,187818.4062500000,165863.0000000000,171638.5000000000,-82497.0078125000,,,
1.3559999978,10,205088.1718750000,194214.5937500000,202991.1562500000,188944.1093750000,187832.8125000000,165876.1718750000,171648.2031250000,-82491.6484375000,,,
1.3599999978,10,205100.5625000000,194220.8750000000,203008.0000000000,188970.9531250000,187854.9218750000,165896.5781250000,171671.0781250000,-82479.9218750000,,,
1.3639999977,10,205099.9687500000,194219.2343750000,203011.8125000000,188974.9062500000,187861.4687500000,165904.9218750000,171682.1406250000,-82473.4296875000,,,
1.3679999979,10,205103.3437500000,194236.5937500000,203008.1875000000,188955.6406250000,187856.2343750000,165909.5937500000,171679.3125000000,-82459.1875000000,,,
1.3719999979,10,205092.0312500000,194236.9687500000,202986.7343750000,188936.5000000000,187830.0781250000,165888.5156250000,171656.9218750000,-82472.3828125000,,,
1.3759999978,10,205088.7812500000,194234.2812500000,202982.4218750000,188945.5781250000,187825.5000000000,165878.6875000000,171651.3750000000,-82482.7656250000,,,
1.3799999978,10,205092.8125000000,194229.0468750000,202994.5937500000,188956.6562500000,187841.9843750000,165885.8750000000,171668.3281250000,-82483.1171875000,,,
1.3839999977,10,205085.5156250000,194223.6406250000,202992.4218750000,188950.0625000000,187844.0000000000,165889.7656250000,171677.5000000000,-82480.3281250000,,,
1.3879999977,10,205069.5781250000,194211.6250000000,202974.4843750000,188908.2968750000,187825.1406250000,165873.7343750000,171658.6718750000,-82491.6484375000,,,
1.3919999979,10,205069.7343750000,194211.6250000000,202969.2187500000,188899.2656250000,187814.8437500000,165867.9375000000,171647.2968750000,-82497.2265625000,,,
1.3959999979,10,205092.9687500000,194230.3437500000,202988.8750000000,188938.7656250000,187834.0000000000,165883.2031250000,171668.0781250000,-82484.2187500000,,,
1.3999999978,10,205106.6718750000,194231.3281250000,203007.4218750000,188966.8281250000,187855.3281250000,165893.9218750000,171685.4843750000,-82478.8515625000,,,
1.4039999978,10,205106.7500000000,194224.7656250000,203010.9843750000,188962.7187500000,187861.6250000000,165895.5937500000,171688.5781250000,-82474.6093750000,,,
1.4079999977,11,205095.9687500000,194221.2968750000,202999.9531250000,188938.7656250000,187847.5625000000,165884.1562500000,171675.2656250000,-82477.8828125000,,,
1.4119999977,11,205089.9062500000,194218.6250000000,202990.4843750000,188940.0625000000,187833.2500000000,165873.7031250000,171657.9375000000,-82485.9296875000,,,
1.4159999976,11,205107.3750000000,194224.1718750000,203008.5937500000,188969.7500000000,187849.6406250000,165883.3593750000,171676.2343750000,-82485.1562500000,,,
1.4199999976,11,205123.8906250000,194227.7968750000,203028.5781250000,188979.2187500000,187871.8906250000,165902.0468750000,171699.6718750000,-82473.0000000000,,,
1.4239999976,11,205118.6406250000,194219.6875000000,203026.1875000000,188958.9687500000,187872.1875000000,165904.7343750000,171702.4375000000,-82469.2500000000,,,
1.4279999975,11,205121.6875000000,194226.3125000000,203028.7968750000,188946.2500000000,187873.6093750000,165906.3437500000,171707.6718750000,-82460.6953125000,,,
1.4319999977,11,205117.7500000000,194234.4218750000,203018.6875000000,188937.3281250000,187859.8750000000,165892.9375000000,171692.8125000000,-82465.9765625000,,,
1.4359999977,11,205125.7187500000,194235.9531250000,203025.3281250000,188959.0781250000,187865.7343750000,165893.6250000000,171696.3750000000,-82470.6718750000,,,
1.4399999976,11,205149.0000000000,194256.2500000000,203051.4531250000,188986.1406250000,187896.8906250000,165915.3593750000,171725.5000000000,-82447.9765625000,,,
1.4439999976,11,205127.1093750000,194239.3750000000,203032.8906250000,188952.0156250000,187882.8437500000,165907.6093750000,171714.5312500000,-82461.6875000000,,,
1.4479999975,11,205104.2343750000,194227.2031250000,203008.8906250000,188925.8437500000,187857.0156250000,165891.8593750000,171687.4375000000,-82475.5000000000,,,
1.4519999977,11,205099.8125000000,194229.5937500000,203001.3281250000,188939.0468750000,187844.1093750000,165891.2656250000,171675.1562500000,-82479.1484375000,,,
1.4559999977,11,205095.1718750000,194227.5000000000,202994.5937500000,188950.3906250000,187837.4531250000,165884.9375000000,171671.3750000000,-82490.9218750000,,,
1.4599999976,11,205108.0937500000,194238.2812500000,203011.5781250000,188973.0468750000,187858.9687500000,165896.4687500000,171693.9375000000,-82479.2031250000,,,
1.4639999976,11,205102.0000000000,194224.6093750000,203010.3437500000,188959.6093750000,187861.9687500000,165901.0937500000,171699.1093750000,-82479.8984375000,,,
1.4679999975,11,205079.0000000000,194209.8437500000,202987.3593750000,188910.7968750000,187836.6562500000,165879.9218750000,171677.4375000000,-82495.2109375000,,,
1.4719999975,11,205071.0000000000,194211.6406250000,202973.0781250000,188894.1093750000,187819.7500000000,165867.8281250000,171660.8906250000,-82501.7812500000,,,
1.4759999977,11,205082.4062500000,194223.7656250000,202980.8906250000,188921.4687500000,187826.9218750000,165874.2187500000,171670.0937500000,-82496.7656250000,,,
1.4799999977,11,205083.5781250000,194215.5312500000,202986.4218750000,188931.2812500000,187836.2187500000,165883.5468750000,171683.2656250000,-82501.2968750000,,,
1.4839999976,11,205086.5781250000,194214.7343750000,202992.7656250000,188934.8281250000,187844.6250000000,165892.4218750000,171693.2656250000,-82493.2578125000,,,
1.4879999976,11,205089.1875000000,194220.5781250000,202993.6093750000,188939.2812500000,187841.0468750000,165888.3281250000,171685.5625000000,-82486.2812500000,,,
1.4919999975,11,205094.4375000000,194232.4062500000,202994.4375000000,188950.8906250000,187834.6406250000,165882.8750000000,171680.8750000000,-82487.0078125000,,,
1.4959999977,11,205116.2812500000,194246.9375000000,203015.4375000000,188971.0625000000,187853.7343750000,165902.6406250000,171700.2968750000,-82475.4687500000,,,
1.4999999977,11,205126.4687500000,194240.3750000000,203030.2656250000,188970.6562500000,187873.1562500000,165922.4687500000,171716.2031250000,-82473.1406250000,,,
1.5039999976,11,205099.6406250000,194213.9062500000,203006.7968750000,188927.6718750000,187854.0000000000,165902.2656250000,171698.5781250000,-82491.4062500000,,,
1.5079999976,11,205082.9062500000,194204.0625000000,202989.2031250000,188900.9218750000,187835.7343750000,165882.7968750000,171682.4531250000,-82501.6484375000,,,
1.5119999975,11,205089.6718750000,194209.4687500000,202993.1718750000,188917.7656250000,187837.1562500000,165880.4062500000,171686.1562500000,-82501.1953125000,,,
1.5159999975,11,205101.4218750000,194218.7500000000,203004.1250000000,188944.1875000000,187848.4843750000,165885.0156250000,171693.2187500000,-82498.6171875000,,,
1.5199999977,11,205110.5312500000,194217.5781250000,203017.0781250000,188951.4843750000,187864.4062500000,165894.8125000000,171705.0937500000,-82495.2890625000,,,
1.5239999976,11,205104.3125000000,194212.3125000000,203012.7031250000,188937.1093750000,187862.0000000000,165898.0000000000,171713.8593750000,-82494.0312500000,,,
1.5279999976,11,205091.4062500000,194207.7343750000,202997.1406250000,188922.0312500000,187844.0312500000,165894.5937500000,171700.9375000000,-82499.1562500000,,,
1.5319999976,11,205085.5937500000,194214.7812500000,202987.5625000000,188918.0312500000,187829.2500000000,165885.0468750000,171684.6562500000,-82504.4687500000,,,
1.5359999975,12,205099.2656250000,194234.5312500000,203001.1875000000,188943.3125000000,187841.1093750000,165892.1093750000,171694.1562500000,-82495.4765625000,,,
1.5399999975,12,205110.9375000000,194239.5937500000,203017.3437500000,188964.5000000000,187860.2031250000,165905.6250000000,171714.1875000000,-82488.0468750000,,,
1.5439999974,12,205100.5781250000,194224.7656250000,203011.3281250000,188951.6718750000,187860.0156250000,165905.2968750000,171717.9375000000,-82491.9140625000,,,
1.5479999974,12,205080.2343750000,194214.3281250000,202988.2656250000,188935.9218750000,187835.8281250000,165884.5625000000,171695.3281250000,-82502.5859375000,,,
1.5519999973,12,205072.8593750000,194217.4687500000,202976.2812500000,188923.4062500000,187818.8750000000,165873.1718750000,171676.9843750000,-82507.7343750000,,,
1.5559999973,12,205083.2812500000,194225.2500000000,202985.3906250000,188919.5625000000,187828.5000000000,165889.5781250000,171691.6875000000,-82504.4921875000,,,
1.5599999975,12,205102.5937500000,194235.7656250000,203004.2812500000,188956.1562500000,187853.7187500000,165914.0156250000,171717.9687500000,-82487.1640625000,,,
1.5639999975,12,205103.1562500000,194231.4218750000,203006.5625000000,188953.3593750000,187861.3750000000,165923.0781250000,171727.3593750000,-82480.2187500000,,,
1.5679999974,12,205086.3437500000,194222.7187500000,202985.9375000000,188931.2812500000,187838.4687500000,165904.0156250000,171706.1718750000,-82491.4062500000,,,
1.5719999974,12,205069.2500000000,194213.7187500000,202963.9687500000,188912.5468750000,187811.9531250000,165879.4687500000,171677.8750000000,-82511.1171875000,,,
1.5759999973,12,205083.6406250000,194223.9843750000,202978.1250000000,188932.3593750000,187826.1093750000,165887.1093750000,171690.2812500000,-82505.9140625000,,,
1.5799999975,12,205088.7031250000,194219.2656250000,202984.9062500000,188943.6562500000,187836.2812500000,165893.6093750000,171701.4531250000,-82509.0546875000,,,
1.5839999975,12,205076.0468750000,194191.3906250000,202978.7656250000,188927.0781250000,187833.7500000000,165887.5625000000,171699.8906250000,-82520.2343750000,,,
1.5879999974,12,205070.4687500000,194193.1093750000,202972.2812500000,188910.4687500000,187824.3437500000,165876.6875000000,171682.8906250000,-82520.2656250000,,,
1.5919999974,12,205057.1406250000,194182.3593750000,202958.0312500000,188900.3125000000,187802.9062500000,165853.6406250000,171660.8906250000,-82539.6015625000,,,
1.5959999973,12,205079.8750000000,194199.7187500000,202982.3125000000,188924.3437500000,187823.7968750000,165869.5937500000,171677.5000000000,-82526.1093750000,,,
1.5999999973,12,205102.5156250000,194209.2812500000,203005.4843750000,188941.7031250000,187850.5781250000,165886.3906250000,171694.8750000000,-82511.2500000000,,,
1.6039999975,12,205104.6093750000,194203.7812500000,203011.5781250000,188941.1250000000,187860.7656250000,165898.5156250000,171713.3750000000,-82501.6484375000,,,
1.6079999974,12,205087.5781250000,194201.8281250000,202991.4531250000,188922.5468750000,187840.8593750000,165892.2343750000,171709.1250000000,-82506.0468750000,,,
1.6119999974,12,205079.9375000000,194200.5937500000,202981.2187500000,188907.6875000000,187826.8906250000,165880.0625000000,171698.1718750000,-82517.3437500000,,,
1.6159999974,12,205089.0468750000,194212.2968750000,202991.8125000000,188921.7343750000,187837.3750000000,165889.7656250000,171713.0312500000,-82513.1328125000,,,
1.6199999973,12,205105.4375000000,194223.9375000000,203011.6250000000,188942.6406250000,187863.6093750000,165911.1250000000,171731.3750000000,-82496.8984375000,,,
1.6239999975,12,205099.7343750000,194215.2187500000,203008.5468750000,188932.5781250000,187865.9218750000,165910.6875000000,171734.8593750000,-82496.7109375000,,,
1.6279999975,12,205085.0312500000,194210.2500000000,202992.2343750000,188907.5781250000,187848.2187500000,165904.5781250000,171729.6406250000,-82505.0000000000,,,
1.6319999974,12,205077.9531250000,194215.1562500000,202982.2031250000,188904.8437500000,187834.8593750000,165897.3281250000,171716.7031250000,-82507.5000000000,,,
1.6359999974,12,205091.7656250000,194232.4375000000,202995.8750000000,188933.0312500000,187848.8593750000,165906.0468750000,171727.3593750000,-82494.6250000000,,,
1.6399999973,12,205118.5781250000,194248.2031250000,203027.7187500000,188965.0000000000,187886.0000000000,165941.6093750000,171772.0156250000,-82469.6484375000,,,
1.6439999973,12,205105.9531250000,194230.4687500000,203016.7187500000,188946.0468750000,187877.8750000000,165935.7656250000,171765.7968750000,-82478.8515625000,,,
1.6479999975,12,205093.6093750000,194228.1093750000,203002.9062500000,188921.0468750000,187862.8281250000,165927.2656250000,171751.6875000000,-82482.2578125000,,,
1.6519999974,12,205104.5625000000,194246.0000000000,203011.0156250000,188938.6718750000,187867.7343750000,165934.2656250000,171763.9218750000,-82471.9062500000,,,
1.6559999974,12,205115.9531250000,194256.6875000000,203018.7812500000,188966.3750000000,187875.0312500000,165931.6093750000,171771.0781250000,-82469.3046875000,,,
1.6599999974,12,205132.3750000000,194266.5000000000,203035.6875000000,188976.7812500000,187896.1718750000,165948.0781250000,171783.6875000000,-82457.6328125000,,,
1.6639999973,13,205127.2500000000,194248.2343750000,203034.3437500000,188949.5312500000,187900.3593750000,165958.9218750000,171788.0625000000,-82463.2968750000,,,
1.6679999973,13,205105.7343750000,194235.3906250000,203013.7187500000,188907.5000000000,187878.4687500000,165939.3437500000,171765.6562500000,-82475.8203125000,,,
1.6719999972,13,205106.7343750000,194245.5000000000,203011.8125000000,188909.6406250000,187870.4687500000,165929.4687500000,171754.9218750000,-82475.1484375000,,,
1.6759999972,13,205124.0000000000,194252.6562500000,203027.4062500000,188936.6875000000,187882.3906250000,165929.9218750000,171764.2343750000,-82470.6406250000,,,
1.6799999971,13,205147.3593750000,194260.2812500000,203052.4531250000,188962.4531250000,187907.9218750000,165947.3281250000,171789.5000000000,-82458.6562500000,,,
1.6839999971,13,205135.6093750000,194241.5312500000,203046.5000000000,188945.6406250000,187903.8906250000,165938.7187500000,171786.5000000000,-82468.2578125000,,,
1.6879999973,13,205112.8437500000,194222.6718750000,203025.9531250000,188915.8125000000,187881.6406250000,165920.3750000000,171765.7343750000,-82485.3437500000,,,
1.6919999972,13,205112.4218750000,194232.5625000000,203019.7343750000,188922.0625000000,187871.0312500000,165912.6718750000,171750.7656250000,-82482.9531250000,,,
1.6959999972,13,205137.0937500000,194262.3125000000,203039.6250000000,188963.0468750000,187890.0625000000,165927.7187500000,171765.5781250000,-82462.2734375000,,,
1.6999999972,13,205146.0156250000,194261.6406250000,203052.2343750000,188972.9375000000,187905.9531250000,165934.8281250000,171779.2343750000,-82462.0312500000,,,
1.7039999971,13,205141.6718750000,194252.5312500000,203054.0937500000,188951.4843750000,187910.3125000000,165945.4843750000,171783.0156250000,-82464.0156250000,,,
1.7079999973,13,205114.2968750000,194238.4687500000,203025.3125000000,188927.0000000000,187877.7187500000,165914.7656250000,171749.3750000000,-82482.2265625000,,,
1.7119999973,13,205107.7968750000,194244.9531250000,203013.0000000000,188935.6406250000,187860.2031250000,165897.0156250000,171725.2656250000,-82486.6328125000,,,
1.7159999972,13,205130.2500000000,194263.0312500000,203031.3906250000,188963.2031250000,187877.4687500000,165910.0468750000,171740.0156250000,-82477.3750000000,,,
1.7199999972,13,205138.2656250000,194265.7187500000,203039.0156250000,188972.7500000000,187889.5468750000,165918.3593750000,171756.6406250000,-82473.4609375000,,,
1.7239999971,13,205125.1562500000,194248.1718750000,203029.0312500000,188953.5312500000,187883.8125000000,165917.8593750000,171754.5781250000,-82477.4843750000,,,
1.7279999971,13,205126.5468750000,194256.0625000000,203029.0156250000,188957.5000000000,187881.8750000000,165910.9843750000,171755.2187500000,-82467.5546875000,,,
1.7319999973,13,205124.2500000000,194258.1875000000,203024.0937500000,188948.4531250000,187872.5625000000,165903.2656250000,171740.7343750000,-82473.2187500000,,,
1.7359999972,13,205140.4218750000,194274.0156250000,203041.1093750000,188969.3437500000,187887.0468750000,165914.4687500000,171755.8750000000,-82466.5937500000,,,
1.7399999972,13,205158.0156250000,194277.9218750000,203063.2343750000,189001.8593750000,187912.7968750000,165942.0937500000,171790.7968750000,-82455.3281250000,,,
1.7439999972,13,205132.2968750000,194251.0781250000,203041.1875000000,188964.7656250000,187895.9531250000,165933.4687500000,171780.3281250000,-82473.3828125000,,,
1.7479999971,13,205123.1406250000,194247.9062500000,203031.9375000000,188948.6718750000,187885.1250000000,165920.0312500000,171771.2656250000,-82474.0781250000,,,
1.7519999973,13,205123.0625000000,194256.9687500000,203026.8281250000,188951.1562500000,187872.8906250000,165904.5781250000,171755.6562500000,-82474.5625000000,,,
1.7559999973,13,205135.1875000000,194266.4687500000,203038.7187500000,188975.4687500000,187882.0156250000,165913.6718750000,171761.7187500000,-82471.9296875000,,,
1.7599999972,13,205154.0468750000,194276.9375000000,203058.9218750000,189009.6875000000,187906.6875000000,165937.5937500000,171786.7656250000,-82458.8125000000,,,
1.7639999972,13,205136.7656250000,194250.3750000000,203044.1406250000,189001.4218750000,187896.6562500000,165930.7500000000,171778.9062500000,-82476.0078125000,,,
1.7679999971,13,205109.6718750000,194229.1875000000,203018.6562500000,188947.7812500000,187870.7656250000,165902.7187500000,171757.8593750000,-82494.2500000000,,,
1.7719999971,13,205116.3906250000,194243.3281250000,203023.0312500000,188950.3281250000,187871.5156250000,165908.2812500000,171761.8281250000,-82483.4921875000,,,
1.7759999973,13,205136.8750000000,194259.3125000000,203043.3281250000,188972.6718750000,187891.2031250000,165929.8125000000,171780.0625000000,-82472.2812500000,,,
1.7799999972,13,205153.1093750000,194260.0625000000,203061.6718750000,188988.9218750000,187913.3593750000,165942.3125000000,171799.1562500000,-82469.5703125000,,,
1.7839999972,13,205150.6093750000,194254.0000000000,203062.1093750000,188992.1718750000,187917.4062500000,165947.6718750000,171798.6718750000,-82468.7421875000,,,
1.7879999971,13,205133.0625000000,194250.6406250000,203041.6718750000,188962.8593750000,187895.6093750000,165935.0781250000,171776.3281250000,-82476.1953125000,,,
1.7919999971,14,205114.4843750000,194248.0156250000,203019.3593750000,188944.7343750000,187867.1250000000,165917.6093750000,171750.9531250000,-82490.2500000000,,,
1.7959999971,14,205120.9687500000,194256.7031250000,203023.0000000000,188964.5000000000,187868.1406250000,165917.0000000000,171753.2656250000,-82491.5937500000,,,
1.7999999970,14,205130.0312500000,194252.6562500000,203035.7656250000,188987.7500000000,187884.8281250000,165930.3281250000,171774.0781250000,-82489.0468750000,,,
1.8039999970,14,205132.5312500000,194252.2031250000,203040.9375000000,188988.8750000000,187895.9843750000,165947.8125000000,171785.4218750000,-82478.3125000000,,,
1.8079999969,14,205123.6562500000,194255.2343750000,203028.3906250000,188956.1718750000,187883.0000000000,165938.7187500000,171771.2031250000,-82477.0546875000,,,
1.8119999969,14,205112.2812500000,194258.2968750000,203010.8750000000,188937.3281250000,187860.6250000000,165920.0781250000,171746.5937500000,-82483.4140625000,,,
1.8159999971,14,205120.5937500000,194258.4531250000,203016.7968750000,188950.6562500000,187865.5937500000,165928.2343750000,171751.6875000000,-82486.9765625000,,,
1.8199999970,14,205145.1406250000,194276.4531250000,203041.4843750000,188977.3125000000,187893.7500000000,165950.7968750000,171781.5937500000,-82465.7109375000,,,
1.8239999970,14,205132.0156250000,194260.1875000000,203032.5468750000,188963.8750000000,187890.0625000000,165945.6406250000,171780.0625000000,-82475.8437500000,,,
1.8279999970,14,205110.9375000000,194244.4843750000,203013.9531250000,188950.5468750000,187869.2343750000,165927.0781250000,171763.2500000000,-82490.3828125000,,,
1.8319999969,14,205100.7187500000,194243.3437500000,203000.2031250000,188944.4531250000,187849.9062500000,165908.2031250000,171742.8906250000,-82501.3828125000,,,
1.8359999971,14,205110.8125000000,194251.2031250000,203009.5312500000,188954.2500000000,187856.5312500000,165912.3750000000,171746.0468750000,-82498.8046875000,,,
1.8399999971,14,205120.4531250000,194252.9531250000,203021.6562500000,188971.7968750000,187870.6875000000,165919.0000000000,171753.3437500000,-82495.8828125000,,,
1.8439999970,14,205109.5156250000,194234.7187500000,203015.0625000000,188959.2968750000,187868.1093750000,165912.2968750000,171752.0937500000,-82506.7968750000,,,
1.8479999970,14,205099.7031250000,194226.6718750000,203004.4687500000,188939.6562500000,187856.6406250000,165899.9062500000,171748.1406250000,-82507.6562500000,,,
1.8519999969,14,205107.5312500000,194234.9062500000,203008.6718750000,188958.1093750000,187856.1562500000,165901.3906250000,171752.7500000000,-82502.0546875000,,,
1.8559999969,14,205118.6562500000,194240.9062500000,203022.4375000000,188981.8750000000,187867.3437500000,165908.3281250000,171763.9218750000,-82502.7734375000,,,
1.8599999971,14,205139.3750000000,194251.2031250000,203050.0156250000,188991.7187500000,187899.5468750000,165927.2656250000,171789.3125000000,-82487.5937500000,,,
1.8639999970,14,205147.3906250000,194258.0468750000,203062.1875000000,188983.4531250000,187916.3125000000,165942.7656250000,171806.7500000000,-82472.7656250000,,,
1.8679999970,14,205138.2187500000,194247.1250000000,203052.1875000000,188971.8125000000,187904.2187500000,165939.1562500000,171800.4531250000,-82479.5781250000,,,
1.8719999969,14,205122.1562500000,194239.1093750000,203029.8437500000,188961.7343750000,187876.2656250000,165910.3125000000,171772.3437500000,-82497.2812500000,,,
1.8759999969,14,205132.1093750000,194257.7031250000,203035.9531250000,188983.8593750000,187879.3593750000,165908.7343750000,171772.4375000000,-82491.3515625000,,,
1.8799999971,14,205154.6562500000,194271.1718750000,203060.5000000000,189004.5625000000,187906.2812500000,165934.7187500000,171799.6406250000,-82477.8281250000,,,
1.8839999971,14,205154.3437500000,194263.5781250000,203062.8593750000,189000.0000000000,187914.9531250000,165955.2968750000,171811.7656250000,-82472.8984375000,,,
1.8879999970,14,205139.5000000000,194264.7500000000,203043.6562500000,188986.1875000000,187894.9843750000,165943.6250000000,171794.0156250000,-82474.5078125000,,,
1.8919999970,14,205127.6250000000,194266.8437500000,203027.0468750000,188977.5781250000,187873.1875000000,165922.0625000000,171769.5781250000,-82485.6093750000,,,
1.8959999969,14,205121.9843750000,194262.2343750000,203019.3281250000,188974.1562500000,187864.5937500000,165913.7500000000,171760.0468750000,-82500.1718750000,,,
1.8999999969,14,205124.4531250000,194253.5625000000,203024.7968750000,188974.3593750000,187873.6718750000,165923.5156250000,171773.7343750000,-82503.1796875000,,,
1.9039999971,14,205115.6093750000,194240.3437500000,203019.1093750000,188968.2500000000,187871.5468750000,165916.2656250000,171771.9062500000,-82506.7187500000,,,
1.9079999970,14,205107.0156250000,194240.5312500000,203007.7968750000,188942.1718750000,187858.5625000000,165911.5156250000,171758.4375000000,-82503.0468750000,,,
1.9119999970,14,205100.5625000000,194243.3750000000,202995.4218750000,188931.8281250000,187841.4531250000,165902.8906250000,171739.7500000000,-82507.8750000000,,,
1.9159999969,14,205126.4687500000,194270.9843750000,203019.8125000000,188963.3437500000,187864.8437500000,165924.4218750000,171757.5000000000,-82484.9140625000,,,
1.9199999969,15,205145.1562500000,194277.2500000000,203042.3437500000,188983.2656250000,187891.2343750000,165945.9375000000,171782.9375000000,-82474.6406250000,,,
1.9239999969,15,205142.7031250000,194270.3125000000,203046.2812500000,188979.2968750000,187897.4375000000,165944.8281250000,171793.2031250000,-82475.5000000000,,,
1.9279999968,15,205128.3437500000,194265.2031250000,203032.9218750000,188956.1250000000,187882.8906250000,165929.0312500000,171782.2343750000,-82482.5000000000,,,
1.9319999968,15,205114.5625000000,194252.4218750000,203018.9218750000,188946.0937500000,187866.0468750000,165910.2343750000,171764.1093750000,-82503.3906250000,,,
1.9359999967,15,205121.1875000000,194254.0312500000,203029.0156250000,188967.0468750000,187874.9531250000,165905.6406250000,171771.3906250000,-82505.0000000000,,,
1.9399999967,15,205130.4375000000,194258.0156250000,203040.0781250000,188980.3437500000,187889.1093750000,165919.8437500000,171787.2968750000,-82499.5859375000,,,
1.9439999969,15,205112.6093750000,194231.2031250000,203026.1718750000,188955.7031250000,187881.7968750000,165912.4531250000,171789.2343750000,-82515.5937500000,,,
1.9479999968,15,205109.7343750000,194229.5312500000,203023.0468750000,188943.2187500000,187877.4531250000,165906.2343750000,171786.4531250000,-82509.5078125000,,,
1.9519999968,15,205098.5781250000,194218.7343750000,203009.0468750000,188943.8906250000,187858.4062500000,165891.2500000000,171768.6406250000,-82522.3828125000,,,
1.9559999967,15,205095.2187500000,194215.7812500000,203004.3125000000,188942.0781250000,187852.0000000000,165884.7187500000,171760.1875000000,-82530.1640625000,,,
1.9599999967,15,205105.5156250000,194216.8437500000,203016.4062500000,188945.0000000000,187868.4843750000,165896.3437500000,171772.3437500000,-82526.2734375000,,,
1.9639999969,15,205102.0000000000,194210.1718750000,203016.2656250000,188938.5625000000,187870.7500000000,165899.9062500000,171770.7343750000,-82525.7343750000,,,
1.9679999969,15,205103.1875000000,194225.9687500000,203013.4531250000,188932.8125000000,187866.4531250000,165902.6718750000,171765.9843750000,-82514.9296875000,,,
1.9719999968,15,205083.8437500000,194219.4843750000,202986.9531250000,188918.8437500000,187835.2812500000,165884.1406250000,171736.4687500000,-82534.1562500000,,,
1.9759999968,15,205092.1093750000,194222.4218750000,202993.3125000000,188936.0312500000,187839.8437500000,165889.3906250000,171741.5468750000,-82535.5234375000,,,
1.9799999967,15,205107.7500000000,194229.3281250000,203010.3437500000,188958.0625000000,187861.7500000000,165907.4375000000,171761.9375000000,-82526.5156250000,,,
1.9839999967,15,205095.5625000000,194215.2656250000,203000.5156250000,188936.0312500000,187859.3437500000,165904.7656250000,171756.0625000000,-82530.8593750000,,,
1.9879999969,15,205083.9531250000,194216.3437500000,202990.6250000000,188909.4531250000,187849.8281250000,165897.3906250000,171743.1250000000,-82529.2187500000,,,
1.9919999968,15,205080.3593750000,194226.7500000000,202984.2656250000,188912.7500000000,187839.3593750000,165893.1562500000,171734.8906250000,-82525.5234375000,,,
1.9959999968,15,205105.6875000000,194251.1093750000,203006.4218750000,188952.6875000000,187859.9375000000,165916.4531250000,171761.2812500000,-82504.1406250000,,,
1.9999999967,15,205113.8906250000,194251.4843750000,203016.0312500000,188967.2031250000,187872.6406250000,165928.2656250000,171775.6562500000,-82501.5390625000,,,
2.0039999967,15,205091.0625000000,194229.2500000000,202994.6718750000,188935.4687500000,187856.0937500000,165916.1406250000,171760.2656250000,-82517.1250000000,,,
2.0079999969,15,205077.5937500000,194225.7031250000,202981.0781250000,188916.0000000000,187840.5468750000,165900.7968750000,171742.8593750000,-82524.2890625000,,,
2.0119999968,15,205068.2187500000,194214.4687500000,202971.2812500000,188905.5156250000,187827.0156250000,165885.1875000000,171729.3750000000,-82539.2812500000,,,
2.0159999968,15,205086.1562500000,194231.3593750000,202988.2187500000,188927.9843750000,187842.5312500000,165896.5625000000,171744.6875000000,-82527.1875000000,,,
2.0199999968,15,205093.8281250000,194232.9375000000,202999.1562500000,188943.3125000000,187857.4062500000,165907.8750000000,171759.5468750000,-82522.4375000000,,,
2.0239999967,15,205092.0781250000,194222.3437500000,203003.9218750000,188938.7968750000,187866.6093750000,165910.5000000000,171770.2187500000,-82522.1953125000,,,
2.0279999967,15,205090.2656250000,194231.2031250000,203001.3281250000,188931.1562500000,187862.7812500000,165908.5468750000,171767.0468750000,-82512.8046875000,,,
2.0319999969,15,205092.3437500000,194233.7500000000,202999.3437500000,188934.1093750000,187856.0781250000,165901.6562500000,171762.4062500000,-82513.6640625000,,,
2.0359999968,15,205093.0468750000,194228.2187500000,202998.1406250000,188925.7343750000,187851.8281250000,165895.7968750000,171760.9843750000,-82523.2968750000,,,
2.0399999968,15,205108.5312500000,194233.2656250000,203014.5000000000,188944.5937500000,187869.7500000000,165913.4062500000,171777.3593750000,-82514.3125000000,,,
2.0439999967,15,205119.1718750000,194232.0625000000,203028.0625000000,188957.6875000000,187886.9687500000,165922.6250000000,171794.4062500000,-82504.4140625000,,,
2.0479999967,16,205121.3125000000,194235.8437500000,203028.2031250000,188956.2343750000,187886.1718750000,165922.9218750000,171793.9062500000,-82500.7109375000,,,
2.0519999966,16,205099.0000000000,194229.0781250000,203000.2812500000,188938.2656250000,187853.4375000000,165895.1562500000,171764.3437500000,-82524.5312500000,,,
2.0559999966,16,205106.3281250000,194239.7031250000,203005.1562500000,188949.7187500000,187856.6093750000,165895.0312500000,171769.8750000000,-82526.8359375000,,,
2.0599999966,16,205123.9218750000,194250.6718750000,203025.6250000000,188966.7187500000,187880.6093750000,165919.8437500000,171794.1406250000,-82515.0859375000,,,
2.0639999965,16,205122.0468750000,194241.6562500000,203029.1718750000,188965.9218750000,187886.2500000000,165932.0468750000,171805.2812500000,-82514.2265625000,,,
2.0679999965,16,205111.1250000000,194245.1406250000,203015.3593750000,188955.1562500000,187870.1250000000,165921.8750000000,171795.4375000000,-82513.1015625000,,,
2.0719999967,16,205087.5156250000,194239.6562500000,202984.6250000000,188932.8437500000,187834.6875000000,165891.5937500000,171761.4218750000,-82528.5781250000,,,
2.0759999966,16,205098.2500000000,194247.1875000000,202993.8750000000,188956.2031250000,187841.6718750000,165903.8437500000,171767.8593750000,-82524.8515625000,,,
2.0799999966,16,205119.9218750000,194259.5000000000,203016.9375000000,188978.6562500000,187867.6250000000,165928.1250000000,171793.5468750000,-82511.6015625000,,,
2.0839999965,16,205106.0312500000,194238.3906250000,203009.0000000000,188946.2500000000,187864.0625000000,165925.6250000000,171792.1093750000,-82518.3593750000,,,
2.0879999965,16,205098.1406250000,194238.3281250000,202999.9843750000,188925.3906250000,187856.7187500000,165917.9531250000,171785.0312500000,-82516.0546875000,,,
2.0919999967,16,205086.7187500000,194238.4375000000,202984.5156250000,188912.9218750000,187838.9062500000,165902.9687500000,171767.7187500000,-82526.6718750000,,,
2.0959999966,16,205090.1250000000,194229.0468750000,202989.6406250000,188928.7656250000,187842.3125000000,165900.0937500000,171768.3125000000,-82536.8125000000,,,
2.0999999966,16,205107.6406250000,194237.6875000000,203010.6875000000,188945.5312500000,187867.1250000000,165921.5781250000,171784.5468750000,-82525.0390625000,,,
2.1039999966,16,205121.0000000000,194243.9687500000,203029.7031250000,188956.9843750000,187888.4218750000,165940.9218750000,171811.0156250000,-82507.2031250000,,,
2.1079999965,16,205116.7812500000,194248.6406250000,203023.1875000000,188942.2343750000,187880.3437500000,165941.4062500000,171808.3593750000,-82503.1796875000,,,
2.1119999965,16,205103.4218750000,194245.3593750000,203005.2656250000,188930.6250000000,187857.9531250000,165921.4218750000,171787.2812500000,-82515.7812500000,,,
2.1159999967,16,205121.9687500000,194258.1250000000,203023.9687500000,188961.2031250000,187876.2187500000,165929.2187500000,171806.0000000000,-82504.7343750000,,,
2.1199999966,16,205134.9218750000,194259.7968750000,203040.5937500000,188973.5625000000,187897.9375000000,165945.5781250000,171828.7187500000,-82496.2031250000,,,
2.1239999966,16,205119.1718750000,194239.1093750000,203028.2031250000,188956.9843750000,187889.0156250000,165937.2656250000,171820.6093750000,-82508.4921875000,,,
2.1279999965,16,205103.6406250000,194226.0468750000,203012.2187500000,188931.6406250000,187872.4375000000,165925.8437500000,171804.9843750000,-82518.0625000000,,,
2.1319999965,16,205103.2656250000,194231.8750000000,203009.3437500000,188932.7968750000,187865.9375000000,165920.4843750000,171797.6562500000,-82520.3984375000,,,
2.1359999967,16,205117.2187500000,194243.8281250000,203020.4843750000,188958.0781250000,187875.8593750000,165926.2500000000,171807.4687500000,-82517.5546875000,,,
2.1399999966,16,205125.8281250000,194243.2656250000,203031.5312500000,188982.9531250000,187889.9531250000,165929.5156250000,171821.0000000000,-82518.9531250000,,,
2.1439999966,16,205119.3281250000,194233.4843750000,203026.2968750000,188968.8437500000,187889.2968750000,165933.5625000000,171823.2500000000,-82521.6875000000,,,
2.1479999966,16,205102.7031250000,194220.5781250000,203006.6093750000,188932.2031250000,187866.4843750000,165916.8906250000,171802.5937500000,-82533.0859375000,,,
2.1519999965,16,205096.7968750000,194226.1562500000,202998.2656250000,188924.7187500000,187851.0625000000,165903.8281250000,171787.1406250000,-82538.6093750000,,,
2.1559999965,16,205117.6250000000,194248.5000000000,203017.9062500000,188960.7343750000,187869.7968750000,165915.6250000000,171810.3750000000,-82523.6171875000,,,
2.1599999967,16,205133.2812500000,194265.1250000000,203033.2656250000,188981.0781250000,187891.0000000000,165928.1250000000,171831.4062500000,-82509.9921875000,,,
2.1639999966,16,205109.2968750000,194226.5000000000,203015.5156250000,188942.9062500000,187878.3906250000,165911.1406250000,171821.6562500000,-82533.4843750000,,,
2.1679999966,16,205100.8593750000,194223.1875000000,203008.0312500000,188919.0312500000,187871.4375000000,165909.2343750000,171815.2500000000,-82527.3203125000,,,
2.1719999965,16,205104.3437500000,194236.7031250000,203007.9218750000,188929.3593750000,187867.3906250000,165913.3750000000,171809.8906250000,-82519.3281250000,,,
2.1759999965,17,205122.0156250000,194255.3593750000,203022.8125000000,188964.4375000000,187880.9687500000,165921.0156250000,171818.2031250000,-82509.3203125000,,,
2.1799999964,17,205138.2187500000,194263.0625000000,203041.5312500000,188976.1093750000,187901.9687500000,165946.9062500000,171836.3281250000,-82499.7187500000,,,
2.1839999964,17,205136.5000000000,194258.4218750000,203042.9843750000,188968.6250000000,187906.6250000000,165956.0156250000,171844.8437500000,-82498.9687500000,,,
2.1879999964,17,205119.3281250000,194250.9218750000,203024.8437500000,188952.4843750000,187886.5156250000,165938.9062500000,171829.4687500000,-82507.9218750000,,,
2.1919999963,17,205099.8906250000,194239.8437500000,203002.4531250000,188940.7343750000,187859.5625000000,165915.5937500000,171803.5781250000,-82528.2578125000,,,
2.1959999963,17,205103.6718750000,194245.2343750000,203004.2500000000,188949.4687500000,187860.0468750000,165921.7187500000,171802.4062500000,-82529.6250000000,,,
2.1999999965,17,205120.7812500000,194250.9375000000,203023.3281250000,188973.6875000000,187882.7031250000,165943.9531250000,171821.6875000000,-82520.7500000000,,,
2.2039999964,17,205108.9843750000,194235.4843750000,203013.9375000000,188955.0312500000,187877.9375000000,165941.4062500000,171818.1250000000,-82529.1406250000,,,
2.2079999964,17,205108.5312500000,194242.2812500000,203014.1250000000,188953.7187500000,187878.7968750000,165947.7343750000,171826.7656250000,-82514.4453125000,,,
2.2119999963,17,205095.2968750000,194237.0781250000,202996.3906250000,188944.6406250000,187857.2812500000,165929.0625000000,171805.0625000000,-82523.8593750000,,,
2.2159999963,17,205095.9218750000,194240.9843750000,202992.5625000000,188938.2031250000,187850.8125000000,165925.0937500000,171798.2187500000,-82530.7500000000,,,
2.2199999965,17,205114.1093750000,194249.1250000000,203012.3750000000,188951.9375000000,187873.2656250000,165941.6093750000,171816.4375000000,-82520.0468750000,,,
2.2239999964,17,205097.9375000000,194225.5937500000,203001.0312500000,188938.3437500000,187864.8437500000,165930.7500000000,171803.5312500000,-82539.4687500000,,,
2.2279999964,17,205095.2968750000,194229.4531250000,202999.5000000000,188940.6718750000,187861.8437500000,165931.2968750000,171804.9843750000,-82535.2031250000,,,
2.2319999964,17,205083.1250000000,194220.6093750000,202982.9218750000,188921.2343750000,187841.1562500000,165913.9375000000,171789.9843750000,-82550.1171875000,,,
2.2359999963,17,205086.6718750000,194222.3750000000,202983.7343750000,188922.7812500000,187840.8437500000,165903.1562500000,171791.3281250000,-82555.0546875000,,,
2.2399999963,17,205104.5312500000,194236.5156250000,203003.3593750000,188940.5156250000,187865.2187500000,165921.7343750000,171816.9218750000,-82539.2578125000,,,
2.2439999965,17,205101.5000000000,194224.8125000000,203004.9218750000,188932.7031250000,187872.0781250000,165927.4843750000,171824.6093750000,-82542.0937500000,,,
2.2479999964,17,205102.8906250000,194229.8906250000,203006.1250000000,188931.2812500000,187873.9375000000,165928.5468750000,171820.8281250000,-82532.8984375000,,,
2.2519999964,17,205089.9375000000,194225.4531250000,202987.5937500000,188918.0156250000,187851.7187500000,165908.5781250000,171797.5000000000,-82545.8515625000,,,
2.2559999963,17,205084.8437500000,194222.2968750000,202980.9218750000,188909.6093750000,187844.0781250000,165901.1406250000,171797.0937500000,-82554.8671875000,,,
2.2599999963,17,205107.7812500000,194241.5312500000,203007.7968750000,188929.8593750000,187873.7187500000,165922.4375000000,171826.4375000000,-82536.3828125000,,,
2.2639999965,17,205105.2187500000,194229.3281250000,203012.0312500000,188930.0625000000,187880.8593750000,165918.9218750000,171830.1875000000,-82539.2812500000,,,
2.2679999964,17,205090.9531250000,194211.9687500000,202999.9062500000,188914.7343750000,187867.1250000000,165912.4062500000,171814.5000000000,-82549.4453125000,,,
2.2719999964,17,205088.5156250000,194219.7500000000,202992.6406250000,188907.4218750000,187854.3750000000,165904.9218750000,171800.0937500000,-82550.1171875000,,,
2.2759999963,17,205109.9687500000,194243.7031250000,203012.7343750000,188938.7187500000,187871.6250000000,165923.4531250000,171817.4531250000,-82534.0781250000,,,
2.2799999963,17,205124.0781250000,194246.8125000000,203028.5468750000,188961.9531250000,187889.8750000000,165936.4687500000,171833.8906250000,-82526.0859375000,,,
2.2839999963,17,205127.0312500000,194245.6093750000,203032.7656250000,188951.2656250000,187896.7812500000,165943.0625000000,171840.8750000000,-82516.8828125000,,,
2.2879999964,17,205122.3906250000,194248.7343750000,203024.3906250000,188926.5468750000,187888.8750000000,165942.8437500000,171837.8906250000,-82510.9062500000,,,
2.2919999964,17,205117.5156250000,194254.1093750000,203012.8281250000,188931.0156250000,187873.0781250000,165941.1406250000,171823.5468750000,-82513.5546875000,,,
2.2959999964,17,205121.9843750000,194258.5000000000,203016.1093750000,188942.7656250000,187873.7812500000,165944.2968750000,171823.9375000000,-82516.5625000000,,,
2.2999999963,17,205142.1093750000,194276.1562500000,203039.0937500000,188956.4218750000,187899.0156250000,165957.6250000000,171845.6718750000,-82501.9687500000,,,
2.3039999963,18,205141.3593750000,194270.2187500000,203044.5312500000,188961.9531250000,187908.4843750000,165968.6562500000,171851.2812500000,-82501.3828125000,,,
2.3079999962,18,205120.0625000000,194249.7656250000,203025.9531250000,188937.1562500000,187890.1562500000,165957.5781250000,171832.3437500000,-82520.1562500000,,,
2.3119999962,18,205103.7968750000,194249.4062500000,203004.9218750000,188924.7500000000,187865.9375000000,165935.9062500000,171813.0468750000,-82535.1796875000,,,
2.3159999961,18,205101.8125000000,194245.5468750000,202998.4843750000,188944.2968750000,187859.8750000000,165930.0000000000,171810.7656250000,-82545.5546875000,,,
2.3199999961,18,205117.6250000000,194250.3750000000,203016.0468750000,188956.8281250000,187881.8750000000,165951.5468750000,171836.5156250000,-82532.8203125000,,,
2.3239999961,18,205113.4843750000,194241.9531250000,203016.7187500000,188939.7656250000,187887.9687500000,165949.0468750000,171844.9375000000,-82531.6093750000,,,
2.3279999963,18,205117.9062500000,194251.1250000000,203022.1875000000,188933.7031250000,187894.4531250000,165959.4062500000,171850.5468750000,-82514.9296875000,,,
2.3319999962,18,205101.5000000000,194248.2812500000,203000.9531250000,188913.6875000000,187869.0000000000,165939.5000000000,171824.1093750000,-82522.3593750000,,,
2.3359999962,18,205110.2343750000,194260.4062500000,203008.1406250000,188928.3437500000,187873.4218750000,165947.1093750000,171831.7968750000,-82517.7656250000,,,
2.3399999961,18,205128.4843750000,194267.9687500000,203028.3125000000,188951.2968750000,187895.6406250000,165964.5156250000,171854.3593750000,-82510.7187500000,,,
2.3439999961,18,205111.4218750000,194240.0312500000,203016.5312500000,188939.7343750000,187887.9375000000,165954.4843750000,171846.0937500000,-82529.5703125000,,,
2.3479999963,18,205098.4375000000,194235.9531250000,203003.4531250000,188916.0781250000,187874.3125000000,165945.2031250000,171836.9843750000,-82532.5468750000,,,
2.3519999962,18,205088.8437500000,194236.6718750000,202987.5625000000,188900.8437500000,187853.6093750000,165928.4218750000,171818.5312500000,-82539.1171875000,,,
2.3559999962,18,205110.7500000000,194253.1406250000,203008.4687500000,188925.6875000000,187872.4531250000,165944.0781250000,171834.8125000000,-82527.8515625000,,,
2.3599999961,18,205136.7656250000,194270.6562500000,203038.9531250000,188962.9062500000,187907.0312500000,165971.9218750000,171859.1562500000,-82508.6796875000,,,
2.3639999961,18,205147.6875000000,194272.1093750000,203056.4687500000,188977.7187500000,187928.7656250000,165983.9687500000,171880.2656250000,-82499.5859375000,,,
2.3679999961,18,205149.2656250000,194274.3593750000,203060.0468750000,188967.3125000000,187932.1093750000,165981.6562500000,171890.0312500000,-82495.0234375000,,,
2.3719999962,18,205125.9375000000,194260.1875000000,203033.6250000000,188938.2968750000,187899.4218750000,165958.3281250000,171860.1718750000,-82517.5312500000,,,
2.3759999962,18,205124.3437500000,194253.7812500000,203030.8125000000,188939.5781250000,187892.5468750000,165948.9687500000,171852.2343750000,-82527.0000000000,,,
2.3799999962,18,205143.6562500000,194260.5468750000,203049.2656250000,188963.0781250000,187913.5781250000,165961.4062500000,171871.3437500000,-82516.4843750000,,,
2.3839999961,18,205139.7656250000,194252.9218750000,203048.0468750000,188966.8750000000,187915.0781250000,165954.9687500000,171872.8593750000,-82518.3359375000,,,
2.3879999961,18,205139.5781250000,194250.7343750000,203048.7031250000,188955.6093750000,187915.1406250000,165965.8125000000,171874.5781250000,-82514.3359375000,,,
2.3919999963,18,205123.8437500000,194243.9687500000,203026.7031250000,188917.6875000000,187888.1718750000,165945.0156250000,171842.7500000000,-82532.5234375000,,,
2.3959999962,18,205120.5625000000,194247.4218750000,203018.9843750000,188917.6093750000,187877.6562500000,165933.9687500000,171825.9062500000,-82542.8984375000,,,
2.3999999962,18,205149.8593750000,194274.9531250000,203048.6718750000,188958.2968750000,187911.3281250000,165965.8906250000,171853.7968750000,-82515.1406250000,,,
2.4039999961,18,205143.3125000000,194269.0156250000,203046.6875000000,188945.8593750000,187917.0156250000,165973.3125000000,171860.1250000000,-82511.7343750000,,,
2.4079999961,18,205126.7968750000,194247.5937500000,203033.9375000000,188924.9062500000,187904.9218750000,165964.3281250000,171852.8281250000,-82523.4843750000,,,
2.4119999961,18,205131.5312500000,194263.4062500000,203033.9218750000,188929.8437500000,187899.6562500000,165965.8906250000,171853.2812500000,-82512.7500000000,,,
2.4159999962,18,205144.3593750000,194280.7968750000,203040.5937500000,188955.4843750000,187904.0312500000,165974.2656250000,171860.9375000000,-82504.2500000000,,,
2.4199999962,18,205160.1562500000,194288.2031250000,203053.8125000000,188969.4531250000,187920.8437500000,165989.7812500000,171880.0781250000,-82497.0859375000,,,
2.4239999962,18,205151.1718750000,194275.0781250000,203047.9687500000,188960.3125000000,187918.3593750000,165987.2968750000,171879.7656250000,-82503.0156250000,,,
2.4279999961,18,205145.9218750000,194273.4687500000,203043.1406250000,188948.8593750000,187913.2031250000,165981.9843750000,171880.4375000000,-82500.8750000000,,,
2.4319999961,19,205123.2187500000,194264.0000000000,203016.0312500000,188930.2968750000,187881.9531250000,165955.6718750000,171850.4687500000,-82518.7109375000,,,
2.4359999960,19,205132.3750000000,194277.6562500000,203023.2187500000,188951.9218750000,187888.6093750000,165961.5468750000,171851.8437500000,-82515.1953125000,,,
2.4399999960,19,205159.6406250000,194299.0000000000,203054.4687500000,188984.5625000000,187922.0000000000,165993.2968750000,171879.6250000000,-82493.4687500000,,,
2.4439999959,19,205137.9687500000,194275.3437500000,203035.3906250000,188955.7187500000,187908.7187500000,165979.3593750000,171863.2031250000,-82510.7187500000,,,
2.4479999959,19,205127.6718750000,194267.0312500000,203024.3750000000,188936.9531250000,187899.0468750000,165976.1406250000,171856.0468750000,-82510.6875000000,,,
2.4519999959,19,205118.4218750000,194261.9375000000,203008.6562500000,188930.7031250000,187878.6562500000,165965.8906250000,171840.8906250000,-82518.4687500000,,,
2.4559999960,19,205117.4375000000,194263.2812500000,203002.9062500000,188939.9062500000,187867.5000000000,165958.7031250000,171825.1718750000,-82527.3984375000,,,
2.4599999960,19,205153.0156250000,194283.3437500000,203042.6093750000,188986.3593750000,187907.5468750000,165992.0937500000,171864.5312500000,-82502.5078125000,,,
2.4639999960,19,205160.7187500000,194284.8750000000,203054.4843750000,188978.5781250000,187923.0781250000,165999.5000000000,171888.3906250000,-82492.3437500000,,,
2.4679999959,19,205141.3750000000,194265.2343750000,203035.5000000000,188949.0468750000,187904.1875000000,165986.3593750000,171873.1875000000,-82507.0156250000,,,
2.4719999959,19,205126.2812500000,194256.1406250000,203018.7343750000,188935.5781250000,187883.6406250000,165972.9375000000,171853.0781250000,-82524.3671875000,,,
2.4759999961,19,205137.7656250000,194264.5468750000,203030.3281250000,188972.4531250000,187891.0000000000,165978.3593750000,171860.2656250000,-82525.1953125000,,,
2.4799999960,19,205154.3125000000,194269.5312500000,203050.3125000000,188988.2343750000,187912.0000000000,165988.9062500000,171879.0937500000,-82519.7812500000,,,
2.4839999960,19,205148.2812500000,194260.9218750000,203048.2343750000,188962.1562500000,187914.5468750000,165991.5625000000,171881.9062500000,-82521.6328125000,,,
2.4879999959,19,205120.5625000000,194238.5000000000,203019.1406250000,188923.9687500000,187885.7968750000,165970.1875000000,171854.8125000000,-82544.6171875000,,,
2.4919999959,19,205104.6406250000,194231.5468750000,202998.4843750000,188924.3125000000,187859.8593750000,165950.4062500000,171826.6718750000,-82561.6796875000,,,
2.4959999959,19,205129.3437500000,194260.5468750000,203017.7968750000,188965.8281250000,187875.4375000000,165962.4843750000,171837.5156250000,-82544.6171875000,,,
2.4999999960,19,205147.3125000000,194271.2968750000,203037.0625000000,188975.4843750000,187898.1250000000,165978.4687500000,171860.0937500000,-82533.1953125000,,,
2.5039999960,19,205149.5937500000,194265.7500000000,203043.8906250000,188967.0468750000,187911.3593750000,165984.7500000000,171875.2031250000,-82527.0468750000,,,
2.5079999960,19,205135.0312500000,194254.0468750000,203030.9687500000,188948.0781250000,187899.2812500000,165978.9062500000,171862.7031250000,-82533.7031250000,,,
2.5119999959,19,205123.0625000000,194258.8750000000,203015.6562500000,188936.8750000000,187879.7343750000,165971.5156250000,171844.6250000000,-82536.3281250000,,,
2.5159999959,19,205119.0625000000,194258.2968750000,203009.9375000000,188943.3281250000,187871.0625000000,165961.4687500000,171842.7187500000,-82547.2187500000,,,
2.5199999961,19,205129.4531250000,194259.6562500000,203020.9843750000,188963.0156250000,187884.8281250000,165969.3281250000,171855.5468750000,-82544.5937500000,,,
2.5239999960,19,205131.0312500000,194256.4062500000,203024.6562500000,188959.2343750000,187893.9218750000,165972.3593750000,171864.3437500000,-82537.9375000000,,,
2.5279999960,19,205129.2031250000,194263.5937500000,203020.5312500000,188940.3281250000,187891.4843750000,165971.1718750000,171862.8593750000,-82529.0625000000,,,
2.5319999959,19,205121.6406250000,194260.1718750000,203010.8437500000,188935.4531250000,187876.9687500000,165960.0625000000,171846.5000000000,-82537.8828125000,,,
2.5359999959,19,205131.8593750000,194266.6562500000,203021.2031250000,188956.5781250000,187882.8125000000,165964.8906250000,171850.3906250000,-82535.0937500000,,,
2.5399999958,19,205146.5781250000,194272.6718750000,203036.4843750000,188978.8750000000,187898.9062500000,165971.0468750000,171866.2968750000,-82529.7343750000,,,
2.5439999960,19,205142.7031250000,194260.7812500000,203035.1718750000,188972.7500000000,187901.5312500000,165975.3593750000,171869.6406250000,-82534.6640625000,,,
2.5479999960,19,205129.9062500000,194254.7500000000,203020.9375000000,188955.5312500000,187887.1250000000,165968.2500000000,171857.1406250000,-82538.0468750000,,,
2.5519999960,19,205116.7812500000,194251.6875000000,203003.9843750000,188950.1406250000,187863.0468750000,165951.6250000000,171832.0625000000,-82551.7500000000,,,
2.5559999959,19,205119.8437500000,194254.9062500000,203006.7187500000,188946.6250000000,187862.1875000000,165952.5312500000,171831.6875000000,-82556.5000000000,,,
2.5599999959,20,205136.2656250000,194262.1250000000,203026.3750000000,188956.8750000000,187885.8906250000,165969.8281250000,171854.8906250000,-82546.4921875000,,,
2.5639999958,20,205128.7812500000,194248.3125000000,203024.4531250000,188955.2968750000,187888.6875000000,165967.2812500000,171855.2500000000,-82550.1171875000,,,
2.5679999958,20,205118.8437500000,194242.9218750000,203014.1718750000,188940.8593750000,187879.6718750000,165962.1093750000,171849.1093750000,-82552.2656250000,,,
2.5719999957,20,205098.9687500000,194231.4375000000,202989.6406250000,188916.8125000000,187851.8281250000,165941.7968750000,171828.3750000000,-82569.7812500000,,,
2.5759999957,20,205110.3750000000,194246.2187500000,202998.8593750000,188938.9843750000,187858.2968750000,165943.0156250000,171833.3906250000,-82564.2265625000,,,
2.5799999957,20,205138.5625000000,194270.0937500000,203027.2968750000,188984.4843750000,187889.1718750000,165969.0625000000,171861.6875000000,-82542.1484375000,,,
2.5839999958,20,205136.5468750000,194262.6093750000,203029.2500000000,188980.7812500000,187896.3281250000,165973.7187500000,171868.8750000000,-82541.4296875000,,,
2.5879999958,20,205125.6875000000,194252.6093750000,203021.3906250000,188956.0937500000,187890.4062500000,165969.8281250000,171865.0937500000,-82547.2500000000,,,
2.5919999958,20,205110.2343750000,194251.3437500000,203001.5468750000,188933.7500000000,187866.5781250000,165945.5625000000,171840.4687500000,-82557.8984375000,,,
2.5959999957,20,205123.4062500000,194264.0625000000,203011.0312500000,188941.6093750000,187874.4218750000,165952.9375000000,171849.7968750000,-82553.1484375000,,,
2.5999999957,20,205134.2187500000,194258.7187500000,203024.7187500000,188962.5625000000,187893.3750000000,165972.6718750000,171869.7031250000,-82550.4921875000,,,
2.6039999959,20,205137.0312500000,194258.8750000000,203029.5156250000,188962.7031250000,187906.5000000000,165982.0625000000,171881.1875000000,-82540.5937500000,,,
2.6079999958,20,205114.7812500000,194241.1562500000,203006.0468750000,188941.8593750000,187883.9687500000,165957.0156250000,171858.2812500000,-82558.1093750000,,,
2.6119999958,20,205109.5468750000,194243.0312500000,202996.9218750000,188919.6250000000,187870.0156250000,165947.1406250000,171842.6875000000,-82559.9375000000,,,
2.6159999957,20,205112.9843750000,194249.9531250000,202997.4687500000,188916.4062500000,187867.2500000000,165947.9218750000,171844.2968750000,-82559.2656250000,,,
2.6199999957,20,205138.0781250000,194271.7343750000,203023.3750000000,188950.9218750000,187894.7968750000,165965.4843750000,171870.6093750000,-82541.5078125000,,,
2.6239999956,20,205140.5468750000,194272.5312500000,203029.9531250000,188959.0000000000,187903.5000000000,165975.7031250000,171876.5625000000,-82535.6328125000,,,
2.6279999958,20,205124.8125000000,194255.4687500000,203018.5937500000,188941.0000000000,187890.7500000000,165965.0312500000,171864.0468750000,-82546.9218750000,,,
2.6319999958,20,205118.5625000000,194255.3437500000,203010.1718750000,188928.6093750000,187877.7187500000,165950.7968750000,171851.4062500000,-82551.0546875000,,,
2.6359999957,20,205135.5156250000,194276.2656250000,203022.5468750000,188952.9687500000,187886.4531250000,165964.8125000000,171855.6718750000,-82537.9375000000,,,
2.6399999957,20,205146.2343750000,194272.0468750000,203035.3125000000,188969.9375000000,187901.0312500000,165973.2343750000,171869.0000000000,-82540.7812500000,,,
2.6439999957,20,205128.6406250000,194252.5312500000,203021.2812500000,188945.8281250000,187891.3125000000,165965.4062500000,171858.0937500000,-82556.5312500000,,,
2.6479999959,20,205125.4531250000,194254.3750000000,203016.4062500000,188947.1875000000,187888.0937500000,165964.1406250000,171854.2812500000,-82551.0546875000,,,
2.6519999958,20,205118.5625000000,194258.0156250000,203004.5937500000,188927.8750000000,187873.3750000000,165955.3750000000,171844.0625000000,-82552.3984375000,,,
2.6559999958,20,205107.9375000000,194254.5937500000,202990.7656250000,188921.6093750000,187857.6250000000,165946.1250000000,171830.4843750000,-82566.4765625000,,,
2.6599999957,20,205115.2812500000,194250.4843750000,203000.4218750000,188948.6718750000,187869.6093750000,165954.0312500000,171836.7656250000,-82569.9140625000,,,
2.6639999957,20,205114.9375000000,194242.7656250000,203005.3437500000,188948.6718750000,187878.3125000000,165955.6250000000,171841.5312500000,-82568.4921875000,,,
2.6679999956,20,205110.8593750000,194241.1718750000,203004.0625000000,188933.4687500000,187877.2656250000,165956.0156250000,171844.5625000000,-82564.8671875000,,,
2.6719999958,20,205103.7031250000,194246.7812500000,202992.7656250000,188916.8125000000,187863.3593750000,165954.4843750000,171841.5312500000,-82565.2968750000,,,
2.6759999958,20,205103.7500000000,194249.9531250000,202987.1718750000,188924.2656250000,187856.2031250000,165946.3906250000,171835.4531250000,-82569.3984375000,,,
2.6799999957,20,205129.5312500000,194269.3906250000,203014.9062500000,188963.7968750000,187886.3281250000,165967.6875000000,171864.3437500000,-82549.1796875000,,,
2.6839999957,20,205148.5937500000,194280.3593750000,203038.0000000000,188976.0781250000,187915.4062500000,165997.8593750000,171893.7812500000,-82526.2421875000,,,
2.6879999957,21,205132.7656250000,194266.7343750000,203023.1875000000,188946.4687500000,187902.5468750000,165985.7968750000,171886.1093750000,-82535.3671875000,,,
2.6919999956,21,205107.5937500000,194254.5312500000,202992.9843750000,188914.1718750000,187868.7031250000,165956.7187500000,171856.2031250000,-82556.8515625000,,,
2.6959999956,21,205116.1718750000,194269.5781250000,202998.5312500000,188927.4531250000,187870.5000000000,165960.6875000000,171857.2812500000,-82548.6406250000,,,
2.6999999955,21,205150.4687500000,194285.1093750000,203036.4062500000,188965.3750000000,187910.1250000000,165998.7968750000,171896.7343750000,-82529.7890625000,,,
2.7039999955,21,205150.6406250000,194275.8593750000,203042.8750000000,188970.2656250000,187920.3593750000,166009.3125000000,171908.4375000000,-82529.1171875000,,,
2.7079999954,21,205141.9687500000,194276.3437500000,203036.5781250000,188951.1562500000,187913.7656250000,166002.2812500000,171901.5156250000,-82526.5156250000,,,
2.7119999956,21,205142.9375000000,194284.8750000000,203035.0625000000,188954.0312500000,187906.2343750000,165993.0937500000,171889.6093750000,-82524.5000000000,,,
2.7159999956,21,205143.1718750000,194288.1406250000,203033.5625000000,188973.4062500000,187901.4531250000,165990.6250000000,171888.3437500000,-82529.8359375000,,,
2.7199999955,21,205160.2187500000,194296.5937500000,203053.3281250000,188985.6250000000,187922.2656250000,166008.0000000000,171910.1250000000,-82522.8906250000,,,
2.7239999955,21,205153.8593750000,194282.6406250000,203049.0937500000,188977.0156250000,187921.0000000000,166010.6250000000,171910.7656250000,-82528.8984375000,,,
2.7279999955,21,205148.2968750000,194277.8125000000,203044.8593750000,188973.4062500000,187916.9375000000,166010.5000000000,171909.4843750000,-82525.5234375000,,,
2.7319999957,21,205139.0156250000,194277.5468750000,203030.9687500000,188961.1406250000,187898.2656250000,165997.5468750000,171891.0468750000,-82532.6562500000,,,
2.7359999956,21,205147.3437500000,194292.5625000000,203036.3593750000,188970.3437500000,187900.8593750000,166000.1406250000,171892.6093750000,-82529.3281250000,,,
2.7399999956,21,205158.1718750000,194294.1250000000,203050.2812500000,188997.0625000000,187918.9218750000,166016.3437500000,171910.9218750000,-82525.5234375000,,,
2.7439999955,21,205147.9843750000,194272.2187500000,203045.1562500000,188989.6250000000,187918.2187500000,166012.6093750000,171909.0781250000,-82539.3046875000,,,
2.7479999955,21,205138.1562500000,194262.0937500000,203035.0625000000,188962.8125000000,187909.9843750000,166004.0312500000,171902.0156250000,-82543.3281250000,,,
2.7519999954,21,205126.0937500000,194256.3593750000,203018.5937500000,188952.8281250000,187890.4375000000,165987.2968750000,171881.8281250000,-82553.3906250000,,,
2.7559999956,21,205120.8593750000,194260.6250000000,203007.9218750000,188958.1875000000,187877.0781250000,165968.4062500000,171866.2968750000,-82562.6718750000,,,
2.7599999956,21,205144.7031250000,194280.6406250000,203033.7343750000,188987.2968750000,187905.2031250000,165995.8437500000,171894.2968750000,-82542.7421875000,,,
2.7639999955,21,205154.2812500000,194275.5937500000,203049.7968750000,188980.3125000000,187926.5312500000,166008.8593750000,171918.5156250000,-82539.1718750000,,,
2.7679999955,21,205137.4062500000,194264.7812500000,203031.5625000000,188948.6718750000,187908.9843750000,165995.2656250000,171899.7343750000,-82545.6875000000,,,
2.7719999955,21,205116.8125000000,194253.3593750000,203006.1875000000,188922.2187500000,187878.8125000000,165971.3593750000,171871.7187500000,-82562.2421875000,,,
2.7759999956,21,205130.7812500000,194265.5937500000,203017.0156250000,188949.2812500000,187886.1875000000,165975.6875000000,171881.9843750000,-82558.6484375000,,,
2.7799999956,21,205144.7343750000,194270.0312500000,203033.9375000000,188978.9531250000,187905.4531250000,165991.0468750000,171900.5000000000,-82553.0937500000,,,
2.7839999956,21,205158.6875000000,194278.5156250000,203054.2812500000,188979.5625000000,187931.6562500000,166012.4531250000,171926.8906250000,-82535.8984375000,,,
2.7879999955,21,205154.6875000000,194283.0937500000,203050.6875000000,188956.4218750000,187929.5937500000,166014.6562500000,171926.2656250000,-82526.5703125000,,,
2.7919999955,21,205133.1406250000,194270.3906250000,203025.0156250000,188937.6250000000,187898.6718750000,165997.5937500000,171898.8906250000,-82542.3359375000,,,
2.7959999954,21,205130.9218750000,194275.0000000000,203021.6250000000,188941.3437500000,187889.2500000000,165991.0468750000,171888.9062500000,-82548.7187500000,,,
2.7999999956,21,205148.5781250000,194283.5625000000,203039.7343750000,188969.3750000000,187908.8593750000,166003.1718750000,171902.8281250000,-82542.3671875000,,,
2.8039999956,21,205147.7968750000,194272.6875000000,203044.3437500000,188961.5468750000,187918.9687500000,166007.2031250000,171912.2343750000,-82543.8125000000,,,
2.8079999955,21,205133.4687500000,194257.1093750000,203034.3750000000,188943.5781250000,187912.0468750000,165996.2812500000,171908.8281250000,-82553.1484375000,,,
2.8119999955,21,205117.4375000000,194250.7812500000,203014.9218750000,188936.2500000000,187890.5156250000,165974.9531250000,171885.4687500000,-82565.0546875000,,,
2.8159999955,22,205123.8906250000,194258.0468750000,203019.6250000000,188960.2343750000,187892.1406250000,165978.8750000000,171884.6406250000,-82565.3515625000,,,
2.8199999954,22,205141.1718750000,194271.7031250000,203040.1875000000,188976.0000000000,187914.7031250000,165996.6562500000,171910.7968750000,-82552.6953125000,,,
2.8239999954,22,205128.7968750000,194256.0625000000,203030.3437500000,188952.6093750000,187909.6093750000,165990.5625000000,171903.6875000000,-82561.7343750000,,,
2.8279999953,22,205116.9687500000,194248.0937500000,203020.2031250000,188933.2812500000,187899.2500000000,165989.8906250000,171890.5937500000,-82563.4453125000,,,
2.8319999953,22,205107.4218750000,194252.2812500000,203006.2031250000,188927.6718750000,187879.7343750000,165981.5781250000,171878.6562500000,-82566.9609375000,,,
2.8359999952,22,205108.3593750000,194253.8906250000,203000.7968750000,188934.2343750000,187871.5468750000,165972.7343750000,171875.0625000000,-82573.5078125000,,,
2.8399999954,22,205128.6875000000,194265.6718750000,203021.2343750000,188952.3437500000,187895.3906250000,165989.7656250000,171900.5468750000,-82561.4921875000,,,
2.8439999954,22,205135.8593750000,194265.9375000000,203031.4218750000,188965.3281250000,187909.7500000000,166001.0000000000,171913.7656250000,-82554.7812500000,,,
2.8479999953,22,205124.9062500000,194252.7968750000,203021.9062500000,188954.7343750000,187901.0468750000,165994.0468750000,171902.6718750000,-82561.9687500000,,,
2.8519999953,22,205112.1406250000,194248.3593750000,203006.4843750000,188938.6718750000,187883.1562500000,165978.1718750000,171885.4531250000,-82573.8515625000,,,
2.8559999953,22,205119.0937500000,194266.4687500000,203009.3281250000,188947.0625000000,187883.8281250000,165981.0937500000,171887.1875000000,-82564.2265625000,,,
2.8599999954,22,205140.4375000000,194276.4218750000,203030.5312500000,188979.8593750000,187907.8906250000,166009.2812500000,171909.5000000000,-82547.5703125000,,,
2.8639999954,22,205134.8906250000,194262.6562500000,203028.6250000000,188968.2968750000,187911.5156250000,166007.4375000000,171919.0000000000,-82554.5390625000,,,
2.8679999954,22,205132.9843750000,194262.6875000000,203027.1875000000,188946.3125000000,187910.4375000000,166007.3593750000,171923.5000000000,-82549.7109375000,,,
2.8719999953,22,205118.2656250000,194262.6093750000,203008.0937500000,188925.8906250000,187883.9687500000,165988.6875000000,171898.2187500000,-82560.5000000000,,,
2.8759999953,22,205123.2500000000,194267.9687500000,203011.5468750000,188945.2656250000,187881.9218750000,165984.5312500000,171894.3437500000,-82564.5468750000,,,
2.8799999952,22,205136.0937500000,194268.5156250000,203025.6093750000,188964.7031250000,187896.8906250000,165992.1250000000,171905.1406250000,-82565.2187500000,,,
2.8839999954,22,205110.6093750000,194237.4218750000,203006.0468750000,188933.1875000000,187881.7343750000,165975.5468750000,171884.4531250000,-82591.7734375000,,,
2.8879999954,22,205119.4375000000,194244.1562500000,203019.9218750000,188940.6718750000,187895.4218750000,165993.5937500000,171904.2187500000,-82574.7968750000,,,
2.8919999953,22,205103.5625000000,194239.4375000000,202999.9375000000,188920.1562500000,187871.4375000000,165971.6562500000,171886.5937500000,-82590.0312500000,,,
2.8959999953,22,205087.2343750000,194231.6250000000,202980.7343750000,188911.1406250000,187850.2500000000,165955.4062500000,171869.7343750000,-82609.6875000000,,,
2.8999999953,22,205114.4218750000,194254.3437500000,203008.9375000000,188942.5312500000,187880.7500000000,165980.9062500000,171900.0156250000,-82585.2031250000,,,
2.9039999954,22,205122.8437500000,194255.0937500000,203019.8906250000,188952.7968750000,187896.2500000000,165997.3593750000,171915.4375000000,-82574.6093750000,,,
2.9079999954,22,205103.0000000000,194236.3281250000,203001.1406250000,188927.8281250000,187877.7500000000,165984.5781250000,171898.3750000000,-82591.1015625000,,,
2.9119999954,22,205090.9531250000,194236.5937500000,202985.4218750000,188908.8906250000,187857.8125000000,165975.6875000000,171881.1875000000,-82596.0625000000,,,
2.9159999953,22,205084.1718750000,194233.2656250000,202976.1093750000,188899.7656250000,187845.2031250000,165965.1718750000,171868.5781250000,-82607.8671875000,,,
2.9199999953,22,204929.5156250000,194074.1875000000,202820.5781250000,188758.2031250000,187691.8437500000,165813.5625000000,171711.3906250000,-82776.9218750000,,,
2.9239999952,22,204397.9218750000,193545.0625000000,202293.8437500000,188235.6250000000,187170.0468750000,165290.8125000000,171188.2343750000,-83305.8046875000,,,
2.9279999954,22,204579.7812500000,193712.3593750000,202483.3125000000,188419.9218750000,187364.8750000000,165478.6875000000,171392.0000000000,-83108.0937500000,,,
2.9319999954,22,204734.0312500000,193869.3750000000,202634.4531250000,188571.6875000000,187512.6875000000,165629.2500000000,171544.1406250000,-82952.4218750000,,,
2.9359999953,22,204840.8125000000,193983.0156250000,202737.2656250000,188685.2968750000,187609.3593750000,165725.9062500000,171635.3281250000,-82852.0781250000,,,
2.9399999953,22,204908.1406250000,194042.2343750000,202803.1875000000,188750.8906250000,187674.0000000000,165788.3593750000,171698.7968750000,-82797.6015625000,,,
2.9439999952,23,204942.1406250000,194069.0937500000,202840.6406250000,188780.3906250000,187713.2187500000,165827.8125000000,171743.4531250000,-82765.1796875000,,,
