Time:250Hz,Epoch,Channel 1,Channel 2,Channel 3,Channel 4,Channel 5,Channel 6,Channel 7,Channel 8,Event Id,Event Date,Event Duration
0.0000000000,0,179945.2500000000,184735.2656250000,162712.9062500000,159188.4062500000,129343.3281250000,117157.3203125000,130043.4921875000,147550.6250000000,,,
0.0040000000,0,180270.4062500000,200788.0000000000,162470.4843750000,158797.0625000000,128914.2500000000,116800.5625000000,129612.7031250000,150790.4843750000,,,
0.0079999999,0,180172.4843750000,206406.3125000000,162754.1875000000,159109.2500000000,129275.7343750000,117141.6328125000,129987.9140625000,150433.7031250000,,,
0.0119999999,0,179846.7187500000,196144.2343750000,163178.4062500000,159728.4062500000,129913.9921875000,117710.4765625000,130644.2265625000,147410.1250000000,,,
0.0159999998,0,179640.5468750000,181789.1250000000,163209.2031250000,159867.0781250000,130043.9453125000,117809.2890625000,130779.8593750000,145262.7500000000,,,
0.0199999998,0,179923.6562500000,184564.5156250000,162693.9218750000,159170.3281250000,129323.4531250000,117167.5937500000,130045.6875000000,147508.2656250000,,,
0.0240000000,0,180262.5468750000,200653.3281250000,162461.8593750000,158755.5000000000,128899.1484375000,116812.4218750000,129612.3203125000,150791.0156250000,,,
0.0279999999,0,180170.1250000000,206378.4218750000,162745.0937500000,159122.4218750000,129260.6328125000,117139.7031250000,129980.2421875000,150464.2187500000,,,
0.0319999999,0,179834.3125000000,196191.5156250000,163166.0156250000,159757.0312500000,129898.2734375000,117686.5468750000,130625.7968750000,147428.6875000000,,,
0.0359999998,0,179644.9687500000,181758.9062500000,163222.2031250000,159899.0468750000,130058.4296875000,117805.9609375000,130779.1093750000,145267.2500000000,,,
0.0399999998,0,179924.5312500000,184318.3125000000,162699.5468750000,159189.2031250000,129333.7265625000,117167.8671875000,130041.7968750000,147488.2343750000,,,
0.0440000000,0,180258.3125000000,200427.8593750000,162453.7187500000,158780.1718750000,128889.5234375000,116796.0312500000,129594.5390625000,150783.4843750000,,,
0.0480000000,0,180158.4062500000,206296.3437500000,162727.6093750000,159127.8125000000,129238.6640625000,117126.7500000000,129966.6718750000,150468.8125000000,,,
0.0519999999,0,179842.3281250000,196203.5156250000,163167.1406250000,159743.7500000000,129900.0468750000,117710.6640625000,130647.5234375000,147463.1562500000,,,
0.0559999999,0,179652.2968750000,181704.3437500000,163231.9687500000,159887.7656250000,130073.9062500000,117839.9453125000,130823.9062500000,145276.5312500000,,,
0.0599999998,0,179924.3437500000,184158.0625000000,162713.8750000000,159213.7187500000,129348.5546875000,117173.6875000000,130083.4296875000,147456.5781250000,,,
0.0639999998,0,180254.1250000000,200333.9218750000,162457.4218750000,158775.9531250000,128888.5312500000,116785.6484375000,129610.7656250000,150784.9843750000,,,
0.0680000000,0,180161.4531250000,206320.0781250000,162737.3906250000,159126.0468750000,129241.8828125000,117115.1328125000,129971.7656250000,150501.2656250000,,,
0.0719999999,0,179843.8593750000,196338.6718750000,163173.2031250000,159793.7968750000,129898.2187500000,117690.0625000000,130645.3515625000,147492.1406250000,,,
0.0759999999,0,179632.7656250000,181762.8125000000,163223.6718750000,159935.9687500000,130057.6484375000,117803.1171875000,130815.9687500000,145256.3906250000,,,
0.0799999998,0,179901.1718750000,184001.1406250000,162699.7656250000,159195.3281250000,129329.0546875000,117166.6015625000,130077.8984375000,147416.5937500000,,,
0.0839999998,0,180252.5156250000,200181.5000000000,162459.2031250000,158786.6562500000,128881.2578125000,116795.7578125000,129616.8046875000,150777.9375000000,,,
0.0880000000,0,180164.0625000000,206302.9375000000,162737.9062500000,159128.5312500000,129233.1640625000,117110.4375000000,129972.6796875000,150517.3593750000,,,
0.0919999999,0,179806.6875000000,196440.2187500000,163131.0156250000,159701.9062500000,129852.3281250000,117648.0859375000,130605.8437500000,147488.6875000000,,,
0.0959999999,0,179576.0625000000,181886.9687500000,163161.6875000000,159831.8125000000,129998.4531250000,117755.0546875000,130755.7265625000,145217.5781250000,,,
0.0999999999,0,179876.5781250000,183949.9218750000,162686.1406250000,159154.9531250000,129319.7187500000,117148.2343750000,130067.4140625000,147371.3125000000,,,
0.1039999998,0,180240.1250000000,200064.4687500000,162452.2187500000,158739.2187500000,128877.9921875000,116787.7968750000,129616.0546875000,150770.0000000000,,,
0.1079999998,0,180168.1406250000,206293.7656250000,162744.5000000000,159125.4218750000,129238.3984375000,117109.1796875000,129971.8984375000,150551.3593750000,,,
0.1120000000,0,179848.2500000000,196596.5312500000,163173.6562500000,159774.4062500000,129892.1328125000,117667.2421875000,130630.3281250000,147566.5000000000,,,
0.1159999999,0,179627.3750000000,182022.9687500000,163218.2343750000,159892.5156250000,130058.0000000000,117790.3750000000,130796.4140625000,145287.2968750000,,,
0.1199999999,0,179895.1406250000,183886.5625000000,162707.3593750000,159177.7031250000,129349.3359375000,117165.1250000000,130083.5078125000,147370.2343750000,,,
0.1239999998,0,180247.8437500000,199955.4843750000,162455.0937500000,158752.0312500000,128885.2812500000,116779.3984375000,129617.1250000000,150758.3593750000,,,
0.1279999998,1,180166.7656250000,206405.7812500000,162721.1875000000,159087.7656250000,129219.2421875000,117081.2265625000,129954.4921875000,150581.8437500000,,,
0.1319999998,1,179843.0312500000,197143.8906250000,163140.2656250000,159714.4375000000,129857.8515625000,117635.9140625000,130601.4921875000,147657.8593750000,,,
0.1359999997,1,179615.5937500000,182226.7500000000,163216.9687500000,159892.8125000000,130059.3437500000,117794.5625000000,130809.2890625000,145271.7812500000,,,
0.1399999997,1,179912.9218750000,183827.4531250000,162736.4062500000,159223.0625000000,129379.1328125000,117187.4453125000,130119.6875000000,147350.0156250000,,,
0.1439999996,1,180267.5625000000,199943.9375000000,162473.2031250000,158779.1718750000,128905.3437500000,116799.7578125000,129636.6484375000,150776.8906250000,,,
0.1479999996,1,180194.4687500000,206533.6875000000,162749.5937500000,159129.1562500000,129241.4843750000,117098.7968750000,129977.6953125000,150640.0625000000,,,
0.1519999998,1,179877.6562500000,197368.5000000000,163174.4843750000,159769.6406250000,129881.9375000000,117653.8828125000,130627.5156250000,147739.4218750000,,,
0.1559999997,1,179646.1562500000,182256.6093750000,163252.4375000000,159961.6875000000,130091.5781250000,117822.0546875000,130840.7500000000,145319.0937500000,,,
0.1599999997,1,179928.6718750000,183602.0625000000,162756.7656250000,159250.5156250000,129404.2109375000,117213.4375000000,130137.3906250000,147362.0000000000,,,
0.1639999996,1,180280.7031250000,199822.8750000000,162482.7968750000,158770.1093750000,128916.7187500000,116803.9453125000,129637.4062500000,150802.1562500000,,,
0.1679999996,1,180205.6093750000,206628.0000000000,162749.3593750000,159120.9531250000,129242.3671875000,117101.6406250000,129963.6093750000,150695.1093750000,,,
0.1719999998,1,179880.5156250000,197443.4218750000,163169.7968750000,159767.9687500000,129881.0546875000,117656.5937500000,130612.3828125000,147812.9687500000,,,
0.1759999997,1,179641.2187500000,182328.8906250000,163240.8437500000,159951.5937500000,130084.5781250000,117819.0781250000,130827.0703125000,145443.9531250000,,,
0.1799999997,1,179922.7343750000,183600.3906250000,162753.0312500000,159249.9062500000,129403.8906250000,117211.9062500000,130141.4687500000,147487.9375000000,,,
0.1839999997,1,180316.9687500000,199903.1562500000,162513.2656250000,158793.6406250000,128948.8281250000,116835.9921875000,129674.3593750000,150983.1250000000,,,
0.1879999996,1,180241.2187500000,206724.9531250000,162782.6406250000,159160.7500000000,129283.7265625000,117141.8984375000,130010.4140625000,150873.3593750000,,,
0.1919999996,1,179893.3906250000,197310.1875000000,163193.8750000000,159807.6718750000,129911.1484375000,117679.4453125000,130653.5546875000,147913.6875000000,,,
0.1959999998,1,179652.2187500000,182538.1093750000,163246.0468750000,159929.7187500000,130082.0859375000,117819.4296875000,130834.7109375000,145578.5781250000,,,
0.1999999997,1,179928.2968750000,183812.4062500000,162764.7343750000,159245.9687500000,129411.8515625000,117232.3750000000,130153.0000000000,147537.5000000000,,,
0.2039999997,1,180307.9843750000,200001.4375000000,162508.2031250000,158766.3906250000,128940.4296875000,116837.7421875000,129662.1093750000,150970.1718750000,,,
0.2079999996,1,180221.1562500000,206815.5937500000,162765.1562500000,159112.7343750000,129258.8593750000,117121.7031250000,129972.6250000000,150832.1093750000,,,
0.2119999996,1,179884.5937500000,197405.7500000000,163188.3593750000,159785.8906250000,129898.1093750000,117674.6406250000,130636.6562500000,147885.2500000000,,,
0.2159999998,1,179668.1250000000,182658.6406250000,163266.0312500000,159965.2500000000,130095.5234375000,117831.8984375000,130847.8593750000,145586.1718750000,,,
0.2199999997,1,179945.5156250000,183778.7343750000,162791.8125000000,159270.9062500000,129439.7500000000,117246.3984375000,130184.0625000000,147505.0781250000,,,
0.2239999997,1,180331.7968750000,199917.7031250000,162528.6875000000,158798.8906250000,128964.0078125000,116845.3828125000,129697.8046875000,150905.7656250000,,,
0.2279999997,1,180258.3437500000,206840.4218750000,162786.2656250000,159148.7343750000,129279.3515625000,117142.4921875000,130015.1093750000,150805.6406250000,,,
0.2319999996,1,179910.2187500000,197723.5781250000,163190.0781250000,159781.4375000000,129894.1953125000,117678.1796875000,130639.4453125000,147914.7812500000,,,
0.2359999996,1,179683.3750000000,183103.7343750000,163275.7656250000,159945.9375000000,130101.0781250000,117845.1796875000,130857.7578125000,145602.2812500000,,,
0.2399999998,1,179963.1406250000,184066.5625000000,162811.5781250000,159285.3593750000,129458.0468750000,117271.1796875000,130210.4296875000,147443.1406250000,,,
0.2439999997,1,180323.8437500000,199953.8281250000,162506.2500000000,158798.6718750000,128949.1171875000,116848.5234375000,129691.2109375000,150779.3281250000,,,
0.2479999997,1,180251.6875000000,206858.4531250000,162757.4375000000,159119.0156250000,129258.7031250000,117137.2031250000,130004.3593750000,150694.4687500000,,,
0.2519999996,1,179935.8750000000,198159.7812500000,163193.1250000000,159746.7343750000,129896.7968750000,117694.0625000000,130653.2109375000,147862.1093750000,,,
0.2559999996,2,179703.1250000000,183443.6562500000,163302.8593750000,159963.8281250000,130127.4140625000,117878.4609375000,130892.2187500000,145397.5781250000,,,
0.2599999995,2,179981.9687500000,184039.2812500000,162847.2031250000,159332.9687500000,129495.2187500000,117316.8359375000,130252.5937500000,147171.7812500000,,,
0.2639999995,2,180332.0468750000,199760.6562500000,162525.5781250000,158821.9062500000,128972.6718750000,116894.1484375000,129731.7343750000,150625.4687500000,,,
0.2679999995,2,180260.4062500000,206912.4687500000,162765.8750000000,159123.5468750000,129267.7968750000,117182.9687500000,130045.7187500000,150699.6718750000,,,
0.2719999994,2,179941.8906250000,198541.2500000000,163190.5781250000,159739.5625000000,129893.2343750000,117724.9296875000,130688.4296875000,147887.8750000000,,,
0.2759999994,2,179692.3125000000,183979.5312500000,163289.0156250000,159936.7656250000,130113.8671875000,117895.4921875000,130919.1484375000,145390.6875000000,,,
0.2799999996,2,179939.2656250000,184579.7500000000,162824.5937500000,159311.2500000000,129480.2812500000,117329.3046875000,130286.4453125000,147174.3906250000,,,
0.2839999995,2,180307.9375000000,200346.5781250000,162526.8906250000,158826.9531250000,128980.9296875000,116925.7656250000,129782.5390625000,150687.7500000000,,,
0.2879999995,2,180261.7656250000,207508.4062500000,162778.3593750000,159121.7500000000,129286.0078125000,117223.9765625000,130094.5078125000,150759.6406250000,,,
0.2919999994,2,179978.6406250000,199109.3281250000,163225.8593750000,159770.3125000000,129933.5703125000,117788.7187500000,130742.3671875000,147958.6093750000,,,
0.2959999994,2,179744.8750000000,184676.4687500000,163328.6562500000,159953.3437500000,130160.7812500000,117966.4140625000,130978.8593750000,145488.3281250000,,,
0.2999999996,2,179981.1875000000,184902.7187500000,162873.0937500000,159313.8437500000,129538.5625000000,117416.3984375000,130371.1718750000,147223.8750000000,,,
0.3039999995,2,180345.6093750000,200125.6718750000,162579.1718750000,158834.6406250000,129037.5234375000,116998.0000000000,129865.5000000000,150717.9375000000,,,
0.3079999995,2,180294.3906250000,207072.0156250000,162817.6250000000,159134.8906250000,129326.9921875000,117275.0156250000,130155.6562500000,150801.5625000000,,,
0.3119999995,2,179992.7968750000,198668.5468750000,163227.0312500000,159735.2031250000,129935.7421875000,117805.9375000000,130771.8437500000,148002.1406250000,,,
0.3159999994,2,179765.0468750000,184406.4843750000,163325.6875000000,159940.7656250000,130158.1250000000,117973.6015625000,130988.8906250000,145548.1875000000,,,
0.3199999994,2,179987.3281250000,184553.3593750000,162876.4062500000,159325.5937500000,129547.2812500000,117434.0703125000,130385.5000000000,147205.8437500000,,,
0.3239999996,2,180333.5781250000,199670.7187500000,162569.5937500000,158827.7031250000,129034.7656250000,117010.9296875000,129872.2812500000,150659.0625000000,,,
0.3279999995,2,180289.0781250000,206742.9531250000,162797.7187500000,159131.0000000000,129311.1406250000,117265.0937500000,130141.7890625000,150781.7343750000,,,
0.3319999995,2,180008.4062500000,198667.6562500000,163209.2500000000,159755.4531250000,129917.6640625000,117788.2890625000,130741.7187500000,148044.5937500000,,,
0.3359999994,2,179787.5312500000,184572.8906250000,163316.6718750000,159977.5312500000,130144.0468750000,117971.9140625000,130974.4062500000,145591.1562500000,,,
0.3399999994,2,179978.5000000000,184489.9843750000,162859.9375000000,159353.2500000000,129526.3593750000,117429.4375000000,130361.9218750000,147178.5156250000,,,
0.3439999996,2,180318.0937500000,199367.5781250000,162554.9218750000,158865.0937500000,129018.1875000000,117001.7578125000,129852.7578125000,150618.0937500000,,,
0.3479999995,2,180278.4218750000,206491.2343750000,162774.1406250000,159135.1093750000,129283.9375000000,117242.1640625000,130118.6171875000,150780.9062500000,,,
0.3519999995,2,180012.4375000000,198682.3750000000,163183.4687500000,159712.3437500000,129882.8281250000,117757.7343750000,130716.5390625000,148107.2031250000,,,
0.3559999994,2,179782.8593750000,184656.7343750000,163288.5156250000,159926.2812500000,130113.4687500000,117934.3046875000,130942.0859375000,145622.4531250000,,,
0.3599999994,2,179952.5468750000,184326.0937500000,162833.8750000000,159311.7812500000,129509.4062500000,117397.4609375000,130333.9218750000,147139.7343750000,,,
0.3639999994,2,180285.4843750000,199000.5156250000,162529.3906250000,158827.7500000000,129004.5078125000,116967.2343750000,129818.1796875000,150586.1875000000,,,
0.3679999996,2,180266.0937500000,206185.2968750000,162758.9843750000,159117.0625000000,129273.1328125000,117210.2421875000,130081.8750000000,150807.3281250000,,,
0.3719999995,2,180026.1718750000,198617.5781250000,163182.4843750000,159730.6093750000,129882.4453125000,117744.2968750000,130699.1562500000,148173.2656250000,,,
0.3759999995,2,179813.2031250000,184738.7343750000,163311.0937500000,159963.6093750000,130130.6093750000,117942.0312500000,130949.7500000000,145685.8906250000,,,
0.3799999994,2,179968.3593750000,184259.9062500000,162870.4062500000,159358.3281250000,129536.9296875000,117408.5937500000,130348.6718750000,147129.7187500000,,,
0.3839999994,3,180266.3281250000,198720.3593750000,162536.5000000000,158847.3125000000,129003.7031250000,116953.1250000000,129803.2968750000,150514.4531250000,,,
0.3879999993,3,180244.1718750000,205925.9843750000,162750.6718750000,159119.6875000000,129258.7265625000,117181.1171875000,130055.3984375000,150757.3281250000,,,
0.3919999993,3,180029.2187500000,198564.8750000000,163176.9843750000,159750.7031250000,129867.5625000000,117712.8359375000,130667.3671875000,148186.8906250000,,,
0.3959999993,3,179815.3125000000,184761.7968750000,163303.8437500000,159993.9531250000,130114.1406250000,117909.2265625000,130899.2734375000,145700.7812500000,,,
0.3999999992,3,179929.6562500000,184015.6250000000,162841.0625000000,159367.8437500000,129502.6718750000,117361.4140625000,130270.1875000000,147050.9531250000,,,
0.4039999992,3,180214.4843750000,198255.9375000000,162504.6093750000,158844.9531250000,128968.4843750000,116919.3593750000,129758.6953125000,150393.4687500000,,,
0.4079999994,3,180207.5156250000,205522.5312500000,162723.5625000000,159097.0781250000,129224.1796875000,117163.1406250000,130039.1718750000,150678.5312500000,,,
0.4119999993,3,179994.6718750000,198358.3437500000,163136.6406250000,159683.5312500000,129816.8437500000,117681.4843750000,130642.6406250000,148161.8593750000,,,
0.4159999993,3,179786.2187500000,184670.7343750000,163266.3281250000,159925.9062500000,130068.8125000000,117883.7968750000,130895.9453125000,145685.5468750000,,,
0.4199999992,3,179909.6250000000,183721.6406250000,162833.7343750000,159350.4062500000,129492.5390625000,117361.6796875000,130297.8437500000,146974.3125000000,,,
0.4239999992,3,180182.0781250000,197740.4687500000,162495.7812500000,158830.5468750000,128954.1640625000,116897.3906250000,129743.7812500000,150264.8281250000,,,
0.4279999994,3,180179.4531250000,205032.4843750000,162707.0937500000,159103.2656250000,129200.8203125000,117129.4843750000,129997.1171875000,150568.2343750000,,,
0.4319999993,3,180003.0468750000,198040.6093750000,163144.7968750000,159716.8750000000,129812.4687500000,117665.4375000000,130621.2656250000,148125.7656250000,,,
0.4359999993,3,179816.3593750000,184499.0937500000,163291.4531250000,159960.3125000000,130080.1015625000,117880.0468750000,130888.7578125000,145710.3281250000,,,
0.4399999992,3,179913.8593750000,183393.5937500000,162854.5781250000,159377.2031250000,129507.2109375000,117361.8437500000,130295.5859375000,146972.0156250000,,,
0.4439999992,3,180171.2187500000,197229.7968750000,162510.0312500000,158844.1093750000,128965.0234375000,116898.8125000000,129732.5156250000,150220.5156250000,,,
0.4479999992,3,180173.4687500000,204582.2812500000,162705.2031250000,159111.0468750000,129195.9921875000,117110.7343750000,129964.0703125000,150547.3906250000,,,
0.4519999993,3,180015.8906250000,197831.2343750000,163136.8906250000,159734.9531250000,129802.8125000000,117633.6562500000,130578.2109375000,148172.0312500000,,,
0.4559999993,3,179836.6718750000,184475.5781250000,163289.1718750000,160007.1718750000,130079.2968750000,117853.4375000000,130855.2343750000,145758.1718750000,,,
0.4599999993,3,179923.4843750000,183203.9062500000,162871.1562500000,159423.1562500000,129527.1406250000,117357.4140625000,130302.1640625000,146904.8281250000,,,
0.4639999992,3,180162.9062500000,196774.6875000000,162523.7031250000,158853.1875000000,128983.9609375000,116897.7109375000,129750.5390625000,150079.7031250000,,,
0.4679999992,3,180175.6406250000,204136.5468750000,162721.6250000000,159097.8281250000,129213.7500000000,117115.7734375000,129975.2265625000,150437.7187500000,,,
0.4719999994,3,180009.0000000000,197560.0937500000,163119.4531250000,159678.1718750000,129791.5468750000,117640.4453125000,130562.4687500000,148099.8281250000,,,
0.4759999993,3,179826.7187500000,184325.4843750000,163253.3750000000,159919.3125000000,130058.0234375000,117873.8750000000,130838.2578125000,145722.9843750000,,,
0.4799999993,3,179906.2968750000,182934.1093750000,162841.2031250000,159372.7500000000,129518.4765625000,117378.8203125000,130292.4531250000,146878.4375000000,,,
0.4839999992,3,180147.2656250000,196430.2031250000,162514.0156250000,158855.2968750000,128988.4687500000,116916.9140625000,129750.3203125000,150085.1406250000,,,
0.4879999992,3,180155.1250000000,203989.8750000000,162700.2968750000,159080.2812500000,129199.5078125000,117116.9296875000,129961.0390625000,150495.6250000000,,,
0.4919999992,3,180022.2031250000,197812.7343750000,163109.9062500000,159659.0156250000,129784.7109375000,117633.5000000000,130553.1328125000,148246.5937500000,,,
0.4959999993,3,179849.4687500000,184815.7812500000,163249.9062500000,159919.1718750000,130055.8515625000,117861.9687500000,130824.2265625000,145867.0781250000,,,
0.4999999993,3,179907.0781250000,183302.7500000000,162854.2656250000,159382.1093750000,129524.3437500000,117373.5625000000,130281.7265625000,146911.1718750000,,,
0.5039999993,3,180122.6406250000,196612.9531250000,162523.1406250000,158847.5000000000,128983.7734375000,116893.5312500000,129730.4765625000,150032.4375000000,,,
0.5079999992,3,180147.9375000000,204241.2343750000,162709.9843750000,159064.5312500000,129197.7109375000,117094.9375000000,129950.3125000000,150492.2031250000,,,
0.5119999992,4,180044.1406250000,198288.4218750000,163118.9375000000,159657.6875000000,129787.8203125000,117624.0781250000,130555.0390625000,148336.6093750000,,,
0.5159999991,4,179869.7968750000,185349.8750000000,163246.8281250000,159949.3437500000,130051.5625000000,117853.1718750000,130824.3593750000,145995.4531250000,,,
0.5199999991,4,179901.3906250000,183703.2812500000,162846.9843750000,159422.4843750000,129521.0234375000,117367.2031250000,130279.5000000000,146978.9375000000,,,
0.5239999990,4,180094.1093750000,197015.3593750000,162519.5468750000,158866.9062500000,128979.4843750000,116881.4843750000,129718.1093750000,150044.2187500000,,,
0.5279999990,4,180138.0156250000,204792.5625000000,162718.6718750000,159092.0781250000,129198.7031250000,117090.8281250000,129937.0625000000,150531.8125000000,,,
0.5319999990,4,180049.5312500000,199063.7656250000,163116.3125000000,159688.7187500000,129774.7890625000,117617.1328125000,130528.8593750000,148449.8593750000,,,
0.5359999991,4,179891.1718750000,186346.8125000000,163252.7812500000,159958.7656250000,130052.2578125000,117859.4453125000,130817.2500000000,146163.5937500000,,,
0.5399999991,4,179899.5937500000,184642.3281250000,162852.1718750000,159428.2656250000,129525.6640625000,117378.1250000000,130274.3203125000,147069.5937500000,,,
0.5439999991,4,180075.9218750000,197680.5156250000,162517.2656250000,158880.0000000000,128980.1562500000,116886.5312500000,129714.7578125000,150016.6718750000,,,
0.5479999990,4,180139.5625000000,205290.2968750000,162713.3593750000,159107.6875000000,129201.8359375000,117095.4453125000,129935.9843750000,150497.9062500000,,,
0.5519999990,4,180071.8906250000,199536.7656250000,163110.8906250000,159698.1093750000,129778.4609375000,117613.4062500000,130524.5156250000,148475.2031250000,,,
0.5559999992,4,179918.6562500000,186759.6875000000,163251.2187500000,159962.0625000000,130064.8125000000,117858.5859375000,130821.1171875000,146207.3906250000,,,
0.5599999991,4,179911.9062500000,184641.0468750000,162860.1562500000,159421.9375000000,129552.8359375000,117387.2656250000,130302.2109375000,147044.0781250000,,,
0.5639999991,4,180060.6562500000,197293.0781250000,162508.5468750000,158847.7656250000,128990.4765625000,116886.0703125000,129725.2968750000,149967.4531250000,,,
0.5679999990,4,180107.7656250000,204869.9687500000,162680.1093750000,159042.1093750000,129184.4843750000,117063.8203125000,129913.8281250000,150521.9218750000,,,
0.5719999990,4,180052.3125000000,199199.8125000000,163071.1093750000,159626.5937500000,129754.3437500000,117581.8125000000,130491.9296875000,148614.4843750000,,,
0.5759999990,4,179908.4687500000,186467.7031250000,163212.4687500000,159904.7968750000,130040.8593750000,117848.7734375000,130800.7812500000,146439.5156250000,,,
0.5799999991,4,179893.3125000000,184214.2812500000,162833.3906250000,159409.6093750000,129541.5156250000,117380.0000000000,130294.7578125000,147229.1250000000,,,
0.5839999991,4,180048.6093750000,196820.4687500000,162497.3906250000,158857.5000000000,128997.2109375000,116878.8046875000,129733.8281250000,150102.1562500000,,,
0.5879999991,4,180095.5468750000,204564.1406250000,162658.5937500000,159045.4375000000,129182.2578125000,117056.9296875000,129912.3281250000,150637.4062500000,,,
0.5919999990,4,180050.1250000000,199088.9531250000,163047.6406250000,159620.8750000000,129749.4921875000,117582.9375000000,130489.7265625000,148741.2812500000,,,
0.5959999990,4,179931.8281250000,186315.4687500000,163216.2500000000,159931.9843750000,130057.8671875000,117858.7500000000,130815.7265625000,146532.6718750000,,,
0.5999999992,4,179908.0937500000,183753.9062500000,162845.0625000000,159437.7343750000,129562.9453125000,117404.6796875000,130321.8515625000,147178.4843750000,,,
0.6039999991,4,180037.7500000000,196195.7343750000,162498.6562500000,158865.1406250000,128996.6796875000,116885.3437500000,129736.1875000000,149934.9218750000,,,
0.6079999991,4,180077.2343750000,204088.0781250000,162648.4843750000,159042.8437500000,129167.2656250000,117037.1640625000,129906.0000000000,150511.6718750000,,,
0.6119999990,4,180037.2187500000,198918.6875000000,163035.5468750000,159615.0312500000,129733.9921875000,117548.2031250000,130493.6718750000,148693.0781250000,,,
0.6159999990,4,179916.3906250000,186388.1718750000,163199.0000000000,159907.8593750000,130043.2734375000,117824.0390625000,130818.6718750000,146560.4531250000,,,
0.6199999989,4,179879.0468750000,183844.1093750000,162834.3281250000,159421.2968750000,129558.0859375000,117381.7187500000,130333.4609375000,147215.5781250000,,,
0.6239999991,4,179982.9843750000,196335.8281250000,162477.8906250000,158843.8437500000,128973.4765625000,116864.3750000000,129729.5078125000,149905.5156250000,,,
0.6279999991,4,180043.8906250000,204456.7187500000,162645.2656250000,159021.8593750000,129153.0468750000,117029.7578125000,129897.8750000000,150454.8593750000,,,
0.6319999991,4,180025.7968750000,199586.4218750000,163025.8437500000,159580.3593750000,129722.3984375000,117539.0859375000,130471.2187500000,148688.3906250000,,,
0.6359999990,4,179915.6250000000,187202.5312500000,163176.5000000000,159891.3906250000,130037.9062500000,117814.0078125000,130798.9843750000,146595.1093750000,,,
0.6399999990,5,179875.2187500000,184383.4687500000,162824.2187500000,159420.7031250000,129561.2265625000,117377.5312500000,130328.3906250000,147185.0625000000,,,
0.6439999989,5,180006.9375000000,196440.6406250000,162525.2343750000,158865.7812500000,129010.2734375000,116889.1328125000,129770.3359375000,149809.6875000000,,,
0.6479999989,5,180087.5937500000,204406.6406250000,162710.5156250000,159042.4062500000,129195.8828125000,117060.8203125000,129949.9062500000,150389.6562500000,,,
0.6519999988,5,180055.3750000000,199620.3437500000,163061.7812500000,159595.2656250000,129734.2812500000,117541.3593750000,130490.2343750000,148674.8437500000,,,
0.6559999988,5,179944.6875000000,187230.5781250000,163216.0312500000,159904.4218750000,130049.8750000000,117815.8828125000,130822.0000000000,146592.0781250000,,,
0.6599999988,5,179903.6406250000,184142.3437500000,162884.2187500000,159449.1406250000,129597.0078125000,117404.2500000000,130373.7734375000,147098.0781250000,,,
0.6639999989,5,180016.2343750000,196032.1718750000,162564.6562500000,158900.0312500000,129040.1250000000,116909.7031250000,129807.3437500000,149662.7500000000,,,
0.6679999989,5,180091.0000000000,204202.1718750000,162720.8125000000,159077.5156250000,129207.1250000000,117064.6015625000,129966.9687500000,150286.5000000000,,,
0.6719999989,5,180097.4531250000,199682.5468750000,163094.0781250000,159647.9218750000,129761.6171875000,117563.1171875000,130524.4375000000,148662.5781250000,,,
0.6759999988,5,180010.5312500000,187472.0937500000,163268.4531250000,159985.0781250000,130089.1640625000,117861.2656250000,130859.9296875000,146642.0468750000,,,
0.6799999988,5,179959.9375000000,184338.6718750000,162943.0625000000,159545.6406250000,129650.3593750000,117465.0000000000,130423.4765625000,147122.4062500000,,,
0.6839999990,5,180028.6562500000,196136.4062500000,162597.6250000000,158962.2968750000,129069.3125000000,116921.9296875000,129834.1953125000,149609.1562500000,,,
0.6879999989,5,180054.3281250000,204374.2656250000,162688.9843750000,159063.9687500000,129173.2421875000,117030.2109375000,129931.2890625000,150216.8906250000,,,
0.6919999989,5,180063.7187500000,200163.8750000000,163048.4218750000,159602.4531250000,129713.2812500000,117515.2890625000,130480.2578125000,148675.1875000000,,,
0.6959999988,5,179991.9062500000,187949.6250000000,163234.2500000000,159978.9375000000,130062.7187500000,117832.0078125000,130836.5625000000,146676.7343750000,,,
0.6999999988,5,179928.2656250000,184349.5625000000,162908.6875000000,159541.5937500000,129627.7187500000,117433.5937500000,130407.5468750000,147064.5156250000,,,
0.7039999987,5,179975.9218750000,195787.6875000000,162542.7812500000,158914.2812500000,129030.5781250000,116897.9531250000,129806.1171875000,149479.5000000000,,,
0.7079999989,5,180024.0156250000,204195.3437500000,162660.6093750000,159005.7968750000,129153.9609375000,117010.6640625000,129921.9609375000,150152.6562500000,,,
0.7119999989,5,180049.6406250000,200231.5781250000,163024.3125000000,159570.1875000000,129694.6171875000,117493.3203125000,130462.6406250000,148690.7187500000,,,
0.7159999989,5,179976.5156250000,188285.8125000000,163205.3125000000,159912.3593750000,130033.2734375000,117799.8984375000,130815.3515625000,146763.7343750000,,,
0.7199999988,5,179875.6406250000,184968.7343750000,162865.1250000000,159452.5000000000,129582.9765625000,117396.8750000000,130381.2578125000,147148.0468750000,,,
0.7239999988,5,179920.5937500000,196651.3593750000,162516.4843750000,158873.9062500000,129003.3046875000,116871.8281250000,129788.8125000000,149544.3906250000,,,
0.7279999990,5,179991.8906250000,205156.8125000000,162646.8437500000,159016.6406250000,129143.6640625000,116994.9687500000,129906.9375000000,150203.7031250000,,,
0.7319999989,5,180021.3437500000,201316.6875000000,162994.6406250000,159550.0937500000,129672.5625000000,117466.1015625000,130437.9375000000,148709.9687500000,,,
0.7359999989,5,179932.7656250000,189553.4843750000,163147.3750000000,159849.5937500000,129985.1796875000,117743.4375000000,130765.8359375000,146717.2343750000,,,
0.7399999988,5,179859.2031250000,185843.2812500000,162851.4687500000,159449.7500000000,129576.2734375000,117380.0312500000,130366.0546875000,146999.3750000000,,,
0.7439999988,5,179911.7187500000,196697.3593750000,162521.8593750000,158880.3750000000,129005.5781250000,116868.3125000000,129787.7968750000,149321.1250000000,,,
0.7479999987,5,179997.5468750000,204622.2343750000,162662.0312500000,159013.5156250000,129145.9375000000,116992.3437500000,129916.0859375000,149999.6875000000,,,
0.7519999989,5,180059.7812500000,200530.8593750000,163035.1718750000,159571.3437500000,129697.5937500000,117485.6250000000,130464.0859375000,148613.8125000000,,,
0.7559999989,5,180005.8593750000,188710.3593750000,163223.8125000000,159951.2500000000,130049.5000000000,117806.4687500000,130823.9843750000,146778.6562500000,,,
0.7599999988,5,179916.1093750000,184964.5156250000,162923.8125000000,159550.8750000000,129645.1562500000,117445.1250000000,130428.7578125000,147093.9375000000,,,
0.7639999988,5,179921.8593750000,196090.4843750000,162542.4531250000,158924.3593750000,129028.9687500000,116895.5937500000,129798.5234375000,149386.6250000000,,,
0.7679999988,6,179983.2187500000,204647.6093750000,162650.3593750000,159022.1093750000,129136.6093750000,116986.5468750000,129895.3515625000,150070.3906250000,,,
0.7719999987,6,180028.7968750000,201216.2656250000,162995.4218750000,159562.9687500000,129656.0156250000,117454.8046875000,130417.2578125000,148690.1875000000,,,
0.7759999987,6,179954.5468750000,189955.3906250000,163164.5312500000,159915.4687500000,129980.5625000000,117764.3593750000,130756.6640625000,146813.8437500000,,,
0.7799999986,6,179856.4687500000,186430.3750000000,162864.2031250000,159516.4843750000,129570.5312500000,117408.4843750000,130357.3359375000,147059.4531250000,,,
0.7839999986,6,179885.6406250000,197135.9062500000,162516.2500000000,158899.1875000000,128984.6093750000,116872.6640625000,129758.7734375000,149291.4531250000,,,
0.7879999985,6,179977.5625000000,205106.6250000000,162650.7656250000,159012.6718750000,129121.3984375000,116984.3515625000,129882.6093750000,150033.2968750000,,,
0.7919999987,6,180053.7968750000,201370.9531250000,163026.5312500000,159574.0468750000,129673.3203125000,117482.1406250000,130437.9843750000,148738.4062500000,,,
0.7959999987,6,179990.5781250000,189935.7968750000,163205.4687500000,159926.9687500000,130014.6796875000,117797.4062500000,130791.4218750000,146871.9062500000,,,
0.7999999986,6,179897.6875000000,186126.3750000000,162901.5468750000,159526.8437500000,129611.9218750000,117427.4218750000,130397.8125000000,147060.4218750000,,,
0.8039999986,6,179926.1718750000,196691.8281250000,162534.6718750000,158907.0937500000,129009.1484375000,116885.3750000000,129783.0234375000,149246.3593750000,,,
0.8079999986,6,180021.8281250000,204655.4687500000,162624.3437500000,158974.1718750000,129096.8281250000,116958.3046875000,129857.1562500000,149932.5781250000,,,
0.8119999988,6,180098.9687500000,201115.7656250000,162965.5781250000,159510.2187500000,129610.7421875000,117419.2656250000,130370.2343750000,148626.4843750000,,,
0.8159999987,6,180051.8281250000,190052.4531250000,163165.0468750000,159871.7187500000,129968.7109375000,117754.4609375000,130742.7421875000,146773.7968750000,,,
0.8199999987,6,179974.6875000000,186272.6875000000,162878.2656250000,159485.5625000000,129578.6875000000,117405.9609375000,130374.5234375000,146893.9531250000,,,
0.8239999986,6,179997.8125000000,196468.3437500000,162525.5468750000,158888.6718750000,128990.6718750000,116874.1640625000,129775.6406250000,149082.1875000000,,,
0.8279999986,6,180025.4218750000,204274.9531250000,162645.7500000000,158993.0312500000,129107.1796875000,116967.1562500000,129872.7656250000,149880.5781250000,,,
0.8319999985,6,180061.0312500000,200764.6093750000,162991.2187500000,159507.1093750000,129623.2109375000,117428.4921875000,130389.4921875000,148634.8281250000,,,
0.8359999987,6,180035.4531250000,189696.3906250000,163178.8593750000,159864.1562500000,129967.9062500000,117739.3125000000,130749.7968750000,146761.2187500000,,,
0.8399999987,6,179946.6406250000,185815.7968750000,162899.9843750000,159498.5468750000,129591.2968750000,117399.1250000000,130385.3125000000,146948.9218750000,,,
0.8439999986,6,179939.4843750000,195941.9687500000,162534.2968750000,158893.1250000000,128999.8671875000,116886.1015625000,129788.3046875000,149246.6562500000,,,
0.8479999986,6,180001.8125000000,203864.2187500000,162629.4843750000,158982.3750000000,129097.1796875000,116975.8203125000,129870.2734375000,150089.6250000000,,,
0.8519999986,6,180074.1562500000,200726.4687500000,162975.0937500000,159510.1875000000,129607.4687500000,117424.8203125000,130374.4453125000,148885.1562500000,,,
0.8559999987,6,180044.0000000000,189914.7500000000,163177.0312500000,159876.4375000000,129966.5937500000,117765.7265625000,130749.9296875000,147041.7812500000,,,
0.8599999987,6,179948.6562500000,185978.5312500000,162902.4843750000,159525.4687500000,129599.2343750000,117449.2031250000,130397.0078125000,147168.6406250000,,,
0.8639999987,6,179929.3437500000,195931.4843750000,162527.4375000000,158888.6093750000,129001.4218750000,116904.5781250000,129786.5625000000,149346.8125000000,,,
0.8679999986,6,179971.3125000000,203850.4687500000,162607.1406250000,158919.3750000000,129082.6171875000,116974.3984375000,129853.5312500000,150128.4687500000,,,
0.8719999986,6,180052.7656250000,200769.6562500000,162967.3750000000,159451.9375000000,129602.8281250000,117449.6562500000,130374.7187500000,148916.0781250000,,,
0.8759999985,6,180047.7343750000,190081.2031250000,163189.8593750000,159861.9062500000,129973.9375000000,117801.2968750000,130762.2968750000,147075.1093750000,,,
0.8799999987,6,179949.4062500000,186053.8125000000,162910.0468750000,159504.5625000000,129604.1718750000,117487.4531250000,130412.3437500000,147163.4687500000,,,
0.8839999987,6,179949.0312500000,195880.5781250000,162548.6250000000,158903.6875000000,129021.5156250000,116957.9843750000,129813.7578125000,149348.8750000000,,,
0.8879999986,6,180008.1406250000,203857.9218750000,162642.9218750000,158981.0937500000,129111.8515625000,117021.2578125000,129883.0625000000,150149.7031250000,,,
0.8919999986,6,180090.2500000000,200772.2500000000,163004.1406250000,159517.4531250000,129634.7500000000,117491.3671875000,130413.2812500000,148933.7187500000,,,
0.8959999986,7,180068.8437500000,190038.5781250000,163212.8125000000,159876.0156250000,129995.1250000000,117824.6875000000,130798.0468750000,147074.7968750000,,,
0.8999999985,7,179968.5781250000,186039.9218750000,162937.1875000000,159514.5937500000,129631.7187500000,117503.2734375000,130446.6484375000,147148.0468750000,,,
0.9039999985,7,179963.0781250000,196001.9687500000,162579.1406250000,158899.5625000000,129052.3359375000,116965.8906250000,129847.5234375000,149360.3125000000,,,
0.9079999984,7,180024.0000000000,204040.9218750000,162676.6093750000,158979.1406250000,129146.4218750000,117034.8828125000,129917.8281250000,150183.9375000000,,,
0.9119999984,7,180084.2343750000,200909.0468750000,163015.1093750000,159501.4375000000,129646.1484375000,117487.8828125000,130424.8203125000,148933.4531250000,,,
0.9159999983,7,180047.8906250000,190022.8750000000,163220.0625000000,159876.6875000000,130004.0625000000,117822.2968750000,130811.2734375000,147047.6718750000,,,
0.9199999985,7,179954.6250000000,185715.5000000000,162955.1875000000,159538.1093750000,129651.8828125000,117510.5703125000,130467.5156250000,147135.8906250000,,,
0.9239999985,7,179961.9843750000,195477.6718750000,162588.4531250000,158920.3125000000,129061.1015625000,116967.4218750000,129842.1640625000,149369.7656250000,,,
0.9279999984,7,180011.1718750000,203554.1093750000,162664.0312500000,158965.1406250000,129134.6250000000,117018.8671875000,129885.2421875000,150174.4375000000,,,
0.9319999984,7,180069.0312500000,200361.6562500000,163019.6718750000,159489.7031250000,129652.8281250000,117490.1328125000,130409.7187500000,148875.9843750000,,,
0.9359999984,7,180018.6093750000,189083.8281250000,163238.5625000000,159886.1875000000,130027.2578125000,117833.6406250000,130813.0703125000,146888.1093750000,,,
0.9399999985,7,179913.6718750000,184442.9375000000,162944.6250000000,159535.2343750000,129656.1250000000,117492.3593750000,130435.0078125000,146931.8125000000,,,
0.9439999985,7,179944.5468750000,194704.0781250000,162547.2812500000,158884.5312500000,129033.1796875000,116911.5234375000,129773.5546875000,149304.4062500000,,,
0.9479999985,7,180031.2343750000,203533.8281250000,162646.7343750000,158957.0156250000,129118.0703125000,116982.6562500000,129843.4218750000,150210.3750000000,,,
0.9519999984,7,180078.9531250000,200401.7031250000,163025.7031250000,159502.1718750000,129657.5468750000,117482.5390625000,130414.0390625000,148830.5468750000,,,
0.9559999984,7,180001.1406250000,188347.3750000000,163250.6406250000,159924.9687500000,130047.8906250000,117853.2734375000,130853.3046875000,146687.9687500000,,,
0.9599999983,7,179897.3437500000,183406.6406250000,162935.3125000000,159534.0000000000,129653.1484375000,117496.5703125000,130461.0312500000,146788.3125000000,,,
0.9639999985,7,179965.0156250000,194631.5937500000,162521.9843750000,158862.5937500000,128993.2421875000,116877.6250000000,129751.4531250000,149385.2187500000,,,
0.9679999985,7,180066.5312500000,204353.5156250000,162640.8281250000,158943.0937500000,129087.7890625000,116959.9375000000,129823.4375000000,150362.7031250000,,,
0.9719999984,7,180104.9375000000,201292.1406250000,163044.4218750000,159541.5625000000,129659.8828125000,117501.4531250000,130422.7265625000,148890.8906250000,,,
0.9759999984,7,180019.0781250000,189009.8750000000,163274.6406250000,159958.7656250000,130072.1875000000,117893.1328125000,130879.5859375000,146663.4531250000,,,
0.9799999984,7,179909.2968750000,183906.5937500000,162942.6406250000,159529.1250000000,129664.0625000000,117530.7968750000,130479.8593750000,146763.0156250000,,,
0.9839999985,7,179960.1562500000,194961.1406250000,162509.3750000000,158839.5000000000,128974.4140625000,116889.3437500000,129745.1484375000,149396.9375000000,,,
0.9879999985,7,180034.1093750000,204436.3593750000,162613.5781250000,158899.0000000000,129052.9765625000,116950.7421875000,129801.3359375000,150344.8125000000,,,
0.9919999985,7,180049.8437500000,201190.1875000000,162991.7031250000,159465.2031250000,129605.4062500000,117469.7500000000,130383.2421875000,148841.2500000000,,,
0.9959999984,7,179966.9375000000,188885.2343750000,163209.4375000000,159893.9531250000,130006.7187500000,117854.5078125000,130828.3281250000,146644.5468750000,,,
0.9999999984,7,179880.9218750000,183667.5937500000,162911.2500000000,159532.6406250000,129631.8203125000,117509.4140625000,130454.7812500000,146755.1562500000,,,
1.0039999983,7,179941.8125000000,194502.4062500000,162512.3281250000,158861.3281250000,128977.0156250000,116890.6328125000,129747.1562500000,149346.2187500000,,,
1.0079999985,7,180012.4062500000,203957.1406250000,162612.0000000000,158908.4062500000,129052.3046875000,116951.0859375000,129798.4921875000,150289.7656250000,,,
1.0119999985,7,180037.5625000000,200895.5468750000,162984.2656250000,159467.2968750000,129597.4921875000,117451.6406250000,130372.7031250000,148841.2656250000,,,
1.0159999984,7,179960.5312500000,188790.4218750000,163197.0468750000,159893.8437500000,129991.5078125000,117830.7734375000,130807.6796875000,146695.5000000000,,,
1.0199999984,7,179877.6250000000,183553.3750000000,162914.5312500000,159546.4531250000,129635.0703125000,117502.6015625000,130449.4921875000,146784.8750000000,,,
1.0239999983,8,179925.9375000000,194372.6093750000,162508.2031250000,158857.2500000000,128976.8828125000,116880.0390625000,129738.5781250000,149320.9843750000,,,
1.0279999983,8,180015.4687500000,204009.5625000000,162617.5000000000,158903.9062500000,129059.5703125000,116945.2109375000,129797.0234375000,150283.7343750000,,,
1.0319999983,8,180068.1093750000,201165.0937500000,163005.0000000000,159464.2656250000,129615.5937500000,117471.2734375000,130377.5859375000,148890.6250000000,,,
1.0359999982,8,179999.2656250000,189171.0781250000,163228.0312500000,159876.7343750000,130016.1875000000,117856.2031250000,130817.0078125000,146748.9062500000,,,
1.0399999982,8,179926.3281250000,183883.8593750000,162958.8125000000,159540.8125000000,129675.2500000000,117546.7812500000,130463.0156250000,146813.8906250000,,,
1.0439999981,8,179980.3750000000,194605.6875000000,162552.1562500000,158880.7031250000,129018.5390625000,116920.5390625000,129762.2890625000,149348.7656250000,,,
1.0479999983,8,180033.6718750000,204215.5937500000,162615.7031250000,158916.9843750000,129054.9062500000,116945.0781250000,129796.4843750000,150305.0625000000,,,
1.0519999983,8,180075.3593750000,201394.6875000000,162995.9062500000,159470.3906250000,129599.5859375000,117459.6875000000,130377.2109375000,148918.2812500000,,,
1.0559999982,8,180015.2031250000,189377.3437500000,163236.4531250000,159904.5781250000,130016.1562500000,117860.3593750000,130835.4921875000,146782.1406250000,,,
1.0599999982,8,179918.9531250000,183895.9843750000,162951.6562500000,159561.9843750000,129664.3828125000,117541.6328125000,130481.0390625000,146808.4218750000,,,
1.0639999982,8,179955.2500000000,194438.3750000000,162533.5468750000,158872.0625000000,129003.3828125000,116910.1562500000,129766.8203125000,149317.6093750000,,,
1.0679999983,8,180034.5625000000,204127.0468750000,162623.8593750000,158916.9843750000,129068.2890625000,116953.7421875000,129801.5546875000,150309.7812500000,,,
1.0719999983,8,180072.1406250000,201439.5625000000,162996.6093750000,159460.8593750000,129604.4375000000,117449.4687500000,130362.1875000000,148930.2656250000,,,
1.0759999983,8,180017.7968750000,189465.1250000000,163246.8281250000,159887.9531250000,130027.9062500000,117856.4921875000,130831.5468750000,146800.5625000000,,,
1.0799999982,8,179931.0468750000,183869.3750000000,162982.7343750000,159560.9375000000,129697.1875000000,117550.3984375000,130503.3828125000,146809.5312500000,,,
1.0839999982,8,179962.5468750000,194346.0312500000,162558.6562500000,158868.4375000000,129033.8750000000,116918.7968750000,129787.2031250000,149298.7968750000,,,
1.0879999981,8,180044.1406250000,204135.5468750000,162640.9218750000,158916.9375000000,129088.7031250000,116961.4687500000,129807.0781250000,150301.2500000000,,,
1.0919999983,8,180073.7500000000,201569.8125000000,162995.1250000000,159456.7812500000,129604.6250000000,117453.4375000000,130354.5156250000,148929.8125000000,,,
1.0959999983,8,180002.2968750000,189681.8437500000,163223.9218750000,159886.5312500000,130002.7734375000,117844.0468750000,130807.7578125000,146780.5625000000,,,
1.0999999982,8,179912.7812500000,183985.9843750000,162965.1718750000,159572.0468750000,129681.1796875000,117548.4140625000,130484.5546875000,146750.8125000000,,,
1.1039999982,8,179932.0781250000,194307.3281250000,162531.3750000000,158885.0468750000,129011.9609375000,116915.0937500000,129750.7812500000,149213.6093750000,,,
1.1079999981,8,180005.3593750000,204118.9531250000,162606.6406250000,158898.9375000000,129056.6796875000,116939.5781250000,129773.3125000000,150218.0781250000,,,
1.1119999983,8,180044.3281250000,201685.5937500000,162979.6562500000,159452.7812500000,129582.4453125000,117424.7109375000,130338.5625000000,148865.7031250000,,,
1.1159999983,8,179991.8281250000,189896.0312500000,163232.6718750000,159902.3593750000,130002.7734375000,117829.3281250000,130809.8203125000,146742.7031250000,,,
1.1199999982,8,179902.5937500000,184132.0937500000,162971.6250000000,159584.3281250000,129682.5156250000,117537.7968750000,130485.5468750000,146706.5781250000,,,
1.1239999982,8,179957.7187500000,194346.8593750000,162571.7656250000,158905.8281250000,129046.4843750000,116932.8203125000,129783.9843750000,149194.0625000000,,,
1.1279999982,8,180024.9843750000,204163.6875000000,162630.0000000000,158920.8750000000,129077.6250000000,116950.7968750000,129797.5859375000,150205.1406250000,,,
1.1319999981,8,180048.1406250000,201780.2031250000,162976.8437500000,159443.7187500000,129577.3750000000,117422.3281250000,130335.8515625000,148854.0156250000,,,
1.1359999983,8,180000.6562500000,189965.7656250000,163243.9843750000,159896.1250000000,130007.7890625000,117837.0468750000,130804.2187500000,146735.8750000000,,,
1.1399999983,8,179937.0625000000,184028.2031250000,163019.9687500000,159611.0937500000,129724.6015625000,117577.1406250000,130497.3750000000,146703.6875000000,,,
1.1439999982,8,179949.9687500000,194136.7812500000,162556.0312500000,158901.9375000000,129038.4687500000,116938.2656250000,129768.8046875000,149154.6093750000,,,
1.1479999982,8,180031.7968750000,204047.9531250000,162627.4843750000,158921.8125000000,129076.2812500000,116962.4609375000,129801.9843750000,150196.7500000000,,,
1.1519999981,9,180070.2656250000,201770.2500000000,162993.6562500000,159450.9062500000,129592.3125000000,117443.1640625000,130351.9140625000,148883.0937500000,,,
1.1559999981,9,179987.7812500000,189975.3593750000,163223.5937500000,159885.2656250000,129986.7578125000,117815.6171875000,130805.1562500000,146736.3593750000,,,
1.1599999981,9,179891.1093750000,183980.6562500000,162963.3906250000,159585.2031250000,129670.5781250000,117535.5156250000,130492.9453125000,146673.5156250000,,,
1.1639999980,9,179926.6562500000,194032.0000000000,162545.7500000000,158895.6718750000,129025.9140625000,116928.5546875000,129787.4453125000,149167.1250000000,,,
1.1679999980,9,179981.0468750000,203983.6562500000,162590.0625000000,158883.5937500000,129041.8750000000,116928.4765625000,129770.3359375000,150220.3750000000,,,
1.1719999979,9,180021.1562500000,201811.2812500000,162950.6875000000,159415.7812500000,129550.2343750000,117405.1875000000,130311.5234375000,148917.9062500000,,,
1.1759999981,9,179978.9531250000,190118.0312500000,163219.7968750000,159875.7187500000,129981.2578125000,117819.5312500000,130799.0156250000,146809.2031250000,,,
1.1799999981,9,179899.5937500000,183995.2187500000,162983.4375000000,159590.3281250000,129692.2812500000,117558.1796875000,130512.9843750000,146723.4843750000,,,
1.1839999980,9,179926.4375000000,193862.3437500000,162542.7968750000,158908.0781250000,129027.9531250000,116933.0625000000,129789.2656250000,149162.6562500000,,,
1.1879999980,9,179990.7343750000,203835.2500000000,162589.9843750000,158884.7812500000,129045.2500000000,116940.7343750000,129776.8750000000,150208.8437500000,,,
1.1919999979,9,180036.6875000000,201772.7187500000,162961.1250000000,159395.0625000000,129557.2031250000,117423.7734375000,130314.6640625000,148918.3593750000,,,
1.1959999981,9,179973.1093750000,190189.4062500000,163219.0468750000,159837.1718750000,129970.0781250000,117808.7500000000,130760.2031250000,146793.8125000000,,,
1.1999999981,9,179879.7656250000,184080.8125000000,162974.8281250000,159571.0156250000,129674.5781250000,117545.7578125000,130475.8046875000,146690.3281250000,,,
1.2039999980,9,179912.7031250000,193891.3906250000,162539.3750000000,158896.2500000000,129021.8906250000,116934.4296875000,129792.3515625000,149136.4531250000,,,
1.2079999980,9,179994.2968750000,203872.1875000000,162600.2031250000,158895.9687500000,129050.0781250000,116942.9375000000,129795.0078125000,150214.7031250000,,,
1.2119999980,9,180038.2031250000,201899.5312500000,162966.2343750000,159410.8906250000,129555.4375000000,117411.9687500000,130328.1250000000,148948.0781250000,,,
1.2159999979,9,179989.3593750000,190353.2812500000,163234.6718750000,159864.6875000000,129978.8984375000,117821.7343750000,130803.3281250000,146856.7500000000,,,
1.2199999981,9,179899.4375000000,184021.7187500000,163001.4843750000,159599.3437500000,129697.4609375000,117561.9375000000,130522.9062500000,146728.1718750000,,,
1.2239999981,9,179926.0937500000,193625.7656250000,162562.6250000000,158924.3437500000,129046.4843750000,116942.2890625000,129806.4375000000,149126.6875000000,,,
1.2279999980,9,179997.3281250000,203701.6562500000,162605.7187500000,158929.5625000000,129057.4843750000,116937.0625000000,129781.7890625000,150202.7812500000,,,
1.2319999980,9,180047.4843750000,201887.6250000000,162974.5000000000,159472.5312500000,129558.8437500000,117409.5546875000,130311.0625000000,148969.4843750000,,,
1.2359999979,9,180010.1562500000,190358.6875000000,163254.1250000000,159915.2031250000,129991.2968750000,117839.3281250000,130805.1328125000,146902.3593750000,,,
1.2399999981,9,179890.0937500000,183900.0000000000,162988.6875000000,159590.7343750000,129685.1484375000,117575.6406250000,130510.4375000000,146728.6093750000,,,
1.2439999981,9,179897.7656250000,193473.9062500000,162530.2968750000,158883.7343750000,129019.5859375000,116938.1875000000,129779.9921875000,149090.7968750000,,,
1.2479999980,9,179960.6093750000,203666.9375000000,162559.9687500000,158816.4843750000,129020.4687500000,116920.0859375000,129744.7187500000,150175.1406250000,,,
1.2519999980,9,179992.7656250000,202094.2812500000,162899.5937500000,159287.4062500000,129494.3593750000,117366.9921875000,130255.7343750000,148969.5312500000,,,
1.2559999980,9,179946.3750000000,190615.1250000000,163186.4531250000,159784.6093750000,129935.6406250000,117787.5859375000,130758.2187500000,146872.8750000000,,,
1.2599999979,9,179858.1718750000,183894.0000000000,162973.4843750000,159540.0468750000,129677.1250000000,117553.4296875000,130508.1562500000,146673.1562500000,,,
1.2639999981,9,179879.9375000000,193284.3281250000,162523.4062500000,158870.3750000000,129014.8906250000,116928.7187500000,129776.1250000000,149030.3125000000,,,
1.2679999981,9,179947.5000000000,203472.4843750000,162551.6250000000,158842.7187500000,129010.3046875000,116908.0937500000,129732.1093750000,150127.2343750000,,,
1.2719999980,9,179987.9375000000,201860.6093750000,162903.3750000000,159348.5625000000,129492.1640625000,117355.0312500000,130248.1718750000,148929.1875000000,,,
1.2759999980,9,179949.5937500000,190394.3281250000,163189.2656250000,159817.1093750000,129927.2187500000,117775.7031250000,130744.9375000000,146871.4218750000,,,
1.2799999979,10,179866.2500000000,183733.4375000000,162980.3437500000,159580.5468750000,129676.1328125000,117549.5156250000,130497.7500000000,146679.4062500000,,,
1.2839999979,10,179890.9062500000,193104.7187500000,162534.1406250000,158883.5937500000,129023.3906250000,116937.7812500000,129784.9531250000,149024.2187500000,,,
1.2879999978,10,179963.5156250000,203412.0781250000,162564.9062500000,158848.1718750000,129021.3281250000,116917.1875000000,129743.2656250000,150141.9843750000,,,
1.2919999978,10,180004.3125000000,201846.9062500000,162920.7031250000,159355.6718750000,129508.4687500000,117373.5078125000,130261.1796875000,148952.8437500000,,,
1.2959999978,10,179963.7187500000,190435.0468750000,163205.8125000000,159824.4062500000,129938.3984375000,117791.2656250000,130758.4062500000,146913.5625000000,33029,1.2974327945,0.0000000000
1.2999999977,10,179877.0312500000,183735.3437500000,163000.4062500000,159599.9687500000,129689.9453125000,117568.3203125000,130516.2812500000,146704.7500000000,,,
1.3039999979,10,179889.5000000000,192956.5000000000,162538.2343750000,158911.7343750000,129026.2890625000,116945.8281250000,129794.8750000000,149005.5781250000,,,
1.3079999979,10,179956.0781250000,203311.9062500000,162555.9375000000,158856.4531250000,129011.0781250000,116912.5156250000,129750.0000000000,150129.3750000000,,,
1.3119999978,10,180000.1718750000,201835.4218750000,162911.8437500000,159342.7343750000,129495.4062500000,117374.3984375000,130266.8906250000,148957.4375000000,,,
1.3159999978,10,179963.9062500000,190482.8125000000,163200.7968750000,159828.9375000000,129927.7265625000,117799.6015625000,130758.2734375000,146924.3750000000,,,
1.3199999977,10,179855.7968750000,183634.1875000000,162977.2968750000,159572.1406250000,129668.6250000000,117567.7031250000,130511.2968750000,146672.1718750000,,,
1.3239999979,10,179857.0781250000,192681.8750000000,162509.5156250000,158870.9062500000,129001.2109375000,116938.0234375000,129774.2187500000,148952.2031250000,,,
1.3279999979,10,179942.8906250000,203115.4218750000,162545.3281250000,158827.6406250000,129000.1093750000,116921.7734375000,129732.6484375000,150118.4531250000,,,
1.3319999978,10,179989.4687500000,201823.9218750000,162901.7031250000,159335.0625000000,129480.2500000000,117368.0937500000,130247.7421875000,148975.9375000000,,,
1.3359999978,10,179943.0156250000,190510.7031250000,163182.5625000000,159806.7343750000,129908.4375000000,117782.6250000000,130730.5625000000,146926.5781250000,,,
1.3399999978,10,179855.8437500000,183512.9843750000,162987.9375000000,159571.6875000000,129677.0156250000,117572.5546875000,130509.2265625000,146654.6562500000,,,
1.3439999977,10,179876.5781250000,192536.3437500000,162531.4531250000,158881.2656250000,129021.2968750000,116955.5390625000,129794.2812500000,148938.6875000000,,,
1.3479999979,10,179936.2343750000,203093.8437500000,162528.9531250000,158830.4687500000,128985.1171875000,116903.6640625000,129718.1093750000,150101.5000000000,,,
1.3519999979,10,179996.8750000000,201979.3593750000,162898.7812500000,159333.8125000000,129475.8281250000,117371.9531250000,130241.8906250000,149005.2031250000,,,
1.3559999978,10,179964.6562500000,190775.4687500000,163205.7343750000,159803.8593750000,129927.7265625000,117809.1250000000,130755.1328125000,146979.6875000000,,,
1.3599999978,10,179860.3281250000,183681.2968750000,162996.0156250000,159584.2968750000,129685.3046875000,117591.9218750000,130526.2578125000,146666.8281250000,,,
1.3639999977,10,179863.3593750000,192539.5625000000,162519.0156250000,158892.1250000000,129011.0000000000,116960.9296875000,129786.7187500000,148921.1406250000,,,
1.3679999979,10,179937.5781250000,203065.7500000000,162532.1250000000,158828.0468750000,128985.9218750000,116916.9453125000,129718.1640625000,150106.4687500000,,,
1.3719999979,10,179999.6406250000,201996.0937500000,162903.3437500000,159328.4375000000,129477.9218750000,117372.4375000000,130242.7500000000,149016.8750000000,,,
1.3759999978,10,179975.6093750000,190844.7031250000,163214.8750000000,159821.0781250000,129933.4921875000,117815.3515625000,130759.7968750000,147002.8906250000,,,
1.3799999978,10,179890.7968750000,183668.6406250000,163025.0312500000,159627.6406250000,129712.5312500000,117621.1562500000,130549.0078125000,146693.3593750000,,,
1.3839999977,10,179905.3906250000,192371.9687500000,162562.4375000000,158940.5625000000,129053.0312500000,116995.0234375000,129820.5156250000,148936.7343750000,,,
1.3879999977,10,179966.4531250000,202970.5312500000,162557.6875000000,158852.2187500000,129008.0468750000,116925.0468750000,129736.3515625000,150133.8593750000,,,
1.3919999979,10,180003.1562500000,202005.2656250000,162900.5312500000,159325.4062500000,129471.7500000000,117357.7656250000,130236.6640625000,149039.5468750000,,,
1.3959999979,10,179976.4687500000,190895.3437500000,163211.1562500000,159810.2968750000,129925.0156250000,117800.8359375000,130751.8359375000,147028.0625000000,,,
1.3999999978,10,179892.0000000000,183629.6562500000,163028.0625000000,159628.3906250000,129713.0703125000,117618.9843750000,130547.7734375000,146699.4531250000,,,
1.4039999978,10,179893.0781250000,192212.1406250000,162548.6250000000,158958.5312500000,129041.5781250000,116973.9921875000,129808.0156250000,148902.6718750000,,,
1.4079999977,11,179954.1562500000,202866.5937500000,162537.4062500000,158846.0937500000,128993.8593750000,116910.5625000000,129714.5703125000,150110.2968750000,,,
1.4119999977,11,180013.5000000000,202069.5781250000,162902.4531250000,159308.4531250000,129477.5156250000,117367.9609375000,130232.2890625000,149068.9375000000,,,
1.4159999976,11,179987.9375000000,191031.1406250000,163222.4531250000,159798.6875000000,129941.0546875000,117816.1562500000,130765.0312500000,147063.6406250000,,,
1.4199999976,11,179907.1093750000,183607.1875000000,163051.1093750000,159623.6250000000,129742.8437500000,117646.6093750000,130581.4843750000,146703.7031250000,,,
1.4239999976,11,179902.1406250000,192085.4375000000,162566.6406250000,158919.7031250000,129064.3203125000,116994.5156250000,129833.4687500000,148884.0468750000,,,
1.4279999975,11,179958.8906250000,202831.2812500000,162545.1875000000,158821.2812500000,129002.7890625000,116917.5625000000,129722.5625000000,150103.2187500000,,,
1.4319999977,11,180012.6406250000,202228.6406250000,162897.3906250000,159306.0468750000,129470.1953125000,117355.6484375000,130218.8515625000,149090.6562500000,,,
1.4359999977,11,179990.8437500000,191252.3437500000,163220.6562500000,159818.3437500000,129934.2968750000,117809.2343750000,130753.6015625000,147085.8750000000,,,
1.4399999976,11,179898.3906250000,183613.4531250000,163045.8281250000,159641.2343750000,129730.9609375000,117634.7265625000,130571.8593750000,146675.4687500000,,,
1.4439999976,11,179894.5000000000,191956.5000000000,162560.7500000000,158927.8281250000,129051.9531250000,116995.0000000000,129826.6875000000,148843.5781250000,,,
1.4479999975,11,179945.7031250000,202766.4687500000,162527.8281250000,158821.3437500000,128976.3984375000,116905.2500000000,129705.1015625000,150071.3125000000,,,
1.4519999977,11,180013.6875000000,202282.3593750000,162891.9687500000,159306.7968750000,129455.3046875000,117348.2421875000,130208.2812500000,149087.9843750000,,,
1.4559999977,11,179992.9843750000,191372.8750000000,163214.8750000000,159821.8281250000,129925.6875000000,117808.5078125000,130745.6640625000,147095.7968750000,,,
1.4599999976,11,179900.9062500000,183621.0468750000,163044.4843750000,159655.6406250000,129734.4453125000,117647.9531250000,130576.6015625000,146665.1093750000,,,
1.4639999976,11,179890.9062500000,191843.6562500000,162559.2968750000,158933.0781250000,129055.9296875000,116998.8593750000,129831.8359375000,148813.7500000000,,,
1.4679999975,11,179941.3281250000,202718.4062500000,162527.3437500000,158800.8281250000,128978.3593750000,116906.4296875000,129709.0156250000,150066.6406250000,,,
1.4719999975,11,179992.1093750000,202244.2500000000,162878.3437500000,159282.4218750000,129444.9531250000,117343.6562500000,130205.2031250000,149069.9062500000,,,
1.4759999977,11,179974.7968750000,191336.3750000000,163206.1093750000,159797.5000000000,129919.0078125000,117808.7500000000,130726.9687500000,147084.6406250000,,,
1.4799999977,11,179886.0781250000,183597.7187500000,163038.4687500000,159632.7968750000,129729.8593750000,117649.1875000000,130565.5546875000,146651.8906250000,,,
1.4839999976,11,179891.8125000000,191709.1250000000,162568.9531250000,158933.0000000000,129066.1718750000,117012.0546875000,129853.3437500000,148792.7500000000,,,
1.4879999976,11,179966.0781250000,202653.5000000000,162549.6875000000,158832.6093750000,129000.2421875000,116925.8750000000,129737.4453125000,150083.2343750000,,,
1.4919999975,11,180021.9218750000,202260.0937500000,162898.4687500000,159316.1250000000,129463.7031250000,117361.9765625000,130227.0859375000,149103.2968750000,,,
1.4959999977,11,179988.8281250000,191392.1562500000,163206.8593750000,159804.9687500000,129916.3281250000,117812.8593750000,130747.3281250000,147109.0468750000,,,
1.4999999977,11,179874.0781250000,183622.7968750000,163020.5000000000,159610.4687500000,129709.7109375000,117635.5625000000,130559.9218750000,146639.4218750000,,,
1.5039999976,11,179851.8437500000,191584.3437500000,162529.0625000000,158899.0781250000,129026.3125000000,116981.5859375000,129814.2421875000,148735.6718750000,,,
1.5079999976,11,179911.5000000000,202573.3593750000,162496.2656250000,158775.5000000000,128944.1875000000,116884.4609375000,129683.3515625000,150031.7968750000,,,
1.5119999975,11,179995.5156250000,202302.5312500000,162877.1406250000,159279.4843750000,129438.3046875000,117346.2890625000,130200.5078125000,149094.5312500000,,,
1.5159999975,11,179988.9062500000,191499.1250000000,163220.5156250000,159801.2812500000,129924.3984375000,117809.8281250000,130750.1718750000,147119.6718750000,,,
1.5199999977,11,179898.6875000000,183626.6562500000,163064.7343750000,159646.1718750000,129751.9609375000,117661.6562500000,130594.0625000000,146645.1875000000,,,
1.5239999976,11,179895.3281250000,191485.8281250000,162583.7656250000,158947.5468750000,129080.1484375000,117023.2656250000,129853.8828125000,148752.6250000000,,,
1.5279999976,11,179956.5625000000,202535.3281250000,162543.0468750000,158832.6093750000,128991.6328125000,116912.9218750000,129715.5859375000,150069.2656250000,,,
1.5319999976,11,180004.0625000000,202418.3281250000,162879.3437500000,159295.3125000000,129443.3203125000,117336.2500000000,130195.1640625000,149129.5312500000,,,
1.5359999975,12,179983.5156250000,191712.9531250000,163207.8593750000,159798.1718750000,129916.6718750000,117805.2890625000,130732.9218750000,147148.6562500000,,,
1.5399999975,12,179881.0781250000,183668.5312500000,163048.2968750000,159646.0625000000,129739.7031250000,117657.5546875000,130580.4921875000,146626.2187500000,,,
1.5439999974,12,179861.8281250000,191370.2968750000,162551.7343750000,158934.1250000000,129052.6562500000,117012.7812500000,129830.9765625000,148707.7968750000,,,
1.5479999974,12,179930.2500000000,202467.1406250000,162512.7343750000,158801.6250000000,128962.5312500000,116906.0781250000,129691.3437500000,150049.1718750000,,,
1.5519999973,12,179997.7031250000,202495.5468750000,162864.5625000000,159270.7187500000,129424.7265625000,117338.1015625000,130182.7187500000,149146.0156250000,,,
1.5559999973,12,179983.8437500000,191864.8437500000,163201.8750000000,159793.9843750000,129907.4218750000,117805.2343750000,130731.8750000000,147162.7500000000,,,
1.5599999975,12,179889.2968750000,183691.6718750000,163055.3437500000,159661.9531250000,129749.7578125000,117662.2734375000,130591.8125000000,146612.0000000000,,,
1.5639999975,12,179884.0937500000,191246.8593750000,162579.0625000000,158959.4531250000,129083.5234375000,117017.3125000000,129860.4531250000,148684.4687500000,,,
1.5679999974,12,179954.2031250000,202385.2187500000,162542.9687500000,158815.2500000000,128993.1093750000,116901.9218750000,129721.1406250000,150049.2500000000,,,
1.5719999974,12,180007.1250000000,202510.0000000000,162881.7812500000,159283.5625000000,129437.5234375000,117323.3828125000,130192.5390625000,149154.8437500000,,,
1.5759999973,12,179983.8125000000,191939.2812500000,163207.9687500000,159799.4375000000,129910.3437500000,117802.7734375000,130734.1328125000,147177.6875000000,,,
1.5799999975,12,179886.5000000000,183675.6562500000,163061.7343750000,159655.8125000000,129756.8125000000,117677.6484375000,130603.7187500000,146615.9531250000,,,
1.5839999975,12,179861.1875000000,191099.8281250000,162564.8437500000,158940.5156250000,129072.1796875000,117016.8281250000,129855.8437500000,148662.1250000000,,,
1.5879999974,12,179921.7968750000,202291.8906250000,162509.5937500000,158782.7656250000,128961.1093750000,116890.1718750000,129690.8828125000,150036.7656250000,,,
1.5919999974,12,179992.0156250000,202523.7812500000,162861.2031250000,159245.4218750000,129420.3046875000,117322.7656250000,130169.7421875000,149167.6093750000,,,
1.5959999973,12,179983.2500000000,192003.0625000000,163200.6718750000,159778.9687500000,129905.5390625000,117797.9687500000,130718.2500000000,147194.9843750000,,,
1.5999999973,12,179898.2031250000,183685.5625000000,163070.4375000000,159682.0625000000,129766.3125000000,117681.9062500000,130598.8125000000,146616.5156250000,,,
1.6039999975,12,179877.3593750000,190984.5781250000,162578.2031250000,158960.7343750000,129083.9531250000,117031.1250000000,129855.1953125000,148646.2812500000,,,
1.6079999974,12,179924.1093750000,202244.7812500000,162505.6718750000,158785.4062500000,128954.7500000000,116895.2734375000,129678.1484375000,150031.0468750000,,,
1.6119999974,12,179985.0468750000,202567.5937500000,162849.7812500000,159251.8593750000,129407.0546875000,117319.3828125000,130158.0156250000,149168.8437500000,,,
1.6159999974,12,179972.0625000000,192097.7187500000,163190.9843750000,159781.1250000000,129892.3203125000,117786.2500000000,130710.5546875000,147195.2812500000,,,
1.6199999973,12,179880.6093750000,183703.6875000000,163061.7343750000,159661.7656250000,129756.5468750000,117672.0390625000,130596.6640625000,146594.0937500000,,,
1.6239999975,12,179877.0625000000,190868.8437500000,162588.7500000000,158966.1250000000,129095.4062500000,117040.7578125000,129868.3906250000,148623.4687500000,,,
1.6279999975,12,179949.9062500000,202171.3125000000,162534.3281250000,158806.0000000000,128982.5703125000,116906.7265625000,129699.1718750000,150046.6562500000,,,
1.6319999974,12,180016.1406250000,202648.2968750000,162875.7656250000,159273.4531250000,129429.5546875000,117323.0000000000,130172.2890625000,149213.7968750000,,,
1.6359999974,12,179998.4843750000,192272.1093750000,163209.7031250000,159795.4687500000,129912.1640625000,117802.9296875000,130724.4453125000,147239.8906250000,,,
1.6399999973,12,179895.0937500000,183730.9375000000,163073.8750000000,159684.2343750000,129771.9687500000,117692.5078125000,130610.2968750000,146595.9687500000,,,
1.6439999973,12,179871.5937500000,190740.7812500000,162583.5781250000,158967.4687500000,129092.4843750000,117050.5468750000,129874.0000000000,148596.5781250000,,,
1.6479999975,12,179929.6406250000,202097.9375000000,162512.5156250000,158795.2656250000,128958.7500000000,116905.3828125000,129695.8750000000,150033.5156250000,,,
1.6519999974,12,179989.0156250000,202683.8125000000,162847.2812500000,159244.2187500000,129399.1171875000,117320.2421875000,130164.2421875000,149210.1250000000,,,
1.6559999974,12,179979.7031250000,192351.3125000000,163195.4843750000,159771.1406250000,129895.4843750000,117801.6171875000,130729.6015625000,147236.1093750000,,,
1.6599999974,12,179888.8125000000,183724.7187500000,163078.8125000000,159672.3281250000,129777.8125000000,117706.9921875000,130636.8984375000,146581.3281250000,,,
1.6639999973,13,179877.1406250000,190624.4531250000,162599.6093750000,158986.5625000000,129109.3281250000,117068.9453125000,129905.7578125000,148580.6875000000,,,
1.6679999973,13,179947.1250000000,202047.6093750000,162533.6562500000,158829.4687500000,128979.8828125000,116919.9453125000,129728.6796875000,150046.3125000000,,,
1.6719999972,13,180014.3125000000,202740.9375000000,162871.2656250000,159265.4375000000,129424.1953125000,117346.6875000000,130208.9531250000,149246.3437500000,,,
1.6759999972,13,179992.1093750000,192450.9375000000,163204.3437500000,159765.2968750000,129907.3906250000,117823.7187500000,130763.7187500000,147262.6562500000,,,
1.6799999971,13,179895.7343750000,183736.8906250000,163086.3750000000,159660.7656250000,129790.7968750000,117727.7734375000,130672.8671875000,146578.4531250000,,,
1.6839999971,13,179879.9843750000,190501.2656250000,162604.7343750000,158973.7656250000,129121.0000000000,117096.3828125000,129945.8828125000,148560.5468750000,,,
1.6879999973,13,179953.1562500000,201989.2187500000,162536.5781250000,158805.0625000000,128987.7968750000,116954.0625000000,129764.1406250000,150055.4843750000,,,
1.6919999972,13,180018.4375000000,202792.5468750000,162873.3593750000,159254.7656250000,129431.1640625000,117368.1953125000,130233.7890625000,149275.6875000000,,,
1.6959999972,13,180006.2968750000,192558.3906250000,163222.6875000000,159779.1875000000,129931.2890625000,117852.7421875000,130800.3281250000,147304.5000000000,,,
1.6999999972,13,179910.9062500000,183770.0468750000,163114.5937500000,159682.5937500000,129826.3359375000,117768.5156250000,130723.4843750000,146605.9375000000,,,
1.7039999971,13,179884.4843750000,190413.2343750000,162623.1406250000,158961.5156250000,129145.5156250000,117133.2656250000,129990.0078125000,148570.5000000000,,,
1.7079999973,13,179944.4375000000,201965.7031250000,162535.9375000000,158762.6250000000,128989.1406250000,116975.1484375000,129782.2656250000,150075.6250000000,,,
1.7119999973,13,180011.8125000000,202889.3125000000,162866.9531250000,159226.1718750000,129422.7187500000,117382.0390625000,130236.2578125000,149307.8125000000,,,
1.7159999972,13,180008.4062500000,192717.7968750000,163220.2968750000,159776.6875000000,129928.9843750000,117871.5937500000,130798.9843750000,147330.9218750000,,,
1.7199999972,13,179921.2968750000,183817.1406250000,163121.2187500000,159698.2343750000,129836.7968750000,117796.8125000000,130734.6171875000,146606.1093750000,,,
1.7239999971,13,179906.7500000000,190328.7968750000,162639.8750000000,158999.9843750000,129167.5078125000,117158.7187500000,130014.2812500000,148567.9843750000,,,
1.7279999971,13,179956.4531250000,201933.4843750000,162540.6875000000,158777.1093750000,128998.8515625000,116975.9218750000,129790.4531250000,150083.9843750000,,,
1.7319999973,13,180020.8593750000,202975.2812500000,162872.0156250000,159212.2187500000,129433.3671875000,117376.0078125000,130239.6953125000,149320.7656250000,,,
1.7359999972,13,180013.3750000000,192850.7187500000,163225.6718750000,159761.8125000000,129936.6328125000,117863.5781250000,130810.3593750000,147327.7500000000,,,
1.7399999972,13,179933.5156250000,183850.0625000000,163142.6718750000,159715.9687500000,129858.9765625000,117805.9609375000,130762.5859375000,146582.6093750000,,,
1.7439999972,13,179923.1093750000,190248.2500000000,162665.4375000000,159041.7968750000,129190.6796875000,117168.7734375000,130024.7656250000,148546.0625000000,,,
1.7479999971,13,179970.3281250000,201928.6562500000,162558.4062500000,158811.4687500000,129004.8828125000,116967.5000000000,129792.5390625000,150085.0625000000,,,
1.7519999973,13,180032.7968750000,203078.2812500000,162883.1718750000,159220.4843750000,129429.4531250000,117374.2031250000,130247.3671875000,149342.5781250000,,,
1.7559999973,13,180006.1093750000,193009.9843750000,163210.5312500000,159758.9843750000,129911.8984375000,117853.4140625000,130794.8593750000,147344.3281250000,,,
1.7599999972,13,179902.5156250000,183888.7343750000,163108.5312500000,159704.6250000000,129819.0937500000,117759.7734375000,130724.9296875000,146545.4062500000,,,
1.7639999972,13,179882.6093750000,190136.4843750000,162627.0156250000,159008.9687500000,129149.2968750000,117120.3593750000,129991.3437500000,148483.5156250000,,,
1.7679999971,13,179947.9218750000,201858.4687500000,162535.9687500000,158783.6562500000,128982.9140625000,116943.2812500000,129762.7968750000,150062.6093750000,,,
1.7719999971,13,180009.7187500000,203115.8281250000,162857.5000000000,159205.5156250000,129407.5937500000,117336.2265625000,130197.6875000000,149336.1093750000,,,
1.7759999973,13,180005.5156250000,193096.7656250000,163218.1875000000,159760.5781250000,129922.0625000000,117830.5312500000,130766.3984375000,147347.1250000000,,,
1.7799999972,13,179925.4687500000,183899.9218750000,163143.9062500000,159715.4843750000,129854.5546875000,117769.1328125000,130730.0546875000,146550.5312500000,,,
1.7839999972,13,179885.4375000000,190019.4687500000,162632.3906250000,159022.2343750000,129152.8906250000,117113.6328125000,129981.6406250000,148458.6250000000,,,
1.7879999971,13,179947.3593750000,201804.9843750000,162527.9218750000,158801.9843750000,128968.3828125000,116927.5156250000,129744.5312500000,150055.0000000000,,,
1.7919999971,14,180010.6875000000,203163.2187500000,162850.4531250000,159227.3750000000,129389.3281250000,117312.5703125000,130180.7109375000,149330.7187500000,,,
1.7959999971,14,180001.4062500000,193199.7031250000,163204.9375000000,159771.1718750000,129895.8046875000,117802.7187500000,130747.0859375000,147330.9687500000,,,
1.7999999970,14,179902.7343750000,183919.0468750000,163112.3125000000,159722.2656250000,129818.6953125000,117749.0468750000,130695.0546875000,146507.3437500000,,,
1.8039999970,14,179873.2812500000,189905.0625000000,162623.0781250000,159021.2500000000,129143.2890625000,117113.4453125000,129957.8984375000,148425.5625000000,,,
1.8079999969,14,179930.2031250000,201718.7187500000,162514.0000000000,158784.3281250000,128955.4218750000,116913.2968750000,129708.7187500000,150041.5625000000,,,
1.8119999969,14,180000.6562500000,203198.4375000000,162838.6250000000,159206.0781250000,129379.6718750000,117303.0468750000,130151.2031250000,149347.4531250000,,,
1.8159999971,14,179992.9843750000,193306.1406250000,163193.6875000000,159752.1562500000,129885.6406250000,117789.7890625000,130721.2265625000,147343.7187500000,,,
1.8199999970,14,179905.3281250000,183913.3281250000,163118.9062500000,159712.8593750000,129825.7187500000,117751.2968750000,130691.6171875000,146500.3750000000,,,
1.8239999970,14,179879.2343750000,189739.9687500000,162639.8750000000,159027.0156250000,129160.6640625000,117119.4218750000,129970.7187500000,148405.1406250000,,,
1.8279999970,14,179935.5625000000,201590.3750000000,162523.1406250000,158790.9843750000,128960.1484375000,116908.5234375000,129713.0156250000,150042.2343750000,,,
1.8319999969,14,179991.0312500000,203187.7656250000,162825.0156250000,159193.5781250000,129357.0078125000,117283.3906250000,130128.7031250000,149354.7812500000,,,
1.8359999971,14,179983.6250000000,193391.2187500000,163179.4843750000,159741.2343750000,129863.8593750000,117780.0781250000,130700.8750000000,147353.4687500000,,,
1.8399999971,14,179889.2968750000,183929.4843750000,163104.8593750000,159696.8437500000,129807.8046875000,117740.3046875000,130676.5937500000,146475.7500000000,,,
1.8439999970,14,179857.5312500000,189617.2968750000,162620.1093750000,159004.4062500000,129141.0312500000,117112.5546875000,129956.3437500000,148359.9218750000,,,
1.8479999970,14,179928.9375000000,201513.0156250000,162513.7031250000,158764.3437500000,128955.2109375000,116919.1718750000,129716.0156250000,150033.3593750000,,,
1.8519999969,14,180001.4687500000,203245.4375000000,162836.9062500000,159177.8281250000,129379.1328125000,117302.9140625000,130153.4843750000,149379.7968750000,,,
1.8559999969,14,179996.1250000000,193535.7812500000,163195.5156250000,159725.1875000000,129893.0703125000,117795.8515625000,130727.7734375000,147381.4843750000,,,
1.8599999971,14,179901.9843750000,183972.3906250000,163119.2031250000,159701.2656250000,129836.6093750000,117762.2421875000,130705.9375000000,146483.3906250000,,,
1.8639999970,14,179869.7187500000,189523.0937500000,162632.9531250000,159013.4687500000,129163.4296875000,117138.3046875000,129983.3828125000,148362.6875000000,,,
1.8679999970,14,179944.8125000000,201459.9218750000,162528.2968750000,158780.0937500000,128968.1093750000,116936.4453125000,129736.0234375000,150060.5781250000,,,
1.8719999969,14,180006.7812500000,203325.7187500000,162834.4687500000,159182.6093750000,129366.1484375000,117303.2109375000,130152.4140625000,149419.6562500000,,,
1.8759999969,14,180001.2187500000,193708.0625000000,163192.4843750000,159732.7812500000,129879.1796875000,117802.6875000000,130729.3828125000,147419.3437500000,,,
1.8799999971,14,179911.4218750000,184029.6875000000,163133.7968750000,159730.6718750000,129844.8984375000,117784.9062500000,130728.9531250000,146489.5937500000,,,
1.8839999971,14,179902.3750000000,189436.3281250000,162672.5937500000,159084.5000000000,129200.4140625000,117180.4453125000,130031.9296875000,148373.1406250000,,,
1.8879999970,14,179977.4843750000,201411.2656250000,162556.0000000000,158831.4062500000,128996.7031250000,116975.3906250000,129776.6640625000,150090.7968750000,,,
1.8919999970,14,180032.9218750000,203336.2812500000,162856.3437500000,159200.6093750000,129392.1171875000,117343.4687500000,130189.9609375000,149449.1875000000,,,
1.8959999969,14,180006.1250000000,193716.5312500000,163192.4843750000,159716.9531250000,129885.1015625000,117818.9453125000,130748.6953125000,147423.7187500000,,,
1.8999999969,14,179895.5937500000,184023.4687500000,163114.0312500000,159685.2500000000,129833.7421875000,117791.6640625000,130736.6796875000,146472.8593750000,,,
1.9039999971,14,179868.7187500000,189285.4687500000,162644.0312500000,159015.3125000000,129181.3984375000,117174.7031250000,130037.2421875000,148324.6250000000,,,
1.9079999970,14,179933.1406250000,201302.2500000000,162516.8437500000,158752.5781250000,128963.7421875000,116953.4218750000,129762.5546875000,150057.3593750000,,,
1.9119999970,14,180006.0781250000,203327.0625000000,162835.1406250000,159152.5468750000,129375.9921875000,117332.8437500000,130186.2343750000,149444.7656250000,,,
1.9159999969,14,180004.3906250000,193765.1718750000,163199.4062500000,159706.7656250000,129898.0312500000,117839.3593750000,130764.8671875000,147446.2500000000,,,
1.9199999969,15,179895.4375000000,184038.9687500000,163128.7500000000,159706.5000000000,129853.4843750000,117807.4140625000,130765.8046875000,146479.4843750000,,,
1.9239999969,15,179852.3125000000,189163.8437500000,162636.3906250000,159038.8750000000,129178.3671875000,117169.8203125000,130045.7421875000,148293.1093750000,,,
1.9279999968,15,179920.4531250000,201225.8125000000,162505.0937500000,158754.8281250000,128951.9921875000,116940.6562500000,129758.1562500000,150043.6250000000,,,
1.9319999968,15,179992.4218750000,203372.9218750000,162813.1718750000,159153.8593750000,129351.0000000000,117308.8984375000,130174.2968750000,149445.1093750000,,,
1.9359999967,15,179998.3281250000,193883.4531250000,163181.5156250000,159711.9687500000,129874.3515625000,117813.2031250000,130760.9531250000,147448.4843750000,,,
1.9399999967,15,179910.1875000000,184098.1875000000,163134.9218750000,159727.9531250000,129856.8359375000,117809.5546875000,130778.6250000000,146481.4062500000,,,
1.9439999969,15,179873.8437500000,189082.8125000000,162661.3593750000,159057.1875000000,129203.5781250000,117185.8359375000,130075.0312500000,148284.0625000000,,,
1.9479999968,15,179937.8750000000,201162.5937500000,162525.9375000000,158767.3437500000,128972.3984375000,116945.0234375000,129778.7578125000,150046.1718750000,,,
1.9519999968,15,179998.7500000000,203430.8593750000,162820.8125000000,159151.3593750000,129355.0703125000,117295.8359375000,130168.6953125000,149461.8750000000,,,
1.9559999967,15,179994.1875000000,194048.1093750000,163185.0312500000,159718.8125000000,129873.3281250000,117793.0312500000,130733.9687500000,147464.1406250000,,,
1.9599999967,15,179899.4843750000,184152.8281250000,163135.0937500000,159746.0312500000,129850.6953125000,117790.2734375000,130745.2343750000,146467.7812500000,,,
1.9639999969,15,179857.9687500000,188986.5625000000,162648.3437500000,159062.4531250000,129181.6171875000,117167.0078125000,130036.2734375000,148256.3281250000,,,
1.9679999969,15,179911.3125000000,201082.4687500000,162496.0781250000,158749.6250000000,128932.4375000000,116912.7343750000,129729.9375000000,150026.4062500000,,,
1.9719999968,15,179970.3750000000,203466.9843750000,162783.2656250000,159119.2343750000,129311.2968750000,117260.8281250000,130116.6875000000,149462.8750000000,,,
1.9759999968,15,179976.5937500000,194179.6406250000,163153.3593750000,159684.0156250000,129837.1171875000,117765.7265625000,130697.2500000000,147481.7343750000,,,
1.9799999967,15,179894.5468750000,184194.7968750000,163123.6875000000,159716.4687500000,129836.9296875000,117780.0781250000,130731.4218750000,146464.2656250000,,,
1.9839999967,15,179861.9375000000,188859.3281250000,162651.8281250000,159045.7343750000,129185.3984375000,117171.4843750000,130031.4453125000,148229.4843750000,,,
1.9879999969,15,179919.1406250000,200986.9687500000,162499.8906250000,158742.3437500000,128933.9375000000,116910.5078125000,129715.2421875000,150018.2031250000,,,
1.9919999968,15,179982.4531250000,203479.4531250000,162797.9843750000,159128.7968750000,129317.4140625000,117257.2343750000,130106.6015625000,149472.5000000000,,,
1.9959999968,15,179998.8906250000,194262.0468750000,163182.9062500000,159701.7500000000,129855.3828125000,117766.6171875000,130696.3906250000,147502.3906250000,,,
1.9999999967,15,179896.2656250000,184202.2343750000,163134.7656250000,159729.9687500000,129842.0781250000,117766.7500000000,130712.5390625000,146451.5625000000,,,
2.0039999967,15,179844.5312500000,188726.9062500000,162643.8906250000,159065.5625000000,129175.5781250000,117147.7500000000,130005.8828125000,148186.4843750000,,,
2.0079999969,15,179901.3125000000,200885.2812500000,162484.0312500000,158741.9687500000,128918.7343750000,116887.5703125000,129684.6875000000,149994.5468750000,,,
2.0119999968,15,179966.0312500000,203476.1250000000,162775.1875000000,159115.5781250000,129300.2500000000,117234.6250000000,130066.5859375000,149468.2968750000,,,
2.0159999968,15,179977.3437500000,194323.6562500000,163154.0156250000,159686.3281250000,129834.7578125000,117748.2968750000,130656.6171875000,147499.6875000000,,,
2.0199999968,15,179884.7343750000,184233.2343750000,163121.0000000000,159727.9843750000,129835.0781250000,117757.0937500000,130702.8281250000,146434.8437500000,,,
2.0239999967,15,179839.1875000000,188596.5781250000,162642.0468750000,159052.4687500000,129179.0390625000,117134.7109375000,130004.5703125000,148139.9062500000,,,
2.0279999967,15,179898.2187500000,200781.4531250000,162480.2187500000,158744.7968750000,128913.6328125000,116869.0156250000,129674.2031250000,149968.6875000000,,,
2.0319999969,15,179969.6250000000,203505.8750000000,162778.9218750000,159121.2968750000,129294.7734375000,117223.4140625000,130059.4218750000,149479.1562500000,,,
2.0359999968,15,179975.2500000000,194434.4062500000,163155.5312500000,159696.0312500000,129823.8437500000,117731.6406250000,130652.0546875000,147514.2187500000,,,
2.0399999968,15,179870.3281250000,184256.3906250000,163117.8593750000,159733.2343750000,129825.0468750000,117742.9843750000,130687.8593750000,146425.1406250000,,,
2.0439999967,15,179825.3281250000,188478.6093750000,162638.2343750000,159062.7187500000,129172.3593750000,117131.5781250000,129982.3046875000,148121.5312500000,,,
2.0479999967,16,179896.5625000000,200681.9062500000,162479.6875000000,158761.2656250000,128910.4453125000,116871.4843750000,129653.1171875000,149971.4687500000,,,
2.0519999966,16,179968.2812500000,203506.1406250000,162772.2656250000,159124.6406250000,129285.8984375000,117221.5078125000,130049.5000000000,149493.0156250000,,,
2.0559999966,16,179977.2968750000,194527.5312500000,163148.9218750000,159688.6875000000,129814.6718750000,117731.3984375000,130643.0703125000,147539.4062500000,,,
2.0599999966,16,179893.0000000000,184306.8593750000,163134.9218750000,159752.5000000000,129835.9140625000,117761.9218750000,130692.4218750000,146450.1406250000,,,
2.0639999965,16,179859.2031250000,188382.0000000000,162667.2812500000,159097.6406250000,129196.4453125000,117164.3515625000,129991.2968750000,148130.5312500000,,,
2.0679999965,16,179915.3906250000,200591.9531250000,162493.3125000000,158759.5468750000,128919.1093750000,116882.2109375000,129660.7890625000,149974.7187500000,,,
2.0719999967,16,179983.3906250000,203518.6250000000,162786.5000000000,159120.6718750000,129293.0859375000,117210.9687500000,130053.6796875000,149502.0937500000,,,
2.0759999966,16,179979.9843750000,194616.7968750000,163150.8281250000,159691.0000000000,129812.2031250000,117704.2265625000,130635.0234375000,147542.4687500000,,,
2.0799999966,16,179883.5468750000,184342.9062500000,163124.6250000000,159734.5781250000,129827.6250000000,117743.2500000000,130684.1093750000,146432.1093750000,,,
2.0839999965,16,179843.0781250000,188272.2500000000,162658.0625000000,159080.3437500000,129188.9921875000,117149.7578125000,129996.3359375000,148087.0937500000,,,
2.0879999965,16,179900.8593750000,200498.7968750000,162480.6250000000,158760.3437500000,128906.3906250000,116865.7109375000,129650.9453125000,149946.4218750000,,,
2.0919999967,16,179957.7968750000,203536.7812500000,162754.1093750000,159113.2968750000,129264.2265625000,117188.5703125000,130010.2031250000,149497.4687500000,,,
2.0959999966,16,179956.5156250000,194725.7187500000,163121.0781250000,159662.4375000000,129786.1562500000,117698.9921875000,130598.3281250000,147559.7187500000,,,
2.0999999966,16,179864.6406250000,184377.4375000000,163110.2968750000,159708.7500000000,129814.3984375000,117744.3515625000,130673.4296875000,146430.9843750000,,,
2.1039999966,16,179825.4843750000,188144.0625000000,162645.6406250000,159066.0937500000,129177.4296875000,117142.2265625000,129986.8671875000,148050.9375000000,,,
2.1079999965,16,179878.8593750000,200389.9531250000,162457.7500000000,158732.7500000000,128883.5937500000,116850.7500000000,129620.1328125000,149919.9687500000,,,
2.1119999965,16,179939.9843750000,203538.6875000000,162735.1718750000,159087.1562500000,129245.0781250000,117183.1562500000,129991.3203125000,149490.8437500000,,,
2.1159999967,16,179961.1250000000,194804.0937500000,163129.3437500000,159664.1250000000,129792.6250000000,117709.3750000000,130612.8984375000,147572.6093750000,,,
2.1199999966,16,179866.6562500000,184413.3437500000,163118.1093750000,159730.3906250000,129822.7968750000,117743.4140625000,130685.6640625000,146421.7031250000,,,
2.1239999966,16,179817.8906250000,188042.9375000000,162644.7812500000,159075.0312500000,129180.6484375000,117137.6640625000,129993.7109375000,148007.3437500000,,,
2.1279999965,16,179888.8125000000,200308.9062500000,162465.7343750000,158737.4375000000,128892.7109375000,116846.6953125000,129638.0468750000,149897.3125000000,,,
2.1319999965,16,179957.0937500000,203577.5000000000,162743.2656250000,159089.1406250000,129250.3828125000,117173.2265625000,130003.8750000000,149498.6250000000,,,
2.1359999967,16,179974.5000000000,194938.8750000000,163132.0781250000,159673.6875000000,129792.7031250000,117694.7812500000,130605.9218750000,147591.9531250000,,,
2.1399999966,16,179885.7187500000,184481.3125000000,163132.2500000000,159753.2031250000,129837.9218750000,117757.0937500000,130690.3281250000,146438.9531250000,,,
2.1439999966,16,179837.6875000000,187960.8593750000,162667.7656250000,159101.7343750000,129203.1796875000,117158.5312500000,130011.1953125000,148008.9843750000,,,
2.1479999966,16,179900.9375000000,200245.4062500000,162480.7343750000,158761.5625000000,128904.0312500000,116858.2578125000,129645.1562500000,149909.9218750000,,,
2.1519999965,16,179963.6093750000,203616.6562500000,162748.4531250000,159104.1875000000,129251.4843750000,117177.6250000000,129991.8046875000,149526.0937500000,,,
2.1559999965,16,179965.6250000000,195063.1718750000,163116.7968750000,159660.7968750000,129773.8437500000,117686.4687500000,130574.2421875000,147617.5156250000,,,
2.1599999967,16,179877.7031250000,184549.7968750000,163122.4531250000,159735.1718750000,129825.7187500000,117752.3750000000,130668.1718750000,146442.0312500000,,,
2.1639999966,16,179841.7343750000,187881.2031250000,162670.3593750000,159093.6406250000,129209.6171875000,117170.8671875000,130012.5937500000,147997.3906250000,,,
2.1679999966,16,179902.9218750000,200160.1718750000,162478.9687500000,158748.3125000000,128906.5546875000,116853.0000000000,129643.7890625000,149902.8593750000,,,
2.1719999965,16,179974.3437500000,203642.0468750000,162757.7031250000,159087.6875000000,129260.9296875000,117170.6250000000,129995.7187500000,149547.3593750000,,,
2.1759999965,17,179987.2812500000,195172.0312500000,163138.6875000000,159658.1093750000,129797.4218750000,117694.2734375000,130595.0312500000,147658.2500000000,,,
2.1799999964,17,179895.4062500000,184590.9687500000,163143.3437500000,159746.5937500000,129852.9453125000,117761.1171875000,130696.9843750000,146459.0937500000,,,
2.1839999964,17,179852.2187500000,187758.7656250000,162683.4062500000,159107.2187500000,129228.5546875000,117178.9453125000,130028.3593750000,147977.0937500000,,,
2.1879999964,17,179914.0000000000,200088.5625000000,162481.8125000000,158745.6718750000,128911.9687500000,116863.8359375000,129646.3359375000,149901.7343750000,,,
2.1919999963,17,179978.9062500000,203701.2968750000,162749.7812500000,159089.9062500000,129254.4609375000,117177.8984375000,129996.5234375000,149566.7500000000,,,
2.1959999963,17,179986.7968750000,195304.2187500000,163134.5781250000,159657.1406250000,129792.7265625000,117692.0234375000,130595.1406250000,147676.9843750000,,,
2.1999999965,17,179899.5937500000,184658.1875000000,163151.1250000000,159754.3437500000,129860.2656250000,117770.4765625000,130699.3437500000,146460.4843750000,,,
2.2039999964,17,179848.7343750000,187678.4218750000,162682.8125000000,159114.2343750000,129229.6015625000,117184.0625000000,130026.2421875000,147951.1718750000,,,
2.2079999964,17,179903.4531250000,200016.3750000000,162467.6250000000,158737.3593750000,128896.9531250000,116853.0234375000,129630.6171875000,149885.4062500000,,,
2.2119999963,17,179976.1406250000,203728.9375000000,162739.7343750000,159081.0937500000,129243.2812500000,117171.9453125000,129983.5156250000,149574.6093750000,,,
2.2159999963,17,179993.6875000000,195405.5468750000,163131.1093750000,159660.2343750000,129786.2656250000,117697.6015625000,130589.6171875000,147703.1093750000,,,
2.2199999965,17,179908.8750000000,184740.8750000000,163152.5156250000,159762.6093750000,129856.3750000000,117782.3828125000,130702.4531250000,146481.4375000000,,,
2.2239999964,17,179854.6093750000,187616.0156250000,162688.1562500000,159124.3750000000,129228.9531250000,117198.3046875000,130033.3203125000,147948.2812500000,,,
2.2279999964,17,179910.5156250000,199957.8281250000,162477.5625000000,158742.7031250000,128899.0156250000,116869.7343750000,129641.0781250000,149900.4531250000,,,
2.2319999964,17,179972.6093750000,203786.0937500000,162736.8906250000,159071.2187500000,129232.2812500000,117171.3281250000,129983.2734375000,149601.2812500000,,,
2.2359999963,17,179990.3281250000,195601.6718750000,163123.0937500000,159652.2343750000,129771.8359375000,117693.3125000000,130581.4296875000,147737.6250000000,,,
2.2399999963,17,179902.1406250000,184808.4062500000,163149.8437500000,159760.2500000000,129852.8125000000,117778.1718750000,130702.1875000000,146473.7343750000,,,
2.2439999965,17,179851.4218750000,187500.8906250000,162693.6250000000,159128.0000000000,129239.0703125000,117194.5000000000,130040.3515625000,147913.2187500000,,,
2.2479999964,17,179911.2343750000,199850.0781250000,162475.3437500000,158740.4218750000,128904.1093750000,116862.0625000000,129637.2421875000,149875.6406250000,,,
2.2519999964,17,179970.2656250000,203804.7500000000,162728.3906250000,159057.0312500000,129227.3437500000,117156.1953125000,129972.5703125000,149596.8281250000,,,
2.2559999963,17,179978.9062500000,195732.7031250000,163115.6406250000,159627.0312500000,129765.5078125000,117670.8828125000,130574.7578125000,147742.3437500000,,,
2.2599999963,17,179894.9062500000,184861.2031250000,163154.1093750000,159751.7812500000,129860.7265625000,117775.9765625000,130697.6562500000,146468.9843750000,,,
2.2639999965,17,179843.9375000000,187407.6406250000,162696.0937500000,159122.7187500000,129244.0546875000,117203.4843750000,130040.2187500000,147889.9375000000,,,
2.2679999964,17,179898.6875000000,199772.7031250000,162470.5625000000,158737.5312500000,128897.8906250000,116867.1875000000,129640.7578125000,149862.5468750000,,,
2.2719999964,17,179955.5937500000,203808.9218750000,162722.7500000000,159058.8750000000,129218.7890625000,117156.7031250000,129977.9609375000,149595.4843750000,,,
2.2759999963,17,179971.0000000000,195754.5625000000,163111.6093750000,159649.0937500000,129757.9921875000,117673.5703125000,130585.0234375000,147742.3750000000,,,
2.2799999963,17,179883.0625000000,184892.1250000000,163141.7187500000,159758.7187500000,129844.0390625000,117771.2031250000,130713.6640625000,146458.5781250000,,,
2.2839999963,17,179837.9218750000,187301.6093750000,162694.4531250000,159129.1562500000,129239.3359375000,117201.1250000000,130065.8046875000,147855.3906250000,,,
2.2879999964,17,179895.6250000000,199678.1250000000,162466.8750000000,158729.4531250000,128889.4687500000,116849.4843750000,129645.7421875000,149833.6562500000,,,
2.2919999964,17,179970.1875000000,203820.0781250000,162731.8437500000,159056.8125000000,129223.7812500000,117147.1562500000,129977.5859375000,149593.2500000000,,,
2.2959999964,17,179987.8125000000,195814.5312500000,163127.3906250000,159637.1093750000,129771.5703125000,117674.3750000000,130582.6640625000,147751.2812500000,,,
2.2999999963,17,179896.7031250000,184922.2500000000,163163.9218750000,159766.4218750000,129866.0859375000,117779.0625000000,130725.6796875000,146463.0625000000,,,
2.3039999963,18,179831.0937500000,187198.9843750000,162700.8906250000,159144.3593750000,129247.8671875000,117202.9765625000,130068.9687500000,147832.2187500000,,,
2.3079999962,18,179885.1406250000,199602.2656250000,162466.2031250000,158742.9687500000,128889.4453125000,116848.5781250000,129644.3750000000,149827.8906250000,,,
2.3119999962,18,179948.4062500000,203859.7343750000,162717.4375000000,159069.0468750000,129207.5000000000,117132.5390625000,129967.3671875000,149597.7812500000,,,
2.3159999961,18,179977.8281250000,195943.1406250000,163121.7812500000,159665.6562500000,129763.3828125000,117673.2500000000,130583.0703125000,147773.7812500000,,,
2.3199999961,18,179884.8437500000,185001.0781250000,163154.8750000000,159781.3593750000,129858.0390625000,117780.1875000000,130720.6406250000,146467.0000000000,,,
2.3239999961,18,179827.9218750000,187125.2500000000,162700.5156250000,159165.1250000000,129249.7421875000,117206.6796875000,130070.4218750000,147813.6562500000,,,
2.3279999963,18,179887.2343750000,199527.7031250000,162463.2656250000,158756.6406250000,128887.4296875000,116839.5390625000,129633.9140625000,149819.9531250000,,,
2.3319999962,18,179951.7343750000,203897.3437500000,162712.3750000000,159052.6250000000,129203.3671875000,117127.2578125000,129946.1250000000,149615.5468750000,,,
2.3359999962,18,179967.7500000000,196081.2812500000,163102.9531250000,159624.1875000000,129747.1875000000,117660.7187500000,130555.4921875000,147787.9375000000,,,
2.3399999961,18,179881.8437500000,185064.1875000000,163149.5625000000,159768.9375000000,129854.4765625000,117784.4765625000,130711.6015625000,146463.5937500000,,,
2.3439999961,18,179830.0937500000,187043.8750000000,162708.0000000000,159142.8281250000,129257.8125000000,117217.1640625000,130076.3750000000,147796.7187500000,,,
2.3479999963,18,179875.7187500000,199447.3437500000,162454.0156250000,158700.9375000000,128880.4062500000,116837.6015625000,129629.9218750000,149807.7031250000,,,
2.3519999962,18,179942.2968750000,203923.5000000000,162701.0000000000,158986.5625000000,129194.8906250000,117125.2968750000,129948.1640625000,149627.0000000000,,,
2.3559999962,18,179977.2187500000,196200.6093750000,163116.3593750000,159594.8437500000,129759.8437500000,117666.8125000000,130571.6406250000,147821.3125000000,,,
2.3599999961,18,179888.6562500000,185123.2187500000,163157.8281250000,159761.3281250000,129863.2421875000,117792.8984375000,130725.9531250000,146476.7656250000,,,
2.3639999961,18,179816.9531250000,186950.8750000000,162691.4218750000,159145.4062500000,129243.8984375000,117213.3046875000,130063.6562500000,147770.1875000000,,,
2.3679999961,18,179880.2343750000,199361.1093750000,162452.4687500000,158722.8281250000,128876.3828125000,116846.7734375000,129635.0937500000,149809.6562500000,,,
2.3719999962,18,179959.0000000000,203947.4843750000,162711.3750000000,159037.1875000000,129198.9453125000,117139.8906250000,129960.7187500000,149659.6718750000,,,
2.3759999962,18,179972.7656250000,196289.7656250000,163107.4062500000,159609.6718750000,129746.3515625000,117651.3359375000,130564.9375000000,147829.0625000000,,,
2.3799999962,18,179887.4375000000,185169.5781250000,163161.3750000000,159770.0937500000,129865.2812500000,117783.6718750000,130728.7656250000,146463.4062500000,,,
2.3839999961,18,179830.3125000000,186842.1718750000,162711.2968750000,159163.5312500000,129265.0312500000,117224.7578125000,130088.5000000000,147750.4375000000,,,
2.3879999961,18,179882.4062500000,199250.5781250000,162455.2031250000,158720.5156250000,128878.3125000000,116843.8281250000,129629.6796875000,149798.9843750000,,,
2.3919999963,18,179953.9375000000,203945.2500000000,162706.8750000000,159020.0468750000,129193.0703125000,117129.9140625000,129944.0625000000,149663.4218750000,,,
2.3959999962,18,179978.7500000000,196385.8750000000,163111.6093750000,159609.4062500000,129749.8125000000,117661.0937500000,130560.8046875000,147860.5000000000,,,
2.3999999962,18,179894.1406250000,185213.7500000000,163171.1875000000,159779.9062500000,129878.4218750000,117800.1171875000,130738.1562500000,146481.9218750000,,,
2.4039999961,18,179838.4843750000,186737.1875000000,162726.6406250000,159170.7500000000,129285.6875000000,117251.2031250000,130105.3125000000,147749.3750000000,,,
2.4079999961,18,179895.2968750000,199161.3125000000,162471.5937500000,158728.2968750000,128897.0859375000,116860.9921875000,129645.6875000000,149812.3437500000,,,
2.4119999961,18,179956.8281250000,203947.7968750000,162705.0468750000,159034.8125000000,129193.0703125000,117121.4921875000,129945.2421875000,149675.6718750000,,,
2.4159999962,18,179982.8437500000,196457.0625000000,163106.3281250000,159632.4218750000,129745.4140625000,117657.5546875000,130558.3125000000,147873.2656250000,,,
2.4199999962,18,179910.7968750000,185270.2812500000,163182.0312500000,159807.8593750000,129888.5078125000,117813.9296875000,130749.0468750000,146493.5312500000,,,
2.4239999962,18,179844.6875000000,186634.2500000000,162736.0312500000,159173.8125000000,129295.2890625000,117258.1484375000,130120.4687500000,147726.9687500000,,,
2.4279999961,18,179875.8281250000,199036.6250000000,162452.1406250000,158696.3593750000,128878.7656250000,116847.8750000000,129632.8671875000,149779.0000000000,,,
2.4319999961,19,179922.2500000000,203942.9375000000,162667.3593750000,158976.9375000000,129155.9218750000,117099.2500000000,129909.7031250000,149654.3281250000,,,
2.4359999960,19,179941.2187500000,196565.4218750000,163066.9062500000,159575.1718750000,129705.3671875000,117624.9687500000,130521.3515625000,147854.5937500000,,,
2.4399999960,19,179865.6875000000,185322.0000000000,163146.5468750000,159763.8125000000,129854.1250000000,117780.2421875000,130720.3437500000,146445.3906250000,,,
2.4439999959,19,179809.5312500000,186527.3906250000,162712.5000000000,159172.2031250000,129274.4218750000,117236.1796875000,130100.4062500000,147662.6875000000,,,
2.4479999959,19,179863.7656250000,198942.9531250000,162442.5468750000,158710.3593750000,128869.9140625000,116836.5078125000,129621.7890625000,149753.5468750000,,,
2.4519999959,19,179934.6562500000,203967.4375000000,162677.1562500000,158993.9375000000,129165.2265625000,117104.7812500000,129915.0625000000,149672.5937500000,,,
2.4559999960,19,179963.9687500000,196680.7031250000,163083.5312500000,159582.5000000000,129721.9218750000,117643.7968750000,130533.0468750000,147891.5000000000,,,
2.4599999960,19,179895.0937500000,185389.2968750000,163173.6562500000,159778.8593750000,129881.0000000000,117814.7031250000,130741.8046875000,146474.2812500000,,,
2.4639999960,19,179851.5468750000,186443.6406250000,162756.1406250000,159203.8593750000,129316.7187500000,117279.9531250000,130139.7031250000,147674.6093750000,,,
2.4679999959,19,179898.2031250000,198847.9062500000,162473.6250000000,158735.8281250000,128896.9218750000,116861.7187500000,129648.3437500000,149767.0625000000,,,
2.4719999959,19,179952.0000000000,203989.3750000000,162692.8125000000,158998.0781250000,129176.0625000000,117114.0078125000,129926.6015625000,149696.9531250000,,,
2.4759999961,19,179969.8437500000,196789.6562500000,163093.4375000000,159585.4531250000,129729.0234375000,117639.0468750000,130537.6093750000,147912.1562500000,,,
2.4799999960,19,179891.7812500000,185462.3593750000,163180.9218750000,159778.6250000000,129889.0468750000,117804.5937500000,130746.9218750000,146471.0000000000,,,
2.4839999960,19,179829.7812500000,186363.4531250000,162745.1250000000,159198.0781250000,129310.2265625000,117261.5312500000,130134.6875000000,147631.7031250000,,,
2.4879999959,19,179884.3593750000,198763.3593750000,162465.5468750000,158723.5000000000,128890.9140625000,116851.0703125000,129642.1796875000,149742.5000000000,,,
2.4919999959,19,179953.1562500000,204014.1093750000,162693.3750000000,158997.2968750000,129174.6171875000,117105.9609375000,129920.2968750000,149703.3906250000,,,
2.4959999959,19,179986.5000000000,196927.7031250000,163102.3593750000,159584.1093750000,129736.6171875000,117645.5625000000,130540.2578125000,147949.2812500000,,,
2.4999999960,19,179921.2187500000,185563.7812500000,163203.9062500000,159788.3593750000,129911.0156250000,117829.9140625000,130766.3750000000,146504.4218750000,,,
2.5039999960,19,179854.6093750000,186304.5468750000,162767.2968750000,159208.7343750000,129332.4062500000,117294.1718750000,130160.1953125000,147637.2812500000,,,
2.5079999960,19,179887.8125000000,198676.7187500000,162460.1093750000,158729.7187500000,128885.8750000000,116860.8046875000,129645.9609375000,149738.1250000000,,,
2.5119999959,19,179950.2343750000,204015.5781250000,162683.9375000000,158991.7187500000,129163.1328125000,117108.5078125000,129920.3750000000,149711.4062500000,,,
2.5159999959,19,179973.1875000000,197001.1406250000,163086.3281250000,159567.4843750000,129717.5234375000,117640.4453125000,130531.8359375000,147955.7968750000,,,
2.5199999961,19,179905.2812500000,185602.5625000000,163187.4218750000,159786.0000000000,129897.7656250000,117827.1484375000,130757.9218750000,146496.7187500000,,,
2.5239999960,19,179853.4375000000,186188.4843750000,162768.3437500000,159213.0781250000,129338.5000000000,117303.7968750000,130162.4687500000,147614.6718750000,,,
2.5279999960,19,179910.9062500000,198555.8281250000,162484.4375000000,158741.5156250000,128910.9531250000,116878.6953125000,129658.2421875000,149744.4531250000,,,
2.5319999959,19,179978.8750000000,204024.4531250000,162705.4531250000,158996.8906250000,129189.1250000000,117133.3984375000,129931.6953125000,149752.4687500000,,,
2.5359999959,19,179993.0937500000,197121.5781250000,163100.4843750000,159568.4218750000,129737.2343750000,117653.4218750000,130542.0859375000,147997.0156250000,,,
2.5399999958,19,179915.4687500000,185671.9531250000,163198.7031250000,159779.6406250000,129911.5781250000,117831.1250000000,130764.8437500000,146505.3125000000,,,
2.5439999960,19,179841.5468750000,186097.0000000000,162757.1093750000,159210.2656250000,129331.9765625000,117292.4765625000,130148.8984375000,147581.7031250000,,,
2.5479999960,19,179891.4062500000,198452.8906250000,162461.3125000000,158720.6250000000,128891.6406250000,116861.6093750000,129636.2187500000,149720.6406250000,,,
2.5519999960,19,179953.3750000000,204025.2343750000,162674.6562500000,158969.7500000000,129158.4140625000,117098.7187500000,129904.9765625000,149737.2656250000,,,
2.5559999959,19,179977.5156250000,197254.7187500000,163073.6406250000,159557.3437500000,129708.6953125000,117627.0625000000,130515.0468750000,148005.6875000000,,,
2.5599999959,20,179919.3281250000,185779.8281250000,163192.2656250000,159780.9531250000,129909.1406250000,117836.8046875000,130763.5000000000,146522.2031250000,,,
2.5639999958,20,179847.1250000000,186036.1875000000,162765.1562500000,159211.3906250000,129345.5000000000,117299.8281250000,130168.6406250000,147571.4531250000,,,
2.5679999958,20,179896.3437500000,198357.5156250000,162469.5468750000,158727.1093750000,128902.9609375000,116861.6093750000,129654.7578125000,149715.1875000000,,,
2.5719999957,20,179962.5156250000,204033.9531250000,162684.9531250000,158984.7656250000,129169.8125000000,117100.4062500000,129915.0390625000,149760.4843750000,,,
2.5759999957,20,179991.7812500000,197347.7968750000,163089.7031250000,159599.3906250000,129720.5234375000,117630.7890625000,130516.8203125000,148040.7343750000,,,
2.5799999957,20,179924.8281250000,185861.6406250000,163203.7968750000,159835.9687500000,129914.3125000000,117833.9140625000,130758.4843750000,146532.3437500000,,,
2.5839999958,20,179842.4843750000,185954.9687500000,162770.7812500000,159232.9062500000,129347.7500000000,117302.6484375000,130165.7734375000,147546.2187500000,,,
2.5879999958,20,179878.8906250000,198250.2187500000,162454.6562500000,158695.5781250000,128884.3437500000,116854.7187500000,129633.9140625000,149690.9218750000,,,
2.5919999958,20,179944.2187500000,204035.1562500000,162664.9531250000,158937.1562500000,129143.2578125000,117087.2343750000,129887.8671875000,149753.1406250000,,,
2.5959999957,20,179973.6718750000,197421.2343750000,163072.0781250000,159527.4375000000,129701.1328125000,117618.7421875000,130501.9296875000,148034.4687500000,,,
2.5999999957,20,179900.9062500000,185905.4687500000,163183.4531250000,159769.9531250000,129897.1484375000,117820.3125000000,130750.1406250000,146509.9531250000,,,
2.6039999959,20,179828.6250000000,185851.2343750000,162762.7968750000,159216.4375000000,129343.9140625000,117301.4140625000,130170.1171875000,147507.2812500000,,,
2.6079999958,20,179878.2187500000,198130.0312500000,162458.0625000000,158710.5625000000,128888.0234375000,116847.9843750000,129640.5156250000,149669.7812500000,,,
2.6119999958,20,179950.0468750000,204033.6250000000,162670.0781250000,158953.5156250000,129147.9296875000,117078.5468750000,129886.4218750000,149761.0468750000,,,
2.6159999957,20,179989.7343750000,197533.5937500000,163082.4062500000,159546.7500000000,129711.4296875000,117622.3359375000,130495.2265625000,148064.5625000000,,,
2.6199999957,20,179914.7187500000,185981.0781250000,163192.4531250000,159787.4687500000,129906.3203125000,117823.9296875000,130750.8671875000,146519.3906250000,,,
2.6239999956,20,179839.9375000000,185773.4218750000,162771.6250000000,159237.4843750000,129353.4609375000,117305.1640625000,130180.2812500000,147492.8906250000,,,
2.6279999958,20,179884.4062500000,198022.9531250000,162456.0781250000,158717.1093750000,128885.6093750000,116847.1562500000,129640.4062500000,149666.5937500000,,,
2.6319999958,20,179953.6718750000,204023.6250000000,162664.7031250000,158948.2187500000,129141.6796875000,117073.5312500000,129882.7968750000,149776.7968750000,,,
2.6359999957,20,179992.3125000000,197636.0781250000,163079.4531250000,159538.6406250000,129705.0468750000,117611.0703125000,130499.8906250000,148090.0937500000,,,
2.6399999957,20,179923.6562500000,186053.8125000000,163206.2187500000,159786.7031250000,129918.2578125000,117833.4296875000,130765.8906250000,146535.6718750000,,,
2.6439999957,20,179839.5625000000,185685.4062500000,162783.7968750000,159241.8125000000,129367.7031250000,117314.5781250000,130189.5859375000,147474.2812500000,,,
2.6479999959,20,179872.2031250000,197911.8125000000,162451.2500000000,158712.7187500000,128882.6562500000,116838.7343750000,129635.0937500000,149640.7812500000,,,
2.6519999958,20,179946.4843750000,204016.4687500000,162658.1093750000,158947.1093750000,129132.6406250000,117069.6953125000,129881.4296875000,149774.4062500000,,,
2.6559999958,20,179973.9375000000,197721.7812500000,163058.3750000000,159538.2500000000,129680.5625000000,117592.1640625000,130487.2343750000,148085.5781250000,,,
2.6599999957,20,179905.5468750000,186114.2656250000,163188.5468750000,159807.7500000000,129897.9531250000,117815.5937500000,130755.5312500000,146519.8750000000,,,
2.6639999957,20,179832.5625000000,185605.7031250000,162777.5937500000,159258.5468750000,129358.7500000000,117315.6250000000,130188.1640625000,147448.1093750000,,,
2.6679999956,20,179873.0312500000,197802.4062500000,162447.9531250000,158707.2656250000,128877.3203125000,116850.0781250000,129636.3046875000,149632.5781250000,,,
2.6719999958,20,179937.7031250000,204004.2343750000,162643.0625000000,158927.3437500000,129117.6406250000,117062.6171875000,129865.1484375000,149778.5625000000,,,
2.6759999958,20,179977.6250000000,197795.0781250000,163059.3125000000,159510.9062500000,129682.4375000000,117599.1093750000,130486.2109375000,148110.8750000000,,,
2.6799999957,20,179908.9843750000,186194.6875000000,163192.1562500000,159779.7812500000,129903.3984375000,117820.9843750000,130763.8203125000,146533.9843750000,,,
2.6839999957,20,179838.7812500000,185537.7500000000,162788.1093750000,159266.8593750000,129375.7812500000,117329.5781250000,130211.3671875000,147436.7031250000,,,
2.6879999957,21,179890.0468750000,197688.5937500000,162466.4062500000,158743.7656250000,128898.8281250000,116859.2265625000,129661.7812500000,149632.2500000000,,,
2.6919999956,21,179948.9687500000,203998.3593750000,162650.3906250000,158939.2187500000,129125.7734375000,117061.0859375000,129877.2421875000,149797.3750000000,,,
2.6959999956,21,179971.6406250000,197892.4375000000,163044.0781250000,159500.4218750000,129668.3828125000,117587.4687500000,130476.2890625000,148133.0625000000,,,
2.6999999955,21,179898.5937500000,186270.0468750000,163178.3437500000,159757.1093750000,129891.1953125000,117819.5312500000,130757.4140625000,146542.5156250000,,,
2.7039999955,21,179827.1718750000,185468.1250000000,162778.2187500000,159238.8593750000,129366.0156250000,117334.8359375000,130207.5625000000,147418.7812500000,,,
2.7079999954,21,179878.9062500000,197605.4531250000,162449.4375000000,158713.6562500000,128881.0468750000,116860.0781250000,129647.8359375000,149624.1875000000,,,
2.7119999956,21,179942.9687500000,204021.7968750000,162634.5000000000,158921.3281250000,129107.4531250000,117058.2968750000,129861.9531250000,149809.6093750000,,,
2.7159999956,21,179983.2812500000,198024.1718750000,163046.6250000000,159501.9843750000,129668.6250000000,117593.6093750000,130474.8671875000,148163.9375000000,,,
2.7199999955,21,179926.5781250000,186384.6093750000,163198.7812500000,159778.6562500000,129912.3593750000,117836.9140625000,130768.8906250000,146567.7812500000,,,
2.7239999955,21,179871.5937500000,185448.5937500000,162821.7500000000,159267.7500000000,129412.6562500000,117369.2968750000,130240.1250000000,147433.7031250000,,,
2.7279999955,21,179903.7812500000,197540.1562500000,162475.9375000000,158729.6718750000,128910.5000000000,116867.0312500000,129664.2500000000,149626.1093750000,,,
2.7319999957,21,179956.6093750000,204050.1718750000,162650.3281250000,158928.5312500000,129125.3125000000,117052.7968750000,129868.6875000000,149822.9062500000,,,
2.7359999956,21,179987.5937500000,198183.0312500000,163052.1562500000,159514.9843750000,129672.9921875000,117582.5625000000,130470.0156250000,148189.3281250000,,,
2.7399999956,21,179917.8906250000,186493.7968750000,163199.1875000000,159796.0000000000,129913.0234375000,117823.5859375000,130757.2265625000,146563.5937500000,,,
2.7439999955,21,179843.4062500000,185362.3750000000,162805.4375000000,159281.6406250000,129396.1875000000,117352.6406250000,130218.4218750000,147387.4843750000,,,
2.7479999955,21,179883.6406250000,197420.9687500000,162463.1875000000,158726.5781250000,128894.3203125000,116876.8203125000,129654.2734375000,149607.5000000000,,,
2.7519999954,21,179939.2812500000,204052.5156250000,162633.3750000000,158917.5312500000,129103.4296875000,117064.5156250000,129857.5546875000,149835.6250000000,,,
2.7559999956,21,179960.9375000000,198303.1406250000,163026.4375000000,159496.1406250000,129641.5859375000,117574.8906250000,130452.3671875000,148199.0156250000,,,
2.7599999956,21,179909.1718750000,186588.5156250000,163193.0156250000,159794.7656250000,129903.6093750000,117842.3828125000,130773.9375000000,146572.5000000000,,,
2.7639999955,21,179827.8750000000,185292.8125000000,162797.3125000000,159283.3281250000,129391.5000000000,117354.5468750000,130241.5468750000,147357.5312500000,,,
2.7679999955,21,179876.2343750000,197302.9218750000,162458.2343750000,158741.4375000000,128892.3671875000,116859.5156250000,129661.3828125000,149574.9062500000,,,
2.7719999955,21,179941.6562500000,204040.6093750000,162631.2812500000,158919.6250000000,129102.1640625000,117044.0000000000,129853.2656250000,149828.3281250000,,,
2.7759999956,21,179971.9062500000,198413.1875000000,163025.8437500000,159487.3906250000,129646.0390625000,117563.7578125000,130446.3828125000,148214.5781250000,,,
2.7799999956,21,179911.7656250000,186673.8125000000,163190.2812500000,159784.1718750000,129909.1640625000,117830.8828125000,130762.7734375000,146568.2343750000,,,
2.7839999956,21,179844.9062500000,185229.6562500000,162818.1250000000,159304.8906250000,129418.8828125000,117372.3593750000,130242.4843750000,147348.5937500000,,,
2.7879999955,21,179887.5468750000,197215.0000000000,162473.8750000000,158736.6093750000,128910.8437500000,116875.4218750000,129659.7734375000,149581.1875000000,,,
2.7919999955,21,179949.2343750000,204060.4531250000,162642.5468750000,158897.6562500000,129113.0859375000,117059.7421875000,129869.9765625000,149858.7656250000,,,
2.7959999954,21,179988.5625000000,198557.5312500000,163048.2968750000,159485.2187500000,129662.0781250000,117585.4609375000,130479.0000000000,148267.7656250000,,,
2.7999999956,21,179916.6718750000,186779.4843750000,163205.8437500000,159782.4531250000,129917.8281250000,117834.8515625000,130788.0937500000,146585.9843750000,,,
2.8039999956,21,179841.3125000000,185147.1250000000,162825.1562500000,159290.6250000000,129421.1093750000,117370.5078125000,130268.0156250000,147320.1406250000,,,
2.8079999955,21,179879.1875000000,197091.5625000000,162466.1406250000,158723.7968750000,128899.1484375000,116865.6875000000,129669.0000000000,149554.2500000000,,,
2.8119999955,21,179938.3750000000,204025.9062500000,162628.6250000000,158903.5468750000,129094.9765625000,117039.5781250000,129849.8906250000,149848.3593750000,,,
2.8159999955,22,179972.6093750000,198600.8906250000,163029.1875000000,159478.9687500000,129639.4375000000,117558.6875000000,130445.8750000000,148259.3437500000,,,
2.8199999954,22,179918.8750000000,186828.5781250000,163205.0156250000,159789.8906250000,129915.5468750000,117841.7968750000,130776.6953125000,146591.7343750000,,,
2.8239999954,22,179844.3125000000,185068.5781250000,162827.6718750000,159307.2031250000,129425.4296875000,117384.9921875000,130265.8984375000,147309.1875000000,,,
2.8279999953,22,179888.5937500000,196976.0468750000,162469.4375000000,158736.5781250000,128902.8515625000,116875.0234375000,129668.8906250000,149551.3906250000,,,
2.8319999953,22,179959.1406250000,204016.7812500000,162638.6406250000,158905.9687500000,129105.2265625000,117050.9765625000,129855.3281250000,149872.5000000000,,,
2.8359999952,22,179993.3906250000,198661.2968750000,163039.1406250000,159482.2343750000,129651.4609375000,117570.8359375000,130453.8437500000,148287.3125000000,,,
2.8399999954,22,179930.1406250000,186902.8906250000,163206.9687500000,159788.8750000000,129921.7187500000,117845.1796875000,130777.5000000000,146602.2968750000,,,
2.8439999954,22,179851.0937500000,185018.5312500000,162830.6250000000,159314.3906250000,129433.7421875000,117392.0156250000,130267.6953125000,147290.1250000000,,,
2.8479999953,22,179891.0625000000,196883.5625000000,162466.3281250000,158743.4218750000,128901.8593750000,116874.6953125000,129662.5625000000,149536.5468750000,,,
2.8519999953,22,179948.4843750000,204018.0937500000,162625.8125000000,158908.7812500000,129090.9531250000,117035.6562500000,129839.0234375000,149868.8593750000,,,
2.8559999953,22,179987.9375000000,198726.1875000000,163037.9843750000,159503.7500000000,129647.2500000000,117567.0078125000,130447.6718750000,148297.7187500000,,,
2.8599999954,22,179921.5937500000,186976.0937500000,163208.1718750000,159808.4531250000,129917.5859375000,117839.1953125000,130774.8437500000,146611.9062500000,,,
2.8639999954,22,179838.4843750000,184962.2656250000,162834.9531250000,159308.1875000000,129435.0859375000,117389.6562500000,130276.2812500000,147276.8437500000,,,
2.8679999954,22,179872.8281250000,196775.3906250000,162461.6562500000,158720.4375000000,128895.6406250000,116870.1406250000,129662.3203125000,149523.4375000000,,,
2.8719999953,22,179939.7656250000,204019.8750000000,162622.5937500000,158890.4843750000,129084.5156250000,117033.2187500000,129834.7578125000,149882.1093750000,,,
2.8759999953,22,179987.0000000000,198971.8750000000,163033.8281250000,159460.5937500000,129637.7265625000,117561.9062500000,130438.6328125000,148347.8437500000,,,
2.8799999952,22,179911.7187500000,187131.4531250000,163203.8906250000,159784.7656250000,129914.2343750000,117834.4453125000,130770.4453125000,146610.5312500000,,,
2.8839999954,22,179825.2968750000,184874.8437500000,162824.6406250000,159309.3750000000,129431.3281250000,117390.7265625000,130271.6875000000,147235.7343750000,,,
2.8879999954,22,179867.8906250000,196639.5000000000,162455.7968750000,158725.9375000000,128894.6953125000,116867.9921875000,129664.0625000000,149493.9843750000,,,
2.8919999953,22,179934.7812500000,203999.9375000000,162610.6562500000,158879.2812500000,129076.2578125000,117021.8203125000,129830.5781250000,149874.3281250000,,,
2.8959999953,22,179982.3593750000,199044.7812500000,163019.9687500000,159456.1406250000,129627.9375000000,117547.7968750000,130431.9765625000,148344.3906250000,,,
2.8999999953,22,179925.9375000000,187209.2031250000,163213.0625000000,159791.5468750000,129924.5078125000,117840.5859375000,130784.3984375000,146614.0781250000,,,
2.9039999954,22,179846.2500000000,184821.7656250000,162849.1093750000,159330.1250000000,129453.4062500000,117404.7031250000,130294.5156250000,147222.2812500000,,,
2.9079999954,22,179891.5468750000,196537.2031250000,162484.2187500000,158754.3750000000,128916.4218750000,116880.4375000000,129680.1328125000,149488.8593750000,,,
2.9119999954,22,179971.7968750000,203993.6718750000,162653.5781250000,158931.5781250000,129107.4531250000,117040.2968750000,129844.5781250000,149907.3437500000,,,
2.9159999953,22,179990.3593750000,199057.6406250000,163033.6718750000,159489.0781250000,129632.4140625000,117541.0937500000,130414.2265625000,148358.5312500000,,,
2.9199999953,22,179916.8906250000,187254.9843750000,163208.9218750000,159790.9687500000,129915.7109375000,117831.4453125000,130758.1093750000,146622.7812500000,,,
2.9239999952,22,179836.7968750000,184765.5781250000,162850.4531250000,159336.4375000000,129456.1953125000,117405.5625000000,130283.2265625000,147213.1718750000,,,
2.9279999954,22,179876.7968750000,196431.9062500000,162471.2656250000,158766.9531250000,128906.4765625000,116867.2421875000,129665.7812500000,149476.4218750000,,,
2.9319999954,22,179940.6093750000,203969.7187500000,162616.5312500000,158913.9531250000,129074.4609375000,117012.6171875000,129825.3984375000,149896.8281250000,,,
2.9359999953,22,179980.1406250000,199124.0937500000,163018.8593750000,159477.7812500000,129618.0937500000,117536.2890625000,130423.9062500000,148374.5468750000,,,
2.9399999953,22,179917.1875000000,187335.8281250000,163205.5156250000,159788.8125000000,129910.8281250000,117829.3515625000,130774.2578125000,146640.1406250000,,,
2.9439999952,23,179840.6718750000,184715.4218750000,162853.6093750000,159329.4843750000,129457.0234375000,117409.9062500000,130301.6250000000,147204.7812500000,,,
