Time:250Hz,Epoch,Channel 1,Channel 2,Channel 3,Channel 4,Channel 5,Channel 6,Channel 7,Channel 8,Event Id,Event Date,Event Duration
0.0000000000,0,108757.9609375000,108169.9609375000,167315.3125000000,146904.8437500000,0.0000000000,0.0000000000,0.0000000000,0.0000000000,,,
0.0040000000,0,108726.7890625000,108126.1875000000,167277.0312500000,146885.9375000000,0.0000000000,0.0000000000,0.0000000000,0.0000000000,,,
0.0079999999,0,108749.9375000000,108140.5703125000,167297.0156250000,146882.9062500000,0.0000000000,0.0000000000,0.0000000000,0.0000000000,,,
0.0119999999,0,108774.2421875000,108175.5937500000,167326.3125000000,146909.5468750000,0.0000000000,0.0000000000,0.0000000000,0.0000000000,,,
0.0159999998,0,108707.5625000000,108114.1484375000,167264.7968750000,146869.0937500000,0.0000000000,0.0000000000,0.0000000000,0.0000000000,,,
0.0199999998,0,108745.1640625000,108161.1953125000,167308.8750000000,146898.7812500000,0.0000000000,0.0000000000,0.0000000000,0.0000000000,,,
0.0240000000,0,108736.7421875000,108139.1484375000,167294.2500000000,146867.9375000000,0.0000000000,0.0000000000,0.0000000000,0.0000000000,,,
0.0279999999,0,108705.5781250000,108100.3046875000,167261.4843750000,146862.2500000000,0.0000000000,0.0000000000,0.0000000000,0.0000000000,,,
0.0319999999,0,108700.3203125000,108104.3593750000,167260.5937500000,146853.4062500000,0.0000000000,0.0000000000,0.0000000000,0.0000000000,,,
0.0359999998,0,108734.4375000000,108130.6406250000,167289.2187500000,146839.7187500000,0.0000000000,0.0000000000,0.0000000000,0.0000000000,,,
0.0399999998,0,108783.3828125000,108190.3750000000,167341.5468750000,146879.4218750000,0.0000000000,0.0000000000,0.0000000000,0.0000000000,,,
0.0440000000,0,108779.6015625000,108190.5078125000,167337.4375000000,146882.0312500000,0.0000000000,0.0000000000,0.0000000000,0.0000000000,,,
0.0480000000,0,108761.8203125000,108176.2109375000,167322.1562500000,146925.8281250000,0.0000000000,0.0000000000,0.0000000000,0.0000000000,,,
0.0519999999,0,108729.2343750000,108134.0781250000,167286.6093750000,146901.5312500000,0.0000000000,0.0000000000,0.0000000000,0.0000000000,,,
0.0559999999,0,108773.7578125000,108184.8750000000,167332.1562500000,146916.2500000000,0.0000000000,0.0000000000,0.0000000000,0.0000000000,,,
0.0599999998,0,108783.0937500000,108177.0468750000,167332.2031250000,146896.1093750000,0.0000000000,0.0000000000,0.0000000000,0.0000000000,,,
0.0639999998,0,108756.2968750000,108142.8203125000,167303.5625000000,146875.4531250000,0.0000000000,0.0000000000,0.0000000000,0.0000000000,,,
0.0680000000,0,108741.0078125000,108130.3515625000,167290.4531250000,146873.5156250000,0.0000000000,0.0000000000,0.0000000000,0.0000000000,,,
0.0719999999,0,108737.0625000000,108159.7734375000,167300.0156250000,146907.9062500000,0.0000000000,0.0000000000,0.0000000000,0.0000000000,,,
0.0759999999,0,108783.9218750000,108205.9062500000,167342.6093750000,146962.6718750000,0.0000000000,0.0000000000,0.0000000000,0.0000000000,,,
0.0799999998,0,108778.6406250000,108187.3437500000,167330.6718750000,146946.5625000000,0.0000000000,0.0000000000,0.0000000000,0.0000000000,,,
0.0839999998,0,108751.7343750000,108152.6875000000,167298.7812500000,146893.9062500000,0.0000000000,0.0000000000,0.0000000000,0.0000000000,,,
0.0880000000,0,108749.0546875000,108148.8828125000,167295.2812500000,146875.0468750000,0.0000000000,0.0000000000,0.0000000000,0.0000000000,,,
0.0919999999,0,108707.5625000000,108116.7734375000,167259.6562500000,146883.3593750000,0.0000000000,0.0000000000,0.0000000000,0.0000000000,,,
0.0959999999,0,108686.6953125000,108095.4531250000,167239.4375000000,146863.5156250000,0.0000000000,0.0000000000,0.0000000000,0.0000000000,,,
0.0999999999,0,108734.8906250000,108144.2656250000,167286.0000000000,146877.4062500000,0.0000000000,0.0000000000,0.0000000000,0.0000000000,,,
0.1039999998,0,108762.5468750000,108171.5703125000,167312.6875000000,146881.4375000000,0.0000000000,0.0000000000,0.0000000000,0.0000000000,,,
0.1079999998,0,108754.1796875000,108163.6640625000,167304.5312500000,146879.6093750000,0.0000000000,0.0000000000,0.0000000000,0.0000000000,,,
0.1120000000,0,108783.3593750000,108185.1171875000,167332.3906250000,146923.8593750000,0.0000000000,0.0000000000,0.0000000000,0.0000000000,,,
0.1159999999,0,108777.1640625000,108182.7812500000,167328.7968750000,146935.6093750000,0.0000000000,0.0000000000,0.0000000000,0.0000000000,,,
0.1199999999,0,108750.0703125000,108143.3593750000,167297.1250000000,146876.7968750000,0.0000000000,0.0000000000,0.0000000000,0.0000000000,,,
0.1239999998,0,108754.9843750000,108150.7578125000,167304.1562500000,146854.2343750000,0.0000000000,0.0000000000,0.0000000000,0.0000000000,,,
0.1279999998,1,108751.9218750000,108160.1484375000,167308.2031250000,146900.5781250000,0.0000000000,0.0000000000,0.0000000000,0.0000000000,,,
0.1319999998,1,108684.1406250000,108093.4687500000,167243.2656250000,146868.4218750000,0.0000000000,0.0000000000,0.0000000000,0.0000000000,,,
0.1359999997,1,108699.2421875000,108114.7656250000,167259.6250000000,146876.0937500000,0.0000000000,0.0000000000,0.0000000000,0.0000000000,,,
0.1399999997,1,108760.2343750000,108174.9296875000,167314.9687500000,146910.0312500000,0.0000000000,0.0000000000,0.0000000000,0.0000000000,,,
0.1439999996,1,108781.5312500000,108179.0859375000,167327.0312500000,146905.5781250000,0.0000000000,0.0000000000,0.0000000000,0.0000000000,,,
0.1479999996,1,108767.4531250000,108163.0703125000,167314.5000000000,146898.5156250000,0.0000000000,0.0000000000,0.0000000000,0.0000000000,,,
0.1519999998,1,108729.2031250000,108143.1406250000,167284.0156250000,146910.5937500000,0.0000000000,0.0000000000,0.0000000000,0.0000000000,,,
0.1559999997,1,108742.9609375000,108156.1250000000,167296.5312500000,146904.5000000000,0.0000000000,0.0000000000,0.0000000000,0.0000000000,,,
0.1599999997,1,108762.4140625000,108162.9375000000,167307.8750000000,146890.5468750000,0.0000000000,0.0000000000,0.0000000000,0.0000000000,,,
0.1639999996,1,108756.4296875000,108152.7421875000,167299.7187500000,146893.4843750000,0.0000000000,0.0000000000,0.0000000000,0.0000000000,,,
0.1679999996,1,108719.0156250000,108121.4453125000,167261.4531250000,146871.4531250000,0.0000000000,0.0000000000,0.0000000000,0.0000000000,,,
0.1719999998,1,108714.5312500000,108128.2578125000,167260.3750000000,146883.6406250000,0.0000000000,0.0000000000,0.0000000000,0.0000000000,,,
0.1759999997,1,108743.2890625000,108156.1796875000,167286.0000000000,146898.8906250000,0.0000000000,0.0000000000,0.0000000000,0.0000000000,,,
0.1799999997,1,108790.8984375000,108195.0390625000,167329.5468750000,146922.0468750000,0.0000000000,0.0000000000,0.0000000000,0.0000000000,,,
0.1839999997,1,108760.1562500000,108164.3281250000,167301.3593750000,146902.7031250000,0.0000000000,0.0000000000,0.0000000000,0.0000000000,,,
0.1879999996,1,108704.5546875000,108113.2656250000,167249.6250000000,146876.2500000000,0.0000000000,0.0000000000,0.0000000000,0.0000000000,,,
0.1919999996,1,108720.1953125000,108135.2578125000,167266.4375000000,146900.3437500000,0.0000000000,0.0000000000,0.0000000000,0.0000000000,,,
0.1959999998,1,108777.1640625000,108192.7656250000,167321.0781250000,146928.2968750000,0.0000000000,0.0000000000,0.0000000000,0.0000000000,,,
0.1999999997,1,108787.3281250000,108196.5468750000,167328.1093750000,146914.5625000000,0.0000000000,0.0000000000,0.0000000000,0.0000000000,,,
0.2039999997,1,108744.3359375000,108144.8593750000,167281.7343750000,146888.7812500000,0.0000000000,0.0000000000,0.0000000000,0.0000000000,,,
0.2079999996,1,108733.3046875000,108132.0937500000,167269.0937500000,146888.4062500000,0.0000000000,0.0000000000,0.0000000000,0.0000000000,,,
0.2119999996,1,108733.2578125000,108138.9296875000,167273.9531250000,146896.9375000000,0.0000000000,0.0000000000,0.0000000000,0.0000000000,,,
0.2159999998,1,108759.4062500000,108166.8281250000,167299.7031250000,146899.4531250000,0.0000000000,0.0000000000,0.0000000000,0.0000000000,,,
0.2199999997,1,108762.6015625000,108165.9921875000,167300.8750000000,146898.5781250000,0.0000000000,0.0000000000,0.0000000000,0.0000000000,,,
0.2239999997,1,108775.4765625000,108182.0625000000,167313.6250000000,146917.1093750000,0.0000000000,0.0000000000,0.0000000000,0.0000000000,,,
0.2279999997,1,108796.6640625000,108206.3906250000,167334.9687500000,146924.8906250000,0.0000000000,0.0000000000,0.0000000000,0.0000000000,,,
0.2319999996,1,108737.5703125000,108142.8437500000,167276.2031250000,146890.2031250000,0.0000000000,0.0000000000,0.0000000000,0.0000000000,,,
0.2359999996,1,108705.3359375000,108109.1015625000,167242.7812500000,146852.6875000000,0.0000000000,0.0000000000,0.0000000000,0.0000000000,,,
0.2399999998,1,108750.6328125000,108154.1406250000,167288.2187500000,146882.1562500000,0.0000000000,0.0000000000,0.0000000000,0.0000000000,,,
0.2439999997,1,108770.7265625000,108176.6171875000,167308.2812500000,146917.9375000000,0.0000000000,0.0000000000,0.0000000000,0.0000000000,,,
0.2479999997,1,108739.0781250000,108151.6171875000,167282.7500000000,146895.8437500000,0.0000000000,0.0000000000,0.0000000000,0.0000000000,,,
0.2519999996,1,108786.5000000000,108213.8984375000,167336.5781250000,146937.6562500000,0.0000000000,0.0000000000,0.0000000000,0.0000000000,,,
0.2559999996,2,108757.9296875000,108170.9843750000,167301.0625000000,146897.1562500000,0.0000000000,0.0000000000,0.0000000000,0.0000000000,,,
0.2599999995,2,108757.8750000000,108159.3984375000,167296.6093750000,146879.6875000000,0.0000000000,0.0000000000,0.0000000000,0.0000000000,,,
0.2639999995,2,108727.8906250000,108139.6562500000,167273.1406250000,146875.7500000000,0.0000000000,0.0000000000,0.0000000000,0.0000000000,,,
0.2679999995,2,108729.0156250000,108151.5390625000,167283.7968750000,146890.8437500000,0.0000000000,0.0000000000,0.0000000000,0.0000000000,,,
0.2719999994,2,108785.0781250000,108211.5390625000,167340.6562500000,146911.5781250000,0.0000000000,0.0000000000,0.0000000000,0.0000000000,,,
0.2759999994,2,108780.9453125000,108188.9843750000,167322.7656250000,146907.1093750000,0.0000000000,0.0000000000,0.0000000000,0.0000000000,,,
0.2799999996,2,108754.5234375000,108148.4296875000,167294.6562500000,146863.1875000000,0.0000000000,0.0000000000,0.0000000000,0.0000000000,,,
0.2839999995,2,108773.6250000000,108185.7890625000,167321.1093750000,146879.9531250000,0.0000000000,0.0000000000,0.0000000000,0.0000000000,,,
0.2879999995,2,108696.5390625000,108116.2421875000,167245.5781250000,146877.4375000000,0.0000000000,0.0000000000,0.0000000000,0.0000000000,,,
0.2919999994,2,108727.4609375000,108157.7343750000,167282.3750000000,146884.9218750000,0.0000000000,0.0000000000,0.0000000000,0.0000000000,,,
0.2959999994,2,108728.7500000000,108152.6640625000,167282.4531250000,146881.3750000000,0.0000000000,0.0000000000,0.0000000000,0.0000000000,,,
0.2999999996,2,108701.8984375000,108115.1406250000,167250.6406250000,146849.4687500000,0.0000000000,0.0000000000,0.0000000000,0.0000000000,,,
0.3039999995,2,108738.7265625000,108159.0781250000,167289.6093750000,146847.2968750000,0.0000000000,0.0000000000,0.0000000000,0.0000000000,,,
0.3079999995,2,108782.2343750000,108199.4921875000,167332.2031250000,146875.0781250000,0.0000000000,0.0000000000,0.0000000000,0.0000000000,,,
0.3119999995,2,108782.3359375000,108210.7578125000,167339.9843750000,146939.7500000000,0.0000000000,0.0000000000,0.0000000000,0.0000000000,,,
0.3159999994,2,108725.7421875000,108155.6171875000,167288.4062500000,146912.8906250000,0.0000000000,0.0000000000,0.0000000000,0.0000000000,,,
0.3199999994,2,108703.7265625000,108126.1406250000,167269.2343750000,146872.4687500000,0.0000000000,0.0000000000,0.0000000000,0.0000000000,,,
0.3239999996,2,108679.4531250000,108105.6484375000,167247.9375000000,146841.8750000000,0.0000000000,0.0000000000,0.0000000000,0.0000000000,,,
0.3279999995,2,108678.8046875000,108108.3828125000,167251.7656250000,146825.9062500000,0.0000000000,0.0000000000,0.0000000000,0.0000000000,,,
0.3319999995,2,108682.7187500000,108106.2109375000,167255.0625000000,146838.6562500000,0.0000000000,0.0000000000,0.0000000000,0.0000000000,,,
0.3359999994,2,108720.0312500000,108149.1250000000,167297.8750000000,146883.5781250000,0.0000000000,0.0000000000,0.0000000000,0.0000000000,,,
0.3399999994,2,108746.3203125000,108171.3593750000,167326.8437500000,146890.9218750000,0.0000000000,0.0000000000,0.0000000000,0.0000000000,,,
0.3439999996,2,108770.0000000000,108191.0468750000,167347.3906250000,146904.1562500000,0.0000000000,0.0000000000,0.0000000000,0.0000000000,,,
0.3479999995,2,108747.9296875000,108171.0625000000,167325.0468750000,146903.6406250000,0.0000000000,0.0000000000,0.0000000000,0.0000000000,,,
0.3519999995,2,108691.4687500000,108116.7187500000,167268.1093750000,146845.2031250000,0.0000000000,0.0000000000,0.0000000000,0.0000000000,,,
0.3559999994,2,108689.5859375000,108115.8359375000,167264.6718750000,146833.0156250000,0.0000000000,0.0000000000,0.0000000000,0.0000000000,,,
0.3599999994,2,108685.1093750000,108110.0937500000,167268.2343750000,146841.4375000000,0.0000000000,0.0000000000,0.0000000000,0.0000000000,,,
0.3639999994,2,108719.6796875000,108137.9921875000,167299.0625000000,146835.8125000000,0.0000000000,0.0000000000,0.0000000000,0.0000000000,,,
0.3679999996,2,108774.2890625000,108174.0390625000,167341.0000000000,146853.1406250000,0.0000000000,0.0000000000,0.0000000000,0.0000000000,,,
0.3719999995,2,108686.9296875000,108106.2578125000,167265.4687500000,146856.8437500000,0.0000000000,0.0000000000,0.0000000000,0.0000000000,,,
0.3759999995,2,108685.3203125000,108110.9843750000,167266.6562500000,146855.1406250000,0.0000000000,0.0000000000,0.0000000000,0.0000000000,,,
0.3799999994,2,108749.1328125000,108182.3046875000,167332.3906250000,146892.0781250000,0.0000000000,0.0000000000,0.0000000000,0.0000000000,,,
0.3839999994,3,108747.8203125000,108174.0703125000,167324.1093750000,146875.8750000000,0.0000000000,0.0000000000,0.0000000000,0.0000000000,,,
0.3879999993,3,108745.2187500000,108161.6250000000,167312.8125000000,146858.0156250000,0.0000000000,0.0000000000,0.0000000000,0.0000000000,,,
0.3919999993,3,108709.7031250000,108125.4140625000,167277.1718750000,146828.1406250000,0.0000000000,0.0000000000,0.0000000000,0.0000000000,,,
0.3959999993,3,108693.8828125000,108118.1718750000,167269.5468750000,146841.5468750000,0.0000000000,0.0000000000,0.0000000000,0.0000000000,,,
0.3999999992,3,108757.9843750000,108195.7421875000,167339.3750000000,146889.1250000000,0.0000000000,0.0000000000,0.0000000000,0.0000000000,,,
0.4039999992,3,108787.2187500000,108218.7265625000,167362.0000000000,146903.7187500000,0.0000000000,0.0000000000,0.0000000000,0.0000000000,,,
0.4079999994,3,108682.2656250000,108094.2734375000,167246.0781250000,146837.3125000000,0.0000000000,0.0000000000,0.0000000000,0.0000000000,,,
0.4119999993,3,108667.4296875000,108089.3671875000,167226.5312500000,146820.5937500000,0.0000000000,0.0000000000,0.0000000000,0.0000000000,,,
0.4159999993,3,108686.9609375000,108107.5234375000,167242.2656250000,146835.6562500000,0.0000000000,0.0000000000,0.0000000000,0.0000000000,,,
0.4199999992,3,108701.8437500000,108115.3828125000,167252.5156250000,146838.5156250000,0.0000000000,0.0000000000,0.0000000000,0.0000000000,,,
0.4239999992,3,108735.1562500000,108149.7421875000,167285.6718750000,146855.0156250000,0.0000000000,0.0000000000,0.0000000000,0.0000000000,,,
0.4279999994,3,108714.6640625000,108139.6015625000,167271.4062500000,146857.6406250000,0.0000000000,0.0000000000,0.0000000000,0.0000000000,,,
0.4319999993,3,108684.1171875000,108118.6796875000,167249.2500000000,146848.1406250000,0.0000000000,0.0000000000,0.0000000000,0.0000000000,,,
0.4359999993,3,108694.0156250000,108127.4531250000,167255.0937500000,146874.0000000000,0.0000000000,0.0000000000,0.0000000000,0.0000000000,,,
0.4399999992,3,108731.8046875000,108154.5156250000,167280.8906250000,146892.2656250000,0.0000000000,0.0000000000,0.0000000000,0.0000000000,,,
0.4439999992,3,108762.3281250000,108180.5625000000,167308.3281250000,146906.0312500000,0.0000000000,0.0000000000,0.0000000000,0.0000000000,,,
0.4479999992,3,108706.0546875000,108122.5703125000,167250.2187500000,146871.7031250000,0.0000000000,0.0000000000,0.0000000000,0.0000000000,,,
0.4519999993,3,108653.1640625000,108073.4062500000,167198.1718750000,146829.0468750000,0.0000000000,0.0000000000,0.0000000000,0.0000000000,,,
0.4559999993,3,108681.4062500000,108103.5781250000,167226.0468750000,146859.0937500000,0.0000000000,0.0000000000,0.0000000000,0.0000000000,,,
0.4599999993,3,108746.6406250000,108174.9531250000,167291.2812500000,146900.6875000000,0.0000000000,0.0000000000,0.0000000000,0.0000000000,,,
0.4639999992,3,108782.0703125000,108200.2734375000,167317.3281250000,146899.9375000000,0.0000000000,0.0000000000,0.0000000000,0.0000000000,,,
0.4679999992,3,108789.6093750000,108184.0156250000,167306.5625000000,146862.5781250000,0.0000000000,0.0000000000,0.0000000000,0.0000000000,,,
0.4719999994,3,108762.7343750000,108172.2421875000,167286.1250000000,146866.5468750000,0.0000000000,0.0000000000,0.0000000000,0.0000000000,,,
0.4759999993,3,108697.4218750000,108117.0468750000,167232.4843750000,146865.6093750000,0.0000000000,0.0000000000,0.0000000000,0.0000000000,,,
0.4799999993,3,108729.2890625000,108145.1796875000,167263.8593750000,146859.2500000000,0.0000000000,0.0000000000,0.0000000000,0.0000000000,,,
0.4839999992,3,108748.0078125000,108160.6562500000,167282.6718750000,146847.0156250000,0.0000000000,0.0000000000,0.0000000000,0.0000000000,,,
0.4879999992,3,108770.3750000000,108176.3984375000,167303.8281250000,146853.2656250000,0.0000000000,0.0000000000,0.0000000000,0.0000000000,,,
0.4919999992,3,108766.8359375000,108168.4375000000,167299.5625000000,146848.3281250000,0.0000000000,0.0000000000,0.0000000000,0.0000000000,,,
0.4959999993,3,108817.7421875000,108228.5156250000,167356.0000000000,146901.6875000000,0.0000000000,0.0000000000,0.0000000000,0.0000000000,,,
0.4999999993,3,108820.0781250000,108232.0859375000,167357.7500000000,146906.3593750000,0.0000000000,0.0000000000,0.0000000000,0.0000000000,,,
0.5039999993,3,108752.0000000000,108149.3671875000,167281.4531250000,146853.2187500000,0.0000000000,0.0000000000,0.0000000000,0.0000000000,,,
0.5079999992,3,108746.7734375000,108140.4296875000,167270.4375000000,146839.9062500000,0.0000000000,0.0000000000,0.0000000000,0.0000000000,,,
0.5119999992,4,108773.1953125000,108180.0468750000,167298.0625000000,146850.0468750000,0.0000000000,0.0000000000,0.0000000000,0.0000000000,,,
0.5159999991,4,108752.7578125000,108153.4140625000,167274.4843750000,146840.5000000000,0.0000000000,0.0000000000,0.0000000000,0.0000000000,,,
0.5199999991,4,108787.8125000000,108181.8750000000,167308.6562500000,146875.3437500000,0.0000000000,0.0000000000,0.0000000000,0.0000000000,,,
0.5239999990,4,108765.9765625000,108161.3828125000,167287.7031250000,146853.3437500000,0.0000000000,0.0000000000,0.0000000000,0.0000000000,,,
0.5279999990,4,108772.2812500000,108181.2265625000,167298.7812500000,146872.5781250000,0.0000000000,0.0000000000,0.0000000000,0.0000000000,,,
0.5319999990,4,108822.4140625000,108241.0390625000,167355.4687500000,146920.4062500000,0.0000000000,0.0000000000,0.0000000000,0.0000000000,,,
0.5359999991,4,108767.0234375000,108186.4843750000,167304.5000000000,146887.7343750000,0.0000000000,0.0000000000,0.0000000000,0.0000000000,,,
0.5399999991,4,108745.6484375000,108160.4687500000,167280.1406250000,146857.8906250000,0.0000000000,0.0000000000,0.0000000000,0.0000000000,,,
0.5439999991,4,108719.7656250000,108128.4140625000,167247.0000000000,146812.3437500000,0.0000000000,0.0000000000,0.0000000000,0.0000000000,,,
0.5479999990,4,108738.8906250000,108148.5078125000,167261.1093750000,146810.4375000000,0.0000000000,0.0000000000,0.0000000000,0.0000000000,,,
0.5519999990,4,108729.5546875000,108133.6171875000,167251.6562500000,146813.8125000000,0.0000000000,0.0000000000,0.0000000000,0.0000000000,,,
0.5559999992,4,108724.6718750000,108137.7812500000,167256.2968750000,146843.5312500000,0.0000000000,0.0000000000,0.0000000000,0.0000000000,,,
0.5599999991,4,108748.0078125000,108157.3593750000,167278.7812500000,146852.4687500000,0.0000000000,0.0000000000,0.0000000000,0.0000000000,,,
0.5639999991,4,108774.5312500000,108181.5234375000,167302.2500000000,146869.3593750000,0.0000000000,0.0000000000,0.0000000000,0.0000000000,,,
0.5679999990,4,108797.2500000000,108206.7109375000,167324.7031250000,146892.0781250000,0.0000000000,0.0000000000,0.0000000000,0.0000000000,,,
0.5719999990,4,108761.1250000000,108163.2031250000,167289.4062500000,146851.8750000000,0.0000000000,0.0000000000,0.0000000000,0.0000000000,,,
0.5759999990,4,108782.1484375000,108167.3125000000,167294.2812500000,146861.5000000000,0.0000000000,0.0000000000,0.0000000000,0.0000000000,,,
0.5799999991,4,108795.7265625000,108181.0703125000,167313.7500000000,146877.4843750000,0.0000000000,0.0000000000,0.0000000000,0.0000000000,,,
0.5839999991,4,108742.1328125000,108150.7031250000,167281.2187500000,146873.5156250000,0.0000000000,0.0000000000,0.0000000000,0.0000000000,,,
0.5879999991,4,108706.2187500000,108120.5312500000,167248.8437500000,146864.0781250000,0.0000000000,0.0000000000,0.0000000000,0.0000000000,,,
0.5919999990,4,108694.1484375000,108112.9140625000,167235.4375000000,146842.0781250000,0.0000000000,0.0000000000,0.0000000000,0.0000000000,,,
0.5959999990,4,108710.7812500000,108126.6484375000,167247.7656250000,146851.2343750000,0.0000000000,0.0000000000,0.0000000000,0.0000000000,,,
0.5999999992,4,108727.2734375000,108132.9765625000,167254.3906250000,146859.8437500000,0.0000000000,0.0000000000,0.0000000000,0.0000000000,,,
0.6039999991,4,108704.0703125000,108106.5312500000,167230.1562500000,146840.8593750000,0.0000000000,0.0000000000,0.0000000000,0.0000000000,,,
0.6079999991,4,108689.2656250000,108100.1484375000,167220.5000000000,146851.1250000000,0.0000000000,0.0000000000,0.0000000000,0.0000000000,,,
0.6119999990,4,108694.5468750000,108111.6796875000,167227.9218750000,146855.3125000000,0.0000000000,0.0000000000,0.0000000000,0.0000000000,,,
0.6159999990,4,108756.3750000000,108173.1562500000,167284.3593750000,146886.2031250000,0.0000000000,0.0000000000,0.0000000000,0.0000000000,,,
0.6199999989,4,108763.8828125000,108178.5468750000,167291.2968750000,146887.5468750000,0.0000000000,0.0000000000,0.0000000000,0.0000000000,,,
0.6239999991,4,108782.1015625000,108192.1718750000,167311.8281250000,146903.1406250000,0.0000000000,0.0000000000,0.0000000000,0.0000000000,,,
0.6279999991,4,108718.7734375000,108137.1875000000,167259.5000000000,146888.4375000000,0.0000000000,0.0000000000,0.0000000000,0.0000000000,,,
0.6319999991,4,108672.6406250000,108095.4218750000,167212.6406250000,146851.3125000000,0.0000000000,0.0000000000,0.0000000000,0.0000000000,,,
0.6359999990,4,108684.6015625000,108106.6875000000,167221.1875000000,146856.1875000000,0.0000000000,0.0000000000,0.0000000000,0.0000000000,,,
0.6399999990,5,108685.6171875000,108101.4375000000,167220.4062500000,146863.2812500000,0.0000000000,0.0000000000,0.0000000000,0.0000000000,,,
0.6439999989,5,108708.8984375000,108125.6562500000,167243.6406250000,146867.9375000000,0.0000000000,0.0000000000,0.0000000000,0.0000000000,,,
0.6479999989,5,108707.2109375000,108119.0859375000,167241.5000000000,146865.0156250000,0.0000000000,0.0000000000,0.0000000000,0.0000000000,,,
0.6519999988,5,108683.6328125000,108108.4375000000,167226.1875000000,146866.8125000000,0.0000000000,0.0000000000,0.0000000000,0.0000000000,,,
0.6559999988,5,108674.4375000000,108099.4453125000,167219.1562500000,146855.1406250000,0.0000000000,0.0000000000,0.0000000000,0.0000000000,,,
0.6599999988,5,108741.6250000000,108169.1093750000,167282.8281250000,146910.9687500000,0.0000000000,0.0000000000,0.0000000000,0.0000000000,,,
0.6639999989,5,108725.6093750000,108145.5546875000,167259.4375000000,146882.7968750000,0.0000000000,0.0000000000,0.0000000000,0.0000000000,,,
0.6679999989,5,108677.7343750000,108096.2031250000,167212.5312500000,146840.7968750000,0.0000000000,0.0000000000,0.0000000000,0.0000000000,,,
0.6719999989,5,108678.5390625000,108105.5937500000,167219.3437500000,146863.7812500000,0.0000000000,0.0000000000,0.0000000000,0.0000000000,,,
0.6759999988,5,108688.1640625000,108112.6718750000,167226.7187500000,146866.7343750000,0.0000000000,0.0000000000,0.0000000000,0.0000000000,,,
0.6799999988,5,108690.2578125000,108108.8906250000,167225.2968750000,146859.3593750000,0.0000000000,0.0000000000,0.0000000000,0.0000000000,,,
0.6839999990,5,108709.6484375000,108122.1640625000,167242.1875000000,146867.6718750000,0.0000000000,0.0000000000,0.0000000000,0.0000000000,,,
0.6879999989,5,108746.6093750000,108159.5312500000,167276.3593750000,146891.1718750000,0.0000000000,0.0000000000,0.0000000000,0.0000000000,,,
0.6919999989,5,108753.7500000000,108168.5937500000,167283.5312500000,146902.1406250000,0.0000000000,0.0000000000,0.0000000000,0.0000000000,,,
0.6959999988,5,108726.0156250000,108138.6328125000,167255.3281250000,146882.4531250000,0.0000000000,0.0000000000,0.0000000000,0.0000000000,,,
0.6999999988,5,108703.3750000000,108108.5390625000,167224.2812500000,146855.5000000000,0.0000000000,0.0000000000,0.0000000000,0.0000000000,,,
0.7039999987,5,108720.0312500000,108132.1953125000,167237.8437500000,146867.9375000000,0.0000000000,0.0000000000,0.0000000000,0.0000000000,,,
0.7079999989,5,108704.6328125000,108124.6875000000,167223.8750000000,146863.9218750000,0.0000000000,0.0000000000,0.0000000000,0.0000000000,,,
0.7119999989,5,108679.6640625000,108103.6328125000,167201.5000000000,146841.6093750000,0.0000000000,0.0000000000,0.0000000000,0.0000000000,,,
0.7159999989,5,108728.6718750000,108155.8828125000,167252.0625000000,146869.9062500000,0.0000000000,0.0000000000,0.0000000000,0.0000000000,,,
0.7199999988,5,108757.1250000000,108163.3125000000,167269.8125000000,146889.5937500000,0.0000000000,0.0000000000,0.0000000000,0.0000000000,,,
0.7239999988,5,108710.6953125000,108115.2500000000,167227.3906250000,146868.7500000000,0.0000000000,0.0000000000,0.0000000000,0.0000000000,,,
0.7279999990,5,108701.3359375000,108110.7109375000,167224.1875000000,146865.4218750000,0.0000000000,0.0000000000,0.0000000000,0.0000000000,,,
0.7319999989,5,108680.4687500000,108097.6796875000,167208.3906250000,146846.2656250000,0.0000000000,0.0000000000,0.0000000000,0.0000000000,,,
0.7359999989,5,108721.3437500000,108143.4609375000,167251.2656250000,146878.4062500000,0.0000000000,0.0000000000,0.0000000000,0.0000000000,,,
0.7399999988,5,108722.2343750000,108138.9609375000,167247.6718750000,146862.6875000000,0.0000000000,0.0000000000,0.0000000000,0.0000000000,,,
0.7439999988,5,108727.3515625000,108144.1640625000,167252.3906250000,146861.5000000000,0.0000000000,0.0000000000,0.0000000000,0.0000000000,,,
0.7479999987,5,108731.9921875000,108147.7031250000,167257.3750000000,146878.5625000000,0.0000000000,0.0000000000,0.0000000000,0.0000000000,,,
0.7519999989,5,108702.3046875000,108121.3593750000,167228.8593750000,146855.0468750000,0.0000000000,0.0000000000,0.0000000000,0.0000000000,,,
0.7559999989,5,108715.2578125000,108141.8046875000,167245.2500000000,146865.9843750000,0.0000000000,0.0000000000,0.0000000000,0.0000000000,,,
0.7599999988,5,108750.0156250000,108166.8828125000,167272.6875000000,146903.9687500000,0.0000000000,0.0000000000,0.0000000000,0.0000000000,,,
0.7639999988,5,108737.9765625000,108145.2578125000,167253.8281250000,146890.2031250000,0.0000000000,0.0000000000,0.0000000000,0.0000000000,,,
0.7679999988,6,108691.2500000000,108106.6640625000,167214.6718750000,146855.9062500000,0.0000000000,0.0000000000,0.0000000000,0.0000000000,,,
0.7719999987,6,108704.6093750000,108131.3671875000,167234.6562500000,146882.8593750000,0.0000000000,0.0000000000,0.0000000000,0.0000000000,,,
0.7759999987,6,108714.6640625000,108137.0546875000,167240.7968750000,146867.5625000000,0.0000000000,0.0000000000,0.0000000000,0.0000000000,,,
0.7799999986,6,108703.3750000000,108126.6484375000,167228.2187500000,146853.8125000000,0.0000000000,0.0000000000,0.0000000000,0.0000000000,,,
0.7839999986,6,108697.6328125000,108118.4687500000,167220.0312500000,146849.3750000000,0.0000000000,0.0000000000,0.0000000000,0.0000000000,,,
0.7879999985,6,108722.4687500000,108148.8515625000,167247.8593750000,146870.7031250000,0.0000000000,0.0000000000,0.0000000000,0.0000000000,,,
0.7919999987,6,108742.6406250000,108175.6796875000,167273.9218750000,146893.9531250000,0.0000000000,0.0000000000,0.0000000000,0.0000000000,,,
0.7959999987,6,108722.2343750000,108148.9375000000,167249.9218750000,146865.3750000000,0.0000000000,0.0000000000,0.0000000000,0.0000000000,,,
0.7999999986,6,108700.2656250000,108126.2187500000,167225.4531250000,146855.4218750000,0.0000000000,0.0000000000,0.0000000000,0.0000000000,,,
0.8039999986,6,108703.9375000000,108126.6484375000,167223.0156250000,146850.3125000000,0.0000000000,0.0000000000,0.0000000000,0.0000000000,,,
0.8079999986,6,108715.7656250000,108136.0312500000,167230.9062500000,146858.0468750000,0.0000000000,0.0000000000,0.0000000000,0.0000000000,,,
0.8119999988,6,108718.1015625000,108140.4843750000,167234.8437500000,146862.8437500000,0.0000000000,0.0000000000,0.0000000000,0.0000000000,,,
0.8159999987,6,108748.4375000000,108173.8281250000,167269.2031250000,146883.9531250000,0.0000000000,0.0000000000,0.0000000000,0.0000000000,,,
0.8199999987,6,108757.0468750000,108168.8125000000,167275.1093750000,146894.2031250000,0.0000000000,0.0000000000,0.0000000000,0.0000000000,,,
0.8239999986,6,108740.2578125000,108146.7109375000,167258.0937500000,146877.3906250000,0.0000000000,0.0000000000,0.0000000000,0.0000000000,,,
0.8279999986,6,108724.4843750000,108132.9531250000,167241.3593750000,146866.1718750000,0.0000000000,0.0000000000,0.0000000000,0.0000000000,,,
0.8319999985,6,108777.8593750000,108195.0937500000,167293.8750000000,146906.7031250000,0.0000000000,0.0000000000,0.0000000000,0.0000000000,,,
0.8359999987,6,108749.0546875000,108167.8984375000,167264.6093750000,146882.5312500000,0.0000000000,0.0000000000,0.0000000000,0.0000000000,,,
0.8399999987,6,108711.5859375000,108123.4843750000,167222.4531250000,146853.3437500000,0.0000000000,0.0000000000,0.0000000000,0.0000000000,,,
0.8439999986,6,108741.4921875000,108154.5703125000,167250.2187500000,146877.4687500000,0.0000000000,0.0000000000,0.0000000000,0.0000000000,,,
0.8479999986,6,108703.2968750000,108112.3203125000,167205.9218750000,146842.0625000000,0.0000000000,0.0000000000,0.0000000000,0.0000000000,,,
0.8519999986,6,108712.8671875000,108122.3046875000,167216.9218750000,146847.8593750000,0.0000000000,0.0000000000,0.0000000000,0.0000000000,,,
0.8559999987,6,108721.7734375000,108135.9843750000,167228.9375000000,146861.1250000000,0.0000000000,0.0000000000,0.0000000000,0.0000000000,,,
0.8599999987,6,108740.8984375000,108150.9453125000,167246.6406250000,146876.5312500000,0.0000000000,0.0000000000,0.0000000000,0.0000000000,,,
0.8639999987,6,108752.6718750000,108151.8359375000,167254.9062500000,146864.8593750000,0.0000000000,0.0000000000,0.0000000000,0.0000000000,,,
0.8679999986,6,108741.8125000000,108153.4921875000,167249.4062500000,146859.0625000000,0.0000000000,0.0000000000,0.0000000000,0.0000000000,,,
0.8719999986,6,108752.7265625000,108172.1093750000,167262.6875000000,146865.6093750000,0.0000000000,0.0000000000,0.0000000000,0.0000000000,,,
0.8759999985,6,108814.7968750000,108239.9140625000,167328.7812500000,146919.8437500000,0.0000000000,0.0000000000,0.0000000000,0.0000000000,,,
0.8799999987,6,108733.6328125000,108142.5781250000,167241.3593750000,146856.3281250000,0.0000000000,0.0000000000,0.0000000000,0.0000000000,,,
0.8839999987,6,108699.8359375000,108112.1328125000,167206.2500000000,146827.2500000000,0.0000000000,0.0000000000,0.0000000000,0.0000000000,,,
0.8879999986,6,108701.6015625000,108123.1562500000,167214.7500000000,146823.6250000000,0.0000000000,0.0000000000,0.0000000000,0.0000000000,,,
0.8919999986,6,108717.4843750000,108144.2968750000,167235.0312500000,146849.1718750000,0.0000000000,0.0000000000,0.0000000000,0.0000000000,,,
0.8959999986,7,108769.9453125000,108200.8125000000,167289.2343750000,146911.7968750000,0.0000000000,0.0000000000,0.0000000000,0.0000000000,,,
0.8999999985,7,108771.3437500000,108190.9687500000,167285.6718750000,146896.4062500000,0.0000000000,0.0000000000,0.0000000000,0.0000000000,,,
0.9039999985,7,108738.6718750000,108153.2812500000,167250.1562500000,146853.4062500000,0.0000000000,0.0000000000,0.0000000000,0.0000000000,,,
0.9079999984,7,108733.7890625000,108153.3359375000,167250.1250000000,146844.8281250000,0.0000000000,0.0000000000,0.0000000000,0.0000000000,,,
0.9119999984,7,108740.6015625000,108158.3203125000,167254.4843750000,146840.0781250000,0.0000000000,0.0000000000,0.0000000000,0.0000000000,,,
0.9159999983,7,108768.9843750000,108200.9140625000,167290.0937500000,146871.5937500000,0.0000000000,0.0000000000,0.0000000000,0.0000000000,,,
0.9199999985,7,108752.7265625000,108175.0859375000,167276.0156250000,146884.2968750000,0.0000000000,0.0000000000,0.0000000000,0.0000000000,,,
0.9239999985,7,108763.0546875000,108176.8828125000,167277.8906250000,146893.3750000000,0.0000000000,0.0000000000,0.0000000000,0.0000000000,,,
0.9279999984,7,108764.7734375000,108178.9765625000,167267.3281250000,146894.2343750000,0.0000000000,0.0000000000,0.0000000000,0.0000000000,,,
0.9319999984,7,108745.9921875000,108170.1796875000,167246.6250000000,146876.5468750000,0.0000000000,0.0000000000,0.0000000000,0.0000000000,,,
0.9359999984,7,108731.4609375000,108159.9609375000,167232.5156250000,146859.3281250000,0.0000000000,0.0000000000,0.0000000000,0.0000000000,,,
0.9399999985,7,108743.2343750000,108175.5703125000,167247.7187500000,146867.1093750000,0.0000000000,0.0000000000,0.0000000000,0.0000000000,,,
0.9439999985,7,108781.0546875000,108207.2500000000,167290.5781250000,146897.3906250000,0.0000000000,0.0000000000,0.0000000000,0.0000000000,,,
0.9479999985,7,108786.6875000000,108217.1953125000,167302.7812500000,146909.4687500000,0.0000000000,0.0000000000,0.0000000000,0.0000000000,,,
0.9519999984,7,108751.3593750000,108192.4687500000,167278.9062500000,146890.2343750000,0.0000000000,0.0000000000,0.0000000000,0.0000000000,,,
0.9559999984,7,108735.2968750000,108186.0000000000,167273.2031250000,146883.8437500000,0.0000000000,0.0000000000,0.0000000000,0.0000000000,,,
0.9599999983,7,108760.3203125000,108197.5078125000,167292.8593750000,146891.7656250000,0.0000000000,0.0000000000,0.0000000000,0.0000000000,,,
0.9639999985,7,108794.3281250000,108214.9453125000,167314.8281250000,146931.7500000000,0.0000000000,0.0000000000,0.0000000000,0.0000000000,,,
0.9679999985,7,108794.7343750000,108209.4765625000,167300.4843750000,146912.0625000000,0.0000000000,0.0000000000,0.0000000000,0.0000000000,,,
0.9719999984,7,108771.9062500000,108184.5859375000,167262.2812500000,146884.5781250000,0.0000000000,0.0000000000,0.0000000000,0.0000000000,,,
0.9759999984,7,108729.1250000000,108137.8046875000,167213.5781250000,146854.9062500000,0.0000000000,0.0000000000,0.0000000000,0.0000000000,,,
0.9799999984,7,108757.3984375000,108164.1718750000,167239.5312500000,146866.3125000000,0.0000000000,0.0000000000,0.0000000000,0.0000000000,,,
0.9839999985,7,108791.3281250000,108201.6640625000,167285.3437500000,146873.8906250000,0.0000000000,0.0000000000,0.0000000000,0.0000000000,,,
0.9879999985,7,108784.6171875000,108195.1250000000,167290.8281250000,146873.8750000000,0.0000000000,0.0000000000,0.0000000000,0.0000000000,,,
0.9919999985,7,108781.2968750000,108208.9609375000,167298.8906250000,146882.0468750000,0.0000000000,0.0000000000,0.0000000000,0.0000000000,,,
0.9959999984,7,108798.8046875000,108223.5546875000,167311.5468750000,146882.4843750000,0.0000000000,0.0000000000,0.0000000000,0.0000000000,,,
0.9999999984,7,108749.8281250000,108176.0781250000,167257.7187500000,146866.6250000000,0.0000000000,0.0000000000,0.0000000000,0.0000000000,,,
1.0039999983,7,108755.2187500000,108180.9375000000,167253.0781250000,146859.4375000000,0.0000000000,0.0000000000,0.0000000000,0.0000000000,,,
1.0079999985,7,108761.4453125000,108185.6250000000,167248.0625000000,146865.2812500000,0.0000000000,0.0000000000,0.0000000000,0.0000000000,,,
1.0119999985,7,108782.6875000000,108209.4765625000,167261.0156250000,146889.5937500000,0.0000000000,0.0000000000,0.0000000000,0.0000000000,,,
1.0159999984,7,108796.3906250000,108226.5078125000,167280.4375000000,146899.5312500000,0.0000000000,0.0000000000,0.0000000000,0.0000000000,,,
1.0199999984,7,108765.3359375000,108183.0781250000,167252.0937500000,146866.5937500000,0.0000000000,0.0000000000,0.0000000000,0.0000000000,,,
1.0239999983,8,108769.3828125000,108187.1015625000,167263.0000000000,146851.8437500000,0.0000000000,0.0000000000,0.0000000000,0.0000000000,,,
1.0279999983,8,108756.9140625000,108180.2656250000,167257.9843750000,146845.7656250000,0.0000000000,0.0000000000,0.0000000000,0.0000000000,,,
1.0319999983,8,108795.4531250000,108221.8671875000,167299.7187500000,146887.0625000000,0.0000000000,0.0000000000,0.0000000000,0.0000000000,,,
1.0359999982,8,108783.7343750000,108200.8359375000,167279.5000000000,146880.1406250000,0.0000000000,0.0000000000,0.0000000000,0.0000000000,,,
1.0399999982,8,108748.8671875000,108163.8750000000,167239.7031250000,146842.2812500000,0.0000000000,0.0000000000,0.0000000000,0.0000000000,,,
1.0439999981,8,108780.2734375000,108193.4609375000,167268.7500000000,146862.7968750000,0.0000000000,0.0000000000,0.0000000000,0.0000000000,,,
1.0479999983,8,108816.4531250000,108240.5625000000,167307.7656250000,146871.7812500000,0.0000000000,0.0000000000,0.0000000000,0.0000000000,,,
1.0519999983,8,108808.4140625000,108229.4296875000,167291.5781250000,146876.4218750000,0.0000000000,0.0000000000,0.0000000000,0.0000000000,,,
1.0559999982,8,108765.5234375000,108189.5703125000,167246.4375000000,146888.4843750000,0.0000000000,0.0000000000,0.0000000000,0.0000000000,,,
1.0599999982,8,108808.6015625000,108225.4296875000,167285.2187500000,146903.6406250000,0.0000000000,0.0000000000,0.0000000000,0.0000000000,,,
1.0639999982,8,108792.3203125000,108202.7656250000,167263.1406250000,146861.2968750000,0.0000000000,0.0000000000,0.0000000000,0.0000000000,,,
1.0679999983,8,108760.9062500000,108168.4375000000,167230.5000000000,146834.8125000000,0.0000000000,0.0000000000,0.0000000000,0.0000000000,,,
1.0719999983,8,108752.4062500000,108160.5468750000,167221.2656250000,146816.6093750000,0.0000000000,0.0000000000,0.0000000000,0.0000000000,,,
1.0759999983,8,108751.3828125000,108169.9609375000,167222.8281250000,146834.6875000000,0.0000000000,0.0000000000,0.0000000000,0.0000000000,,,
1.0799999982,8,108781.6171875000,108191.6093750000,167251.0468750000,146849.7500000000,0.0000000000,0.0000000000,0.0000000000,0.0000000000,,,
1.0839999982,8,108790.3046875000,108194.3750000000,167261.0781250000,146855.7343750000,0.0000000000,0.0000000000,0.0000000000,0.0000000000,,,
1.0879999981,8,108787.4921875000,108193.2968750000,167265.5312500000,146853.6718750000,0.0000000000,0.0000000000,0.0000000000,0.0000000000,,,
1.0919999983,8,108774.9609375000,108181.3906250000,167255.4375000000,146862.7968750000,0.0000000000,0.0000000000,0.0000000000,0.0000000000,,,
1.0959999983,8,108760.7500000000,108174.8750000000,167245.4375000000,146867.0312500000,0.0000000000,0.0000000000,0.0000000000,0.0000000000,,,
1.0999999982,8,108752.4296875000,108158.8828125000,167237.8750000000,146846.3437500000,0.0000000000,0.0000000000,0.0000000000,0.0000000000,,,
1.1039999982,8,108787.3515625000,108185.6250000000,167269.7187500000,146864.0312500000,0.0000000000,0.0000000000,0.0000000000,0.0000000000,,,
1.1079999981,8,108795.7265625000,108189.2187500000,167277.4062500000,146862.3437500000,0.0000000000,0.0000000000,0.0000000000,0.0000000000,,,
1.1119999983,8,108781.8828125000,108184.0468750000,167267.9218750000,146878.0781250000,0.0000000000,0.0000000000,0.0000000000,0.0000000000,,,
1.1159999983,8,108789.9062500000,108192.5468750000,167275.8593750000,146886.6875000000,0.0000000000,0.0000000000,0.0000000000,0.0000000000,,,
1.1199999982,8,108813.9921875000,108213.3906250000,167300.6093750000,146891.9687500000,0.0000000000,0.0000000000,0.0000000000,0.0000000000,,,
1.1239999982,8,108797.7656250000,108193.0312500000,167285.1093750000,146869.6875000000,0.0000000000,0.0000000000,0.0000000000,0.0000000000,,,
1.1279999982,8,108765.4921875000,108156.4218750000,167249.3281250000,146844.4218750000,0.0000000000,0.0000000000,0.0000000000,0.0000000000,,,
1.1319999981,8,108743.3671875000,108140.5937500000,167227.2812500000,146831.9531250000,0.0000000000,0.0000000000,0.0000000000,0.0000000000,,,
1.1359999983,8,108747.3906250000,108157.0859375000,167231.2187500000,146839.0625000000,0.0000000000,0.0000000000,0.0000000000,0.0000000000,,,
1.1399999983,8,108762.1953125000,108176.6953125000,167243.0781250000,146842.4687500000,0.0000000000,0.0000000000,0.0000000000,0.0000000000,,,
1.1439999982,8,108763.2421875000,108173.5312500000,167239.7500000000,146823.6562500000,0.0000000000,0.0000000000,0.0000000000,0.0000000000,,,
1.1479999982,8,108760.1328125000,108172.8593750000,167237.9843750000,146818.7187500000,0.0000000000,0.0000000000,0.0000000000,0.0000000000,,,
1.1519999981,9,108768.6875000000,108190.4296875000,167252.2187500000,146836.2656250000,0.0000000000,0.0000000000,0.0000000000,0.0000000000,,,
1.1559999981,9,108762.1953125000,108188.2578125000,167248.2500000000,146839.5937500000,0.0000000000,0.0000000000,0.0000000000,0.0000000000,,,
1.1599999981,9,108795.1640625000,108216.9296875000,167281.0625000000,146848.9062500000,0.0000000000,0.0000000000,0.0000000000,0.0000000000,,,
1.1639999980,9,108816.5937500000,108230.9609375000,167303.5156250000,146853.3281250000,0.0000000000,0.0000000000,0.0000000000,0.0000000000,,,
1.1679999980,9,108805.6484375000,108214.2500000000,167290.6875000000,146847.1093750000,0.0000000000,0.0000000000,0.0000000000,0.0000000000,,,
1.1719999979,9,108798.0000000000,108211.7031250000,167282.6718750000,146831.6718750000,0.0000000000,0.0000000000,0.0000000000,0.0000000000,,,
1.1759999981,9,108774.8281250000,108184.1250000000,167253.1406250000,146825.9062500000,0.0000000000,0.0000000000,0.0000000000,0.0000000000,,,
1.1799999981,9,108753.6406250000,108167.3359375000,167230.9531250000,146815.0468750000,0.0000000000,0.0000000000,0.0000000000,0.0000000000,,,
1.1839999980,9,108756.2421875000,108177.3125000000,167237.4687500000,146818.3437500000,0.0000000000,0.0000000000,0.0000000000,0.0000000000,,,
1.1879999980,9,108784.4843750000,108208.5312500000,167266.4062500000,146849.2500000000,0.0000000000,0.0000000000,0.0000000000,0.0000000000,,,
1.1919999979,9,108759.8125000000,108175.9687500000,167240.2031250000,146829.6406250000,0.0000000000,0.0000000000,0.0000000000,0.0000000000,,,
1.1959999981,9,108736.0468750000,108145.1796875000,167215.5781250000,146813.1250000000,0.0000000000,0.0000000000,0.0000000000,0.0000000000,,,
1.1999999981,9,108776.3593750000,108185.1718750000,167254.6875000000,146837.1718750000,0.0000000000,0.0000000000,0.0000000000,0.0000000000,,,
1.2039999980,9,108816.6953125000,108231.6796875000,167299.5312500000,146870.6250000000,0.0000000000,0.0000000000,0.0000000000,0.0000000000,,,
1.2079999980,9,108769.1171875000,108177.3906250000,167249.0000000000,146844.7343750000,0.0000000000,0.0000000000,0.0000000000,0.0000000000,,,
1.2119999980,9,108718.3671875000,108131.1796875000,167207.4062500000,146812.0468750000,0.0000000000,0.0000000000,0.0000000000,0.0000000000,,,
1.2159999979,9,108741.7578125000,108167.1484375000,167238.2968750000,146833.0468750000,0.0000000000,0.0000000000,0.0000000000,0.0000000000,,,
1.2199999981,9,108768.7968750000,108188.6015625000,167263.1718750000,146847.9062500000,0.0000000000,0.0000000000,0.0000000000,0.0000000000,,,
1.2239999981,9,108775.4765625000,108193.3515625000,167267.1093750000,146847.3750000000,0.0000000000,0.0000000000,0.0000000000,0.0000000000,,,
1.2279999980,9,108737.1718750000,108158.5625000000,167230.4218750000,146821.2187500000,0.0000000000,0.0000000000,0.0000000000,0.0000000000,,,
1.2319999980,9,108689.1093750000,108115.5703125000,167185.2812500000,146793.9375000000,0.0000000000,0.0000000000,0.0000000000,0.0000000000,,,
1.2359999979,9,108691.7343750000,108116.5312500000,167187.9843750000,146792.5781250000,0.0000000000,0.0000000000,0.0000000000,0.0000000000,,,
1.2399999981,9,108721.7187500000,108145.3437500000,167216.6562500000,146812.8437500000,0.0000000000,0.0000000000,0.0000000000,0.0000000000,,,
1.2439999981,9,108754.9843750000,108175.3281250000,167242.6718750000,146833.7187500000,0.0000000000,0.0000000000,0.0000000000,0.0000000000,,,
1.2479999980,9,108805.2734375000,108223.2343750000,167287.3281250000,146878.1875000000,0.0000000000,0.0000000000,0.0000000000,0.0000000000,,,
1.2519999980,9,108723.3828125000,108136.1171875000,167204.1093750000,146825.2968750000,0.0000000000,0.0000000000,0.0000000000,0.0000000000,,,
1.2559999980,9,108679.0468750000,108094.1640625000,167166.6875000000,146791.1718750000,0.0000000000,0.0000000000,0.0000000000,0.0000000000,,,
1.2599999979,9,108688.9140625000,108088.9843750000,167173.0781250000,146786.7812500000,0.0000000000,0.0000000000,0.0000000000,0.0000000000,,,
1.2639999981,9,108702.8671875000,108088.0781250000,167180.8750000000,146804.5312500000,0.0000000000,0.0000000000,0.0000000000,0.0000000000,,,
1.2679999981,9,108707.1562500000,108098.8828125000,167187.8281250000,146813.3593750000,0.0000000000,0.0000000000,0.0000000000,0.0000000000,,,
1.2719999980,9,108680.0703125000,108081.2109375000,167168.2187500000,146812.2031250000,0.0000000000,0.0000000000,0.0000000000,0.0000000000,,,
1.2759999980,9,108684.8984375000,108086.4921875000,167174.5000000000,146823.6250000000,0.0000000000,0.0000000000,0.0000000000,0.0000000000,,,
1.2799999979,10,108772.9765625000,108178.4375000000,167262.7968750000,146896.4843750000,0.0000000000,0.0000000000,0.0000000000,0.0000000000,,,
1.2839999979,10,108737.8671875000,108126.3281250000,167220.3125000000,146850.8281250000,0.0000000000,0.0000000000,0.0000000000,0.0000000000,,,
1.2879999978,10,108688.9140625000,108080.5625000000,167172.6093750000,146821.0312500000,0.0000000000,0.0000000000,0.0000000000,0.0000000000,,,
1.2919999978,10,108652.2812500000,108053.0468750000,167142.0312500000,146806.6875000000,0.0000000000,0.0000000000,0.0000000000,0.0000000000,,,
1.2959999978,10,108651.3437500000,108060.6093750000,167144.9375000000,146809.0156250000,0.0000000000,0.0000000000,0.0000000000,0.0000000000,,,
1.2999999977,10,108666.2265625000,108071.7421875000,167156.8437500000,146808.0781250000,0.0000000000,0.0000000000,0.0000000000,0.0000000000,,,
1.3039999979,10,108697.6093750000,108097.6250000000,167181.2812500000,146806.8750000000,0.0000000000,0.0000000000,0.0000000000,0.0000000000,,,
1.3079999979,10,108697.9531250000,108099.9609375000,167181.0156250000,146797.2656250000,0.0000000000,0.0000000000,0.0000000000,0.0000000000,,,
1.3119999978,10,108688.9140625000,108100.4921875000,167175.9687500000,146809.3593750000,0.0000000000,0.0000000000,0.0000000000,0.0000000000,,,
1.3159999978,10,108706.9140625000,108123.5312500000,167192.5468750000,146812.5781250000,0.0000000000,0.0000000000,0.0000000000,0.0000000000,,,
1.3199999977,10,108725.8750000000,108138.1562500000,167207.5312500000,146832.5625000000,0.0000000000,0.0000000000,0.0000000000,0.0000000000,,,
1.3239999979,10,108748.0078125000,108150.6250000000,167224.3281250000,146856.0000000000,0.0000000000,0.0000000000,0.0000000000,0.0000000000,,,
1.3279999979,10,108723.8437500000,108120.3671875000,167197.9062500000,146823.9843750000,0.0000000000,0.0000000000,0.0000000000,0.0000000000,,,
1.3319999978,10,108687.1718750000,108090.1953125000,167167.9687500000,146795.5468750000,0.0000000000,0.0000000000,0.0000000000,0.0000000000,,,
1.3359999978,10,108681.5703125000,108093.4687500000,167172.2968750000,146786.6718750000,0.0000000000,0.0000000000,0.0000000000,0.0000000000,,,
1.3399999978,10,108729.9531250000,108146.7109375000,167227.4062500000,146821.9375000000,0.0000000000,0.0000000000,0.0000000000,0.0000000000,,,
1.3439999977,10,108694.0703125000,108096.5781250000,167184.5000000000,146813.6562500000,0.0000000000,0.0000000000,0.0000000000,0.0000000000,,,
1.3479999979,10,108635.3515625000,108032.2578125000,167126.4218750000,146780.8281250000,0.0000000000,0.0000000000,0.0000000000,0.0000000000,,,
1.3519999979,10,108616.2031250000,108020.3203125000,167111.4062500000,146769.7187500000,0.0000000000,0.0000000000,0.0000000000,0.0000000000,33029,1.3538648146,0.0000000000
1.3559999978,10,108660.2968750000,108064.3671875000,167151.4218750000,146796.5937500000,0.0000000000,0.0000000000,0.0000000000,0.0000000000,,,
1.3599999978,10,108666.4687500000,108058.9453125000,167155.0468750000,146803.9687500000,0.0000000000,0.0000000000,0.0000000000,0.0000000000,,,
1.3639999977,10,108645.3359375000,108040.3593750000,167137.0781250000,146772.6718750000,0.0000000000,0.0000000000,0.0000000000,0.0000000000,,,
1.3679999979,10,108636.6718750000,108036.9531250000,167133.7968750000,146767.0312500000,0.0000000000,0.0000000000,0.0000000000,0.0000000000,,,
1.3719999979,10,108627.9531250000,108031.2656250000,167126.8906250000,146761.1875000000,0.0000000000,0.0000000000,0.0000000000,0.0000000000,,,
1.3759999978,10,108668.3437500000,108070.4531250000,167165.2187500000,146786.6718750000,0.0000000000,0.0000000000,0.0000000000,0.0000000000,,,
1.3799999978,10,108701.6562500000,108095.5312500000,167191.8281250000,146810.0312500000,0.0000000000,0.0000000000,0.0000000000,0.0000000000,,,
1.3839999977,10,108660.1953125000,108050.2812500000,167150.9375000000,146790.5625000000,0.0000000000,0.0000000000,0.0000000000,0.0000000000,,,
1.3879999977,10,108647.6640625000,108036.4687500000,167133.7968750000,146784.7343750000,0.0000000000,0.0000000000,0.0000000000,0.0000000000,,,
1.3919999979,10,108652.6250000000,108043.9296875000,167138.2500000000,146787.2812500000,0.0000000000,0.0000000000,0.0000000000,0.0000000000,,,
1.3959999979,10,108637.2031250000,108030.9687500000,167131.7656250000,146789.9375000000,0.0000000000,0.0000000000,0.0000000000,0.0000000000,,,
1.3999999978,10,108658.4218750000,108056.9062500000,167160.7656250000,146806.9687500000,0.0000000000,0.0000000000,0.0000000000,0.0000000000,,,
1.4039999978,10,108686.5859375000,108074.1250000000,167183.5625000000,146791.7968750000,0.0000000000,0.0000000000,0.0000000000,0.0000000000,,,
1.4079999977,11,108644.4218750000,108033.4140625000,167141.9375000000,146783.4843750000,0.0000000000,0.0000000000,0.0000000000,0.0000000000,,,
1.4119999977,11,108644.0703125000,108044.5468750000,167149.4687500000,146797.1250000000,0.0000000000,0.0000000000,0.0000000000,0.0000000000,,,
1.4159999976,11,108635.7031250000,108031.0781250000,167138.5000000000,146787.8281250000,0.0000000000,0.0000000000,0.0000000000,0.0000000000,,,
1.4199999976,11,108675.5312500000,108066.7500000000,167174.3125000000,146781.5000000000,0.0000000000,0.0000000000,0.0000000000,0.0000000000,,,
1.4239999976,11,108660.6718750000,108048.9453125000,167158.3125000000,146773.3437500000,0.0000000000,0.0000000000,0.0000000000,0.0000000000,,,
1.4279999975,11,108633.9062500000,108026.0625000000,167132.7812500000,146762.3437500000,0.0000000000,0.0000000000,0.0000000000,0.0000000000,,,
1.4319999977,11,108641.7890625000,108034.3750000000,167138.3906250000,146763.5468750000,0.0000000000,0.0000000000,0.0000000000,0.0000000000,,,
1.4359999977,11,108645.8125000000,108040.7109375000,167140.8125000000,146758.9375000000,0.0000000000,0.0000000000,0.0000000000,0.0000000000,,,
1.4399999976,11,108674.5703125000,108067.2656250000,167165.3281250000,146773.3906250000,0.0000000000,0.0000000000,0.0000000000,0.0000000000,,,
1.4439999976,11,108693.9609375000,108085.3437500000,167180.1250000000,146783.0000000000,0.0000000000,0.0000000000,0.0000000000,0.0000000000,,,
1.4479999975,11,108703.7500000000,108086.5234375000,167181.5156250000,146772.0468750000,0.0000000000,0.0000000000,0.0000000000,0.0000000000,,,
1.4519999977,11,108664.4843750000,108060.5546875000,167152.1718750000,146798.0156250000,0.0000000000,0.0000000000,0.0000000000,0.0000000000,,,
1.4559999977,11,108629.5625000000,108025.6875000000,167120.3437500000,146807.4062500000,0.0000000000,0.0000000000,0.0000000000,0.0000000000,,,
1.4599999976,11,108658.4218750000,108047.3046875000,167142.4375000000,146808.0468750000,0.0000000000,0.0000000000,0.0000000000,0.0000000000,,,
1.4639999976,11,108663.7031250000,108043.6328125000,167140.1093750000,146790.9062500000,0.0000000000,0.0000000000,0.0000000000,0.0000000000,,,
1.4679999975,11,108663.3593750000,108040.1718750000,167136.2187500000,146801.4218750000,0.0000000000,0.0000000000,0.0000000000,0.0000000000,,,
1.4719999975,11,108641.4687500000,108025.2890625000,167116.9531250000,146792.6718750000,0.0000000000,0.0000000000,0.0000000000,0.0000000000,,,
1.4759999977,11,108642.7812500000,108036.6015625000,167121.1718750000,146805.4218750000,0.0000000000,0.0000000000,0.0000000000,0.0000000000,,,
1.4799999977,11,108655.2578125000,108045.6406250000,167129.5156250000,146820.6250000000,0.0000000000,0.0000000000,0.0000000000,0.0000000000,,,
1.4839999976,11,108671.9921875000,108057.6562500000,167141.4531250000,146814.2500000000,0.0000000000,0.0000000000,0.0000000000,0.0000000000,,,
1.4879999976,11,108655.7421875000,108035.7500000000,167118.9218750000,146799.5000000000,0.0000000000,0.0000000000,0.0000000000,0.0000000000,,,
1.4919999975,11,108641.6562500000,108028.2109375000,167108.7031250000,146789.2968750000,0.0000000000,0.0000000000,0.0000000000,0.0000000000,,,
1.4959999977,11,108643.1875000000,108031.8593750000,167113.6093750000,146786.0000000000,0.0000000000,0.0000000000,0.0000000000,0.0000000000,,,
1.4999999977,11,108650.3515625000,108037.5937500000,167118.6250000000,146785.4062500000,0.0000000000,0.0000000000,0.0000000000,0.0000000000,,,
1.5039999976,11,108659.8671875000,108047.4140625000,167126.7187500000,146778.4687500000,0.0000000000,0.0000000000,0.0000000000,0.0000000000,,,
1.5079999976,11,108674.8906250000,108063.8281250000,167145.3593750000,146782.5937500000,0.0000000000,0.0000000000,0.0000000000,0.0000000000,,,
1.5119999975,11,108664.5625000000,108058.9453125000,167140.4218750000,146791.0468750000,0.0000000000,0.0000000000,0.0000000000,0.0000000000,,,
1.5159999975,11,108642.7265625000,108041.0546875000,167126.0781250000,146787.5625000000,0.0000000000,0.0000000000,0.0000000000,0.0000000000,,,
1.5199999977,11,108667.3828125000,108063.2109375000,167149.9843750000,146799.1093750000,0.0000000000,0.0000000000,0.0000000000,0.0000000000,,,
1.5239999976,11,108670.3593750000,108062.4062500000,167151.4843750000,146788.0937500000,0.0000000000,0.0000000000,0.0000000000,0.0000000000,,,
1.5279999976,11,108652.1953125000,108044.8125000000,167133.5312500000,146762.6875000000,0.0000000000,0.0000000000,0.0000000000,0.0000000000,,,
1.5319999976,11,108653.5156250000,108031.0000000000,167131.9062500000,146766.7500000000,0.0000000000,0.0000000000,0.0000000000,0.0000000000,,,
1.5359999975,12,108668.3203125000,108051.1406250000,167144.5625000000,146780.0468750000,0.0000000000,0.0000000000,0.0000000000,0.0000000000,,,
1.5399999975,12,108674.8593750000,108060.2109375000,167147.3750000000,146783.4843750000,0.0000000000,0.0000000000,0.0000000000,0.0000000000,,,
1.5439999974,12,108712.1718750000,108095.8515625000,167184.6562500000,146818.8281250000,0.0000000000,0.0000000000,0.0000000000,0.0000000000,,,
1.5479999974,12,108676.4218750000,108056.5078125000,167141.6875000000,146803.2812500000,0.0000000000,0.0000000000,0.0000000000,0.0000000000,,,
1.5519999973,12,108654.9375000000,108042.9062500000,167115.6406250000,146800.9062500000,0.0000000000,0.0000000000,0.0000000000,0.0000000000,,,
1.5559999973,12,108661.4765625000,108042.6640625000,167113.7343750000,146788.6093750000,0.0000000000,0.0000000000,0.0000000000,0.0000000000,,,
1.5599999975,12,108680.8437500000,108062.4843750000,167133.7812500000,146808.0156250000,0.0000000000,0.0000000000,0.0000000000,0.0000000000,,,
1.5639999975,12,108673.6796875000,108058.6015625000,167129.8281250000,146797.0781250000,0.0000000000,0.0000000000,0.0000000000,0.0000000000,,,
1.5679999974,12,108659.2812500000,108036.3359375000,167109.9843750000,146779.1562500000,0.0000000000,0.0000000000,0.0000000000,0.0000000000,,,
1.5719999974,12,108652.7109375000,108022.7343750000,167099.3437500000,146783.0781250000,0.0000000000,0.0000000000,0.0000000000,0.0000000000,,,
1.5759999973,12,108639.0859375000,108018.7109375000,167091.6875000000,146788.1718750000,0.0000000000,0.0000000000,0.0000000000,0.0000000000,,,
1.5799999975,12,108652.0625000000,108033.0937500000,167109.0937500000,146792.1406250000,0.0000000000,0.0000000000,0.0000000000,0.0000000000,,,
1.5839999975,12,108678.2421875000,108055.9687500000,167134.6093750000,146801.9843750000,0.0000000000,0.0000000000,0.0000000000,0.0000000000,,,
1.5879999974,12,108674.7265625000,108052.5625000000,167131.0625000000,146786.1406250000,0.0000000000,0.0000000000,0.0000000000,0.0000000000,,,
1.5919999974,12,108659.0625000000,108046.6640625000,167119.4062500000,146773.4687500000,0.0000000000,0.0000000000,0.0000000000,0.0000000000,,,
1.5959999973,12,108662.5000000000,108053.3671875000,167126.2343750000,146788.2031250000,0.0000000000,0.0000000000,0.0000000000,0.0000000000,,,
1.5999999973,12,108682.2109375000,108064.1484375000,167144.1562500000,146807.8906250000,0.0000000000,0.0000000000,0.0000000000,0.0000000000,,,
1.6039999975,12,108687.3125000000,108063.3750000000,167146.5468750000,146792.1093750000,0.0000000000,0.0000000000,0.0000000000,0.0000000000,,,
1.6079999974,12,108682.1875000000,108066.1875000000,167147.3750000000,146785.0625000000,0.0000000000,0.0000000000,0.0000000000,0.0000000000,,,
1.6119999974,12,108656.6484375000,108050.8203125000,167128.7031250000,146783.7500000000,0.0000000000,0.0000000000,0.0000000000,0.0000000000,,,
1.6159999974,12,108663.2187500000,108063.9062500000,167139.0156250000,146796.5468750000,0.0000000000,0.0000000000,0.0000000000,0.0000000000,,,
1.6199999973,12,108697.9531250000,108085.1015625000,167164.7031250000,146807.5625000000,0.0000000000,0.0000000000,0.0000000000,0.0000000000,,,
1.6239999975,12,108713.8593750000,108103.1250000000,167179.2343750000,146821.8281250000,0.0000000000,0.0000000000,0.0000000000,0.0000000000,,,
1.6279999975,12,108693.1796875000,108091.5625000000,167162.2031250000,146821.5468750000,0.0000000000,0.0000000000,0.0000000000,0.0000000000,,,
1.6319999974,12,108655.0156250000,108063.0234375000,167126.3437500000,146789.5468750000,0.0000000000,0.0000000000,0.0000000000,0.0000000000,,,
1.6359999974,12,108661.0234375000,108069.9687500000,167135.2500000000,146812.6562500000,0.0000000000,0.0000000000,0.0000000000,0.0000000000,,,
1.6399999973,12,108678.8359375000,108080.6718750000,167144.1875000000,146809.4218750000,0.0000000000,0.0000000000,0.0000000000,0.0000000000,,,
1.6439999973,12,108684.8125000000,108084.3515625000,167140.8906250000,146804.3281250000,0.0000000000,0.0000000000,0.0000000000,0.0000000000,,,
1.6479999975,12,108668.6171875000,108068.5234375000,167117.2812500000,146796.9375000000,0.0000000000,0.0000000000,0.0000000000,0.0000000000,,,
1.6519999974,12,108654.1796875000,108065.7031250000,167106.4218750000,146803.7343750000,0.0000000000,0.0000000000,0.0000000000,0.0000000000,,,
1.6559999974,12,108649.0859375000,108069.4609375000,167113.0937500000,146800.0781250000,0.0000000000,0.0000000000,0.0000000000,0.0000000000,,,
1.6599999974,12,108669.7109375000,108079.0625000000,167129.4375000000,146806.9218750000,0.0000000000,0.0000000000,0.0000000000,0.0000000000,,,
1.6639999973,13,108675.7500000000,108084.3984375000,167135.1718750000,146793.5937500000,0.0000000000,0.0000000000,0.0000000000,0.0000000000,,,
1.6679999973,13,108679.7421875000,108088.3437500000,167142.5156250000,146807.2187500000,0.0000000000,0.0000000000,0.0000000000,0.0000000000,,,
1.6719999972,13,108690.7421875000,108098.8828125000,167156.0937500000,146823.7656250000,0.0000000000,0.0000000000,0.0000000000,0.0000000000,,,
1.6759999972,13,108678.1328125000,108083.4609375000,167142.6562500000,146821.3593750000,0.0000000000,0.0000000000,0.0000000000,0.0000000000,,,
1.6799999971,13,108699.2421875000,108088.3203125000,167153.2187500000,146861.2968750000,0.0000000000,0.0000000000,0.0000000000,0.0000000000,,,
1.6839999971,13,108702.3593750000,108084.2656250000,167152.4687500000,146858.8437500000,0.0000000000,0.0000000000,0.0000000000,0.0000000000,,,
1.6879999973,13,108672.1562500000,108051.2500000000,167132.7343750000,146817.7343750000,0.0000000000,0.0000000000,0.0000000000,0.0000000000,,,
1.6919999972,13,108637.0703125000,108020.7812500000,167110.2031250000,146769.2656250000,0.0000000000,0.0000000000,0.0000000000,0.0000000000,,,
1.6959999972,13,108660.4296875000,108050.7109375000,167140.2968750000,146776.8593750000,0.0000000000,0.0000000000,0.0000000000,0.0000000000,,,
1.6999999972,13,108692.8906250000,108067.9843750000,167158.9375000000,146797.7968750000,0.0000000000,0.0000000000,0.0000000000,0.0000000000,,,
1.7039999971,13,108694.8203125000,108068.3046875000,167172.7812500000,146797.2968750000,0.0000000000,0.0000000000,0.0000000000,0.0000000000,,,
1.7079999973,13,108677.2500000000,108049.6953125000,167153.2968750000,146794.9375000000,0.0000000000,0.0000000000,0.0000000000,0.0000000000,,,
1.7119999973,13,108674.4843750000,108051.1718750000,167148.4531250000,146804.6406250000,0.0000000000,0.0000000000,0.0000000000,0.0000000000,,,
1.7159999972,13,108668.3750000000,108050.0390625000,167161.7812500000,146806.7031250000,0.0000000000,0.0000000000,0.0000000000,0.0000000000,,,
1.7199999972,13,108702.5703125000,108088.7187500000,167193.3437500000,146828.9218750000,0.0000000000,0.0000000000,0.0000000000,0.0000000000,,,
1.7239999971,13,108703.1093750000,108078.1015625000,167186.8906250000,146817.8593750000,0.0000000000,0.0000000000,0.0000000000,0.0000000000,,,
1.7279999971,13,108701.3359375000,108080.5937500000,167192.2031250000,146824.1093750000,0.0000000000,0.0000000000,0.0000000000,0.0000000000,,,
1.7319999973,13,108682.5625000000,108080.9921875000,167195.0625000000,146831.2187500000,0.0000000000,0.0000000000,0.0000000000,0.0000000000,,,
1.7359999972,13,108667.6718750000,108075.2812500000,167197.0468750000,146829.0468750000,0.0000000000,0.0000000000,0.0000000000,0.0000000000,,,
1.7399999972,13,108660.1640625000,108056.5859375000,167188.6562500000,146800.3437500000,0.0000000000,0.0000000000,0.0000000000,0.0000000000,,,
1.7439999972,13,108647.6953125000,108053.4453125000,167191.2500000000,146785.0937500000,0.0000000000,0.0000000000,0.0000000000,0.0000000000,,,
1.7479999971,13,108658.2343750000,108057.8515625000,167190.1250000000,146798.6875000000,0.0000000000,0.0000000000,0.0000000000,0.0000000000,,,
1.7519999973,13,108714.8828125000,108092.2890625000,167215.1250000000,146827.0156250000,0.0000000000,0.0000000000,0.0000000000,0.0000000000,,,
1.7559999973,13,108739.7968750000,108132.7109375000,167247.9843750000,146860.1093750000,0.0000000000,0.0000000000,0.0000000000,0.0000000000,,,
1.7599999972,13,108754.8984375000,108153.2578125000,167256.2812500000,146898.5156250000,0.0000000000,0.0000000000,0.0000000000,0.0000000000,,,
1.7639999972,13,108727.1093750000,108098.6953125000,167199.7812500000,146855.8750000000,0.0000000000,0.0000000000,0.0000000000,0.0000000000,,,
1.7679999971,13,108689.0234375000,108056.7500000000,167180.0781250000,146842.7343750000,0.0000000000,0.0000000000,0.0000000000,0.0000000000,,,
1.7719999971,13,108680.6562500000,108054.3046875000,167172.1562500000,146862.2031250000,0.0000000000,0.0000000000,0.0000000000,0.0000000000,,,
1.7759999973,13,108667.1953125000,108051.2265625000,167171.0312500000,146867.8281250000,0.0000000000,0.0000000000,0.0000000000,0.0000000000,,,
1.7799999972,13,108685.6171875000,108066.0546875000,167196.0312500000,146883.8281250000,0.0000000000,0.0000000000,0.0000000000,0.0000000000,,,
1.7839999972,13,108719.6328125000,108071.2890625000,167195.6562500000,146891.5468750000,0.0000000000,0.0000000000,0.0000000000,0.0000000000,,,
1.7879999971,13,108735.9609375000,108103.3671875000,167207.8906250000,146905.5156250000,0.0000000000,0.0000000000,0.0000000000,0.0000000000,,,
1.7919999971,14,108734.8906250000,108114.8750000000,167220.1406250000,146924.7500000000,0.0000000000,0.0000000000,0.0000000000,0.0000000000,,,
1.7959999971,14,108697.2343750000,108070.1015625000,167172.0781250000,146878.2968750000,0.0000000000,0.0000000000,0.0000000000,0.0000000000,,,
1.7999999970,14,108700.8828125000,108061.4140625000,167184.5000000000,146851.2031250000,0.0000000000,0.0000000000,0.0000000000,0.0000000000,,,
1.8039999970,14,108706.8359375000,108056.0234375000,167188.9218750000,146851.6562500000,0.0000000000,0.0000000000,0.0000000000,0.0000000000,,,
1.8079999969,14,108720.2968750000,108062.8906250000,167198.9531250000,146853.1875000000,0.0000000000,0.0000000000,0.0000000000,0.0000000000,,,
1.8119999969,14,108719.7656250000,108059.2968750000,167180.7500000000,146852.0156250000,0.0000000000,0.0000000000,0.0000000000,0.0000000000,,,
1.8159999971,14,108697.9843750000,108041.6171875000,167141.5625000000,146844.2343750000,0.0000000000,0.0000000000,0.0000000000,0.0000000000,,,
1.8199999970,14,108676.2343750000,108039.9062500000,167131.3125000000,146833.2656250000,0.0000000000,0.0000000000,0.0000000000,0.0000000000,,,
1.8239999970,14,108665.6875000000,108036.0156250000,167120.0937500000,146822.7968750000,0.0000000000,0.0000000000,0.0000000000,0.0000000000,,,
1.8279999970,14,108642.4062500000,108027.4843750000,167098.2187500000,146816.8750000000,0.0000000000,0.0000000000,0.0000000000,0.0000000000,,,
1.8319999969,14,108642.4375000000,108026.8984375000,167084.5312500000,146786.0781250000,0.0000000000,0.0000000000,0.0000000000,0.0000000000,,,
1.8359999971,14,108681.2734375000,108060.2109375000,167125.7343750000,146784.4218750000,0.0000000000,0.0000000000,0.0000000000,0.0000000000,,,
1.8399999971,14,108686.8515625000,108055.9140625000,167092.3437500000,146763.2343750000,0.0000000000,0.0000000000,0.0000000000,0.0000000000,,,
1.8439999970,14,108709.3828125000,108057.9296875000,167094.8593750000,146714.7343750000,0.0000000000,0.0000000000,0.0000000000,0.0000000000,,,
1.8479999970,14,108698.3828125000,108036.3359375000,167085.8750000000,146677.6718750000,0.0000000000,0.0000000000,0.0000000000,0.0000000000,,,
1.8519999969,14,108690.9843750000,108050.2578125000,167065.6562500000,146694.5156250000,0.0000000000,0.0000000000,0.0000000000,0.0000000000,,,
1.8559999969,14,108661.3750000000,108015.3906250000,167051.0000000000,146685.1562500000,0.0000000000,0.0000000000,0.0000000000,0.0000000000,,,
1.8599999971,14,108679.2890625000,108038.0546875000,167072.5625000000,146678.7343750000,0.0000000000,0.0000000000,0.0000000000,0.0000000000,,,
1.8639999970,14,108718.2109375000,108064.6328125000,167086.4687500000,146676.6406250000,0.0000000000,0.0000000000,0.0000000000,0.0000000000,,,
1.8679999970,14,108740.5000000000,108080.5156250000,167116.9531250000,146693.1406250000,0.0000000000,0.0000000000,0.0000000000,0.0000000000,,,
1.8719999969,14,108735.9921875000,108087.4609375000,167166.3593750000,146723.3750000000,0.0000000000,0.0000000000,0.0000000000,0.0000000000,,,
1.8759999969,14,108796.5546875000,108126.2187500000,167225.5937500000,146785.0312500000,0.0000000000,0.0000000000,0.0000000000,0.0000000000,,,
1.8799999971,14,108827.0000000000,108145.7734375000,167242.4375000000,146825.0000000000,0.0000000000,0.0000000000,0.0000000000,0.0000000000,,,
1.8839999971,14,108863.1250000000,108156.9296875000,167247.5781250000,146850.7968750000,0.0000000000,0.0000000000,0.0000000000,0.0000000000,,,
1.8879999970,14,108866.3984375000,108151.2421875000,167235.4843750000,146907.3750000000,0.0000000000,0.0000000000,0.0000000000,0.0000000000,,,
1.8919999970,14,108859.2343750000,108146.7890625000,167247.6093750000,146887.2500000000,0.0000000000,0.0000000000,0.0000000000,0.0000000000,,,
1.8959999969,14,108905.6406250000,108146.9765625000,167227.5468750000,146891.0156250000,0.0000000000,0.0000000000,0.0000000000,0.0000000000,,,
1.8999999969,14,108873.9062500000,108134.7968750000,167170.6093750000,146913.0781250000,0.0000000000,0.0000000000,0.0000000000,0.0000000000,,,
1.9039999971,14,108890.7812500000,108156.3671875000,167149.7656250000,146931.5156250000,0.0000000000,0.0000000000,0.0000000000,0.0000000000,,,
1.9079999970,14,108939.3828125000,108201.2656250000,167184.1562500000,146941.1718750000,0.0000000000,0.0000000000,0.0000000000,0.0000000000,,,
1.9119999970,14,108889.2265625000,108197.5390625000,167196.8437500000,146933.2812500000,0.0000000000,0.0000000000,0.0000000000,0.0000000000,,,
1.9159999969,14,108829.4921875000,108185.3359375000,167208.2968750000,146918.0468750000,0.0000000000,0.0000000000,0.0000000000,0.0000000000,,,
1.9199999969,15,108795.5859375000,108145.7421875000,167154.9687500000,146863.2500000000,0.0000000000,0.0000000000,0.0000000000,0.0000000000,,,
1.9239999969,15,108796.7421875000,108127.9609375000,167049.0156250000,146873.1718750000,0.0000000000,0.0000000000,0.0000000000,0.0000000000,,,
1.9279999968,15,108795.0000000000,108166.5546875000,166997.9218750000,146899.0625000000,0.0000000000,0.0000000000,0.0000000000,0.0000000000,,,
1.9319999968,15,108746.5312500000,108134.0468750000,166897.0156250000,146879.3437500000,0.0000000000,0.0000000000,0.0000000000,0.0000000000,,,
1.9359999967,15,108696.3750000000,108138.1796875000,166896.2187500000,146844.7187500000,0.0000000000,0.0000000000,0.0000000000,0.0000000000,,,
1.9399999967,15,108704.2031250000,108152.9296875000,166965.5468750000,146819.5625000000,0.0000000000,0.0000000000,0.0000000000,0.0000000000,,,
1.9439999969,15,108687.8984375000,108091.6406250000,166980.9687500000,146794.6406250000,0.0000000000,0.0000000000,0.0000000000,0.0000000000,,,
1.9479999968,15,108695.0078125000,108076.6484375000,166991.8906250000,146824.0312500000,0.0000000000,0.0000000000,0.0000000000,0.0000000000,,,
1.9519999968,15,108662.9843750000,108049.6171875000,166998.4375000000,146826.7500000000,0.0000000000,0.0000000000,0.0000000000,0.0000000000,,,
1.9559999967,15,108643.3750000000,108040.1171875000,166982.8437500000,146762.1250000000,0.0000000000,0.0000000000,0.0000000000,0.0000000000,,,
1.9599999967,15,108695.5937500000,108062.8125000000,166905.6093750000,146754.2500000000,0.0000000000,0.0000000000,0.0000000000,0.0000000000,,,
1.9639999969,15,108781.5078125000,108020.1328125000,166938.5625000000,146776.5625000000,0.0000000000,0.0000000000,0.0000000000,0.0000000000,,,
1.9679999969,15,108692.0312500000,108017.2890625000,167015.5000000000,146808.0156250000,0.0000000000,0.0000000000,0.0000000000,0.0000000000,,,
1.9719999968,15,108650.9375000000,108016.8359375000,166957.9843750000,146796.8906250000,0.0000000000,0.0000000000,0.0000000000,0.0000000000,,,
1.9759999968,15,108630.0156250000,108000.4218750000,166883.0156250000,146778.0312500000,0.0000000000,0.0000000000,0.0000000000,0.0000000000,,,
1.9799999967,15,108605.8203125000,107967.1328125000,166833.9062500000,146729.5937500000,0.0000000000,0.0000000000,0.0000000000,0.0000000000,,,
1.9839999967,15,108574.0937500000,107921.3203125000,166903.8281250000,146660.5468750000,0.0000000000,0.0000000000,0.0000000000,0.0000000000,,,
1.9879999969,15,108565.2421875000,107930.4687500000,167002.6250000000,146695.8593750000,0.0000000000,0.0000000000,0.0000000000,0.0000000000,,,
1.9919999968,15,108480.4296875000,107890.5546875000,166917.1875000000,146696.9843750000,0.0000000000,0.0000000000,0.0000000000,0.0000000000,,,
1.9959999968,15,108430.7031250000,107862.3437500000,166904.5781250000,146672.7656250000,0.0000000000,0.0000000000,0.0000000000,0.0000000000,,,
1.9999999967,15,108422.9765625000,107875.6718750000,166896.3281250000,146650.6562500000,0.0000000000,0.0000000000,0.0000000000,0.0000000000,,,
2.0039999967,15,108424.9375000000,107908.7968750000,166911.2343750000,146637.4843750000,0.0000000000,0.0000000000,0.0000000000,0.0000000000,,,
2.0079999969,15,108436.4687500000,107884.0703125000,166946.6406250000,146647.3593750000,0.0000000000,0.0000000000,0.0000000000,0.0000000000,,,
2.0119999968,15,108449.9062500000,107902.7890625000,166996.0156250000,146676.6718750000,0.0000000000,0.0000000000,0.0000000000,0.0000000000,,,
2.0159999968,15,108455.8906250000,107901.3671875000,167031.4531250000,146700.7031250000,0.0000000000,0.0000000000,0.0000000000,0.0000000000,,,
2.0199999968,15,108482.7656250000,107897.3750000000,167042.7500000000,146681.2812500000,0.0000000000,0.0000000000,0.0000000000,0.0000000000,,,
2.0239999967,15,108531.9531250000,107940.5781250000,167088.5781250000,146674.4218750000,0.0000000000,0.0000000000,0.0000000000,0.0000000000,,,
2.0279999967,15,108507.3593750000,107968.5312500000,167088.6562500000,146686.1718750000,0.0000000000,0.0000000000,0.0000000000,0.0000000000,,,
2.0319999969,15,108427.4296875000,107918.0000000000,167050.9218750000,146693.3281250000,0.0000000000,0.0000000000,0.0000000000,0.0000000000,,,
2.0359999968,15,108474.3125000000,107929.6640625000,167067.3125000000,146710.0937500000,0.0000000000,0.0000000000,0.0000000000,0.0000000000,,,
2.0399999968,15,108522.8906250000,107945.4375000000,167065.3750000000,146735.2031250000,0.0000000000,0.0000000000,0.0000000000,0.0000000000,,,
2.0439999967,15,108501.6171875000,107918.7734375000,167094.9687500000,146734.2031250000,0.0000000000,0.0000000000,0.0000000000,0.0000000000,,,
2.0479999967,16,108497.5937500000,107870.4921875000,167154.4062500000,146713.9843750000,0.0000000000,0.0000000000,0.0000000000,0.0000000000,,,
2.0519999966,16,108469.3281250000,107805.5859375000,167061.3906250000,146706.6562500000,0.0000000000,0.0000000000,0.0000000000,0.0000000000,,,
2.0559999966,16,108402.3203125000,107912.5781250000,166972.6562500000,146719.3750000000,0.0000000000,0.0000000000,0.0000000000,0.0000000000,,,
2.0599999966,16,108381.7500000000,107889.8046875000,166950.7500000000,146737.4062500000,0.0000000000,0.0000000000,0.0000000000,0.0000000000,,,
2.0639999965,16,108402.9375000000,107814.3593750000,166923.0937500000,146672.6250000000,0.0000000000,0.0000000000,0.0000000000,0.0000000000,,,
2.0679999965,16,108391.9453125000,107832.5703125000,166787.7656250000,146599.5625000000,0.0000000000,0.0000000000,0.0000000000,0.0000000000,,,
2.0719999967,16,108330.7656250000,107839.8125000000,166739.0625000000,146642.8750000000,0.0000000000,0.0000000000,0.0000000000,0.0000000000,,,
2.0759999966,16,108255.0703125000,107871.8359375000,166734.0781250000,146683.2500000000,0.0000000000,0.0000000000,0.0000000000,0.0000000000,,,
2.0799999966,16,108233.1562500000,107797.1406250000,166748.2656250000,146699.1718750000,0.0000000000,0.0000000000,0.0000000000,0.0000000000,,,
2.0839999965,16,108251.3671875000,107752.7734375000,166657.4375000000,146714.8750000000,0.0000000000,0.0000000000,0.0000000000,0.0000000000,,,
2.0879999965,16,108317.6484375000,107723.3750000000,166660.9843750000,146649.3437500000,0.0000000000,0.0000000000,0.0000000000,0.0000000000,,,
2.0919999967,16,108428.3984375000,107753.2812500000,166727.3906250000,146693.7343750000,0.0000000000,0.0000000000,0.0000000000,0.0000000000,,,
2.0959999966,16,108462.3515625000,107741.8281250000,166815.1250000000,146801.8281250000,0.0000000000,0.0000000000,0.0000000000,0.0000000000,,,
2.0999999966,16,108473.5390625000,107809.1015625000,166926.3281250000,146802.9218750000,0.0000000000,0.0000000000,0.0000000000,0.0000000000,,,
2.1039999966,16,108477.8281250000,107924.2500000000,167034.9375000000,146830.4218750000,0.0000000000,0.0000000000,0.0000000000,0.0000000000,,,
2.1079999965,16,108491.5859375000,107964.6406250000,167109.2968750000,146851.2031250000,0.0000000000,0.0000000000,0.0000000000,0.0000000000,,,
2.1119999965,16,108499.0468750000,107971.2109375000,167134.3125000000,146846.2656250000,0.0000000000,0.0000000000,0.0000000000,0.0000000000,,,
2.1159999967,16,108495.2343750000,107944.6562500000,167117.1406250000,146832.0781250000,0.0000000000,0.0000000000,0.0000000000,0.0000000000,,,
2.1199999966,16,108553.4140625000,107980.8984375000,167139.9531250000,146810.4375000000,0.0000000000,0.0000000000,0.0000000000,0.0000000000,,,
2.1239999966,16,108630.0937500000,108010.8046875000,167122.8125000000,146808.6875000000,0.0000000000,0.0000000000,0.0000000000,0.0000000000,,,
2.1279999965,16,108648.1484375000,108019.4921875000,167111.6718750000,146827.8125000000,0.0000000000,0.0000000000,0.0000000000,0.0000000000,,,
2.1319999965,16,108598.9531250000,108032.8203125000,167064.9062500000,146806.8750000000,0.0000000000,0.0000000000,0.0000000000,0.0000000000,,,
2.1359999967,16,108604.9609375000,108029.7109375000,167074.3593750000,146782.2500000000,0.0000000000,0.0000000000,0.0000000000,0.0000000000,,,
2.1399999966,16,108610.6484375000,108023.0312500000,167086.9687500000,146763.6875000000,0.0000000000,0.0000000000,0.0000000000,0.0000000000,,,
2.1439999966,16,108630.9843750000,108020.8359375000,167078.0156250000,146754.2656250000,0.0000000000,0.0000000000,0.0000000000,0.0000000000,,,
2.1479999966,16,108641.2265625000,107975.3984375000,167077.8750000000,146760.9687500000,0.0000000000,0.0000000000,0.0000000000,0.0000000000,,,
2.1519999965,16,108617.3593750000,107995.6171875000,167048.2187500000,146696.1718750000,0.0000000000,0.0000000000,0.0000000000,0.0000000000,,,
2.1559999965,16,108533.7500000000,107960.0312500000,166975.4531250000,146673.4218750000,0.0000000000,0.0000000000,0.0000000000,0.0000000000,,,
2.1599999967,16,108610.8359375000,107909.6796875000,166966.9218750000,146825.5156250000,0.0000000000,0.0000000000,0.0000000000,0.0000000000,,,
2.1639999966,16,108689.1875000000,107935.6718750000,166960.7812500000,146903.3750000000,0.0000000000,0.0000000000,0.0000000000,0.0000000000,,,
2.1679999966,16,108701.4453125000,107943.2656250000,166965.8750000000,146933.3906250000,0.0000000000,0.0000000000,0.0000000000,0.0000000000,,,
2.1719999965,16,108692.3281250000,107941.0937500000,166945.5937500000,146894.4375000000,0.0000000000,0.0000000000,0.0000000000,0.0000000000,,,
2.1759999965,17,108712.8203125000,107931.5390625000,166927.6718750000,146854.3125000000,0.0000000000,0.0000000000,0.0000000000,0.0000000000,,,
2.1799999964,17,108702.3828125000,107963.3828125000,166990.6875000000,146842.9218750000,0.0000000000,0.0000000000,0.0000000000,0.0000000000,,,
2.1839999964,17,108715.2812500000,108085.9609375000,167047.8906250000,146890.6093750000,0.0000000000,0.0000000000,0.0000000000,0.0000000000,,,
2.1879999964,17,108703.3750000000,108044.0625000000,166746.2812500000,146912.8437500000,0.0000000000,0.0000000000,0.0000000000,0.0000000000,,,
2.1919999963,17,108535.8671875000,107942.5625000000,166952.5156250000,146858.5468750000,0.0000000000,0.0000000000,0.0000000000,0.0000000000,,,
2.1959999963,17,108384.2187500000,107846.5703125000,167010.6875000000,146824.2187500000,0.0000000000,0.0000000000,0.0000000000,0.0000000000,,,
2.1999999965,17,108313.8125000000,107870.7890625000,167011.8125000000,146843.8906250000,0.0000000000,0.0000000000,0.0000000000,0.0000000000,,,
2.2039999964,17,108285.0859375000,107924.3828125000,167040.7656250000,146831.6718750000,0.0000000000,0.0000000000,0.0000000000,0.0000000000,,,
2.2079999964,17,108252.0937500000,107917.5390625000,166937.1250000000,146798.9531250000,0.0000000000,0.0000000000,0.0000000000,0.0000000000,,,
2.2119999963,17,108134.3437500000,107909.7656250000,166803.3281250000,146759.9843750000,0.0000000000,0.0000000000,0.0000000000,0.0000000000,,,
2.2159999963,17,108247.9062500000,107913.4140625000,166725.0156250000,146656.4843750000,0.0000000000,0.0000000000,0.0000000000,0.0000000000,,,
2.2199999965,17,108312.4140625000,107899.8906250000,166745.3125000000,146646.1250000000,0.0000000000,0.0000000000,0.0000000000,0.0000000000,,,
2.2239999964,17,108313.5937500000,107904.2109375000,166689.7656250000,146496.3437500000,0.0000000000,0.0000000000,0.0000000000,0.0000000000,,,
2.2279999964,17,108275.5859375000,107892.5703125000,166629.8125000000,146487.5468750000,0.0000000000,0.0000000000,0.0000000000,0.0000000000,,,
2.2319999964,17,108351.4453125000,107936.0234375000,166623.7812500000,146601.4062500000,0.0000000000,0.0000000000,0.0000000000,0.0000000000,,,
2.2359999963,17,108413.9140625000,107882.3203125000,166679.3281250000,146614.2343750000,0.0000000000,0.0000000000,0.0000000000,0.0000000000,,,
2.2399999963,17,108499.4218750000,107822.6484375000,166710.8125000000,146584.5156250000,0.0000000000,0.0000000000,0.0000000000,0.0000000000,,,
2.2439999965,17,108566.8203125000,107946.1875000000,166818.0000000000,146621.7187500000,0.0000000000,0.0000000000,0.0000000000,0.0000000000,,,
2.2479999964,17,108644.2343750000,107979.6875000000,166873.2031250000,146637.5937500000,0.0000000000,0.0000000000,0.0000000000,0.0000000000,,,
2.2519999964,17,108613.3359375000,107968.3984375000,166904.6562500000,146620.4843750000,0.0000000000,0.0000000000,0.0000000000,0.0000000000,,,
2.2559999963,17,108571.4140625000,107959.4921875000,166912.0468750000,146566.6562500000,0.0000000000,0.0000000000,0.0000000000,0.0000000000,,,
2.2599999963,17,108571.7578125000,107980.9218750000,166905.7343750000,146601.5781250000,0.0000000000,0.0000000000,0.0000000000,0.0000000000,,,
2.2639999965,17,108544.0234375000,107979.6640625000,166926.6562500000,146674.4218750000,0.0000000000,0.0000000000,0.0000000000,0.0000000000,,,
2.2679999964,17,108494.7265625000,107950.1562500000,167024.4843750000,146701.6250000000,0.0000000000,0.0000000000,0.0000000000,0.0000000000,,,
2.2719999964,17,108479.3046875000,107945.0078125000,167089.0625000000,146709.9375000000,0.0000000000,0.0000000000,0.0000000000,0.0000000000,,,
2.2759999963,17,108547.9140625000,107938.6484375000,167074.2343750000,146675.5156250000,0.0000000000,0.0000000000,0.0000000000,0.0000000000,,,
2.2799999963,17,108577.3359375000,107921.6171875000,167073.8593750000,146650.0937500000,0.0000000000,0.0000000000,0.0000000000,0.0000000000,,,
2.2839999963,17,108625.6718750000,107935.1875000000,167121.5156250000,146643.3281250000,0.0000000000,0.0000000000,0.0000000000,0.0000000000,,,
2.2879999964,17,108613.8125000000,107913.8906250000,167073.7187500000,146643.4687500000,0.0000000000,0.0000000000,0.0000000000,0.0000000000,,,
2.2919999964,17,108594.3203125000,107854.5625000000,167069.0781250000,146637.2187500000,0.0000000000,0.0000000000,0.0000000000,0.0000000000,,,
2.2959999964,17,108592.3593750000,107867.9218750000,167075.6250000000,146659.2343750000,0.0000000000,0.0000000000,0.0000000000,0.0000000000,,,
2.2999999963,17,108588.4687500000,107909.4687500000,167053.8437500000,146644.7812500000,0.0000000000,0.0000000000,0.0000000000,0.0000000000,,,
2.3039999963,18,108592.1406250000,107940.4218750000,167079.1718750000,146651.3750000000,0.0000000000,0.0000000000,0.0000000000,0.0000000000,,,
2.3079999962,18,108588.6562500000,107948.6250000000,167081.4687500000,146634.9375000000,0.0000000000,0.0000000000,0.0000000000,0.0000000000,,,
2.3119999962,18,108590.2109375000,107949.7031250000,167065.9218750000,146638.7500000000,0.0000000000,0.0000000000,0.0000000000,0.0000000000,,,
2.3159999961,18,108602.7890625000,107961.2343750000,167046.4687500000,146653.3593750000,0.0000000000,0.0000000000,0.0000000000,0.0000000000,,,
2.3199999961,18,108617.7578125000,107970.8671875000,167051.7343750000,146661.8437500000,0.0000000000,0.0000000000,0.0000000000,0.0000000000,,,
2.3239999961,18,108632.2187500000,107983.7109375000,167087.4843750000,146685.9843750000,0.0000000000,0.0000000000,0.0000000000,0.0000000000,,,
2.3279999963,18,108653.6718750000,108000.7187500000,167112.8593750000,146715.8906250000,0.0000000000,0.0000000000,0.0000000000,0.0000000000,,,
2.3319999962,18,108652.3046875000,107999.3515625000,167105.7500000000,146722.3281250000,0.0000000000,0.0000000000,0.0000000000,0.0000000000,,,
2.3359999962,18,108652.0390625000,107994.9218750000,167116.3750000000,146708.2968750000,0.0000000000,0.0000000000,0.0000000000,0.0000000000,,,
2.3399999961,18,108664.7812500000,108005.8359375000,167137.5000000000,146711.8437500000,0.0000000000,0.0000000000,0.0000000000,0.0000000000,,,
2.3439999961,18,108644.9296875000,107985.0546875000,167108.9062500000,146706.4531250000,0.0000000000,0.0000000000,0.0000000000,0.0000000000,,,
2.3479999963,18,108652.1718750000,107983.0937500000,167096.8125000000,146696.7968750000,0.0000000000,0.0000000000,0.0000000000,0.0000000000,,,
2.3519999962,18,108670.6796875000,108000.0468750000,167102.6093750000,146720.1250000000,0.0000000000,0.0000000000,0.0000000000,0.0000000000,,,
2.3559999962,18,108674.8359375000,108008.5234375000,167095.6406250000,146735.5781250000,0.0000000000,0.0000000000,0.0000000000,0.0000000000,,,
2.3599999961,18,108674.0078125000,108013.0781250000,167096.2031250000,146736.2656250000,0.0000000000,0.0000000000,0.0000000000,0.0000000000,,,
2.3639999961,18,108695.8125000000,108022.7656250000,167108.8593750000,146735.3281250000,0.0000000000,0.0000000000,0.0000000000,0.0000000000,,,
2.3679999961,18,108712.8671875000,108027.8593750000,167110.3281250000,146733.5156250000,0.0000000000,0.0000000000,0.0000000000,0.0000000000,,,
2.3719999962,18,108744.5703125000,108058.9218750000,167133.7812500000,146740.4843750000,0.0000000000,0.0000000000,0.0000000000,0.0000000000,,,
2.3759999962,18,108753.2109375000,108082.1484375000,167152.4218750000,146763.5000000000,0.0000000000,0.0000000000,0.0000000000,0.0000000000,,,
2.3799999962,18,108766.1093750000,108095.7500000000,167162.0156250000,146775.4375000000,0.0000000000,0.0000000000,0.0000000000,0.0000000000,,,
2.3839999961,18,108734.1406250000,108062.5703125000,167122.7031250000,146762.5000000000,0.0000000000,0.0000000000,0.0000000000,0.0000000000,,,
2.3879999961,18,108718.1562500000,108056.0234375000,167115.6250000000,146774.3281250000,0.0000000000,0.0000000000,0.0000000000,0.0000000000,,,
2.3919999963,18,108715.2265625000,108041.0546875000,167110.3125000000,146795.8750000000,0.0000000000,0.0000000000,0.0000000000,0.0000000000,,,
2.3959999962,18,108731.1640625000,108034.0546875000,167107.6250000000,146776.1875000000,0.0000000000,0.0000000000,0.0000000000,0.0000000000,,,
2.3999999962,18,108724.0781250000,108054.7656250000,167126.3750000000,146763.8750000000,0.0000000000,0.0000000000,0.0000000000,0.0000000000,,,
2.4039999961,18,108743.3437500000,108064.0156250000,167143.0625000000,146769.0000000000,0.0000000000,0.0000000000,0.0000000000,0.0000000000,,,
2.4079999961,18,108750.1250000000,108061.0625000000,167137.4062500000,146763.8750000000,0.0000000000,0.0000000000,0.0000000000,0.0000000000,,,
2.4119999961,18,108717.3203125000,108026.9453125000,167098.4531250000,146743.3593750000,0.0000000000,0.0000000000,0.0000000000,0.0000000000,,,
2.4159999962,18,108717.7265625000,108036.7421875000,167098.0468750000,146766.0937500000,0.0000000000,0.0000000000,0.0000000000,0.0000000000,,,
2.4199999962,18,108729.8750000000,108057.1484375000,167114.0625000000,146786.4843750000,0.0000000000,0.0000000000,0.0000000000,0.0000000000,,,
2.4239999962,18,108724.0312500000,108056.5078125000,167125.4062500000,146787.9531250000,0.0000000000,0.0000000000,0.0000000000,0.0000000000,,,
2.4279999961,18,108670.9453125000,108000.7421875000,167086.7343750000,146748.9062500000,0.0000000000,0.0000000000,0.0000000000,0.0000000000,,,
2.4319999961,19,108628.8906250000,107970.3515625000,167043.5156250000,146733.7812500000,0.0000000000,0.0000000000,0.0000000000,0.0000000000,,,
2.4359999960,19,108614.0546875000,107962.7890625000,167035.7500000000,146730.9687500000,0.0000000000,0.0000000000,0.0000000000,0.0000000000,,,
2.4399999960,19,108625.9375000000,107970.2968750000,167045.8281250000,146714.3281250000,0.0000000000,0.0000000000,0.0000000000,0.0000000000,,,
2.4439999959,19,108614.6718750000,107968.2343750000,167051.5937500000,146690.3750000000,0.0000000000,0.0000000000,0.0000000000,0.0000000000,,,
2.4479999959,19,108582.4375000000,107946.6718750000,167033.8593750000,146693.3281250000,0.0000000000,0.0000000000,0.0000000000,0.0000000000,,,
2.4519999959,19,108583.1562500000,107954.4765625000,167061.2500000000,146720.0937500000,0.0000000000,0.0000000000,0.0000000000,0.0000000000,,,
2.4559999960,19,108592.8437500000,107961.1015625000,167053.7343750000,146736.8125000000,0.0000000000,0.0000000000,0.0000000000,0.0000000000,,,
2.4599999960,19,108582.8125000000,107964.0781250000,167049.1562500000,146746.0625000000,0.0000000000,0.0000000000,0.0000000000,0.0000000000,,,
2.4639999960,19,108620.0937500000,108013.5390625000,167092.0625000000,146767.3125000000,0.0000000000,0.0000000000,0.0000000000,0.0000000000,,,
2.4679999959,19,108640.4531250000,108020.9375000000,167103.0937500000,146782.9375000000,0.0000000000,0.0000000000,0.0000000000,0.0000000000,,,
2.4719999959,19,108624.2734375000,107998.8671875000,167073.6093750000,146787.6093750000,0.0000000000,0.0000000000,0.0000000000,0.0000000000,,,
2.4759999961,19,108622.2343750000,108008.2265625000,167066.7500000000,146792.0312500000,0.0000000000,0.0000000000,0.0000000000,0.0000000000,,,
2.4799999960,19,108646.3515625000,108027.4062500000,167084.5625000000,146801.2343750000,0.0000000000,0.0000000000,0.0000000000,0.0000000000,,,
2.4839999960,19,108668.8046875000,108054.7656250000,167112.4062500000,146816.2500000000,0.0000000000,0.0000000000,0.0000000000,0.0000000000,,,
2.4879999959,19,108647.4218750000,108031.7265625000,167085.4375000000,146790.0312500000,0.0000000000,0.0000000000,0.0000000000,0.0000000000,,,
2.4919999959,19,108623.1796875000,107987.8125000000,167044.7500000000,146769.9375000000,0.0000000000,0.0000000000,0.0000000000,0.0000000000,,,
2.4959999959,19,108639.3750000000,107998.7343750000,167052.3750000000,146770.7656250000,0.0000000000,0.0000000000,0.0000000000,0.0000000000,,,
2.4999999960,19,108654.9609375000,108014.8750000000,167065.2500000000,146777.4687500000,0.0000000000,0.0000000000,0.0000000000,0.0000000000,,,
2.5039999960,19,108678.0000000000,108038.3515625000,167088.6562500000,146804.5625000000,0.0000000000,0.0000000000,0.0000000000,0.0000000000,,,
2.5079999960,19,108695.8125000000,108062.2968750000,167080.6406250000,146816.4687500000,0.0000000000,0.0000000000,0.0000000000,0.0000000000,,,
2.5119999959,19,108706.5703125000,108099.1015625000,167053.7656250000,146817.2500000000,0.0000000000,0.0000000000,0.0000000000,0.0000000000,,,
2.5159999959,19,108707.2656250000,108074.3437500000,167079.7031250000,146808.5781250000,0.0000000000,0.0000000000,0.0000000000,0.0000000000,,,
2.5199999961,19,108682.7500000000,108054.0390625000,167080.5156250000,146791.7343750000,0.0000000000,0.0000000000,0.0000000000,0.0000000000,,,
2.5239999960,19,108698.0390625000,108049.2109375000,167095.4531250000,146795.7968750000,0.0000000000,0.0000000000,0.0000000000,0.0000000000,,,
2.5279999960,19,108693.6640625000,108043.0390625000,167089.3281250000,146796.2812500000,0.0000000000,0.0000000000,0.0000000000,0.0000000000,,,
2.5319999959,19,108663.4609375000,108013.5390625000,167056.6093750000,146789.2187500000,0.0000000000,0.0000000000,0.0000000000,0.0000000000,,,
2.5359999959,19,108668.4296875000,108021.1796875000,167057.3125000000,146813.6875000000,0.0000000000,0.0000000000,0.0000000000,0.0000000000,,,
2.5399999958,19,108696.0781250000,108042.6640625000,167079.4843750000,146847.7187500000,0.0000000000,0.0000000000,0.0000000000,0.0000000000,,,
2.5439999960,19,108704.4765625000,108060.5312500000,167094.8906250000,146845.5937500000,0.0000000000,0.0000000000,0.0000000000,0.0000000000,,,
2.5479999960,19,108703.3984375000,108060.5546875000,167086.4843750000,146838.1718750000,0.0000000000,0.0000000000,0.0000000000,0.0000000000,,,
2.5519999960,19,108668.8515625000,108044.3281250000,167061.5781250000,146831.1406250000,0.0000000000,0.0000000000,0.0000000000,0.0000000000,,,
2.5559999959,19,108629.9609375000,108017.1562500000,167027.8281250000,146807.5156250000,0.0000000000,0.0000000000,0.0000000000,0.0000000000,,,
2.5599999959,20,108616.3125000000,108012.1718750000,167022.2187500000,146793.0000000000,0.0000000000,0.0000000000,0.0000000000,0.0000000000,,,
2.5639999958,20,108617.1171875000,108021.9843750000,167029.1250000000,146775.1406250000,0.0000000000,0.0000000000,0.0000000000,0.0000000000,,,
2.5679999958,20,108637.8203125000,108032.0468750000,167042.5625000000,146781.4687500000,0.0000000000,0.0000000000,0.0000000000,0.0000000000,,,
2.5719999957,20,108610.0078125000,107999.6406250000,167009.1406250000,146769.7500000000,0.0000000000,0.0000000000,0.0000000000,0.0000000000,,,
2.5759999957,20,108577.2578125000,107959.7031250000,166970.0781250000,146747.8593750000,0.0000000000,0.0000000000,0.0000000000,0.0000000000,,,
2.5799999957,20,108563.3125000000,107962.9765625000,166972.1250000000,146746.2031250000,0.0000000000,0.0000000000,0.0000000000,0.0000000000,,,
2.5839999958,20,108586.1875000000,107990.1250000000,166999.4062500000,146753.2187500000,0.0000000000,0.0000000000,0.0000000000,0.0000000000,,,
2.5879999958,20,108607.8359375000,108008.6015625000,167024.2031250000,146762.9843750000,0.0000000000,0.0000000000,0.0000000000,0.0000000000,,,
2.5919999958,20,108579.4843750000,107986.7187500000,167006.0312500000,146750.7343750000,0.0000000000,0.0000000000,0.0000000000,0.0000000000,,,
2.5959999957,20,108593.4609375000,108007.4218750000,167021.0781250000,146756.6562500000,0.0000000000,0.0000000000,0.0000000000,0.0000000000,,,
2.5999999957,20,108605.4765625000,108023.1640625000,167037.5156250000,146761.3750000000,0.0000000000,0.0000000000,0.0000000000,0.0000000000,,,
2.6039999959,20,108617.1953125000,108040.6562500000,167050.0625000000,146784.2500000000,0.0000000000,0.0000000000,0.0000000000,0.0000000000,,,
2.6079999958,20,108577.9296875000,107992.3515625000,167021.7187500000,146743.8906250000,0.0000000000,0.0000000000,0.0000000000,0.0000000000,,,
2.6119999958,20,108556.5234375000,107966.4687500000,167027.9062500000,146723.1250000000,0.0000000000,0.0000000000,0.0000000000,0.0000000000,,,
2.6159999957,20,108562.7187500000,107975.6640625000,167013.6875000000,146727.8750000000,0.0000000000,0.0000000000,0.0000000000,0.0000000000,,,
2.6199999957,20,108592.3046875000,108003.7187500000,167030.4062500000,146741.4531250000,0.0000000000,0.0000000000,0.0000000000,0.0000000000,,,
2.6239999956,20,108607.1640625000,108007.9062500000,167038.6718750000,146736.7031250000,0.0000000000,0.0000000000,0.0000000000,0.0000000000,,,
2.6279999958,20,108591.6875000000,107988.1640625000,167015.8750000000,146716.5625000000,0.0000000000,0.0000000000,0.0000000000,0.0000000000,,,
2.6319999958,20,108590.6406250000,107987.0078125000,167006.2343750000,146715.4843750000,0.0000000000,0.0000000000,0.0000000000,0.0000000000,,,
2.6359999957,20,108627.1171875000,107985.4296875000,167073.6406250000,146758.5312500000,0.0000000000,0.0000000000,0.0000000000,0.0000000000,,,
2.6399999957,20,108667.0078125000,108030.2187500000,167116.7500000000,146778.2187500000,0.0000000000,0.0000000000,0.0000000000,0.0000000000,,,
2.6439999957,20,108639.9921875000,108019.2265625000,167052.1562500000,146729.4531250000,0.0000000000,0.0000000000,0.0000000000,0.0000000000,,,
2.6479999959,20,108587.6406250000,107966.5468750000,166975.9531250000,146689.0625000000,0.0000000000,0.0000000000,0.0000000000,0.0000000000,,,
2.6519999958,20,108571.6015625000,107951.6875000000,166962.0625000000,146677.7187500000,0.0000000000,0.0000000000,0.0000000000,0.0000000000,,,
2.6559999958,20,108578.8671875000,107976.4687500000,166985.7968750000,146696.1406250000,0.0000000000,0.0000000000,0.0000000000,0.0000000000,,,
2.6599999957,20,108600.9453125000,108001.0078125000,167012.4843750000,146738.8750000000,0.0000000000,0.0000000000,0.0000000000,0.0000000000,,,
2.6639999957,20,108614.3515625000,107998.1953125000,167017.6875000000,146728.8125000000,0.0000000000,0.0000000000,0.0000000000,0.0000000000,,,
2.6679999956,20,108613.5234375000,108000.0156250000,167016.7187500000,146710.6562500000,0.0000000000,0.0000000000,0.0000000000,0.0000000000,,,
2.6719999958,20,108597.7265625000,107992.6171875000,167008.8125000000,146712.1093750000,0.0000000000,0.0000000000,0.0000000000,0.0000000000,,,
2.6759999958,20,108594.5859375000,107993.3671875000,167014.0156250000,146712.2343750000,0.0000000000,0.0000000000,0.0000000000,0.0000000000,,,
2.6799999957,20,108579.2187500000,107984.9218750000,166992.7812500000,146696.7656250000,0.0000000000,0.0000000000,0.0000000000,0.0000000000,,,
2.6839999957,20,108608.3437500000,108006.0312500000,167021.4687500000,146696.3281250000,0.0000000000,0.0000000000,0.0000000000,0.0000000000,,,
2.6879999957,21,108566.4765625000,107964.7187500000,166985.7968750000,146667.0781250000,0.0000000000,0.0000000000,0.0000000000,0.0000000000,,,
2.6919999956,21,108534.9062500000,107951.6562500000,166972.8125000000,146674.5000000000,0.0000000000,0.0000000000,0.0000000000,0.0000000000,,,
2.6959999956,21,108562.4531250000,107977.0312500000,166989.5625000000,146695.4687500000,0.0000000000,0.0000000000,0.0000000000,0.0000000000,,,
2.6999999955,21,108577.2343750000,107986.8203125000,166998.4531250000,146697.3281250000,0.0000000000,0.0000000000,0.0000000000,0.0000000000,,,
2.7039999955,21,108588.6015625000,107993.8750000000,167014.2656250000,146699.5781250000,0.0000000000,0.0000000000,0.0000000000,0.0000000000,,,
2.7079999954,21,108612.8515625000,108008.1484375000,167037.5937500000,146713.3906250000,0.0000000000,0.0000000000,0.0000000000,0.0000000000,,,
2.7119999956,21,108607.2421875000,107997.2265625000,167027.8281250000,146699.1250000000,0.0000000000,0.0000000000,0.0000000000,0.0000000000,,,
2.7159999956,21,108573.1562500000,107958.5546875000,166990.4062500000,146681.4687500000,0.0000000000,0.0000000000,0.0000000000,0.0000000000,,,
2.7199999955,21,108603.2734375000,107981.4296875000,167015.5156250000,146709.6093750000,0.0000000000,0.0000000000,0.0000000000,0.0000000000,,,
2.7239999955,21,108619.4765625000,107987.0390625000,167025.8437500000,146712.5937500000,0.0000000000,0.0000000000,0.0000000000,0.0000000000,,,
2.7279999955,21,108625.1640625000,107982.9609375000,167025.8437500000,146703.6875000000,0.0000000000,0.0000000000,0.0000000000,0.0000000000,,,
2.7319999957,21,108623.8437500000,107979.6875000000,167027.4062500000,146701.0625000000,0.0000000000,0.0000000000,0.0000000000,0.0000000000,,,
2.7359999956,21,108611.5078125000,107971.4296875000,167021.3906250000,146698.1875000000,0.0000000000,0.0000000000,0.0000000000,0.0000000000,,,
2.7399999956,21,108631.0390625000,107996.8515625000,167043.1718750000,146723.1875000000,0.0000000000,0.0000000000,0.0000000000,0.0000000000,,,
2.7439999955,21,108667.2421875000,108031.6953125000,167081.9531250000,146747.4531250000,0.0000000000,0.0000000000,0.0000000000,0.0000000000,,,
2.7479999955,21,108658.1015625000,108016.5390625000,167066.4062500000,146743.2968750000,0.0000000000,0.0000000000,0.0000000000,0.0000000000,,,
2.7519999954,21,108659.6015625000,108015.8437500000,167054.9687500000,146745.0156250000,0.0000000000,0.0000000000,0.0000000000,0.0000000000,,,
2.7559999956,21,108686.8281250000,108040.7656250000,167072.5468750000,146763.5468750000,0.0000000000,0.0000000000,0.0000000000,0.0000000000,,,
2.7599999956,21,108694.8984375000,108046.3671875000,167078.3593750000,146752.6093750000,0.0000000000,0.0000000000,0.0000000000,0.0000000000,,,
2.7639999955,21,108687.0156250000,108047.0078125000,167081.7500000000,146734.5781250000,0.0000000000,0.0000000000,0.0000000000,0.0000000000,,,
2.7679999955,21,108675.2890625000,108041.4609375000,167078.2343750000,146733.1406250000,0.0000000000,0.0000000000,0.0000000000,0.0000000000,,,
2.7719999955,21,108646.0546875000,108011.0468750000,167052.3750000000,146718.2968750000,0.0000000000,0.0000000000,0.0000000000,0.0000000000,,,
2.7759999956,21,108629.4531250000,108000.9609375000,167044.4531250000,146712.5156250000,0.0000000000,0.0000000000,0.0000000000,0.0000000000,,,
2.7799999956,21,108630.6640625000,107998.6015625000,167039.9218750000,146705.2343750000,0.0000000000,0.0000000000,0.0000000000,0.0000000000,,,
2.7839999956,21,108629.8593750000,107986.6328125000,167033.0937500000,146685.0468750000,0.0000000000,0.0000000000,0.0000000000,0.0000000000,,,
2.7879999955,21,108606.7890625000,107950.8515625000,167005.0312500000,146659.2968750000,0.0000000000,0.0000000000,0.0000000000,0.0000000000,,,
2.7919999955,21,108591.7109375000,107947.9843750000,166993.2343750000,146666.6093750000,0.0000000000,0.0000000000,0.0000000000,0.0000000000,,,
2.7959999954,21,108596.1640625000,107966.4921875000,167006.2656250000,146683.4843750000,0.0000000000,0.0000000000,0.0000000000,0.0000000000,,,
2.7999999956,21,108596.6796875000,107974.0312500000,167017.7187500000,146694.5156250000,0.0000000000,0.0000000000,0.0000000000,0.0000000000,,,
2.8039999956,21,108599.5234375000,107964.0546875000,167009.3437500000,146676.8281250000,0.0000000000,0.0000000000,0.0000000000,0.0000000000,,,
2.8079999955,21,108605.6875000000,107963.9140625000,167012.8437500000,146664.3125000000,0.0000000000,0.0000000000,0.0000000000,0.0000000000,,,
2.8119999955,21,108587.3984375000,107952.7890625000,166993.6562500000,146654.5937500000,0.0000000000,0.0000000000,0.0000000000,0.0000000000,,,
2.8159999955,22,108571.0078125000,107941.8671875000,166974.0000000000,146646.3906250000,0.0000000000,0.0000000000,0.0000000000,0.0000000000,,,
2.8199999954,22,108580.3125000000,107953.6406250000,166980.7031250000,146650.7343750000,0.0000000000,0.0000000000,0.0000000000,0.0000000000,,,
2.8239999954,22,108623.3906250000,107976.1171875000,167009.8125000000,146665.6562500000,0.0000000000,0.0000000000,0.0000000000,0.0000000000,,,
2.8279999953,22,108650.8828125000,107995.5156250000,167031.3750000000,146672.6718750000,0.0000000000,0.0000000000,0.0000000000,0.0000000000,,,
2.8319999953,22,108610.4375000000,107959.6015625000,166990.5937500000,146652.4531250000,0.0000000000,0.0000000000,0.0000000000,0.0000000000,,,
2.8359999952,22,108589.2968750000,107936.8828125000,166974.6718750000,146652.3125000000,0.0000000000,0.0000000000,0.0000000000,0.0000000000,,,
2.8399999954,22,108598.8750000000,107951.2265625000,166990.7656250000,146655.1406250000,0.0000000000,0.0000000000,0.0000000000,0.0000000000,,,
2.8439999954,22,108642.6250000000,107983.9531250000,167028.3593750000,146672.2500000000,0.0000000000,0.0000000000,0.0000000000,0.0000000000,,,
2.8479999953,22,108670.9453125000,108002.0546875000,167040.7343750000,146677.1250000000,0.0000000000,0.0000000000,0.0000000000,0.0000000000,,,
2.8519999953,22,108664.5937500000,108006.0312500000,167042.0468750000,146686.8125000000,0.0000000000,0.0000000000,0.0000000000,0.0000000000,,,
2.8559999953,22,108665.1015625000,108022.5000000000,167053.8437500000,146695.5000000000,0.0000000000,0.0000000000,0.0000000000,0.0000000000,,,
2.8599999954,22,108684.1406250000,108041.1093750000,167076.9375000000,146706.2343750000,0.0000000000,0.0000000000,0.0000000000,0.0000000000,,,
2.8639999954,22,108680.4140625000,108027.1093750000,167068.5468750000,146685.9062500000,0.0000000000,0.0000000000,0.0000000000,0.0000000000,,,
2.8679999954,22,108688.0625000000,108035.2343750000,167046.9531250000,146682.7031250000,0.0000000000,0.0000000000,0.0000000000,0.0000000000,,,
2.8719999953,22,108679.3437500000,108042.4531250000,167055.7031250000,146704.0000000000,0.0000000000,0.0000000000,0.0000000000,0.0000000000,,,
2.8759999953,22,108638.2265625000,108002.5703125000,167039.1718750000,146684.5625000000,0.0000000000,0.0000000000,0.0000000000,0.0000000000,,,
2.8799999952,22,108636.5312500000,108002.2734375000,167039.3125000000,146676.4843750000,0.0000000000,0.0000000000,0.0000000000,0.0000000000,,,
2.8839999954,22,108650.5078125000,108022.0390625000,167068.0156250000,146665.5156250000,0.0000000000,0.0000000000,0.0000000000,0.0000000000,,,
2.8879999954,22,108671.2421875000,108029.5234375000,167083.8593750000,146661.6250000000,0.0000000000,0.0000000000,0.0000000000,0.0000000000,,,
2.8919999953,22,108649.2187500000,108011.5234375000,167062.5156250000,146659.2656250000,0.0000000000,0.0000000000,0.0000000000,0.0000000000,,,
2.8959999953,22,108600.7812500000,107969.3593750000,167026.6562500000,146616.3750000000,0.0000000000,0.0000000000,0.0000000000,0.0000000000,,,
2.8999999953,22,108597.5859375000,107969.7890625000,166997.6875000000,146621.0468750000,0.0000000000,0.0000000000,0.0000000000,0.0000000000,,,
2.9039999954,22,108618.3203125000,107980.3281250000,166992.2968750000,146631.0781250000,0.0000000000,0.0000000000,0.0000000000,0.0000000000,,,
2.9079999954,22,108604.5390625000,107980.0390625000,167017.0156250000,146632.4218750000,0.0000000000,0.0000000000,0.0000000000,0.0000000000,,,
2.9119999954,22,108591.6328125000,107973.9765625000,167011.5468750000,146641.5937500000,0.0000000000,0.0000000000,0.0000000000,0.0000000000,,,
2.9159999953,22,108583.9921875000,107972.0937500000,167004.7968750000,146660.7968750000,0.0000000000,0.0000000000,0.0000000000,0.0000000000,,,
2.9199999953,22,108563.2812500000,107990.0937500000,167038.8281250000,146686.3593750000,0.0000000000,0.0000000000,0.0000000000,0.0000000000,,,
2.9239999952,22,108553.2500000000,108012.5156250000,167059.0000000000,146700.8437500000,0.0000000000,0.0000000000,0.0000000000,0.0000000000,,,
2.9279999954,22,108620.0390625000,108038.8828125000,167092.9531250000,146729.1718750000,0.0000000000,0.0000000000,0.0000000000,0.0000000000,,,
2.9319999954,22,108631.6015625000,108035.3984375000,167093.7656250000,146742.8437500000,0.0000000000,0.0000000000,0.0000000000,0.0000000000,,,
2.9359999953,22,108629.8593750000,108032.6093750000,167083.1718750000,146743.5625000000,0.0000000000,0.0000000000,0.0000000000,0.0000000000,,,
2.9399999953,22,108632.5625000000,108032.3906250000,167083.7500000000,146735.2500000000,0.0000000000,0.0000000000,0.0000000000,0.0000000000,,,
2.9439999952,23,108664.4296875000,108050.5000000000,167106.6875000000,146740.1562500000,0.0000000000,0.0000000000,0.0000000000,0.0000000000,,,
2.9479999952,23,108658.5546875000,108047.1171875000,167100.4375000000,146742.4218750000,0.0000000000,0.0000000000,0.0000000000,0.0000000000,,,
2.9519999952,23,108675.8828125000,108077.6953125000,167130.5312500000,146772.0000000000,0.0000000000,0.0000000000,0.0000000000,0.0000000000,,,
2.9559999951,23,108667.5390625000,108075.0390625000,167124.4218750000,146768.7812500000,0.0000000000,0.0000000000,0.0000000000,0.0000000000,,,
2.9599999951,23,108684.8437500000,108088.0468750000,167134.1250000000,146770.6875000000,0.0000000000,0.0000000000,0.0000000000,0.0000000000,,,
2.9639999950,23,108684.8437500000,108089.3125000000,167145.3125000000,146773.6562500000,0.0000000000,0.0000000000,0.0000000000,0.0000000000,,,
2.9679999952,23,108629.4531250000,108043.5234375000,167104.3750000000,146739.0937500000,0.0000000000,0.0000000000,0.0000000000,0.0000000000,,,
2.9719999952,23,108646.0312500000,108045.3203125000,167089.8437500000,146738.0625000000,0.0000000000,0.0000000000,0.0000000000,0.0000000000,,,
2.9759999951,23,108634.6875000000,108027.2187500000,167076.2656250000,146724.6875000000,0.0000000000,0.0000000000,0.0000000000,0.0000000000,,,
2.9799999951,23,108653.8359375000,108030.5703125000,167091.7187500000,146730.6875000000,0.0000000000,0.0000000000,0.0000000000,0.0000000000,,,
2.9839999950,23,108689.3203125000,108052.5078125000,167100.7812500000,146765.4843750000,0.0000000000,0.0000000000,0.0000000000,0.0000000000,,,
2.9879999952,23,108712.4375000000,108072.1718750000,167115.0000000000,146792.3906250000,0.0000000000,0.0000000000,0.0000000000,0.0000000000,,,
2.9919999952,23,108717.6171875000,108059.5390625000,167106.9531250000,146789.9375000000,0.0000000000,0.0000000000,0.0000000000,0.0000000000,,,
2.9959999952,23,108679.6093750000,108022.4453125000,167059.8281250000,146765.8593750000,0.0000000000,0.0000000000,0.0000000000,0.0000000000,,,
2.9999999951,23,108640.1562500000,107996.7734375000,167033.2187500000,146764.2812500000,0.0000000000,0.0000000000,0.0000000000,0.0000000000,,,
3.0039999951,23,108659.3906250000,108006.8828125000,167045.5937500000,146801.0000000000,0.0000000000,0.0000000000,0.0000000000,0.0000000000,,,
3.0079999950,23,108680.0156250000,108008.6328125000,167053.3125000000,146778.2031250000,0.0000000000,0.0000000000,0.0000000000,0.0000000000,,,
3.0119999952,23,108679.0781250000,108013.1875000000,167060.3437500000,146776.9062500000,0.0000000000,0.0000000000,0.0000000000,0.0000000000,,,
3.0159999952,23,108691.6796875000,108027.8593750000,167079.2812500000,146784.1562500000,0.0000000000,0.0000000000,0.0000000000,0.0000000000,,,
3.0199999951,23,108695.7031250000,108018.8515625000,167077.6875000000,146773.0937500000,0.0000000000,0.0000000000,0.0000000000,0.0000000000,,,
3.0239999951,23,108723.5156250000,108051.7031250000,167113.0156250000,146780.4531250000,0.0000000000,0.0000000000,0.0000000000,0.0000000000,,,
3.0279999950,23,108714.6171875000,108038.5390625000,167099.5781250000,146754.0000000000,0.0000000000,0.0000000000,0.0000000000,0.0000000000,,,
3.0319999952,23,108695.9687500000,108022.2031250000,167078.7343750000,146770.4375000000,0.0000000000,0.0000000000,0.0000000000,0.0000000000,,,
3.0359999952,23,108675.8828125000,108011.4453125000,167063.3125000000,146764.9531250000,0.0000000000,0.0000000000,0.0000000000,0.0000000000,,,
3.0399999951,23,108659.0937500000,108004.0703125000,167057.3281250000,146757.5937500000,0.0000000000,0.0000000000,0.0000000000,0.0000000000,,,
3.0439999951,23,108716.3828125000,108061.3359375000,167115.7812500000,146804.7968750000,0.0000000000,0.0000000000,0.0000000000,0.0000000000,,,
3.0479999951,23,108736.0703125000,108069.6796875000,167128.7812500000,146820.5000000000,0.0000000000,0.0000000000,0.0000000000,0.0000000000,,,
3.0519999950,23,108695.6796875000,108024.3984375000,167082.8437500000,146784.5312500000,0.0000000000,0.0000000000,0.0000000000,0.0000000000,,,
3.0559999952,23,108640.4218750000,107991.5937500000,167036.7656250000,146741.3437500000,0.0000000000,0.0000000000,0.0000000000,0.0000000000,,,
3.0599999952,23,108651.1562500000,108004.1484375000,167040.5781250000,146746.1718750000,0.0000000000,0.0000000000,0.0000000000,0.0000000000,,,
3.0639999951,23,108684.3593750000,108030.1640625000,167076.2656250000,146758.6406250000,0.0000000000,0.0000000000,0.0000000000,0.0000000000,,,
3.0679999951,23,108675.0234375000,108028.2890625000,167073.5625000000,146755.7656250000,0.0000000000,0.0000000000,0.0000000000,0.0000000000,,,
3.0719999950,24,108676.8984375000,108035.1015625000,167072.3281250000,146757.5468750000,0.0000000000,0.0000000000,0.0000000000,0.0000000000,,,
3.0759999950,24,108649.2734375000,108011.7421875000,167042.2031250000,146735.0625000000,0.0000000000,0.0000000000,0.0000000000,0.0000000000,,,
3.0799999950,24,108622.9375000000,107992.5625000000,167032.8125000000,146728.1250000000,0.0000000000,0.0000000000,0.0000000000,0.0000000000,,,
3.0839999949,24,108628.8125000000,108003.2656250000,167038.7187500000,146728.9218750000,0.0000000000,0.0000000000,0.0000000000,0.0000000000,,,
3.0879999949,24,108628.8359375000,107999.0546875000,167027.4531250000,146717.6250000000,0.0000000000,0.0000000000,0.0000000000,0.0000000000,,,
3.0919999948,24,108620.7343750000,107986.5546875000,167012.9687500000,146723.3906250000,0.0000000000,0.0000000000,0.0000000000,0.0000000000,,,
3.0959999950,24,108653.0859375000,108020.9687500000,167041.2968750000,146746.6562500000,0.0000000000,0.0000000000,0.0000000000,0.0000000000,,,
3.0999999950,24,108672.7734375000,108030.0312500000,167051.5468750000,146748.6093750000,0.0000000000,0.0000000000,0.0000000000,0.0000000000,,,
3.1039999949,24,108682.2890625000,108039.1015625000,167057.9531250000,146740.0781250000,0.0000000000,0.0000000000,0.0000000000,0.0000000000,,,
3.1079999949,24,108620.7890625000,107992.6171875000,166990.5781250000,146707.5468750000,0.0000000000,0.0000000000,0.0000000000,0.0000000000,,,
3.1119999948,24,108597.6953125000,107969.7656250000,166965.6093750000,146685.3125000000,0.0000000000,0.0000000000,0.0000000000,0.0000000000,,,
3.1159999950,24,108613.2265625000,107981.9921875000,166985.1875000000,146698.4062500000,0.0000000000,0.0000000000,0.0000000000,0.0000000000,,,
3.1199999950,24,108633.8515625000,108001.6562500000,167011.0937500000,146713.4531250000,0.0000000000,0.0000000000,0.0000000000,0.0000000000,,,
3.1239999949,24,108632.5625000000,107999.1093750000,166999.1562500000,146715.9218750000,0.0000000000,0.0000000000,0.0000000000,0.0000000000,,,
3.1279999949,24,108638.9218750000,107998.9765625000,166997.3593750000,146723.7812500000,0.0000000000,0.0000000000,0.0000000000,0.0000000000,,,
3.1319999949,24,108641.2265625000,108000.6875000000,167014.6562500000,146753.0156250000,0.0000000000,0.0000000000,0.0000000000,0.0000000000,,,
3.1359999948,24,108629.9375000000,107998.0312500000,167035.5625000000,146763.4218750000,0.0000000000,0.0000000000,0.0000000000,0.0000000000,,,
3.1399999950,24,108650.8593750000,108008.3593750000,167031.5312500000,146744.7968750000,0.0000000000,0.0000000000,0.0000000000,0.0000000000,,,
3.1439999950,24,108656.6796875000,108013.7500000000,167045.4218750000,146731.1562500000,0.0000000000,0.0000000000,0.0000000000,0.0000000000,,,
3.1479999949,24,108667.2734375000,108034.9140625000,167064.2812500000,146747.3750000000,0.0000000000,0.0000000000,0.0000000000,0.0000000000,,,
3.1519999949,24,108650.1328125000,108023.4375000000,167055.5312500000,146759.0468750000,0.0000000000,0.0000000000,0.0000000000,0.0000000000,,,
3.1559999948,24,108663.3046875000,108041.2968750000,167073.0781250000,146803.2812500000,0.0000000000,0.0000000000,0.0000000000,0.0000000000,,,
3.1599999950,24,108659.6015625000,108041.4062500000,167067.6406250000,146783.7500000000,0.0000000000,0.0000000000,0.0000000000,0.0000000000,,,
3.1639999950,24,108637.1484375000,108011.3359375000,167045.9687500000,146737.0000000000,0.0000000000,0.0000000000,0.0000000000,0.0000000000,,,
3.1679999949,24,108641.8203125000,108007.1562500000,167047.9218750000,146741.5000000000,0.0000000000,0.0000000000,0.0000000000,0.0000000000,,,
3.1719999949,24,108652.7109375000,108012.4609375000,167045.1250000000,146741.2656250000,0.0000000000,0.0000000000,0.0000000000,0.0000000000,,,
3.1759999949,24,108651.2031250000,108018.4218750000,167052.1875000000,146754.7812500000,0.0000000000,0.0000000000,0.0000000000,0.0000000000,,,
3.1799999948,24,108663.3828125000,108045.2109375000,167080.7031250000,146774.8750000000,0.0000000000,0.0000000000,0.0000000000,0.0000000000,,,
3.1839999950,24,108690.0703125000,108066.3203125000,167101.4062500000,146777.9531250000,0.0000000000,0.0000000000,0.0000000000,0.0000000000,,,
3.1879999950,24,108686.1250000000,108054.0625000000,167088.0781250000,146771.4687500000,0.0000000000,0.0000000000,0.0000000000,0.0000000000,,,
3.1919999949,24,108676.2578125000,108043.6015625000,167081.2812500000,146764.5156250000,0.0000000000,0.0000000000,0.0000000000,0.0000000000,,,
3.1959999949,24,108651.8203125000,108012.7890625000,167055.7031250000,146746.0312500000,0.0000000000,0.0000000000,0.0000000000,0.0000000000,,,
3.1999999948,25,108643.5312500000,108014.1250000000,167047.8125000000,146744.7187500000,0.0000000000,0.0000000000,0.0000000000,0.0000000000,,,
3.2039999948,25,108658.6093750000,108033.6562500000,167062.6250000000,146749.9218750000,0.0000000000,0.0000000000,0.0000000000,0.0000000000,,,
3.2079999947,25,108666.6015625000,108030.1406250000,167068.8125000000,146739.4375000000,0.0000000000,0.0000000000,0.0000000000,0.0000000000,,,
3.2119999947,25,108646.9375000000,108011.6093750000,167045.8750000000,146730.2968750000,0.0000000000,0.0000000000,0.0000000000,0.0000000000,,,
3.2159999947,25,108629.9921875000,107999.4531250000,167025.9843750000,146730.5625000000,0.0000000000,0.0000000000,0.0000000000,0.0000000000,,,
3.2199999946,25,108639.6484375000,108010.7734375000,167030.1406250000,146734.6406250000,0.0000000000,0.0000000000,0.0000000000,0.0000000000,,,
3.2239999948,25,108639.1328125000,108005.2265625000,167029.8750000000,146726.8593750000,0.0000000000,0.0000000000,0.0000000000,0.0000000000,,,
3.2279999948,25,108632.0781250000,107984.1640625000,167013.9375000000,146710.2500000000,0.0000000000,0.0000000000,0.0000000000,0.0000000000,,,
3.2319999947,25,108607.1093750000,107972.0156250000,166992.7187500000,146701.5156250000,0.0000000000,0.0000000000,0.0000000000,0.0000000000,,,
3.2359999947,25,108596.4609375000,107959.9453125000,166994.2500000000,146709.6093750000,0.0000000000,0.0000000000,0.0000000000,0.0000000000,,,
3.2399999946,25,108615.9609375000,107986.1015625000,167026.5937500000,146725.1093750000,0.0000000000,0.0000000000,0.0000000000,0.0000000000,,,
3.2439999948,25,108643.1093750000,108027.0000000000,167064.6093750000,146747.4375000000,0.0000000000,0.0000000000,0.0000000000,0.0000000000,,,
3.2479999948,25,108658.1250000000,108043.4453125000,167084.8281250000,146748.9843750000,0.0000000000,0.0000000000,0.0000000000,0.0000000000,,,
3.2519999947,25,108645.4375000000,108037.8125000000,167086.0937500000,146737.3437500000,0.0000000000,0.0000000000,0.0000000000,0.0000000000,,,
3.2559999947,25,108604.3515625000,107991.5703125000,167037.1406250000,146691.3750000000,0.0000000000,0.0000000000,0.0000000000,0.0000000000,,,
3.2599999947,25,108592.9218750000,107978.2656250000,167015.0625000000,146673.1875000000,0.0000000000,0.0000000000,0.0000000000,0.0000000000,,,
3.2639999946,25,108613.9218750000,107994.1484375000,167033.6250000000,146688.8437500000,0.0000000000,0.0000000000,0.0000000000,0.0000000000,,,
3.2679999948,25,108628.1093750000,108012.1406250000,167056.4687500000,146701.3437500000,0.0000000000,0.0000000000,0.0000000000,0.0000000000,,,
3.2719999948,25,108626.3125000000,108016.1640625000,167060.7656250000,146687.2968750000,0.0000000000,0.0000000000,0.0000000000,0.0000000000,,,
3.2759999947,25,108594.6093750000,107982.3437500000,167034.7031250000,146653.2343750000,0.0000000000,0.0000000000,0.0000000000,0.0000000000,,,
3.2799999947,25,108577.0156250000,107964.1875000000,167018.0156250000,146624.0000000000,0.0000000000,0.0000000000,0.0000000000,0.0000000000,,,
3.2839999946,25,108593.1328125000,107978.3750000000,167021.6093750000,146637.5937500000,0.0000000000,0.0000000000,0.0000000000,0.0000000000,,,
3.2879999948,25,108616.8203125000,107988.4843750000,167024.9062500000,146648.2187500000,0.0000000000,0.0000000000,0.0000000000,0.0000000000,,,
3.2919999948,25,108567.3593750000,107965.7656250000,167004.8125000000,146601.7343750000,0.0000000000,0.0000000000,0.0000000000,0.0000000000,,,
3.2959999947,25,108546.4921875000,107967.8828125000,167009.2187500000,146622.3906250000,0.0000000000,0.0000000000,0.0000000000,0.0000000000,,,
3.2999999947,25,108575.5937500000,107977.8359375000,167026.2968750000,146640.2187500000,0.0000000000,0.0000000000,0.0000000000,0.0000000000,,,
3.3039999946,25,108588.2031250000,107973.2500000000,167028.5000000000,146642.2812500000,0.0000000000,0.0000000000,0.0000000000,0.0000000000,,,
3.3079999946,25,108585.0390625000,107987.0390625000,167030.3281250000,146627.0312500000,0.0000000000,0.0000000000,0.0000000000,0.0000000000,,,
3.3119999948,25,108604.7500000000,107989.9375000000,167047.8437500000,146619.4375000000,0.0000000000,0.0000000000,0.0000000000,0.0000000000,,,
3.3159999948,25,108588.1484375000,107968.5546875000,167024.9531250000,146565.9531250000,0.0000000000,0.0000000000,0.0000000000,0.0000000000,,,
3.3199999947,25,108565.5078125000,107975.3437500000,167004.7656250000,146586.0468750000,0.0000000000,0.0000000000,0.0000000000,0.0000000000,,,
3.3239999947,25,108580.2343750000,107983.9531250000,166980.8906250000,146615.5468750000,0.0000000000,0.0000000000,0.0000000000,0.0000000000,,,
3.3279999946,26,108600.2734375000,107975.0468750000,167002.6250000000,146636.2812500000,0.0000000000,0.0000000000,0.0000000000,0.0000000000,,,
3.3319999946,26,108614.0546875000,107975.2343750000,167025.1718750000,146662.1093750000,0.0000000000,0.0000000000,0.0000000000,0.0000000000,,,
3.3359999945,26,108619.0703125000,107974.5078125000,167039.7656250000,146658.9375000000,0.0000000000,0.0000000000,0.0000000000,0.0000000000,,,
3.3399999945,26,108593.3203125000,107964.9062500000,167028.2343750000,146644.9375000000,0.0000000000,0.0000000000,0.0000000000,0.0000000000,,,
3.3439999945,26,108600.5390625000,107951.9531250000,167015.6875000000,146654.5468750000,0.0000000000,0.0000000000,0.0000000000,0.0000000000,,,
3.3479999944,26,108622.4531250000,107964.4765625000,167021.5000000000,146671.6250000000,0.0000000000,0.0000000000,0.0000000000,0.0000000000,,,
3.3519999946,26,108611.4531250000,107951.7656250000,166997.2500000000,146663.7656250000,0.0000000000,0.0000000000,0.0000000000,0.0000000000,,,
3.3559999946,26,108610.5937500000,107948.5781250000,166994.7343750000,146675.8750000000,0.0000000000,0.0000000000,0.0000000000,0.0000000000,,,
