Time:250Hz,Epoch,Channel 1,Channel 2,Channel 3,Channel 4,Channel 5,Channel 6,Channel 7,Channel 8,Event Id,Event Date,Event Duration
0.0000000000,0,160977.0625000000,144839.0312500000,170131.5468750000,160276.8437500000,128348.1953125000,54327.5859375000,108743.0468750000,148121.2031250000,,,
0.0040000000,0,160975.7812500000,144848.7812500000,170125.1406250000,160269.4687500000,128347.5000000000,54330.4023437500,108732.9062500000,148154.8125000000,,,
0.0079999999,0,160839.4062500000,144861.9218750000,169986.1718750000,160147.1250000000,128221.0312500000,54229.7929687500,108604.2421875000,148407.9843750000,,,
0.0119999999,0,160734.6406250000,144844.4062500000,169884.2500000000,160060.0625000000,128122.2734375000,54136.6132812500,108505.5078125000,148513.6875000000,,,
0.0159999998,0,160825.7500000000,144838.3906250000,169981.5625000000,160155.6093750000,128205.3984375000,54208.2578125000,108581.8203125000,148342.5156250000,,,
0.0199999998,0,160964.2968750000,144835.9531250000,170122.8593750000,160274.1562500000,128338.6250000000,54333.6757812500,108706.5156250000,148116.7500000000,,,
0.0240000000,0,160975.8281250000,144853.6875000000,170133.0000000000,160261.9531250000,128354.2890625000,54361.5195312500,108721.6406250000,148156.9843750000,,,
0.0279999999,0,160816.6406250000,144843.6718750000,169971.9531250000,160117.7812500000,128204.9453125000,54230.0351562500,108575.2421875000,148387.1250000000,,,
0.0319999999,0,160714.3437500000,144822.1093750000,169870.4375000000,160027.6093750000,128106.5312500000,54122.1289062500,108476.1953125000,148488.0468750000,,,
0.0359999998,0,160782.4375000000,144801.3281250000,169941.5937500000,160081.6093750000,128172.1406250000,54178.9648437500,108548.5859375000,148314.8125000000,,,
0.0399999998,0,160911.2343750000,144790.0937500000,170072.3281250000,160186.0312500000,128296.9921875000,54295.7773437500,108670.7343750000,148084.8125000000,,,
0.0440000000,0,160895.1250000000,144783.0000000000,170055.6406250000,160152.2031250000,128286.6171875000,54279.7656250000,108650.1093750000,148098.1718750000,,,
0.0480000000,0,160724.0781250000,144763.4843750000,169884.9531250000,159981.2656250000,128127.1328125000,54128.0312500000,108484.3203125000,148314.7187500000,,,
0.0519999999,0,160619.8437500000,144741.2656250000,169779.6406250000,159895.4531250000,128021.6953125000,54022.7265625000,108385.3437500000,148416.4375000000,,,
0.0559999999,0,160782.6562500000,144799.5625000000,169946.7968750000,160070.8437500000,128178.5781250000,54149.4609375000,108546.2812500000,148313.2812500000,,,
0.0599999998,0,161007.7500000000,144878.1718750000,170176.3750000000,160298.1875000000,128402.6484375000,54354.3828125000,108763.1640625000,148167.2343750000,,,
0.0639999998,0,161018.8750000000,144901.2968750000,170184.4218750000,160314.2343750000,128417.3437500000,54372.9960937500,108773.7265625000,148211.4375000000,,,
0.0680000000,0,160861.8593750000,144891.2812500000,170023.0781250000,160172.2031250000,128266.8203125000,54229.7421875000,108630.7968750000,148438.0468750000,,,
0.0719999999,0,160744.8906250000,144855.5625000000,169904.7968750000,160060.5000000000,128152.3437500000,54097.8281250000,108520.0156250000,148529.4375000000,,,
0.0759999999,0,160811.7343750000,144825.2031250000,169975.1718750000,160114.2812500000,128215.3750000000,54134.5742187500,108583.2890625000,148347.7656250000,,,
0.0799999998,0,160953.0312500000,144821.0625000000,170120.7343750000,160237.3281250000,128351.5546875000,54253.7734375000,108713.1406250000,148122.2500000000,,,
0.0839999998,0,160949.3593750000,144823.0781250000,170116.5625000000,160234.4375000000,128350.5859375000,54254.7382812500,108704.1562500000,148142.2812500000,,,
0.0880000000,0,160809.8750000000,144824.0156250000,169974.9375000000,160123.1875000000,128217.4140625000,54130.3632812500,108568.5703125000,148374.0781250000,,,
0.0919999999,0,160713.0468750000,144809.1093750000,169878.2187500000,160034.5625000000,128122.8125000000,54031.9296875000,108477.7187500000,148483.1718750000,,,
0.0959999999,0,160788.3125000000,144792.2343750000,169957.7656250000,160096.2812500000,128193.2500000000,54083.5585937500,108552.5312500000,148314.4531250000,,,
0.0999999999,0,160921.3750000000,144786.9843750000,170091.9062500000,160213.6718750000,128322.2109375000,54202.1679687500,108677.3828125000,148093.1250000000,,,
0.1039999998,0,160925.8281250000,144796.6093750000,170090.9375000000,160227.7812500000,128327.1171875000,54212.8710937500,108678.1093750000,148120.4062500000,,,
0.1079999998,0,160794.0000000000,144803.8437500000,169956.9687500000,160116.7500000000,128202.7187500000,54096.6484375000,108554.6718750000,148351.7343750000,,,
0.1120000000,0,160693.2500000000,144783.7343750000,169857.1093750000,160017.1562500000,128106.6406250000,53992.5000000000,108464.9531250000,148455.2812500000,,,
0.1159999999,0,160763.7968750000,144763.0000000000,169931.3281250000,160066.1562500000,128171.4687500000,54040.1093750000,108533.4062500000,148287.7656250000,,,
0.1199999999,0,160900.1093750000,144759.1875000000,170070.2343750000,160200.0781250000,128300.7500000000,54155.5781250000,108659.4687500000,148072.9218750000,,,
0.1239999998,0,160905.5312500000,144770.5625000000,170070.2656250000,160207.6718750000,128305.6328125000,54167.0859375000,108659.1484375000,148099.8750000000,,,
0.1279999998,1,160741.7968750000,144753.0937500000,169905.4375000000,160031.0000000000,128153.7656250000,54027.8242187500,108511.7812500000,148303.7500000000,,,
0.1319999998,1,160626.8750000000,144720.5625000000,169793.0781250000,159906.5625000000,128047.8203125000,53916.1914062500,108409.7812500000,148393.9531250000,,,
0.1359999997,1,160729.6562500000,144733.5000000000,169900.3750000000,160016.0468750000,128144.4062500000,53994.7812500000,108506.3125000000,148265.1875000000,,,
0.1399999997,1,160923.7343750000,144784.4218750000,170099.4375000000,160198.2343750000,128332.9375000000,54172.2070312500,108692.3515625000,148109.0468750000,,,
0.1439999996,1,160953.7187500000,144816.2343750000,170126.0000000000,160236.2812500000,128364.9062500000,54204.9023437500,108718.3125000000,148156.0781250000,,,
0.1479999996,1,160810.2343750000,144814.9218750000,169979.6093750000,160107.3750000000,128227.8203125000,54078.1953125000,108583.5078125000,148364.4531250000,,,
0.1519999998,1,160695.8906250000,144783.7656250000,169864.9687500000,160002.3125000000,128113.7500000000,53965.3554687500,108472.3281250000,148452.7812500000,,,
0.1559999997,1,160753.7656250000,144753.8593750000,169926.2812500000,160045.4687500000,128167.4140625000,54007.1171875000,108527.3671875000,148286.8281250000,,,
0.1599999997,1,160903.0625000000,144763.9375000000,170079.1093750000,160183.8750000000,128310.7031250000,54147.3437500000,108664.5625000000,148096.4687500000,,,
0.1639999996,1,160935.7500000000,144800.5156250000,170107.2187500000,160219.7968750000,128343.3984375000,54191.0625000000,108690.1250000000,148146.0468750000,,,
0.1679999996,1,160809.2031250000,144812.3750000000,169974.6406250000,160115.5156250000,128224.8671875000,54082.2187500000,108573.1562500000,148366.0312500000,,,
0.1719999998,1,160693.7968750000,144784.1875000000,169858.1250000000,160030.2187500000,128112.9687500000,53975.6015625000,108464.9531250000,148459.3281250000,,,
0.1759999997,1,160762.1093750000,144763.8281250000,169930.5156250000,160074.6875000000,128176.2421875000,54030.3437500000,108532.7890625000,148309.0625000000,,,
0.1799999997,1,160885.7343750000,144745.6406250000,170057.2812500000,160154.4843750000,128295.8671875000,54149.0859375000,108652.5468750000,148096.2031250000,,,
0.1839999997,1,160887.0468750000,144751.0625000000,170054.1093750000,160157.5625000000,128297.7187500000,54162.9531250000,108650.6406250000,148107.9531250000,,,
0.1879999996,1,160740.5156250000,144746.4218750000,169903.3125000000,160009.0312500000,128159.7187500000,54039.7070312500,108516.1015625000,148301.7968750000,,,
0.1919999996,1,160636.4531250000,144728.1562500000,169799.1093750000,159917.2343750000,128060.5078125000,53940.3320312500,108421.6875000000,148399.8281250000,,,
0.1959999998,1,160757.2031250000,144755.6250000000,169926.3593750000,160041.0000000000,128179.7812500000,54040.7265625000,108544.3437500000,148299.5781250000,,,
0.1999999997,1,160968.5312500000,144822.0937500000,170143.1562500000,160247.9218750000,128391.3515625000,54260.3164062500,108757.1250000000,148175.0625000000,,,
0.2039999997,1,161033.4375000000,144891.9062500000,170202.3125000000,160330.7031250000,128455.5390625000,54348.8593750000,108814.3359375000,148255.0781250000,,,
0.2079999996,1,160888.8750000000,144892.3906250000,170052.5625000000,160184.5468750000,128317.0859375000,54224.0820312500,108670.0078125000,148448.8437500000,,,
0.2119999996,1,160759.8281250000,144853.9843750000,169923.1875000000,160042.8437500000,128192.6328125000,54087.7968750000,108550.5937500000,148523.1406250000,,,
0.2159999998,1,160800.3281250000,144817.5312500000,169966.2187500000,160082.4687500000,128229.4296875000,54121.4609375000,108589.6484375000,148372.3906250000,,,
0.2199999997,1,160943.7187500000,144819.1875000000,170112.9062500000,160214.1562500000,128366.6796875000,54262.2773437500,108721.4296875000,148184.5625000000,,,
0.2239999997,1,160957.2343750000,144828.8125000000,170124.0625000000,160228.0312500000,128380.6250000000,54280.1406250000,108732.4531250000,148198.1250000000,,,
0.2279999997,1,160818.2812500000,144828.0156250000,169983.3593750000,160105.7968750000,128247.2656250000,54150.9648437500,108600.4062500000,148385.2656250000,,,
0.2319999996,1,160711.3593750000,144809.7968750000,169879.2812500000,160014.5312500000,128144.2421875000,54041.1289062500,108501.5156250000,148474.5625000000,,,
0.2359999996,1,160777.6406250000,144793.2031250000,169948.4843750000,160082.0625000000,128204.7812500000,54086.0000000000,108560.0937500000,148337.3125000000,,,
0.2399999998,1,160917.8437500000,144791.4062500000,170091.7968750000,160211.3125000000,128338.8359375000,54213.6484375000,108685.5078125000,148148.7812500000,,,
0.2439999997,1,160934.7031250000,144806.0156250000,170106.3906250000,160223.5156250000,128356.2968750000,54235.5898437500,108694.1484375000,148168.7031250000,,,
0.2479999997,1,160798.9375000000,144812.8593750000,169966.2187500000,160102.5000000000,128226.1875000000,54104.3750000000,108562.6640625000,148361.0000000000,,,
0.2519999996,1,160691.2500000000,144796.0625000000,169857.5312500000,160007.7656250000,128120.8515625000,53998.0507812500,108462.7265625000,148454.4687500000,,,
0.2559999996,2,160772.2500000000,144789.9062500000,169940.3906250000,160080.6093750000,128195.5546875000,54057.7578125000,108535.3906250000,148333.4218750000,,,
0.2599999995,2,160932.3750000000,144800.2500000000,170104.5468750000,160221.7500000000,128349.9453125000,54196.2656250000,108682.9609375000,148159.8281250000,,,
0.2639999995,2,160962.7187500000,144822.3750000000,170134.7187500000,160248.4375000000,128382.1562500000,54225.9062500000,108710.3750000000,148187.8906250000,,,
0.2679999995,2,160823.4531250000,144824.7656250000,169991.7031250000,160118.6718750000,128249.8671875000,54095.2812500000,108578.6484375000,148378.3281250000,,,
0.2719999994,2,160708.4062500000,144802.0781250000,169874.2656250000,160008.7031250000,128135.4687500000,53975.5195312500,108459.8046875000,148467.7187500000,,,
0.2759999994,2,160778.8125000000,144787.6406250000,169946.3437500000,160072.0625000000,128198.8281250000,54026.6445312500,108520.9609375000,148337.9531250000,,,
0.2799999996,2,160931.5468750000,144795.8750000000,170101.7812500000,160203.2187500000,128345.5703125000,54171.0546875000,108662.4453125000,148162.2656250000,,,
0.2839999995,2,160946.8125000000,144806.6093750000,170114.1093750000,160214.2187500000,128361.5859375000,54183.1523437500,108672.6406250000,148175.2031250000,,,
0.2879999995,2,160818.5468750000,144816.3281250000,169983.8125000000,160099.1406250000,128241.2578125000,54067.7343750000,108555.7500000000,148367.4062500000,,,
0.2919999994,2,160713.5625000000,144801.8593750000,169879.6875000000,160008.4843750000,128139.5781250000,53968.3320312500,108457.6562500000,148466.7031250000,,,
0.2959999994,2,160782.5156250000,144789.6250000000,169953.1093750000,160068.7031250000,128203.8984375000,54023.5859375000,108518.6250000000,148343.4531250000,,,
0.2999999996,2,160927.8906250000,144794.8593750000,170101.7187500000,160201.4687500000,128342.2421875000,54153.2460937500,108648.5234375000,148168.4375000000,,,
0.3039999995,2,160934.7343750000,144796.6406250000,170107.3593750000,160214.7031250000,128349.7578125000,54160.2187500000,108648.5468750000,148172.7343750000,,,
0.3079999995,2,160799.5000000000,144798.2500000000,169970.3281250000,160101.7812500000,128220.8750000000,54040.4570312500,108518.0078125000,148352.7656250000,,,
0.3119999995,2,160691.6406250000,144783.0937500000,169861.8593750000,160010.4531250000,128112.4062500000,53931.8281250000,108415.5468750000,148448.2968750000,,,
0.3159999994,2,160756.5625000000,144766.1875000000,169929.6093750000,160065.1406250000,128171.2031250000,53978.8203125000,108474.4765625000,148320.1406250000,,,
0.3199999994,2,160917.6562500000,144784.5156250000,170091.5000000000,160211.2656250000,128326.0468750000,54129.8007812500,108623.2031250000,148155.7031250000,,,
0.3239999996,2,160935.1718750000,144796.4687500000,170105.1250000000,160227.6250000000,128344.2265625000,54149.6757812500,108635.2187500000,148165.3593750000,,,
0.3279999995,2,160801.8281250000,144799.4218750000,169968.2812500000,160109.7343750000,128216.9609375000,54028.7109375000,108509.2656250000,148351.3437500000,,,
0.3319999995,2,160698.2187500000,144787.5156250000,169864.3437500000,160018.2500000000,128117.4453125000,53928.3398437500,108412.3828125000,148453.1562500000,,,
0.3359999994,2,160754.0625000000,144766.9687500000,169923.8125000000,160079.4375000000,128169.7265625000,53970.6406250000,108459.3984375000,148322.9843750000,,,
0.3399999994,2,160892.5468750000,144762.7812500000,170066.7968750000,160196.5625000000,128302.7656250000,54094.5585937500,108583.7734375000,148135.0156250000,,,
0.3439999996,2,160929.1875000000,144791.1875000000,170101.4531250000,160207.7500000000,128340.5546875000,54135.8085937500,108617.7031250000,148160.4531250000,,,
0.3479999995,2,160807.3281250000,144806.5625000000,169975.4375000000,160098.7968750000,128223.7421875000,54029.9179687500,108501.5625000000,148356.3593750000,,,
0.3519999995,2,160691.8906250000,144781.8593750000,169859.2031250000,159997.7812500000,128110.8750000000,53908.7890625000,108390.6562500000,148446.5625000000,,,
0.3559999994,2,160763.7187500000,144770.2656250000,169935.5312500000,160066.0781250000,128179.0078125000,53959.0000000000,108457.5781250000,148328.4062500000,,,
0.3599999994,2,160915.3750000000,144781.7187500000,170089.6875000000,160204.2968750000,128325.5859375000,54097.0507812500,108597.9140625000,148163.5781250000,,,
0.3639999994,2,160918.0000000000,144785.3437500000,170089.3281250000,160203.7500000000,128329.5000000000,54108.5859375000,108595.6015625000,148170.5625000000,,,
0.3679999996,2,160779.8437500000,144783.3593750000,169951.4687500000,160072.4843750000,128202.2031250000,53989.3359375000,108470.7968750000,148345.1093750000,,,
0.3719999995,2,160654.4687500000,144749.1250000000,169826.9062500000,159961.9843750000,128079.6796875000,53867.9101562500,108353.1875000000,148420.4843750000,,,
0.3759999995,2,160723.9687500000,144738.4062500000,169900.0156250000,160028.9843750000,128143.1718750000,53920.6679687500,108416.0000000000,148297.7187500000,,,
0.3799999994,2,160872.6093750000,144744.5781250000,170051.0312500000,160164.4062500000,128285.4921875000,54055.5859375000,108549.0937500000,148123.2187500000,,,
0.3839999994,3,160892.7812500000,144757.9531250000,170068.4062500000,160186.5000000000,128306.0078125000,54079.9414062500,108559.0468750000,148134.5937500000,,,
0.3879999993,3,160743.3125000000,144742.6406250000,169916.7343750000,160043.6250000000,128164.3046875000,53941.7265625000,108417.6093750000,148295.8125000000,,,
0.3919999993,3,160621.7812500000,144712.0156250000,169795.0625000000,159931.0312500000,128046.1015625000,53817.3789062500,108302.0625000000,148377.7812500000,,,
0.3959999993,3,160711.8750000000,144724.1875000000,169886.6875000000,160023.0468750000,128129.7578125000,53890.1210937500,108383.7343750000,148284.9531250000,,,
0.3999999992,3,160883.9062500000,144756.8750000000,170061.0937500000,160192.1718750000,128297.2109375000,54049.0937500000,108545.8750000000,148141.1406250000,,,
0.4039999992,3,160928.3750000000,144788.4531250000,170103.7656250000,160246.9687500000,128342.0312500000,54094.2070312500,108584.8750000000,148166.2343750000,,,
0.4079999994,3,160838.0937500000,144827.0000000000,170008.9218750000,160170.5781250000,128255.9296875000,54018.5976562500,108499.2343750000,148377.7031250000,,,
0.4119999993,3,160727.1093750000,144809.8906250000,169896.2187500000,160071.6250000000,128147.0859375000,53908.6250000000,108393.6875000000,148478.7500000000,,,
0.4159999993,3,160790.1875000000,144799.5000000000,169960.9843750000,160133.9843750000,128204.2734375000,53947.8398437500,108451.0859375000,148367.0781250000,,,
0.4199999992,3,160929.6406250000,144801.1718750000,170101.5156250000,160253.5937500000,128337.3593750000,54073.1015625000,108577.6562500000,148189.0625000000,,,
0.4239999992,3,160930.7656250000,144796.6406250000,170100.0312500000,160256.2968750000,128339.3984375000,54078.7343750000,108570.4140625000,148177.5781250000,,,
0.4279999994,3,160795.6562500000,144797.6718750000,169961.7187500000,160146.7500000000,128208.8593750000,53958.6484375000,108436.6328125000,148350.4843750000,,,
0.4319999993,3,160684.1093750000,144780.0781250000,169852.4062500000,160018.6562500000,128103.1015625000,53850.8242187500,108340.3359375000,148447.3906250000,,,
0.4359999993,3,160749.0468750000,144770.6718750000,169919.5468750000,160095.4687500000,128160.0703125000,53899.1054687500,108401.5468750000,148334.0625000000,,,
0.4399999992,3,160910.0625000000,144790.5781250000,170082.2187500000,160257.2343750000,128314.1875000000,54047.4570312500,108549.7890625000,148171.3906250000,,,
0.4439999992,3,160932.0468750000,144800.7968750000,170104.2500000000,160233.5312500000,128338.7265625000,54079.5898437500,108568.6171875000,148173.1093750000,,,
0.4479999992,3,160802.5312500000,144807.6250000000,169969.9687500000,160097.4375000000,128213.3359375000,53965.6757812500,108434.9687500000,148354.4218750000,,,
0.4519999993,3,160667.4062500000,144772.3906250000,169832.3437500000,159982.4375000000,128077.9921875000,53827.2226562500,108290.8750000000,148441.0625000000,,,
0.4559999993,3,160714.9218750000,144744.4062500000,169883.4218750000,160025.5468750000,128121.8750000000,53861.8750000000,108344.6562500000,148316.8125000000,,,
0.4599999993,3,160903.1875000000,144781.3906250000,170078.7656250000,160200.4843750000,128311.8828125000,54040.2421875000,108550.7343750000,148173.7968750000,,,
0.4639999992,3,160952.0937500000,144816.9375000000,170125.0625000000,160253.1875000000,128361.3125000000,54088.1210937500,108590.6718750000,148200.3593750000,,,
0.4679999992,3,160822.7812500000,144820.0156250000,169993.3281250000,160130.8750000000,128237.7421875000,53968.2265625000,108458.8671875000,148374.7500000000,,,
0.4719999994,3,160694.2187500000,144786.1406250000,169866.4687500000,160006.0781250000,128114.6875000000,53838.4882812500,108340.1484375000,148459.0781250000,,,
0.4759999993,3,160742.6093750000,144761.5468750000,169917.1562500000,160051.7500000000,128156.9062500000,53866.9179687500,108382.8515625000,148341.8437500000,,,
0.4799999993,3,160905.9531250000,144776.5625000000,170084.8281250000,160202.8437500000,128317.0859375000,54017.4960937500,108537.4296875000,148181.7656250000,,,
0.4839999992,3,160928.5937500000,144787.4531250000,170106.6093750000,160220.1875000000,128344.3359375000,54047.2695312500,108556.8984375000,148186.6718750000,,,
0.4879999992,3,160773.8281250000,144770.3281250000,169947.9843750000,160068.9687500000,128194.9140625000,53909.0039062500,108403.6640625000,148340.0937500000,,,
0.4919999992,3,160636.3437500000,144729.4687500000,169808.5000000000,159935.2031250000,128056.8828125000,53772.6132812500,108272.0234375000,148412.1093750000,,,
0.4959999993,3,160692.9843750000,144713.4062500000,169867.5625000000,159989.2500000000,128107.2265625000,53813.3828125000,108324.8593750000,148297.5625000000,,,
0.4999999993,3,160869.9062500000,144743.3906250000,170046.3906250000,160164.8125000000,128276.3437500000,53978.6328125000,108485.2812500000,148150.5468750000,,,
0.5039999993,3,160930.7187500000,144786.0625000000,170105.0000000000,160230.4218750000,128336.3437500000,54038.8203125000,108537.7187500000,148183.0312500000,,,
0.5079999992,3,160837.9843750000,144827.0000000000,170010.0468750000,160158.8281250000,128250.0859375000,53958.3007812500,108447.8671875000,148391.6250000000,,,
0.5119999992,4,160740.5468750000,144829.5468750000,169912.4062500000,160075.4375000000,128156.2343750000,53867.4023437500,108356.9921875000,148510.3906250000,,,
0.5159999991,4,160804.4531250000,144822.5156250000,169977.0000000000,160137.3125000000,128213.7421875000,53914.7148437500,108415.7343750000,148410.3750000000,,,
0.5199999991,4,160945.2812500000,144818.2500000000,170119.4218750000,160262.3906250000,128349.1875000000,54039.3046875000,108544.6953125000,148233.7031250000,,,
0.5239999990,4,160969.4218750000,144821.9531250000,170140.4062500000,160273.5156250000,128374.1640625000,54069.3437500000,108564.6796875000,148225.1718750000,,,
0.5279999990,4,160837.2031250000,144821.8437500000,170005.7031250000,160146.8437500000,128248.9843750000,53957.0390625000,108441.3203125000,148385.8281250000,,,
0.5319999990,4,160710.1875000000,144796.3437500000,169878.2656250000,160024.2343750000,128125.2812500000,53835.4570312500,108318.7187500000,148473.9218750000,,,
0.5359999991,4,160754.2031250000,144775.1718750000,169924.9843750000,160058.6718750000,128164.5781250000,53866.0351562500,108354.6640625000,148368.5312500000,,,
0.5399999991,4,160903.3593750000,144775.5781250000,170079.4062500000,160193.2968750000,128308.8515625000,54003.7109375000,108494.7500000000,148199.5468750000,,,
0.5439999991,4,160949.0781250000,144797.9531250000,170122.4843750000,160236.6093750000,128353.4296875000,54053.7070312500,108535.3046875000,148207.1093750000,,,
0.5479999990,4,160816.1875000000,144799.9062500000,169986.0156250000,160109.8281250000,128226.6406250000,53937.0312500000,108410.8515625000,148372.4218750000,,,
0.5519999990,4,160695.6718750000,144780.8593750000,169865.3437500000,160011.1093750000,128109.1875000000,53819.4179687500,108294.3125000000,148464.7343750000,,,
0.5559999992,4,160749.9531250000,144762.4843750000,169923.4062500000,160068.7343750000,128160.2578125000,53855.7890625000,108343.2343750000,148358.1562500000,,,
0.5599999991,4,160900.7187500000,144768.0468750000,170077.7968750000,160193.1093750000,128308.2343750000,53995.7187500000,108485.5781250000,148195.0000000000,,,
0.5639999991,4,160924.8437500000,144774.6093750000,170097.4531250000,160213.8906250000,128332.3437500000,54022.2460937500,108501.9140625000,148187.7968750000,,,
0.5679999990,4,160791.5625000000,144774.8281250000,169959.0312500000,160105.0000000000,128204.0859375000,53902.6992187500,108374.4296875000,148349.8906250000,,,
0.5719999990,4,160661.6875000000,144751.8437500000,169828.2187500000,159996.8281250000,128075.4140625000,53778.4062500000,108247.0234375000,148442.9843750000,,,
0.5759999990,4,160714.7343750000,144730.9531250000,169886.5000000000,160038.0468750000,128125.2812500000,53816.3320312500,108298.8671875000,148332.8593750000,,,
0.5799999991,4,160872.0312500000,144736.9062500000,170047.5468750000,160179.5000000000,128277.6328125000,53960.2851562500,108444.7578125000,148167.1562500000,,,
0.5839999991,4,160920.5937500000,144766.4375000000,170093.1406250000,160236.3125000000,128324.2500000000,54012.5351562500,108481.9062500000,148179.9375000000,,,
0.5879999991,4,160805.1093750000,144784.5937500000,169974.0468750000,160133.3750000000,128214.2187500000,53911.9531250000,108372.6328125000,148356.9218750000,,,
0.5919999990,4,160681.8281250000,144767.7656250000,169851.3437500000,160017.2343750000,128095.0546875000,53793.8554687500,108256.3593750000,148459.6406250000,,,
0.5959999990,4,160736.3125000000,144755.2187500000,169910.4062500000,160063.2812500000,128144.7031250000,53826.9257812500,108305.5781250000,148357.0468750000,,,
0.5999999992,4,160895.5156250000,144767.1093750000,170073.7500000000,160188.6718750000,128299.3828125000,53970.5859375000,108454.6796875000,148200.2031250000,,,
0.6039999991,4,160930.0468750000,144782.9062500000,170104.9687500000,160219.6562500000,128334.5468750000,54008.5117187500,108484.9921875000,148201.8906250000,,,
0.6079999991,4,160802.9843750000,144787.9218750000,169973.3281250000,160109.7656250000,128212.2656250000,53897.2539062500,108364.5859375000,148368.9062500000,,,
0.6119999990,4,160683.6250000000,144770.8593750000,169849.9375000000,160003.5468750000,128092.9609375000,53782.6171875000,108245.6796875000,148471.3125000000,,,
0.6159999990,4,160729.1406250000,144751.7031250000,169897.2031250000,160046.7968750000,128133.6718750000,53810.1093750000,108284.7656250000,148364.9687500000,,,
0.6199999989,4,160887.6093750000,144763.8593750000,170060.5468750000,160187.1250000000,128287.5000000000,53953.4726562500,108431.3750000000,148201.2656250000,,,
0.6239999991,4,160937.6093750000,144788.5312500000,170108.8593750000,160226.7187500000,128335.3750000000,54009.0234375000,108473.1875000000,148201.6250000000,,,
0.6279999991,4,160816.3437500000,144801.2187500000,169983.6250000000,160111.1093750000,128219.9375000000,53906.0000000000,108354.0156250000,148374.1875000000,,,
0.6319999991,4,160709.8593750000,144800.6093750000,169876.4218750000,160015.1406250000,128118.1718750000,53802.1171875000,108253.0625000000,148495.7968750000,,,
0.6359999990,4,160768.6562500000,144796.0625000000,169939.3750000000,160069.0468750000,128175.4375000000,53847.8203125000,108311.7421875000,148410.0781250000,,,
0.6399999990,5,160913.0625000000,144794.4843750000,170086.9375000000,160200.9687500000,128315.3125000000,53976.2460937500,108441.1328125000,148237.6406250000,,,
0.6439999989,5,160945.4062500000,144800.0468750000,170114.9218750000,160234.5156250000,128347.2343750000,54008.6445312500,108462.7031250000,148223.9375000000,,,
0.6479999989,5,160825.8437500000,144807.4687500000,169993.1718750000,160128.0312500000,128233.8281250000,53903.5859375000,108351.1718750000,148389.0000000000,,,
0.6519999988,5,160699.5937500000,144789.2031250000,169867.8125000000,160010.3906250000,128109.9609375000,53782.4296875000,108233.4765625000,148493.9531250000,,,
0.6559999988,5,160741.4843750000,144766.1875000000,169911.7656250000,160042.6406250000,128146.6875000000,53808.0703125000,108268.0234375000,148389.4843750000,,,
0.6599999988,5,160902.0937500000,144776.1718750000,170075.5937500000,160187.3906250000,128301.6640625000,53956.3710937500,108414.5781250000,148227.5468750000,,,
0.6639999989,5,160952.4843750000,144800.3281250000,170125.7812500000,160239.9843750000,128353.3984375000,54012.1054687500,108461.8437500000,148229.8906250000,,,
0.6679999989,5,160832.3281250000,144811.0625000000,170001.8125000000,160137.2656250000,128237.7421875000,53906.5898437500,108343.9843750000,148397.6406250000,,,
0.6719999989,5,160709.7031250000,144795.2343750000,169876.6562500000,160024.1718750000,128116.2968750000,53787.2578125000,108226.4531250000,148500.9843750000,,,
0.6759999988,5,160759.0468750000,144780.0625000000,169927.5625000000,160066.2343750000,128162.1640625000,53819.7109375000,108275.2421875000,148402.8437500000,,,
0.6799999988,5,160909.2031250000,144780.6718750000,170081.0468750000,160201.2343750000,128307.3984375000,53954.4375000000,108410.9062500000,148229.3750000000,,,
0.6839999990,5,160951.5781250000,144797.3593750000,170120.7656250000,160237.7031250000,128349.4609375000,53998.4531250000,108444.5703125000,148224.9062500000,,,
0.6879999989,5,160827.7968750000,144802.5937500000,169993.5000000000,160128.9218750000,128229.3515625000,53889.0742187500,108325.5312500000,148388.9218750000,,,
0.6919999989,5,160702.2343750000,144785.0781250000,169867.3750000000,160010.5312500000,128106.7187500000,53766.9531250000,108205.6640625000,148492.3125000000,,,
0.6959999988,5,160751.7500000000,144776.3593750000,169918.9375000000,160054.9375000000,128151.2968750000,53798.1484375000,108249.0390625000,148403.2656250000,,,
0.6999999988,5,160910.6718750000,144786.4062500000,170078.9218750000,160203.4843750000,128300.7500000000,53938.2109375000,108393.2578125000,148238.9843750000,,,
0.7039999987,5,160947.6718750000,144795.9687500000,170112.8750000000,160229.1562500000,128335.7265625000,53979.9453125000,108420.2656250000,148223.1250000000,,,
0.7079999989,5,160815.4375000000,144795.1250000000,169978.5781250000,160105.9375000000,128210.9765625000,53865.4179687500,108294.4218750000,148379.1250000000,,,
0.7119999989,5,160698.2968750000,144783.4062500000,169861.4843750000,160000.5781250000,128098.3750000000,53752.4960937500,108183.2968750000,148488.8281250000,,,
0.7159999989,5,160758.3750000000,144778.5781250000,169925.1562500000,160058.9375000000,128155.6171875000,53792.9960937500,108242.9453125000,148398.1406250000,,,
0.7199999988,5,160901.0156250000,144776.8125000000,170071.5000000000,160176.5312500000,128294.4453125000,53922.1445312500,108376.7343750000,148226.4062500000,,,
0.7239999988,5,160928.7031250000,144778.4531250000,170098.0000000000,160198.9062500000,128323.8437500000,53955.9687500000,108399.6406250000,148205.9062500000,,,
0.7279999990,5,160831.6875000000,144806.3437500000,169998.3750000000,160115.0781250000,128232.4062500000,53874.5625000000,108309.8437500000,148388.5625000000,,,
0.7319999989,5,160701.4687500000,144784.6093750000,169866.9687500000,159998.8593750000,128106.2343750000,53748.7929687500,108188.2265625000,148495.8593750000,,,
0.7359999989,5,160742.7656250000,144766.9687500000,169911.5781250000,160040.5937500000,128144.8593750000,53776.5273437500,108224.7109375000,148406.3750000000,,,
0.7399999988,5,160881.5000000000,144764.2031250000,170054.1093750000,160166.3593750000,128281.4687500000,53907.7421875000,108353.7734375000,148234.8281250000,,,
0.7439999988,5,160901.9375000000,144756.6406250000,170071.0937500000,160174.5468750000,128301.5546875000,53935.4492187500,108366.7031250000,148195.6406250000,,,
0.7479999987,5,160792.6250000000,144774.2031250000,169958.1406250000,160069.5937500000,128197.5156250000,53840.0703125000,108261.6406250000,148364.0000000000,,,
0.7519999989,5,160685.2031250000,144774.9531250000,169850.0312500000,159975.5312500000,128094.8125000000,53736.7773437500,108161.3515625000,148488.7812500000,,,
0.7559999989,5,160748.1093750000,144778.5781250000,169916.0625000000,160040.9218750000,128154.7343750000,53785.1640625000,108220.6328125000,148415.8437500000,,,
0.7599999988,5,160912.6875000000,144795.4062500000,170084.0781250000,160194.7187500000,128314.6406250000,53933.6250000000,108375.7734375000,148259.9531250000,,,
0.7639999988,5,160942.9218750000,144799.2812500000,170112.5781250000,160219.6250000000,128345.0078125000,53972.9726562500,108399.5312500000,148237.6093750000,,,
0.7679999988,6,160825.2968750000,144806.7968750000,169990.4843750000,160110.5937500000,128229.4843750000,53873.4882812500,108283.0703125000,148397.6093750000,,,
0.7719999987,6,160694.6562500000,144785.6093750000,169857.9687500000,159996.6406250000,128099.5078125000,53750.8320312500,108155.0234375000,148505.4375000000,,,
0.7759999987,6,160730.6718750000,144767.9843750000,169894.9843750000,160030.8906250000,128126.9687500000,53773.9257812500,108184.8203125000,148410.9062500000,,,
0.7799999986,6,160894.0156250000,144781.6093750000,170060.9062500000,160177.7968750000,128282.5937500000,53920.8320312500,108336.0703125000,148245.3125000000,,,
0.7839999986,6,160946.8906250000,144802.4531250000,170110.8437500000,160220.8593750000,128334.2812500000,53979.0898437500,108380.3828125000,148232.4843750000,,,
0.7879999985,6,160818.1718750000,144802.8281250000,169977.8281250000,160091.9062500000,128211.8359375000,53870.7539062500,108255.9296875000,148391.6718750000,,,
0.7919999987,6,160692.0781250000,144788.2343750000,169851.6406250000,159977.2968750000,128089.4687500000,53751.5039062500,108133.6171875000,148508.8593750000,,,
0.7959999987,6,160745.1093750000,144780.2968750000,169908.1406250000,160026.5937500000,128138.3437500000,53791.0937500000,108182.6250000000,148420.9375000000,,,
0.7999999986,6,160887.8281250000,144778.7187500000,170056.5312500000,160157.0625000000,128277.6562500000,53926.4648437500,108318.2656250000,148238.4218750000,,,
0.8039999986,6,160938.1406250000,144794.9687500000,170107.8125000000,160201.4687500000,128329.3125000000,53979.4921875000,108363.5390625000,148219.7187500000,,,
0.8079999986,6,160811.4062500000,144792.6093750000,169978.2343750000,160081.7968750000,128207.1640625000,53864.5312500000,108239.2421875000,148370.6562500000,,,
0.8119999988,6,160651.5781250000,144746.5000000000,169818.4062500000,159929.3906250000,128050.4765625000,53713.6835937500,108084.6406250000,148452.1875000000,,,
0.8159999987,6,160693.5312500000,144735.6093750000,169863.5625000000,159970.9687500000,128087.8125000000,53744.2070312500,108123.3984375000,148367.8125000000,,,
0.8199999987,6,160874.3281250000,144771.4687500000,170048.8906250000,160154.6718750000,128261.8593750000,53906.5625000000,108293.9375000000,148224.8125000000,,,
0.8239999986,6,160968.9375000000,144832.2187500000,170142.3593750000,160255.0625000000,128355.3906250000,53994.2421875000,108384.3281250000,148248.7968750000,,,
0.8279999986,6,160870.8750000000,144856.3125000000,170041.1562500000,160163.7343750000,128262.0703125000,53911.6054687500,108289.9375000000,148431.2187500000,,,
0.8319999985,6,160739.8437500000,144833.1875000000,169908.3906250000,160041.0312500000,128133.3515625000,53789.4023437500,108165.8046875000,148542.2031250000,,,
0.8359999987,6,160778.6875000000,144816.8593750000,169948.1718750000,160079.8593750000,128167.8750000000,53816.4648437500,108206.2578125000,148450.9062500000,,,
0.8399999987,6,160925.1562500000,144818.8437500000,170096.5468750000,160209.0156250000,128306.1718750000,53951.7578125000,108338.5390625000,148275.5312500000,,,
0.8439999986,6,160964.7812500000,144827.5781250000,170134.7656250000,160241.9687500000,128345.1406250000,53993.6250000000,108370.2734375000,148248.3125000000,,,
0.8479999986,6,160837.1093750000,144823.4218750000,170006.8281250000,160126.3437500000,128226.1328125000,53881.4570312500,108248.0703125000,148401.8437500000,,,
0.8519999986,6,160705.8593750000,144803.5312500000,169875.6875000000,160002.9375000000,128098.9375000000,53756.6523437500,108119.5937500000,148512.5937500000,,,
0.8559999987,6,160736.2031250000,144780.4531250000,169909.5156250000,160028.7343750000,128126.4296875000,53772.6132812500,108147.9687500000,148417.7968750000,,,
0.8599999987,6,160891.6093750000,144789.8750000000,170069.7500000000,160169.4531250000,128277.8203125000,53912.6250000000,108294.1250000000,148251.6875000000,,,
0.8639999987,6,160943.2656250000,144808.0937500000,170119.2968750000,160214.4843750000,128327.8906250000,53964.8476562500,108337.6015625000,148234.2656250000,,,
0.8679999986,6,160821.1406250000,144809.7500000000,169995.9062500000,160101.5312500000,128210.8671875000,53859.1132812500,108222.1875000000,148383.4218750000,,,
0.8719999986,6,160685.7656250000,144786.4062500000,169860.7187500000,159976.7812500000,128078.7187500000,53732.7539062500,108093.8125000000,148488.8750000000,,,
0.8759999985,6,160714.2656250000,144760.0937500000,169888.5468750000,159997.6250000000,128098.4609375000,53748.3632812500,108111.9453125000,148396.1875000000,,,
0.8799999987,6,160876.5312500000,144775.3906250000,170051.7187500000,160149.9531250000,128250.9687500000,53897.1992187500,108259.0937500000,148239.1718750000,,,
0.8839999987,6,160930.5781250000,144792.2031250000,170102.9843750000,160200.3437500000,128304.3203125000,53954.2226562500,108306.9453125000,148220.2031250000,,,
0.8879999986,6,160829.7343750000,144809.0312500000,169998.6406250000,160116.4218750000,128208.9687500000,53863.1093750000,108209.6328125000,148382.4843750000,,,
0.8919999986,6,160696.0156250000,144789.4687500000,169865.1562500000,159991.8906250000,128080.0546875000,53734.2812500000,108080.2421875000,148490.8906250000,,,
0.8959999986,7,160725.8750000000,144770.0000000000,169899.7500000000,160022.2968750000,128110.5312500000,53753.2187500000,108110.6093750000,148412.4062500000,,,
0.8999999985,7,160873.5312500000,144772.5468750000,170051.8593750000,160150.9062500000,128253.5468750000,53891.0312500000,108248.8515625000,148249.5156250000,,,
0.9039999985,7,160938.3281250000,144798.2656250000,170117.0937500000,160218.1093750000,128318.6171875000,53958.3007812500,108310.5390625000,148237.0781250000,,,
0.9079999984,7,160841.6093750000,144823.4062500000,170017.3750000000,160134.2812500000,128228.8125000000,53876.5468750000,108222.5078125000,148404.6406250000,,,
0.9119999984,7,160719.1406250000,144816.7500000000,169893.3906250000,160018.4687500000,128112.1406250000,53767.8632812500,108110.0937500000,148527.6406250000,,,
0.9159999983,7,160746.1562500000,144796.4375000000,169923.6718750000,160041.9687500000,128137.2734375000,53781.7578125000,108133.4609375000,148447.3593750000,,,
0.9199999985,7,160893.6250000000,144798.7500000000,170074.2500000000,160166.0937500000,128278.4843750000,53917.5859375000,108269.8515625000,148284.7187500000,,,
0.9239999985,7,160947.8750000000,144815.6250000000,170123.7968750000,160208.1562500000,128328.9375000000,53972.9179687500,108314.2968750000,148261.0312500000,,,
0.9279999984,7,160835.4375000000,144823.2656250000,170004.3906250000,160101.2187500000,128216.2578125000,53873.2734375000,108200.7031250000,148407.5000000000,,,
0.9319999984,7,160701.7343750000,144801.8437500000,169868.1250000000,159983.4062500000,128083.5703125000,53750.5117187500,108071.2890625000,148510.4687500000,,,
0.9359999984,7,160746.8437500000,144797.3281250000,169914.9843750000,160027.5312500000,128124.0468750000,53784.0664062500,108112.6953125000,148441.3750000000,,,
0.9399999985,7,160903.3593750000,144805.1875000000,170074.3593750000,160167.6718750000,128275.1328125000,53916.1914062500,108258.2343750000,148281.1718750000,,,
0.9439999985,7,160946.0625000000,144811.2187500000,170113.3125000000,160205.3125000000,128316.5781250000,53960.2070312500,108291.7656250000,148249.6875000000,,,
0.9479999985,7,160830.9843750000,144813.0156250000,169993.2812500000,160106.5781250000,128205.5859375000,53859.8906250000,108179.7031250000,148391.2187500000,,,
0.9519999984,7,160720.0781250000,144812.4375000000,169883.2500000000,160010.1562500000,128100.5234375000,53751.3164062500,108077.2968750000,148510.7343750000,33029,0.9546519397,0.0000000000
0.9559999984,7,160747.7656250000,144795.3437500000,169914.3125000000,160028.6250000000,128125.8984375000,53769.6093750000,108102.3750000000,148434.9375000000,,,
0.9599999983,7,160894.5781250000,144802.2968750000,170066.0468750000,160160.7812500000,128269.9609375000,53910.6367187500,108243.4843750000,148283.2343750000,,,
0.9639999985,7,160952.0156250000,144820.6875000000,170122.2968750000,160213.1875000000,128328.2421875000,53966.9375000000,108296.3203125000,148263.8906250000,,,
0.9679999985,7,160836.2968750000,144819.2500000000,170004.5000000000,160111.1093750000,128218.0859375000,53872.6054687500,108187.9609375000,148404.4531250000,,,
0.9719999984,7,160702.3750000000,144805.5312500000,169869.8125000000,159993.0625000000,128085.9062500000,53750.7500000000,108062.4062500000,148512.4843750000,,,
0.9759999984,7,160728.1562500000,144790.5156250000,169898.8906250000,160013.2968750000,128107.3593750000,53765.3164062500,108084.5625000000,148436.3906250000,,,
0.9799999984,7,160860.3593750000,144780.9218750000,170037.8281250000,160120.0937500000,128236.2187500000,53884.9414062500,108210.2500000000,148260.6718750000,,,
0.9839999985,7,160914.3281250000,144792.3437500000,170092.0625000000,160172.8281250000,128291.5468750000,53936.5742187500,108259.2265625000,148225.1093750000,,,
0.9879999985,7,160805.0000000000,144797.6562500000,169978.5000000000,160074.5000000000,128191.1796875000,53845.0585937500,108156.0703125000,148369.3125000000,,,
0.9919999985,7,160658.1718750000,144764.1718750000,169829.1250000000,159939.7187500000,128051.1171875000,53710.9218750000,108017.8828125000,148473.5468750000,,,
0.9959999984,7,160701.2500000000,144758.7812500000,169873.5468750000,159983.9687500000,128088.2421875000,53729.0000000000,108056.3203125000,148415.2031250000,,,
0.9999999984,7,160898.0625000000,144800.9843750000,170073.7187500000,160166.6250000000,128277.4140625000,53907.7968750000,108239.3281250000,148290.7187500000,,,
1.0039999983,7,160968.7968750000,144833.0312500000,170140.5937500000,160230.3125000000,128345.5937500000,53984.0781250000,108300.2109375000,148279.9843750000,,,
1.0079999985,7,160849.7343750000,144837.4062500000,170015.8125000000,160119.0000000000,128226.1875000000,53876.9492187500,108178.0078125000,148419.1250000000,,,
1.0119999985,7,160718.4687500000,144825.7343750000,169881.8281250000,159999.0468750000,128092.4531250000,53746.8906250000,108043.5000000000,148533.4531250000,,,
1.0159999984,7,160734.4531250000,144801.0312500000,169899.9062500000,160013.1875000000,128104.2812500000,53751.5546875000,108055.9140625000,148451.1718750000,,,
1.0199999984,7,160887.3906250000,144801.2500000000,170058.8593750000,160148.9218750000,128254.6406250000,53890.1210937500,108214.0859375000,148284.7343750000,,,
1.0239999983,8,160951.1718750000,144814.4218750000,170122.4531250000,160204.3125000000,128319.4687500000,53951.3828125000,108280.7421875000,148255.5312500000,,,
1.0279999983,8,160828.0625000000,144808.4843750000,169996.3906250000,160087.0468750000,128202.4765625000,53836.2617187500,108161.9140625000,148388.8906250000,,,
1.0319999983,8,160690.8750000000,144784.3437500000,169858.3906250000,159961.5781250000,128071.0468750000,53705.3437500000,108031.5078125000,148497.2031250000,,,
1.0359999982,8,160724.5312500000,144775.2343750000,169895.8906250000,159991.5312500000,128104.8125000000,53728.8906250000,108064.4218750000,148437.6250000000,,,
1.0399999982,8,160872.0000000000,144775.7968750000,170048.7500000000,160125.5625000000,128249.8437500000,53864.5859375000,108202.8515625000,148270.6875000000,,,
1.0439999981,8,160932.9375000000,144792.9531250000,170108.6093750000,160176.4687500000,128310.0859375000,53926.7578125000,108257.1328125000,148243.7812500000,,,
1.0479999983,8,160831.7656250000,144807.3281250000,170003.3593750000,160085.6875000000,128213.1796875000,53841.3046875000,108161.6484375000,148391.1093750000,,,
1.0519999983,8,160680.9218750000,144777.6406250000,169851.6093750000,159950.3906250000,128066.6718750000,53695.3632812500,108014.9296875000,148494.4687500000,,,
1.0559999982,8,160687.8125000000,144743.9531250000,169861.0781250000,159952.7187500000,128069.9765625000,53686.9960937500,108016.4375000000,148406.7812500000,,,
1.0599999982,8,160843.2656250000,144752.6250000000,170022.5781250000,160096.6718750000,128221.9453125000,53831.6484375000,108163.5781250000,148247.3437500000,,,
1.0639999982,8,160917.9687500000,144778.2343750000,170098.4531250000,160172.0781250000,128298.3125000000,53913.1875000000,108234.9531250000,148225.0312500000,,,
1.0679999983,8,160845.0937500000,144820.4531250000,170021.9843750000,160113.1250000000,128229.8046875000,53858.8437500000,108166.5312500000,148400.4218750000,,,
1.0719999983,8,160714.0468750000,144809.4843750000,169889.3125000000,159995.6875000000,128101.3281250000,53737.3398437500,108046.1562500000,148522.0625000000,,,
1.0759999983,8,160747.0625000000,144802.9843750000,169923.8125000000,160028.3906250000,128129.6484375000,53755.7148437500,108074.7734375000,148462.5468750000,,,
1.0799999982,8,160900.1875000000,144812.8125000000,170080.2968750000,160162.3906250000,128278.2968750000,53893.5546875000,108218.7265625000,148308.8593750000,,,
1.0839999982,8,160971.2656250000,144832.3906250000,170150.3437500000,160216.7031250000,128349.2421875000,53966.8828125000,108283.7734375000,148281.5156250000,,,
1.0879999981,8,160875.9218750000,144853.4375000000,170050.6875000000,160130.9375000000,128257.9687500000,53879.6328125000,108190.8828125000,148435.8281250000,,,
1.0919999983,8,160718.4687500000,144819.4843750000,169890.4375000000,159979.8437500000,128104.2812500000,53732.9140625000,108038.2968750000,148537.6250000000,,,
1.0959999983,8,160739.7968750000,144798.2500000000,169913.3437500000,159998.8906250000,128121.7109375000,53745.7109375000,108054.5234375000,148469.6250000000,,,
1.0999999982,8,160896.7343750000,144807.2031250000,170074.6875000000,160138.2343750000,128272.6640625000,53892.1835937500,108201.1015625000,148312.1562500000,,,
1.1039999982,8,160970.2187500000,144833.3281250000,170147.8281250000,160208.5781250000,128344.5781250000,53970.7187500000,108267.9687500000,148289.1406250000,,,
1.1079999981,8,160866.4531250000,144845.0000000000,170039.5468750000,160117.0625000000,128243.2421875000,53885.9882812500,108163.3906250000,148429.6093750000,,,
1.1119999983,8,160725.0468750000,144824.4531250000,169897.4687500000,159990.8437500000,128106.0781250000,53752.8164062500,108029.3125000000,148537.2187500000,,,
1.1159999983,8,160733.8437500000,144796.6406250000,169909.3593750000,159999.1250000000,128113.3437500000,53745.4687500000,108039.6640625000,148461.7656250000,,,
1.1199999982,8,160862.2343750000,144776.3750000000,170040.2968750000,160106.6093750000,128235.4140625000,53859.0312500000,108158.9921875000,148282.2968750000,,,
1.1239999982,8,160940.1562500000,144799.3750000000,170116.2343750000,160174.4687500000,128311.2343750000,53937.0312500000,108229.4843750000,148253.0312500000,,,
1.1279999982,8,160832.8593750000,144804.4687500000,170004.6250000000,160082.1406250000,128209.0468750000,53841.7578125000,108124.0156250000,148383.6875000000,,,
1.1319999981,8,160698.2187500000,144791.2656250000,169869.5781250000,159968.6562500000,128080.1093750000,53709.7148437500,107997.5781250000,148499.5312500000,,,
1.1359999983,8,160729.5937500000,144786.0625000000,169904.3593750000,160003.9843750000,128109.9140625000,53724.3593750000,108030.4062500000,148450.9843750000,,,
1.1399999983,8,160881.5000000000,144791.4218750000,170061.6250000000,160141.5312500000,128257.5703125000,53866.4882812500,108174.4140625000,148301.0000000000,,,
1.1439999982,8,160951.8437500000,144812.5156250000,170130.9531250000,160201.4218750000,128327.1171875000,53942.6640625000,108239.2187500000,148269.4218750000,,,
1.1479999982,8,160844.6875000000,144817.8281250000,170020.6093750000,160100.4843750000,128224.7343750000,53846.8007812500,108136.7812500000,148403.0000000000,,,
1.1519999981,9,160694.8593750000,144788.1875000000,169869.2343750000,159960.2656250000,128079.2031250000,53712.2617187500,107996.7734375000,148507.4375000000,,,
1.1559999981,9,160691.7031250000,144751.5781250000,169865.4218750000,159961.7656250000,128071.5000000000,53701.1328125000,107989.0468750000,148427.7031250000,,,
1.1599999981,9,160845.3593750000,144756.6718750000,170022.4687500000,160103.3281250000,128219.6640625000,53843.6914062500,108135.4453125000,148267.2500000000,,,
1.1639999980,9,160920.1406250000,144778.5781250000,170097.4375000000,160178.0000000000,128293.6718750000,53923.0820312500,108204.9687500000,148236.5468750000,,,
1.1679999980,9,160846.4062500000,144815.7343750000,170020.3906250000,160121.4375000000,128224.5234375000,53863.5117187500,108133.2421875000,148402.4687500000,,,
1.1719999979,9,160721.4531250000,144812.7187500000,169894.3281250000,160012.6406250000,128103.8203125000,53748.8750000000,108016.7031250000,148532.1718750000,,,
1.1759999981,9,160724.2031250000,144784.9375000000,169898.6250000000,160015.6562500000,128103.6640625000,53743.9375000000,108020.0000000000,148460.2656250000,,,
1.1799999981,9,160874.5156250000,144789.9062500000,170052.3125000000,160148.6875000000,128247.9921875000,53881.8046875000,108160.1171875000,148300.0312500000,,,
1.1839999980,9,160939.2343750000,144803.8437500000,170114.4062500000,160199.1875000000,128310.4843750000,53948.4570312500,108217.6796875000,148259.0625000000,,,
1.1879999980,9,160831.9218750000,144807.7968750000,170002.2343750000,160101.7500000000,128205.6093750000,53850.6093750000,108115.9140625000,148391.3281250000,,,
1.1919999979,9,160674.0312500000,144780.0000000000,169840.8281250000,159957.8281250000,128049.4843750000,53704.0000000000,107968.0468750000,148503.7343750000,,,
1.1959999981,9,160685.8750000000,144758.7812500000,169853.9375000000,159965.7343750000,128057.2890625000,53706.7656250000,107981.4609375000,148442.4843750000,,,
1.1999999981,9,160847.1562500000,144766.1875000000,170020.8593750000,160113.9843750000,128214.8906250000,53852.6757812500,108135.1484375000,148285.3750000000,,,
1.2039999980,9,160924.7812500000,144784.2187500000,170098.1562500000,160181.2500000000,128293.2656250000,53934.9375000000,108206.0703125000,148250.5156250000,,,
1.2079999980,9,160845.6875000000,144810.9843750000,170014.6562500000,160107.0625000000,128219.9609375000,53871.8789062500,108131.0703125000,148410.7968750000,,,
1.2119999980,9,160709.8906250000,144796.5000000000,169875.5625000000,159983.5468750000,128087.8593750000,53734.8984375000,108002.0546875000,148535.7343750000,,,
1.2159999979,9,160723.3281250000,144774.5000000000,169892.6406250000,159995.9062500000,128099.7421875000,53738.0117187500,108011.2578125000,148468.3593750000,,,
1.2199999981,9,160867.0937500000,144770.7187500000,170044.7187500000,160116.2812500000,128242.6250000000,53873.4882812500,108153.2265625000,148297.4531250000,,,
1.2239999981,9,160936.1562500000,144783.6250000000,170114.0312500000,160182.9062500000,128311.6640625000,53938.6679687500,108215.6953125000,148253.0937500000,,,
1.2279999980,9,160842.6875000000,144800.3593750000,170018.7812500000,160102.0468750000,128224.0390625000,53856.3789062500,108124.3671875000,148400.4531250000,,,
1.2319999980,9,160708.3593750000,144791.8593750000,169884.0625000000,159986.4375000000,128093.3359375000,53742.6523437500,107999.6718750000,148529.1718750000,,,
1.2359999979,9,160694.0937500000,144755.2187500000,169872.6406250000,159967.4531250000,128077.7500000000,53743.0546875000,107995.0859375000,148451.7812500000,,,
1.2399999981,9,160853.9531250000,144766.0625000000,170036.4062500000,160112.4218750000,128230.4765625000,53883.6835937500,108143.1718750000,148293.4531250000,,,
1.2439999981,9,160929.7187500000,144786.4062500000,170110.5000000000,160180.4218750000,128303.4296875000,53956.0742187500,108208.6718750000,148254.5312500000,,,
1.2479999980,9,160836.8906250000,144806.2031250000,170013.3750000000,160095.3437500000,128214.9218750000,53884.6210937500,108123.0234375000,148401.4218750000,,,
1.2519999980,9,160697.3281250000,144793.2031250000,169870.4843750000,159967.2031250000,128078.4765625000,53749.9453125000,107987.9765625000,148526.7812500000,,,
1.2559999980,9,160701.8906250000,144771.8750000000,169876.5781250000,159970.1406250000,128081.8281250000,53738.0117187500,107989.9375000000,148465.7343750000,,,
1.2599999979,9,160862.7968750000,144784.8593750000,170041.4531250000,160112.0468750000,128238.1484375000,53888.6171875000,108140.4843750000,148310.7343750000,,,
1.2639999981,9,160939.7812500000,144804.0156250000,170116.9375000000,160183.2656250000,128313.5156250000,53965.0351562500,108209.0156250000,148269.3906250000,,,
1.2679999981,9,160843.8593750000,144820.9843750000,170014.0468750000,160093.5937500000,128218.5703125000,53883.1445312500,108110.7656250000,148415.9843750000,,,
1.2719999980,9,160705.2968750000,144809.3750000000,169871.1562500000,159963.7500000000,128081.4531250000,53757.8867187500,107972.9531250000,148544.8906250000,,,
1.2759999980,9,160714.3437500000,144788.3125000000,169881.1875000000,159970.0000000000,128086.0625000000,53753.0585937500,107978.1093750000,148483.7812500000,,,
1.2799999979,10,160868.3437500000,144791.1093750000,170039.4687500000,160106.2031250000,128234.0937500000,53887.7070312500,108124.3671875000,148317.5468750000,,,
1.2839999979,10,160943.1875000000,144801.2500000000,170111.8281250000,160168.1093750000,128306.7031250000,53960.3125000000,108191.4765625000,148266.2656250000,,,
1.2879999978,10,160843.4062500000,144807.8125000000,170006.3125000000,160080.2968750000,128208.8046875000,53872.5781250000,108095.3437500000,148402.7343750000,,,
1.2919999978,10,160696.2343750000,144784.5156250000,169858.5312500000,159952.6406250000,128064.3125000000,53727.7109375000,107959.5703125000,148522.7343750000,,,
1.2959999978,10,160702.2187500000,144762.9375000000,169868.5625000000,159966.7500000000,128067.2890625000,53718.2421875000,107962.1484375000,148465.3593750000,,,
1.2999999977,10,160864.4375000000,144774.1875000000,170038.2031250000,160108.2343750000,128225.8906250000,53862.6015625000,108120.0781250000,148304.6406250000,,,
1.3039999979,10,160948.8906250000,144799.4531250000,170123.7968750000,160176.1562500000,128311.8281250000,53955.9140625000,108202.4218750000,148263.9218750000,,,
1.3079999979,10,160849.8750000000,144813.1093750000,170021.1718750000,160085.9531250000,128219.3750000000,53872.2578125000,108107.0156250000,148407.7968750000,,,
1.3119999978,10,160712.3750000000,144805.4375000000,169882.5937500000,159968.7968750000,128087.1093750000,53738.6562500000,107978.5078125000,148544.7187500000,,,
1.3159999978,10,160724.5000000000,144790.3906250000,169898.4687500000,159984.8906250000,128097.7031250000,53736.9375000000,107991.9453125000,148490.1718750000,,,
1.3199999977,10,160887.6562500000,144804.8125000000,170067.2343750000,160133.5937500000,128258.4765625000,53887.7578125000,108150.5703125000,148334.3593750000,,,
1.3239999979,10,160956.4062500000,144815.9687500000,170135.5156250000,160190.2656250000,128327.3281250000,53958.5156250000,108215.4531250000,148279.9843750000,,,
1.3279999979,10,160851.7812500000,144824.2656250000,170026.6250000000,160098.1250000000,128227.4218750000,53871.8281250000,108117.2343750000,148413.9375000000,,,
1.3319999978,10,160714.7187500000,144815.8593750000,169886.7968750000,159975.3437500000,128092.9609375000,53741.7109375000,107986.5000000000,148550.5000000000,,,
1.3359999978,10,160722.0625000000,144797.7656250000,169892.1093750000,159981.7500000000,128092.9843750000,53733.9062500000,107988.2734375000,148494.7031250000,,,
1.3399999978,10,160866.9531250000,144795.5937500000,170040.0312500000,160107.4843750000,128231.3906250000,53867.1601562500,108123.6171875000,148321.3750000000,,,
1.3439999977,10,160963.4375000000,144827.1250000000,170134.2343750000,160197.3906250000,128324.7812500000,53968.8945312500,108211.8359375000,148285.7656250000,,,
1.3479999979,10,160869.8281250000,144839.3906250000,170034.1875000000,160108.8593750000,128233.8281250000,53893.3906250000,108120.2109375000,148427.5625000000,,,
1.3519999979,10,160730.8906250000,144826.7812500000,169891.7656250000,159974.8281250000,128097.8437500000,53764.3515625000,107987.5703125000,148559.6406250000,,,
1.3559999978,10,160737.4531250000,144807.2343750000,169900.0156250000,159981.9687500000,128103.0156250000,53760.1679687500,107992.2421875000,148504.2187500000,,,
1.3599999978,10,160892.2031250000,144812.5937500000,170061.3281250000,160127.2812500000,128253.7031250000,53902.3242187500,108138.3906250000,148340.0937500000,,,
1.3639999977,10,160970.4687500000,144825.5937500000,170141.1718750000,160200.2187500000,128332.3437500000,53985.7148437500,108211.0859375000,148287.3125000000,,,
1.3679999979,10,160859.8281250000,144823.1875000000,170027.9687500000,160098.4218750000,128228.7343750000,53895.1367187500,108109.1015625000,148415.1718750000,,,
1.3719999979,10,160702.1406250000,144797.5156250000,169870.1875000000,159949.0781250000,128075.4687500000,53750.8593750000,107964.4296875000,148535.3593750000,,,
1.3759999978,10,160700.8437500000,144774.9062500000,169870.5625000000,159944.7031250000,128070.4531250000,53742.1679687500,107961.9296875000,148478.1250000000,,,
1.3799999978,10,160841.8437500000,144767.6875000000,170014.2343750000,160076.8281250000,128202.3437500000,53864.2617187500,108089.2265625000,148299.5156250000,,,
1.3839999977,10,160917.0312500000,144777.4062500000,170088.1718750000,160143.8125000000,128273.3906250000,53937.3515625000,108156.1484375000,148239.5781250000,,,
1.3879999977,10,160822.5312500000,144787.0781250000,169991.2187500000,160044.8281250000,128186.8125000000,53864.1835937500,108072.8125000000,148379.6406250000,,,
1.3919999979,10,160691.6406250000,144786.1250000000,169859.0625000000,159937.6250000000,128061.8750000000,53745.3320312500,107949.5390625000,148526.1093750000,,,
1.3959999979,10,160686.5000000000,144758.8125000000,169855.2500000000,159941.0312500000,128055.6250000000,53729.5625000000,107943.6640625000,148466.2968750000,,,
1.3999999978,10,160849.3906250000,144773.1093750000,170022.2968750000,160086.0312500000,128215.3984375000,53880.5429687500,108098.5390625000,148310.2187500000,,,
1.4039999978,10,160932.7812500000,144790.0937500000,170103.8125000000,160161.0000000000,128296.4843750000,53967.4726562500,108172.9140625000,148258.7500000000,,,
1.4079999977,11,160853.4062500000,144814.4687500000,170020.0156250000,160092.9843750000,128220.0390625000,53902.3515625000,108098.6406250000,148404.0937500000,,,
1.4119999977,11,160721.5781250000,144811.9218750000,169884.5937500000,159983.2187500000,128090.6796875000,53777.7343750000,107975.2343750000,148553.7343750000,,,
1.4159999976,11,160725.9843750000,144801.5937500000,169888.0000000000,159991.0312500000,128089.4687500000,53769.6601562500,107974.8593750000,148514.6875000000,,,
1.4199999976,11,160871.2187500000,144794.2656250000,170039.2031250000,160121.4843750000,128230.9062500000,53891.7031250000,108111.7578125000,148332.0781250000,,,
1.4239999976,11,160954.5312500000,144804.7343750000,170123.7656250000,160193.0312500000,128315.7187500000,53976.4882812500,108190.3515625000,148269.2343750000,,,
1.4279999975,11,160865.2187500000,144819.4375000000,170029.6562500000,160115.8281250000,128230.6093750000,53902.1914062500,108104.5468750000,148413.5625000000,,,
1.4319999977,11,160718.5000000000,144805.3437500000,169881.3281250000,159978.3750000000,128088.8046875000,53766.7109375000,107966.6015625000,148552.9062500000,,,
1.4359999977,11,160707.0468750000,144775.0625000000,169872.2031250000,159968.5000000000,128075.4453125000,53747.8828125000,107954.0468750000,148494.2187500000,,,
1.4399999976,11,160828.6562500000,144750.2343750000,169999.5625000000,160069.2968750000,128192.7890625000,53857.6640625000,108068.6328125000,148302.9218750000,,,
1.4439999976,11,160899.6250000000,144748.2187500000,170070.3750000000,160124.1250000000,128262.5546875000,53927.9375000000,108132.7890625000,148227.8281250000,,,
1.4479999975,11,160810.8125000000,144758.0625000000,169977.9687500000,160045.4531250000,128179.1953125000,53856.7812500000,108051.6015625000,148360.2187500000,,,
1.4519999977,11,160684.4062500000,144763.2656250000,169849.7343750000,159939.9375000000,128056.2421875000,53735.9453125000,107934.8671875000,148513.9062500000,,,
1.4559999977,11,160725.3906250000,144786.0156250000,169892.1875000000,159990.2500000000,128092.6406250000,53762.0976562500,107973.5156250000,148502.2343750000,,,
1.4599999976,11,160884.4218750000,144801.4843750000,170055.9375000000,160131.5781250000,128245.2578125000,53905.1406250000,108121.1484375000,148347.9843750000,,,
1.4639999976,11,160974.3593750000,144821.3906250000,170145.3906250000,160213.1718750000,128332.9921875000,53995.1015625000,108202.4687500000,148292.2812500000,,,
1.4679999975,11,160895.5781250000,144848.9375000000,170063.0937500000,160147.9687500000,128258.9843750000,53936.2812500000,108128.5234375000,148438.7812500000,,,
1.4719999975,11,160733.9218750000,144830.1875000000,169900.5000000000,159998.1875000000,128104.3593750000,53791.8984375000,107980.4375000000,148571.4375000000,,,
1.4759999977,11,160699.1875000000,144784.5625000000,169865.7968750000,159960.1562500000,128067.4218750000,53749.5703125000,107943.3671875000,148501.2187500000,,,
1.4799999977,11,160816.9375000000,144754.5781250000,169987.0000000000,160061.5937500000,128179.5156250000,53853.2382812500,108050.6875000000,148300.9375000000,,,
1.4839999976,11,160912.2031250000,144774.4843750000,170081.0156250000,160149.7031250000,128272.9921875000,53947.0351562500,108137.2968750000,148241.7500000000,,,
1.4879999976,11,160866.7187500000,144828.0625000000,170031.0468750000,160112.1875000000,128231.6015625000,53917.1289062500,108098.1328125000,148414.9843750000,,,
1.4919999975,11,160725.9843750000,144827.0468750000,169886.3437500000,159976.7812500000,128093.7656250000,53786.0234375000,107964.5859375000,148568.3593750000,,,
1.4959999977,11,160679.6562500000,144767.7187500000,169840.4218750000,159923.0937500000,128043.8984375000,53729.1875000000,107915.2109375000,148486.2031250000,,,
1.4999999977,11,160825.5156250000,144761.7031250000,169990.8906250000,160065.0625000000,128183.6171875000,53861.1523437500,108054.5234375000,148305.5000000000,,,
1.5039999976,11,160946.2187500000,144804.0625000000,170113.2343750000,160186.7187500000,128303.8593750000,53977.6132812500,108172.0546875000,148267.3906250000,,,
1.5079999976,11,160907.3281250000,144865.2500000000,170071.7031250000,160163.3906250000,128270.6796875000,53950.9804687500,108137.3750000000,148447.0937500000,,,
1.5119999975,11,160756.2343750000,144856.4531250000,169919.0312500000,160025.1718750000,128126.0546875000,53813.0078125000,107994.5468750000,148592.3125000000,,,
1.5159999975,11,160748.0781250000,144829.5937500000,169913.7031250000,160012.4375000000,128117.8515625000,53793.5585937500,107988.0000000000,148539.6093750000,,,
1.5199999977,11,160889.4375000000,144822.2500000000,170059.7968750000,160132.6406250000,128255.3437500000,53915.0390625000,108119.4609375000,148366.5468750000,,,
1.5239999976,11,160977.8437500000,144834.3125000000,170147.7968750000,160201.0937500000,128342.3515625000,53996.1757812500,108200.2187500000,148301.7187500000,,,
1.5279999976,11,160889.4531250000,144849.8281250000,170055.2656250000,160117.0625000000,128259.2578125000,53919.2226562500,108116.4531250000,148438.8125000000,,,
1.5319999976,11,160734.2656250000,144832.0937500000,169899.4375000000,159976.7812500000,128111.3828125000,53775.9101562500,107974.0312500000,148574.5000000000,,,
1.5359999975,12,160726.4062500000,144806.5781250000,169893.8750000000,159976.9218750000,128102.0781250000,53761.7500000000,107968.8281250000,148526.7500000000,,,
1.5399999975,12,160885.4375000000,144819.5312500000,170055.4218750000,160122.4843750000,128253.9218750000,53909.1367187500,108119.4843750000,148372.5312500000,,,
1.5439999974,12,160960.1406250000,144823.9375000000,170128.8125000000,160188.3593750000,128325.8593750000,53985.0703125000,108186.6484375000,148300.1093750000,,,
1.5479999974,12,160879.5156250000,144838.2812500000,170043.4062500000,160116.8281250000,128247.9609375000,53916.4843750000,108107.5781250000,148431.3281250000,,,
1.5519999973,12,160728.2656250000,144821.6875000000,169889.1093750000,159969.9375000000,128100.3906250000,53775.0000000000,107962.8984375000,148567.5000000000,,,
1.5559999973,12,160717.9531250000,144801.6250000000,169880.3125000000,159954.6875000000,128088.6640625000,53753.5664062500,107950.4218750000,148527.1562500000,,,
1.5599999975,12,160860.5781250000,144797.0156250000,170030.0781250000,160084.3906250000,128228.7343750000,53881.5898437500,108085.7421875000,148357.1562500000,,,
1.5639999975,12,160962.7656250000,144818.2187500000,170133.2656250000,160176.6406250000,128329.6640625000,53982.6562500000,108177.8203125000,148295.8906250000,,,
1.5679999974,12,160889.0781250000,144842.7187500000,170053.5781250000,160117.2812500000,128258.9609375000,53925.0429687500,108107.0390625000,148437.8125000000,,,
1.5719999974,12,160735.9375000000,144831.3906250000,169898.2031250000,159981.5312500000,128108.7343750000,53784.0390625000,107962.8203125000,148581.4375000000,,,
1.5759999973,12,160728.2031250000,144812.8593750000,169893.5781250000,159973.5156250000,128096.2343750000,53758.7968750000,107952.9453125000,148538.4218750000,,,
1.5799999975,12,160879.4843750000,144815.8906250000,170049.0156250000,160104.8281250000,128239.2734375000,53889.6367187500,108094.5937500000,148372.6562500000,,,
1.5839999975,12,160978.5156250000,144835.3906250000,170147.3281250000,160194.8437500000,128336.6953125000,53989.7617187500,108186.4296875000,148316.0156250000,,,
1.5879999974,12,160903.7343750000,144852.0781250000,170068.8125000000,160129.2656250000,128268.6953125000,53931.4531250000,108117.0156250000,148449.5312500000,,,
1.5919999974,12,160759.5312500000,144846.0625000000,169922.5468750000,159997.1093750000,128129.6796875000,53798.8984375000,107981.6718750000,148590.4531250000,,,
1.5959999973,12,160738.3750000000,144820.7500000000,169901.5781250000,159978.3750000000,128105.9140625000,53773.7656250000,107957.9609375000,148544.3750000000,,,
1.5999999973,12,160871.6562500000,144812.1875000000,170041.2968750000,160097.6718750000,128235.8125000000,53896.9609375000,108086.7656250000,148371.9375000000,,,
1.6039999975,12,160968.7656250000,144828.0156250000,170139.9687500000,160182.4062500000,128332.3437500000,53991.8828125000,108179.6171875000,148304.0312500000,,,
1.6079999974,12,160881.0937500000,144837.1875000000,170048.9843750000,160101.5312500000,128250.4609375000,53920.1875000000,108099.9062500000,148427.4531250000,,,
1.6119999974,12,160740.0625000000,144831.8281250000,169905.6562500000,159973.5625000000,128114.5546875000,53775.0273437500,107965.8515625000,148574.7968750000,,,
1.6159999974,12,160739.3906250000,144823.8593750000,169905.3281250000,159972.7812500000,128108.6484375000,53756.8125000000,107954.6093750000,148547.4062500000,,,
1.6199999973,12,160875.1406250000,144820.6093750000,170044.2500000000,160094.6718750000,128238.5468750000,53901.8945312500,108086.6796875000,148381.0625000000,,,
1.6239999975,12,160959.9531250000,144829.1875000000,170128.2500000000,160168.7968750000,128323.0156250000,53998.5351562500,108171.4375000000,148307.2187500000,,,
1.6279999975,12,160863.6093750000,144828.8750000000,170027.7500000000,160071.7343750000,128231.3046875000,53920.2148437500,108073.9375000000,148419.6562500000,,,
1.6319999974,12,160709.2187500000,144812.0625000000,169873.1250000000,159922.5468750000,128082.0937500000,53779.3984375000,107926.8203125000,148559.0468750000,,,
1.6359999974,12,160693.4218750000,144793.4218750000,169859.1718750000,159913.3437500000,128065.5703125000,53772.8281250000,107918.5312500000,148524.3906250000,,,
1.6399999973,12,160868.1406250000,144823.1406250000,170038.7500000000,160084.7656250000,128236.8046875000,53948.4023437500,108083.4921875000,148388.2187500000,,,
1.6439999973,12,160968.0000000000,144847.7812500000,170136.2656250000,160185.0781250000,128333.7656250000,54061.4335937500,108171.7109375000,148334.3125000000,,,
1.6479999975,12,160878.1406250000,144853.9218750000,170039.8906250000,160105.8750000000,128246.1406250000,54004.7851562500,108088.5078125000,148458.8125000000,,,
1.6519999974,12,160734.5937500000,144850.2500000000,169892.1406250000,159976.9687500000,128104.4921875000,53885.8828125000,107946.0781250000,148609.9062500000,,,
1.6559999974,12,160718.2812500000,144834.7812500000,169875.7812500000,159963.4218750000,128084.8359375000,53880.1953125000,107926.3671875000,148579.4843750000,,,
1.6599999974,12,160887.9531250000,144859.7500000000,170049.4218750000,160114.4687500000,128249.4921875000,54049.3906250000,108086.9218750000,148439.4531250000,,,
1.6639999973,13,160981.2968750000,144871.3125000000,170141.2656250000,160191.2812500000,128340.4765625000,54152.7890625000,108167.5000000000,148367.4375000000,,,
1.6679999973,13,160900.6250000000,144884.3437500000,170054.1093750000,160114.1093750000,128262.4453125000,54088.9257812500,108082.0703125000,148491.0312500000,,,
1.6719999972,13,160746.5468750000,144867.7187500000,169896.7187500000,159971.4531250000,128112.8906250000,53953.3398437500,107933.2578125000,148626.6875000000,,,
1.6759999972,13,160719.2812500000,144840.0312500000,169870.9218750000,159946.8750000000,128084.5078125000,53939.0429687500,107910.6250000000,148586.8437500000,,,
1.6799999971,13,160863.8437500000,144842.5468750000,170021.7187500000,160076.0312500000,128224.6015625000,54079.0546875000,108046.9296875000,148424.1875000000,,,
1.6839999971,13,160970.0937500000,144866.8281250000,170126.4062500000,160168.2343750000,128327.9453125000,54184.0078125000,108137.6406250000,148356.2968750000,,,
1.6879999973,13,160881.6250000000,144873.0468750000,170032.8437500000,160090.1875000000,128244.6093750000,54118.5625000000,108051.5703125000,148476.8125000000,,,
1.6919999972,13,160726.5937500000,144858.7031250000,169875.3906250000,159950.8281250000,128095.0234375000,53985.8476562500,107909.0625000000,148617.2812500000,,,
1.6959999972,13,160714.5781250000,144843.2812500000,169862.9531250000,159935.5625000000,128080.2187500000,53968.8437500000,107894.2343750000,148588.8437500000,,,
1.6999999972,13,160862.3125000000,144844.3281250000,170015.1718750000,160063.6093750000,128221.3828125000,54101.5585937500,108029.5468750000,148428.1093750000,,,
1.7039999971,13,160953.1562500000,144850.3906250000,170107.1406250000,160143.0312500000,128310.8906250000,54190.4179687500,108113.5000000000,148348.2031250000,,,
1.7079999973,13,160880.7656250000,144868.8593750000,170030.1875000000,160079.2500000000,128243.0859375000,54131.5976562500,108047.1484375000,148475.3125000000,,,
1.7119999973,13,160730.8593750000,144860.1718750000,169876.5000000000,159945.4531250000,128097.7031250000,53992.9570312500,107906.2500000000,148619.8281250000,,,
1.7159999972,13,160710.3750000000,144838.6406250000,169856.5468750000,159928.6875000000,128074.3750000000,53960.6367187500,107883.5312500000,148587.6093750000,,,
1.7199999972,13,160852.8437500000,144837.0468750000,170003.6406250000,160055.0468750000,128209.6328125000,54085.0078125000,108017.6953125000,148428.2968750000,,,
1.7239999971,13,160946.7031250000,144843.8125000000,170097.2500000000,160139.2656250000,128301.5000000000,54181.3281250000,108105.4531250000,148350.0781250000,,,
1.7279999971,13,160868.0781250000,144856.8437500000,170013.4843750000,160074.5468750000,128226.2421875000,54121.5937500000,108029.3593750000,148466.5468750000,,,
1.7319999973,13,160732.4218750000,144859.5625000000,169875.2656250000,159956.5312500000,128093.2812500000,53994.6171875000,107901.0156250000,148616.6875000000,,,
1.7359999972,13,160725.7187500000,144852.9531250000,169870.0000000000,159955.1093750000,128084.9687500000,53975.5195312500,107895.9531250000,148600.2187500000,,,
1.7399999972,13,160863.5781250000,144847.1718750000,170013.1093750000,160079.4843750000,128219.2656250000,54099.5468750000,108027.4843750000,148439.0000000000,,,
1.7439999972,13,160956.6718750000,144854.5156250000,170108.4218750000,160160.3750000000,128313.3281250000,54195.2226562500,108121.5468750000,148362.7968750000,,,
1.7479999971,13,160880.5625000000,144866.3125000000,170028.8437500000,160090.1562500000,128241.6093750000,54131.9492187500,108051.9218750000,148476.4062500000,,,
1.7519999973,13,160728.5000000000,144854.2500000000,169872.2343750000,159948.7812500000,128091.9687500000,53986.8125000000,107905.6875000000,148614.1875000000,,,
1.7559999973,13,160713.5625000000,144837.4062500000,169856.7812500000,159934.2968750000,128070.2968750000,53952.8828125000,107885.9453125000,148589.0156250000,,,
1.7599999972,13,160849.3906250000,144829.5781250000,169997.3906250000,160059.8593750000,128200.3828125000,54066.7695312500,108011.4453125000,148425.8437500000,,,
1.7639999972,13,160933.2656250000,144828.9843750000,170083.0781250000,160133.2343750000,128283.8515625000,54149.2226562500,108085.9843750000,148341.0937500000,,,
1.7679999971,13,160864.5625000000,144844.1562500000,170013.3906250000,160073.4531250000,128221.1406250000,54092.8945312500,108019.0859375000,148453.1250000000,,,
1.7719999971,13,160714.3437500000,144835.2343750000,169860.9218750000,159943.6875000000,128075.3906250000,53957.9531250000,107876.2890625000,148590.8593750000,,,
1.7759999973,13,160696.8750000000,144818.5937500000,169844.5781250000,159932.4531250000,128055.6796875000,53934.1093750000,107859.0937500000,148565.1875000000,,,
1.7799999972,13,160842.1250000000,144821.6250000000,169993.8125000000,160062.3437500000,128195.8203125000,54064.7031250000,107998.7578125000,148412.8437500000,,,
1.7839999972,13,160935.3593750000,144830.4843750000,170086.3750000000,160141.9843750000,128287.9062500000,54162.9257812500,108089.1796875000,148335.6406250000,,,
1.7879999971,13,160872.3281250000,144856.6875000000,170018.2031250000,160085.7031250000,128228.4921875000,54117.9726562500,108031.4531250000,148459.9375000000,,,
1.7919999971,14,160739.8437500000,144863.6562500000,169881.1718750000,159968.4375000000,128099.4531250000,53997.2460937500,107909.2031250000,148615.5625000000,,,
1.7959999971,14,160725.8437500000,144850.9218750000,169867.9218750000,159958.4687500000,128084.1875000000,53976.7265625000,107898.0703125000,148597.9687500000,,,
1.7999999970,14,160855.8281250000,144842.1562500000,170004.0937500000,160072.8125000000,128212.6093750000,54094.4492187500,108023.0859375000,148435.9687500000,,,
1.8039999970,14,160957.2343750000,144857.1718750000,170106.0468750000,160160.7031250000,128313.7343750000,54198.6523437500,108120.0234375000,148364.7968750000,,,
1.8079999969,14,160892.4843750000,144876.3437500000,170038.6093750000,160099.9218750000,128254.6718750000,54155.7382812500,108065.1171875000,148483.4687500000,,,
1.8119999969,14,160754.7031250000,144878.2031250000,169899.8593750000,159970.4843750000,128122.5703125000,54037.2382812500,107937.8203125000,148637.6718750000,,,
1.8159999971,14,160739.0468750000,144862.7812500000,169883.8750000000,159951.7812500000,128103.1484375000,54013.7148437500,107914.9140625000,148619.4218750000,,,
1.8199999970,14,160867.6250000000,144853.8437500000,170016.7812500000,160065.0000000000,128226.2890625000,54127.5742187500,108033.5703125000,148459.5625000000,,,
1.8239999970,14,160972.0937500000,144867.7187500000,170124.1250000000,160158.1093750000,128331.9687500000,54231.8046875000,108143.8125000000,148383.1718750000,,,
1.8279999970,14,160890.9375000000,144876.0312500000,170040.9218750000,160089.0937500000,128258.7500000000,54175.1054687500,108086.1484375000,148489.8750000000,,,
1.8319999969,14,160737.5625000000,144865.1406250000,169886.5312500000,159953.0000000000,128112.4609375000,54037.9101562500,107953.1328125000,148626.8593750000,,,
1.8359999971,14,160712.1406250000,144844.8906250000,169862.0625000000,159931.9687500000,128086.4453125000,54004.8359375000,107928.1875000000,148604.1875000000,,,
1.8399999971,14,160845.8750000000,144839.6562500000,170002.7031250000,160051.0312500000,128219.1015625000,54125.8320312500,108055.9687500000,148447.5156250000,,,
1.8439999970,14,160942.7812500000,144846.5781250000,170101.7031250000,160136.5625000000,128317.9453125000,54223.4101562500,108150.2734375000,148360.9375000000,,,
1.8479999970,14,160863.6093750000,144853.2500000000,170018.7343750000,160066.1093750000,128243.7812500000,54160.0585937500,108071.2031250000,148463.7187500000,,,
1.8519999969,14,160721.5468750000,144854.1875000000,169872.3906250000,159939.5781250000,128105.7031250000,54029.4335937500,107935.0546875000,148618.9218750000,,,
1.8559999969,14,160693.2500000000,144832.8750000000,169845.3593750000,159904.4531250000,128077.5625000000,53995.0742187500,107907.9375000000,148600.4062500000,,,
1.8599999971,14,160835.7031250000,144833.7031250000,169993.8125000000,160031.6406250000,128215.6953125000,54117.0898437500,108042.7734375000,148446.6875000000,,,
1.8639999970,14,160940.9375000000,144851.6250000000,170101.2187500000,160137.3125000000,128319.8984375000,54220.8359375000,108140.3515625000,148370.7812500000,,,
1.8679999970,14,160881.7031250000,144876.9687500000,170040.0781250000,160083.6093750000,128265.6406250000,54177.7851562500,108091.3515625000,148491.5625000000,,,
1.8719999969,14,160741.8281250000,144874.3906250000,169898.4687500000,159967.9375000000,128131.2343750000,54049.0664062500,107964.6406250000,148641.2812500000,,,
1.8759999969,14,160708.3906250000,144847.4375000000,169867.6406250000,159928.0468750000,128096.8984375000,54010.0156250000,107935.4843750000,148616.9062500000,,,
1.8799999971,14,160852.7187500000,144851.5937500000,170015.8125000000,160048.5937500000,128235.3593750000,54134.1718750000,108072.3281250000,148468.5781250000,,,
1.8839999971,14,160964.5156250000,144873.3437500000,170126.1250000000,160144.9843750000,128343.9609375000,54234.8359375000,108170.1484375000,148397.6875000000,,,
1.8879999970,14,160891.1562500000,144882.7656250000,170048.1875000000,160074.5468750000,128273.0156250000,54168.5078125000,108093.6796875000,148498.5937500000,,,
1.8919999970,14,160734.9843750000,144869.7187500000,169889.9375000000,159937.2187500000,128122.2734375000,54019.4023437500,107945.3281250000,148634.4531250000,,,
1.8959999969,14,160725.3125000000,144866.1562500000,169881.1406250000,159933.9218750000,128110.3125000000,53995.3710937500,107933.4765625000,148626.9687500000,,,
1.8999999969,14,160863.8437500000,144865.8906250000,170022.4062500000,160055.9375000000,128240.5859375000,54112.2343750000,108057.3359375000,148478.0937500000,,,
1.9039999971,14,160974.7812500000,144879.3281250000,170134.5000000000,160156.7656250000,128349.7031250000,54220.1914062500,108158.5937500000,148400.0937500000,,,
1.9079999970,14,160906.9218750000,144894.9843750000,170062.2968750000,160095.1250000000,128285.1953125000,54164.8320312500,108088.9609375000,148506.6406250000,,,
1.9119999970,14,160746.8437500000,144880.5937500000,169899.6718750000,159949.1562500000,128129.4375000000,54014.4921875000,107935.8359375000,148640.3125000000,,,
1.9159999969,14,160703.6875000000,144844.6718750000,169855.7656250000,159911.4218750000,128082.0937500000,53964.8203125000,107895.1484375000,148607.1875000000,,,
1.9199999969,15,160849.2343750000,144846.1250000000,170004.6875000000,160041.9375000000,128218.2187500000,54093.5664062500,108027.9687500000,148462.4843750000,,,
1.9239999969,15,160946.5312500000,144855.1562500000,170100.2968750000,160123.5000000000,128308.7734375000,54182.4531250000,108106.5546875000,148377.4062500000,,,
1.9279999968,15,160863.8750000000,144855.2968750000,170014.1562500000,160051.0312500000,128229.9140625000,54115.0781250000,108027.8046875000,148465.1406250000,,,
1.9319999968,15,160720.3750000000,144852.0781250000,169868.8281250000,159934.9375000000,128092.2109375000,53984.3437500000,107894.8203125000,148606.5312500000,,,
1.9359999967,15,160698.3750000000,144837.7187500000,169847.6875000000,159928.3906250000,128069.3046875000,53952.3203125000,107870.6015625000,148598.2031250000,,,
1.9399999967,15,160848.7187500000,144845.0156250000,170004.5781250000,160065.1406250000,128216.6875000000,54083.5585937500,108013.7500000000,148460.1093750000,,,
1.9439999969,15,160948.2343750000,144854.7031250000,170105.2656250000,160150.3437500000,128315.1562500000,54177.2500000000,108103.3671875000,148375.7500000000,,,
1.9479999968,15,160889.8125000000,144873.5625000000,170042.7656250000,160096.6718750000,128257.8359375000,54131.4921875000,108044.2734375000,148475.3125000000,,,
1.9519999968,15,160730.3437500000,144856.0468750000,169879.3125000000,159947.2812500000,128102.0000000000,53981.7187500000,107895.6015625000,148603.0937500000,,,
1.9559999967,15,160680.8593750000,144818.0937500000,169828.4062500000,159898.9218750000,128048.8906250000,53918.5507812500,107844.5859375000,148573.8593750000,,,
1.9599999967,15,160806.7968750000,144807.8906250000,169959.3750000000,160007.6562500000,128170.7187500000,54034.5312500000,107963.4609375000,148420.4843750000,,,
1.9639999969,15,160919.5312500000,144826.0000000000,170075.1093750000,160108.7031250000,128283.5859375000,54145.3046875000,108068.2031250000,148347.2812500000,,,
1.9679999969,15,160868.2187500000,144847.7031250000,170021.5312500000,160060.6562500000,128238.2265625000,54101.4257812500,108019.3046875000,148456.1093750000,,,
1.9719999968,15,160722.4375000000,144845.9843750000,169871.0468750000,159921.9062500000,128095.0546875000,53970.6914062500,107877.0937500000,148597.9062500000,,,
1.9759999968,15,160671.8281250000,144812.9687500000,169818.7031250000,159873.5781250000,128040.8671875000,53916.1914062500,107815.8828125000,148574.0156250000,,,
1.9799999967,15,160808.1406250000,144808.6250000000,169960.6718750000,159999.5781250000,128173.3203125000,54031.3359375000,107938.2734375000,148425.0156250000,,,
1.9839999967,15,160939.5156250000,144841.6093750000,170093.0625000000,160125.3281250000,128302.1171875000,54156.1953125000,108060.6406250000,148361.0468750000,,,
1.9879999969,15,160876.5312500000,144859.5312500000,170024.8281250000,160078.6875000000,128241.9296875000,54107.9140625000,107996.2890625000,148465.8906250000,,,
1.9919999968,15,160718.0625000000,144842.2031250000,169864.0312500000,159936.3125000000,128087.5937500000,53961.9765625000,107842.7343750000,148595.6093750000,,,
1.9959999968,15,160679.6093750000,144817.2031250000,169828.1093750000,159899.8125000000,128046.9609375000,53919.7578125000,107806.0156250000,148575.8437500000,,,
1.9999999967,15,160817.6250000000,144818.0625000000,169969.2812500000,160032.8437500000,128178.3906250000,54042.9804687500,107936.3671875000,148434.4531250000,,,
2.0039999967,15,160940.7656250000,144843.7656250000,170092.7968750000,160149.9531250000,128299.2187500000,54162.6328125000,108051.2265625000,148367.3281250000,,,
2.0079999969,15,160882.1093750000,144862.3125000000,170030.0468750000,160099.7968750000,128244.4531250000,54116.7109375000,107995.2187500000,148466.0312500000,,,
2.0119999968,15,160736.9218750000,144858.8281250000,169880.5781250000,159969.6250000000,128102.2656250000,53984.6953125000,107855.1250000000,148606.3281250000,,,
2.0159999968,15,160692.9843750000,144825.8750000000,169836.4062500000,159922.5781250000,128055.0625000000,53924.6914062500,107807.4609375000,148582.1093750000,,,
2.0199999968,15,160825.8906250000,144823.1093750000,169973.0781250000,160044.4375000000,128183.3515625000,54041.6640625000,107931.1406250000,148439.0156250000,,,
2.0239999967,15,160933.3125000000,144834.1875000000,170084.0937500000,160134.5781250000,128292.6250000000,54147.1015625000,108035.3671875000,148355.8437500000,,,
2.0279999967,15,160874.0625000000,144850.6718750000,170020.9062500000,160076.7812500000,128236.7812500000,54100.1367187500,107977.0625000000,148451.0937500000,,,
2.0319999969,15,160717.5781250000,144837.3437500000,169861.9375000000,159937.2968750000,128084.1640625000,53955.1367187500,107826.9375000000,148581.0937500000,,,
2.0359999968,15,160674.0312500000,144810.0468750000,169821.2187500000,159901.0937500000,128039.7734375000,53905.2734375000,107781.1796875000,148565.4531250000,,,
2.0399999968,15,160811.6250000000,144809.5625000000,169965.4375000000,160026.4375000000,128174.3125000000,54024.3906250000,107914.6171875000,148422.7656250000,,,
2.0439999967,15,160921.4531250000,144820.2343750000,170076.4218750000,160123.7500000000,128283.2109375000,54135.1132812500,108020.5937500000,148336.5000000000,,,
2.0479999967,16,160863.3906250000,144835.2031250000,170014.1718750000,160069.3750000000,128228.6250000000,54088.7890625000,107966.6796875000,148434.1406250000,,,
2.0519999966,16,160705.2187500000,144822.1406250000,169850.1250000000,159925.9531250000,128072.4921875000,53942.5820312500,107816.4765625000,148571.9531250000,,,
2.0559999966,16,160671.2656250000,144804.8906250000,169812.9531250000,159896.7187500000,128033.2265625000,53903.2617187500,107779.6484375000,148563.3437500000,,,
2.0599999966,16,160823.4843750000,144818.8437500000,169970.1406250000,160032.1250000000,128180.7734375000,54037.5625000000,107922.6406250000,148432.7500000000,,,
2.0639999965,16,160936.4062500000,144834.4218750000,170083.9687500000,160132.0312500000,128293.5078125000,54149.7578125000,108028.3671875000,148352.0937500000,,,
2.0679999965,16,160879.4843750000,144852.5000000000,170022.7343750000,160080.8281250000,128241.9531250000,54104.6953125000,107973.9765625000,148453.1875000000,,,
2.0719999967,16,160739.0156250000,144857.5000000000,169880.5000000000,159958.6875000000,128107.7109375000,53971.5234375000,107844.2890625000,148606.3125000000,,,
2.0759999966,16,160685.3906250000,144826.3750000000,169827.9218750000,159912.5781250000,128052.4062500000,53914.1250000000,107794.8593750000,148587.4843750000,,,
2.0799999966,16,160801.4375000000,144810.3437500000,169948.6250000000,160007.6875000000,128162.3515625000,54012.7226562500,107901.9062500000,148430.7656250000,,,
2.0839999965,16,160921.9218750000,144827.0000000000,170069.0781250000,160114.8437500000,128277.5781250000,54128.0859375000,108009.2187500000,148343.5625000000,,,
2.0879999965,16,160881.4687500000,144855.2656250000,170024.3437500000,160081.9218750000,128238.6015625000,54100.0039062500,107971.9921875000,148446.0156250000,,,
2.0919999967,16,160732.7187500000,144850.7031250000,169872.7500000000,159947.6250000000,128094.2187500000,53965.7578125000,107832.0312500000,148592.6250000000,,,
2.0959999966,16,160706.4531250000,144840.1406250000,169846.0312500000,159933.7343750000,128065.7890625000,53930.0312500000,107805.7500000000,148599.5781250000,,,
2.0999999966,16,160838.9843750000,144834.5312500000,169982.2500000000,160054.9218750000,128192.3359375000,54043.6484375000,107929.3984375000,148452.0781250000,,,
2.1039999966,16,160976.9843750000,144867.6875000000,170120.9843750000,160177.2812500000,128328.6953125000,54171.4023437500,108056.9375000000,148381.6250000000,,,
2.1079999965,16,160913.5937500000,144878.6250000000,170055.5937500000,160115.4062500000,128271.3281250000,54121.8632812500,107996.9609375000,148472.5156250000,,,
2.1119999965,16,160748.2656250000,144862.4062500000,169890.2500000000,159968.0156250000,128114.3671875000,53972.3007812500,107844.9375000000,148607.7343750000,,,
2.1159999967,16,160715.3593750000,144847.2968750000,169858.5312500000,159941.2187500000,128080.5390625000,53930.6484375000,107812.8515625000,148609.3906250000,,,
2.1199999966,16,160844.5312500000,144840.8125000000,169992.1562500000,160051.4843750000,128205.9609375000,54044.2656250000,107934.8671875000,148461.6562500000,,,
2.1239999966,16,160960.7031250000,144855.6875000000,170109.0468750000,160151.1250000000,128321.5625000000,54160.0585937500,108045.7500000000,148376.6250000000,,,
2.1279999965,16,160904.4843750000,144870.5468750000,170049.3437500000,160097.9687500000,128268.1875000000,54118.3750000000,107992.9687500000,148470.1875000000,,,
2.1319999965,16,160756.0000000000,144867.1250000000,169894.3906250000,159965.3281250000,128119.7265625000,53981.7187500000,107851.1015625000,148614.0000000000,,,
2.1359999967,16,160713.6718750000,144848.9375000000,169848.3125000000,159926.4375000000,128073.4296875000,53937.0585937500,107808.6718750000,148612.8750000000,,,
2.1399999966,16,160848.4218750000,144847.9375000000,169986.7031250000,160047.9375000000,128203.7343750000,54056.2812500000,107937.4453125000,148470.7500000000,,,
2.1439999966,16,160960.7812500000,144862.8906250000,170099.5312500000,160149.0625000000,128314.9375000000,54171.3750000000,108041.6484375000,148385.2187500000,,,
2.1479999966,16,160894.5000000000,144870.1718750000,170028.4218750000,160086.4843750000,128252.0937500000,54122.6132812500,107975.2343750000,148474.0000000000,,,
2.1519999965,16,160737.0625000000,144857.0312500000,169868.6875000000,159942.0000000000,128101.7031250000,53980.5117187500,107830.1015625000,148611.3750000000,,,
2.1559999965,16,160705.2187500000,144845.0781250000,169839.7031250000,159916.3281250000,128070.9375000000,53937.6484375000,107801.2968750000,148612.7187500000,,,
2.1599999967,16,160841.2031250000,144848.3125000000,169980.8593750000,160037.3281250000,128203.2812500000,54053.3320312500,107932.1875000000,148474.0000000000,,,
2.1639999966,16,160960.3281250000,144862.4531250000,170101.6093750000,160142.0156250000,128319.3906250000,54168.8554687500,108039.2890625000,148382.0156250000,,,
2.1679999966,16,160890.2968750000,144864.3906250000,170027.0781250000,160075.2500000000,128252.0937500000,54110.9179687500,107972.1484375000,148461.3125000000,,,
2.1719999965,16,160715.8125000000,144837.9375000000,169849.1093750000,159915.4375000000,128079.9218750000,53950.7382812500,107808.2109375000,148588.1250000000,,,
2.1759999965,17,160665.6562500000,144806.8750000000,169798.9531250000,159867.7500000000,128026.2265625000,53895.5625000000,107761.1953125000,148573.6406250000,,,
2.1799999964,17,160794.4062500000,144805.9062500000,169932.2656250000,159989.9531250000,128148.7187500000,54010.5234375000,107884.4687500000,148432.2031250000,,,
2.1839999964,17,160924.2812500000,144832.3906250000,170063.5625000000,160115.4218750000,128274.3593750000,54137.0703125000,108006.0312500000,148350.7968750000,,,
2.1879999964,17,160876.8750000000,144851.0781250000,170012.5156250000,160075.1875000000,128230.4531250000,54106.6796875000,107956.5390625000,148445.6406250000,,,
2.1919999963,17,160732.9062500000,144853.2500000000,169866.9687500000,159945.6718750000,128092.7421875000,53975.2812500000,107820.8750000000,148600.0000000000,,,
2.1959999963,17,160711.1406250000,144852.4218750000,169845.0156250000,159933.9531250000,128072.1953125000,53947.6250000000,107804.1406250000,148618.9687500000,,,
2.1999999965,17,160850.6562500000,144861.2812500000,169989.1718750000,160065.7343750000,128209.2578125000,54070.2304687500,107937.2265625000,148489.6562500000,,,
2.2039999964,17,160972.4218750000,144876.3281250000,170115.7500000000,160176.2812500000,128332.7734375000,54187.6289062500,108055.8359375000,148395.8906250000,,,
2.2079999964,17,160915.9531250000,144887.1875000000,170054.4687500000,160123.5000000000,128278.2187500000,54145.9765625000,108003.7187500000,148480.0781250000,,,
2.2119999963,17,160773.0468750000,144892.9843750000,169908.5781250000,159997.4375000000,128141.1562500000,54019.7226562500,107872.6718750000,148640.0781250000,,,
2.2159999963,17,160716.8125000000,144863.5468750000,169855.3593750000,159947.8125000000,128089.9531250000,53960.5273437500,107825.7812500000,148633.2187500000,,,
2.2199999965,17,160835.1718750000,144849.6562500000,169978.7968750000,160049.3125000000,128206.3593750000,54064.0351562500,107937.9765625000,148476.4843750000,,,
2.2239999964,17,160946.1875000000,144853.6875000000,170091.7187500000,160143.8906250000,128315.8750000000,54172.7968750000,108038.2421875000,148375.1250000000,,,
2.2279999964,17,160898.5312500000,144869.4218750000,170042.1718750000,160098.8593750000,128270.5234375000,54140.0742187500,107992.9140625000,148462.4062500000,,,
2.2319999964,17,160750.8125000000,144869.5625000000,169889.9843750000,159962.2968750000,128123.2109375000,54001.2968750000,107852.4140625000,148612.9843750000,,,
2.2359999963,17,160699.2656250000,144846.8437500000,169836.3125000000,159911.9062500000,128067.1328125000,53941.0546875000,107800.5703125000,148619.9062500000,,,
2.2399999963,17,160820.4218750000,144838.4531250000,169962.3593750000,160019.6250000000,128181.6875000000,54045.9843750000,107912.4218750000,148470.6406250000,,,
2.2439999965,17,160939.9687500000,144849.7343750000,170082.6718750000,160125.8906250000,128299.6796875000,54155.7929687500,108023.4062500000,148370.4843750000,,,
2.2479999964,17,160902.0625000000,144875.7656250000,170041.1875000000,160094.4531250000,128267.3828125000,54130.2851562500,107988.4062500000,148467.9531250000,,,
2.2519999964,17,160739.5468750000,144862.8593750000,169876.2343750000,159951.6250000000,128112.0546875000,53983.8632812500,107836.5937500000,148612.5312500000,,,
2.2559999963,17,160683.3906250000,144832.3593750000,169820.8437500000,159897.3437500000,128054.9218750000,53921.1523437500,107782.9765625000,148607.5625000000,,,
2.2599999963,17,160823.2656250000,144837.6718750000,169966.0625000000,160022.5156250000,128188.3125000000,54042.6835937500,107911.9609375000,148473.5468750000,,,
2.2639999965,17,160940.7656250000,144848.5000000000,170088.6093750000,160132.7343750000,128305.1484375000,54158.9296875000,108024.5859375000,148376.4218750000,,,
2.2679999964,17,160901.3906250000,144869.3750000000,170046.7656250000,160100.8437500000,128270.4921875000,54134.0664062500,107992.8593750000,148467.8593750000,,,
2.2719999964,17,160749.2812500000,144863.1562500000,169890.2500000000,159959.7500000000,128121.9843750000,53997.0585937500,107848.7968750000,148614.1406250000,,,
2.2759999963,17,160708.5937500000,144849.9843750000,169847.7656250000,159922.1406250000,128078.3125000000,53952.7500000000,107805.6640625000,148623.5625000000,,,
2.2799999963,17,160815.9062500000,144832.2187500000,169958.5468750000,160011.4687500000,128179.5937500000,54045.8750000000,107909.5234375000,148466.4531250000,,,
2.2839999963,17,160915.2968750000,144825.4062500000,170059.3125000000,160090.5312500000,128277.6015625000,54145.5195312500,108002.6718750000,148352.2500000000,,,
2.2879999964,17,160857.8125000000,144829.4375000000,169999.2968750000,160034.9843750000,128227.4218750000,54103.8125000000,107950.9921875000,148428.2031250000,,,
2.2919999964,17,160707.4218750000,144826.2656250000,169846.5937500000,159908.9218750000,128081.6953125000,53970.7460937500,107808.7812500000,148576.7500000000,,,
2.2959999964,17,160680.6562500000,144828.8437500000,169819.3593750000,159891.1718750000,128052.3203125000,53935.9843750000,107782.6562500000,148604.3750000000,,,
2.2999999963,17,160824.1250000000,144844.4375000000,169968.8437500000,160022.6562500000,128194.6953125000,54067.4414062500,107922.3984375000,148484.1406250000,,,
2.3039999963,18,160969.3906250000,144880.0156250000,170117.6250000000,160154.3437500000,128341.9218750000,54211.2343750000,108064.1796875000,148408.4218750000,,,
2.3079999962,18,160925.9843750000,144901.9687500000,170070.2031250000,160121.1718750000,128303.3515625000,54187.0390625000,108024.8281250000,148504.6250000000,,,
2.3119999962,18,160775.4375000000,144896.4687500000,169916.3281250000,159987.9375000000,128157.6562500000,54053.3046875000,107883.3671875000,148654.7187500000,,,
2.3159999961,18,160721.9531250000,144874.0937500000,169862.2812500000,159934.3593750000,128103.4218750000,54000.0625000000,107834.6875000000,148660.8125000000,,,
2.3199999961,18,160843.2968750000,144867.0468750000,169987.0625000000,160037.4062500000,128220.4453125000,54106.3046875000,107951.2265625000,148515.9687500000,,,
2.3239999961,18,160961.9843750000,144873.8750000000,170103.3281250000,160141.3125000000,128331.0625000000,54219.9492187500,108048.5937500000,148409.8437500000,,,
2.3279999963,18,160923.3906250000,144890.1093750000,170055.7187500000,160102.9062500000,128287.5546875000,54178.1093750000,107988.2734375000,148489.0468750000,,,
2.3319999962,18,160789.8125000000,144898.3906250000,169919.0625000000,159980.0312500000,128156.8203125000,54044.2656250000,107857.2187500000,148648.3125000000,,,
2.3359999962,18,160728.9531250000,144870.7656250000,169865.6406250000,159930.5625000000,128106.0468750000,53985.3906250000,107832.9687500000,148652.5781250000,,,
2.3399999961,18,160844.5937500000,144861.1718750000,169990.6250000000,160035.0156250000,128224.0156250000,54086.9687500000,107962.2265625000,148508.3593750000,,,
2.3439999961,18,160954.5781250000,144866.2343750000,170102.3125000000,160130.9531250000,128332.8281250000,54192.8867187500,108071.2578125000,148399.8281250000,,,
2.3479999963,18,160920.5937500000,144884.3906250000,170065.1875000000,160105.0156250000,128301.6328125000,54165.5546875000,108047.2265625000,148482.5000000000,,,
2.3519999962,18,160779.2500000000,144883.6406250000,169922.4218750000,159980.3593750000,128165.9921875000,54030.5585937500,107923.8984375000,148637.8750000000,,,
2.3559999962,18,160715.6562500000,144855.5625000000,169862.4687500000,159921.3125000000,128105.6484375000,53955.6171875000,107873.7656250000,148645.0156250000,,,
2.3599999961,18,160824.2812500000,144837.5312500000,169980.3750000000,160008.7031250000,128214.3046875000,54040.5898437500,107987.6562500000,148491.0312500000,,,
2.3639999961,18,160933.2812500000,144833.4531250000,170093.5937500000,160100.3750000000,128324.3515625000,54139.1640625000,108099.2343750000,148370.8125000000,,,
2.3679999961,18,160893.0312500000,144845.8281250000,170051.3281250000,160072.7500000000,128289.6484375000,54101.1015625000,108065.4687500000,148448.1406250000,,,
2.3719999962,18,160763.1250000000,144859.5312500000,169919.2187500000,159969.3281250000,128167.6875000000,53977.6132812500,107949.9921875000,148616.2343750000,,,
2.3759999962,18,160730.6718750000,144862.8593750000,169888.2656250000,159948.8125000000,128138.1250000000,53937.3281250000,107923.6015625000,148650.3750000000,,,
2.3799999962,18,160853.8750000000,144862.5156250000,170016.2343750000,160057.0156250000,128258.5859375000,54044.7500000000,108036.8203125000,148515.2187500000,,,
2.3839999961,18,160968.1562500000,144869.1406250000,170131.9843750000,160156.6875000000,128370.4375000000,54154.4531250000,108137.3203125000,148406.4531250000,,,
2.3879999961,18,160918.0312500000,144876.5312500000,170079.0625000000,160109.0156250000,128324.2968750000,54115.9335937500,108094.5156250000,148478.8750000000,,,
2.3919999963,18,160770.5312500000,144873.2031250000,169931.2187500000,159975.3125000000,128184.6406250000,53978.9531250000,107964.0546875000,148627.1562500000,,,
2.3959999962,18,160720.0312500000,144856.5000000000,169880.7968750000,159933.5937500000,128134.1328125000,53916.9687500000,107916.8437500000,148644.1250000000,,,
2.3999999962,18,160845.1250000000,144854.3593750000,170010.2031250000,160049.2656250000,128253.8906250000,54020.6093750000,108036.8984375000,148504.0937500000,,,
2.4039999961,18,160970.2968750000,144864.1718750000,170134.0468750000,160156.1718750000,128369.3593750000,54141.4960937500,108148.7734375000,148395.7500000000,,,
2.4079999961,18,160930.8125000000,144879.0312500000,170088.1562500000,160112.7500000000,128328.6953125000,54113.0898437500,108106.2109375000,148473.7812500000,,,
2.4119999961,18,160783.0000000000,144879.9218750000,169933.7343750000,159979.1406250000,128183.8359375000,53976.9960937500,107961.9843750000,148633.2187500000,,,
2.4159999962,18,160716.0000000000,144852.6093750000,169864.9687500000,159918.1250000000,128114.1484375000,53902.2421875000,107896.0546875000,148642.8906250000,,,
2.4199999962,18,160839.0312500000,144845.5781250000,169993.1250000000,160034.3437500000,128233.7734375000,54004.9179687500,108014.5546875000,148497.7343750000,,,
2.4239999962,18,160975.0468750000,144863.1250000000,170135.1093750000,160153.4062500000,128371.0234375000,54136.8007812500,108146.6562500000,148394.1406250000,,,
2.4279999961,18,160933.8750000000,144876.9375000000,170092.1250000000,160109.6406250000,128335.7500000000,54109.6054687500,108111.8906250000,148472.1250000000,,,
2.4319999961,19,160780.3437500000,144872.3593750000,169934.5468750000,159978.8281250000,128186.8671875000,53970.0507812500,107969.4687500000,148624.6562500000,,,
2.4359999960,19,160696.2656250000,144832.5781250000,169848.3281250000,159913.2656250000,128098.7500000000,53881.8320312500,107886.3437500000,148625.2656250000,,,
2.4399999960,19,160795.3437500000,144806.7968750000,169951.1718750000,159986.5000000000,128189.2812500000,53963.7187500000,107980.0078125000,148467.2031250000,,,
2.4439999959,19,160916.1718750000,144807.5781250000,170074.6250000000,160091.3750000000,128304.8828125000,54077.9296875000,108092.0703125000,148350.0781250000,,,
2.4479999959,19,160900.0000000000,144839.2500000000,170054.1718750000,160089.5156250000,128287.3671875000,54070.6054687500,108071.9062500000,148437.6718750000,,,
2.4519999959,19,160797.3593750000,144881.6093750000,169947.8125000000,160007.4375000000,128188.1796875000,53979.9453125000,107978.2968750000,148633.4062500000,,,
2.4559999960,19,160752.2187500000,144878.1406250000,169903.5625000000,159968.8750000000,128144.6171875000,53930.0859375000,107937.8437500000,148667.2968750000,,,
2.4599999960,19,160870.6250000000,144875.3593750000,170026.6250000000,160069.7187500000,128261.6171875000,54034.2070312500,108052.2421875000,148533.8593750000,,,
2.4639999960,19,160991.7812500000,144882.2812500000,170149.4062500000,160170.5781250000,128383.3125000000,54151.2578125000,108167.6562500000,148428.2031250000,,,
2.4679999959,19,160958.5000000000,144902.0937500000,170114.4062500000,160141.2031250000,128356.4296875000,54130.5546875000,108137.7812500000,148509.2656250000,,,
2.4719999959,19,160800.4062500000,144893.4062500000,169955.2812500000,160001.4062500000,128207.8906250000,53993.6796875000,107994.5781250000,148657.9218750000,,,
2.4759999961,19,160729.2500000000,144862.9375000000,169885.8906250000,159940.5156250000,128138.7187500000,53917.0234375000,107930.4687500000,148664.1718750000,,,
2.4799999960,19,160853.0625000000,144861.0625000000,170014.3437500000,160051.4062500000,128258.1562500000,54022.5390625000,108048.2968750000,148524.6093750000,,,
2.4839999960,19,160980.2031250000,144868.8593750000,170144.0468750000,160166.3125000000,128383.0937500000,54143.4804687500,108167.0156250000,148413.1093750000,,,
2.4879999959,19,160942.0625000000,144881.0937500000,170101.5937500000,160131.2187500000,128347.1562500000,54118.0273437500,108127.5312500000,148484.7812500000,,,
2.4919999959,19,160784.1875000000,144872.5625000000,169938.3750000000,159992.2812500000,128192.1484375000,53973.7773437500,107976.7109375000,148632.2968750000,,,
2.4959999959,19,160715.1406250000,144847.7031250000,169866.6875000000,159934.2656250000,128118.3046875000,53897.4140625000,107909.4687500000,148644.9843750000,,,
2.4999999960,19,160823.0468750000,144836.4375000000,169975.4687500000,160033.0312500000,128216.0156250000,53985.7421875000,108004.5781250000,148502.9375000000,,,
2.5039999960,19,160957.9843750000,144853.7031250000,170108.4843750000,160151.3906250000,128344.2265625000,54112.7421875000,108118.4687500000,148399.5625000000,,,
2.5079999960,19,160929.5937500000,144875.3750000000,170077.9375000000,160127.6562500000,128323.3359375000,54098.2578125000,108100.5781250000,148480.5937500000,,,
2.5119999959,19,160778.3125000000,144873.2343750000,169928.6718750000,159993.2812500000,128187.7734375000,53973.0546875000,107990.1250000000,148636.8125000000,,,
2.5159999959,19,160705.6718750000,144850.1093750000,169856.7500000000,159926.8750000000,128120.1015625000,53898.2734375000,107931.1953125000,148654.7812500000,,,
2.5199999961,19,160825.8593750000,144848.7812500000,169979.5468750000,160032.5000000000,128232.7265625000,53992.6328125000,108036.6015625000,148519.7500000000,,,
2.5239999960,19,160958.2031250000,144861.5937500000,170112.6406250000,160146.4375000000,128358.5781250000,54113.1992187500,108154.8906250000,148409.2968750000,,,
2.5279999960,19,160931.6250000000,144878.3593750000,170084.0156250000,160113.5781250000,128333.7421875000,54094.0742187500,108128.4687500000,148480.0000000000,,,
2.5319999959,19,160766.0781250000,144860.7187500000,169915.5312500000,159958.1093750000,128172.6718750000,53948.7539062500,107974.2734375000,148620.6562500000,,,
2.5359999959,19,160694.1718750000,144831.2031250000,169842.5625000000,159888.4062500000,128097.8671875000,53874.2929687500,107904.5859375000,148630.9062500000,,,
2.5399999958,19,160815.3750000000,144831.2031250000,169968.5312500000,160001.7343750000,128212.8515625000,53978.3125000000,108016.2187500000,148500.4218750000,,,
2.5439999960,19,160955.5156250000,144852.7500000000,170112.2031250000,160133.9687500000,128350.0468750000,54116.0937500000,108150.0078125000,148402.1406250000,,,
2.5479999960,19,160941.5156250000,144885.6562500000,170093.1406250000,160123.9375000000,128336.1015625000,54119.6367187500,108134.9062500000,148487.8125000000,,,
2.5519999960,19,160789.2187500000,144883.1875000000,169935.5937500000,159985.1875000000,128187.8828125000,53985.3398437500,107991.0078125000,148642.1093750000,,,
2.5559999959,19,160727.8281250000,144867.7656250000,169873.5937500000,159928.1875000000,128127.3984375000,53916.9687500000,107933.6640625000,148669.6093750000,,,
2.5599999959,20,160835.4375000000,144856.9843750000,169984.7031250000,160012.1875000000,128232.9453125000,54011.3828125000,108034.5156250000,148532.7656250000,,,
2.5639999958,20,160965.9375000000,144865.2187500000,170116.7187500000,160119.9687500000,128360.7812500000,54135.5937500000,108154.2734375000,148418.9843750000,,,
2.5679999958,20,160954.2656250000,144894.5000000000,170102.2031250000,160112.1875000000,128353.3515625000,54130.1523437500,108142.8984375000,148498.4062500000,,,
2.5719999957,20,160811.9375000000,144900.7500000000,169959.3437500000,159989.5781250000,128220.1484375000,54000.6015625000,108011.9531250000,148663.0312500000,,,
2.5759999957,20,160741.7968750000,144878.3125000000,169891.7656250000,159931.6093750000,128153.3906250000,53929.8984375000,107948.7656250000,148685.0312500000,,,
2.5799999957,20,160848.2656250000,144859.5312500000,170005.7812500000,160030.5937500000,128259.8750000000,54026.5625000000,108053.1015625000,148539.6875000000,,,
2.5839999958,20,160977.1093750000,144865.3281250000,170140.0781250000,160146.5468750000,128390.2031250000,54148.3359375000,108178.0078125000,148421.8750000000,,,
2.5879999958,20,160952.1093750000,144885.5468750000,170112.0468750000,160120.9531250000,128368.7734375000,54133.5820312500,108155.1328125000,148491.1406250000,,,
2.5919999958,20,160796.0937500000,144879.0000000000,169951.7343750000,159983.0937500000,128217.0078125000,53992.6328125000,108008.2500000000,148638.6093750000,,,
2.5959999957,20,160726.9687500000,144859.0468750000,169880.8750000000,159929.7187500000,128145.5859375000,53920.6953125000,107942.9140625000,148663.2187500000,,,
2.5999999957,20,160831.0156250000,144843.7031250000,169988.5937500000,160027.6406250000,128243.1640625000,54011.7578125000,108043.3359375000,148516.5937500000,,,
2.6039999959,20,160959.1093750000,144851.4843750000,170116.4687500000,160140.7500000000,128365.4687500000,54136.0507812500,108160.5234375000,148398.9687500000,,,
2.6079999958,20,160937.7343750000,144876.1406250000,170087.3125000000,160121.0000000000,128341.1718750000,54128.1640625000,108135.3671875000,148474.2656250000,,,
2.6119999958,20,160786.4062500000,144877.6875000000,169930.2031250000,159983.1718750000,128192.7343750000,53992.9023437500,107990.6875000000,148635.4375000000,,,
2.6159999957,20,160724.0468750000,144865.8125000000,169866.5937500000,159927.6406250000,128132.3359375000,53927.0273437500,107930.3593750000,148672.1562500000,,,
2.6199999957,20,160836.7343750000,144860.6562500000,169984.5937500000,160025.5468750000,128242.0078125000,54022.6757812500,108034.7265625000,148539.6562500000,,,
2.6239999956,20,160971.3437500000,144872.2187500000,170124.8750000000,160140.5625000000,128378.2109375000,54148.2031250000,108161.5703125000,148426.4375000000,,,
2.6279999958,20,160956.6562500000,144896.2500000000,170109.4218750000,160127.5312500000,128368.3437500000,54143.3750000000,108146.9765625000,148502.2968750000,,,
2.6319999958,20,160803.1250000000,144889.7031250000,169954.9218750000,159989.7968750000,128221.4609375000,54007.3320312500,108002.3281250000,148655.5468750000,,,
2.6359999957,20,160723.3750000000,144858.8593750000,169877.8906250000,159914.5000000000,128142.1796875000,53925.2304687500,107925.1562500000,148670.0937500000,,,
2.6399999957,20,160838.5000000000,144854.2968750000,169998.0312500000,160015.4687500000,128251.1015625000,54023.8281250000,108031.8593750000,148535.1718750000,,,
2.6439999957,20,160971.8281250000,144863.9531250000,170134.0468750000,160129.0781250000,128381.4843750000,54154.0507812500,108159.4531250000,148420.0625000000,,,
2.6479999959,20,160947.9531250000,144880.5312500000,170106.7187500000,160108.8906250000,128360.6406250000,54145.0898437500,108138.7734375000,148487.7343750000,,,
2.6519999958,20,160821.9531250000,144898.2812500000,169977.4218750000,159998.6406250000,128239.8671875000,54033.8593750000,108026.0078125000,148660.2187500000,,,
2.6559999958,20,160755.2500000000,144882.2968750000,169908.3281250000,159942.7187500000,128171.9218750000,53965.9726562500,107963.7031250000,148691.5781250000,,,
2.6599999957,20,160848.5781250000,144863.4687500000,170004.5000000000,160022.2968750000,128262.3984375000,54050.3007812500,108057.0468750000,148547.5937500000,,,
2.6639999957,20,160975.7187500000,144868.8906250000,170133.0468750000,160132.3593750000,128388.0000000000,54175.6406250000,108180.6406250000,148425.5781250000,,,
2.6679999956,20,160966.0937500000,144903.2812500000,170121.9218750000,160121.4062500000,128384.9687500000,54180.0390625000,108175.1953125000,148506.1562500000,,,
2.6719999958,20,160824.0937500000,144911.2968750000,169977.7500000000,159997.5156250000,128252.7890625000,54057.6757812500,108046.6093750000,148674.8593750000,,,
2.6759999958,20,160768.7656250000,144907.9375000000,169922.7187500000,159954.5000000000,128199.0156250000,54004.1679687500,107999.8281250000,148722.2812500000,,,
2.6799999957,20,160880.0937500000,144905.6875000000,170039.1718750000,160050.5468750000,128306.9765625000,54107.9140625000,108109.5312500000,148595.6562500000,,,
2.6839999957,20,161001.6093750000,144905.4531250000,170165.0781250000,160157.6406250000,128428.8281250000,54225.8515625000,108228.8125000000,148471.6406250000,,,
2.6879999957,21,160969.5781250000,144914.4843750000,170131.3125000000,160130.7187500000,128403.5859375000,54207.0234375000,108203.3593750000,148529.2031250000,,,
2.6919999956,21,160824.8437500000,144917.3906250000,169983.0156250000,160002.6093750000,128266.7656250000,54082.6484375000,108069.7265625000,148688.2187500000,,,
2.6959999956,21,160769.5625000000,144910.8750000000,169927.0000000000,159952.2968750000,128213.2812500000,54027.6914062500,108017.3750000000,148728.5625000000,,,
2.6999999955,21,160884.9843750000,144910.1406250000,170044.5312500000,160055.9687500000,128322.6875000000,54129.3984375000,108123.6171875000,148601.9687500000,,,
2.7039999955,21,161009.9687500000,144913.3593750000,170169.3750000000,160165.0781250000,128442.5859375000,54249.6171875000,108245.6328125000,148478.0468750000,,,
2.7079999954,21,160981.1406250000,144920.2500000000,170134.1718750000,160137.3437500000,128411.4218750000,54225.7695312500,108216.6640625000,148528.9843750000,,,
2.7119999956,21,160832.7031250000,144921.1875000000,169980.0625000000,160000.1718750000,128265.1875000000,54092.6250000000,108078.2343750000,148691.6093750000,,,
2.7159999956,21,160766.2343750000,144912.3437500000,169912.5000000000,159936.3906250000,128198.2109375000,54035.3867187500,108019.0078125000,148736.3125000000,,,
2.7199999955,21,160876.0468750000,144908.3125000000,170025.1718750000,160029.4375000000,128301.0156250000,54129.8828125000,108119.2421875000,148607.0312500000,,,
2.7239999955,21,161006.7500000000,144911.8281250000,170158.6718750000,160140.2187500000,128428.8515625000,54253.1835937500,108239.5703125000,148484.5312500000,,,
2.7279999955,21,160986.7500000000,144926.7812500000,170136.1562500000,160124.9218750000,128413.4843750000,54245.3515625000,108217.7109375000,148547.1406250000,,,
2.7319999957,21,160831.4218750000,144922.8906250000,169978.5625000000,159991.7500000000,128264.5703125000,54111.5078125000,108069.6484375000,148704.9843750000,,,
2.7359999956,21,160765.3750000000,144910.2187500000,169914.6718750000,159929.4375000000,128199.0390625000,54040.1875000000,108009.5703125000,148746.2968750000,,,
2.7399999956,21,160880.2031250000,144908.3125000000,170035.5781250000,160034.8593750000,128309.9531250000,54134.1992187500,108119.8593750000,148620.7968750000,,,
2.7439999955,21,161024.4843750000,144921.3281250000,170184.1406250000,160160.4375000000,128451.3281250000,54267.1835937500,108255.9531250000,148502.2343750000,,,
2.7479999955,21,161008.4687500000,144937.6875000000,170166.5468750000,160145.4218750000,128436.4687500000,54258.1171875000,108239.1640625000,148558.6250000000,,,
2.7519999954,21,160866.5468750000,144942.8593750000,170022.7812500000,160017.8281250000,128300.6406250000,54130.4453125000,108108.1640625000,148719.5312500000,,,
2.7559999956,21,160765.1718750000,144903.6875000000,169919.5781250000,159923.7812500000,128198.2656250000,54028.4414062500,108010.3750000000,148735.6250000000,,,
2.7599999956,21,160869.7187500000,144896.1093750000,170026.6250000000,160029.4843750000,128296.0000000000,54113.7890625000,108101.8906250000,148602.4218750000,,,
2.7639999955,21,161018.7187500000,144916.9062500000,170177.1250000000,160164.3281250000,128442.9609375000,54248.1953125000,108235.2187500000,148490.5937500000,,,
2.7679999955,21,160993.7187500000,144927.1718750000,170148.7343750000,160137.8750000000,128422.2265625000,54233.2812500000,108206.7109375000,148544.4531250000,,,
2.7719999955,21,160845.2343750000,144929.3750000000,169996.9843750000,160005.6718750000,128279.6718750000,54101.4492187500,108062.0312500000,148707.8281250000,,,
2.7759999956,21,160774.0156250000,144913.4687500000,169926.0937500000,159947.5000000000,128209.1562500000,54024.5234375000,107987.2265625000,148750.5625000000,,,
2.7799999956,21,160875.0625000000,144900.0000000000,170031.9375000000,160031.3125000000,128305.7890625000,54107.3515625000,108079.1171875000,148611.0000000000,,,
2.7839999956,21,160996.7500000000,144899.0156250000,170154.3437500000,160130.2812500000,128423.2734375000,54217.7226562500,108184.9296875000,148477.9687500000,,,
2.7879999955,21,160983.0156250000,144922.6093750000,170135.2500000000,160117.8750000000,128409.4062500000,54208.1210937500,108165.4062500000,148543.8750000000,,,
2.7919999955,21,160853.2500000000,144937.0937500000,170001.4687500000,160004.4843750000,128280.5781250000,54081.0117187500,108039.2578125000,148709.6250000000,,,
2.7959999954,21,160769.6406250000,144912.4531250000,169915.2500000000,159934.5468750000,128193.1953125000,53987.7265625000,107951.0703125000,148736.5000000000,,,
2.7999999956,21,160854.9375000000,144887.1875000000,170002.4843750000,160011.4062500000,128270.7109375000,54049.2265625000,108020.8593750000,148586.1875000000,,,
2.8039999956,21,160992.1406250000,144892.3281250000,170140.3437500000,160126.6406250000,128404.2265625000,54174.3515625000,108144.0000000000,148457.4687500000,,,
2.8079999955,21,160977.5156250000,144908.3125000000,170122.7031250000,160114.6718750000,128391.3046875000,54155.1210937500,108118.4375000000,148512.5312500000,,,
2.8119999955,21,160815.5156250000,144895.9062500000,169959.5312500000,159974.1093750000,128233.7187500000,54001.9414062500,107953.6406250000,148661.9687500000,,,
2.8159999955,22,160741.9375000000,144880.2656250000,169888.6250000000,159913.4531250000,128161.0078125000,53928.9296875000,107881.6796875000,148707.2343750000,,,
2.8199999954,22,160842.9218750000,144868.2187500000,169994.3593750000,160008.8906250000,128253.6796875000,54005.8046875000,107971.0546875000,148570.6875000000,,,
2.8239999954,22,160990.5468750000,144882.6562500000,170146.7812500000,160134.0156250000,128398.1171875000,54140.3710937500,108107.8671875000,148451.4062500000,,,
2.8279999953,22,160990.3906250000,144913.8437500000,170144.4218750000,160134.5312500000,128399.3984375000,54149.9453125000,108100.8437500000,148522.5156250000,,,
2.8319999953,22,160834.9531250000,144910.0156250000,169985.3906250000,159996.0156250000,128247.5625000000,54011.0585937500,107948.9218750000,148675.7500000000,,,
2.8359999952,22,160752.6093750000,144887.9375000000,169904.2656250000,159927.8125000000,128166.1875000000,53919.2226562500,107867.5156250000,148710.8593750000,,,
2.8399999954,22,160855.3437500000,144878.3593750000,170013.9687500000,160025.7812500000,128266.1796875000,54002.3164062500,107959.0078125000,148577.5000000000,,,
2.8439999954,22,160992.6718750000,144883.1406250000,170155.3906250000,160143.9062500000,128402.1640625000,54132.0000000000,108085.3437500000,148446.8593750000,,,
2.8479999953,22,160974.9687500000,144895.7968750000,170133.7812500000,160120.1718750000,128387.0937500000,54117.6250000000,108065.7031250000,148496.0625000000,,,
2.8519999953,22,160815.4843750000,144887.2187500000,169969.8437500000,159972.1250000000,128233.0781250000,53969.2968750000,107911.0781250000,148647.4843750000,,,
2.8559999953,22,160736.5781250000,144872.6718750000,169888.2968750000,159898.9218750000,128152.7734375000,53888.8867187500,107830.5000000000,148695.6875000000,,,
2.8599999954,22,160845.5000000000,144874.6250000000,170000.8437500000,160006.5000000000,128253.1640625000,53978.5000000000,107926.6875000000,148576.7812500000,,,
2.8639999954,22,160988.6406250000,144888.5000000000,170142.9531250000,160145.7031250000,128386.9296875000,54112.6640625000,108052.2421875000,148452.6718750000,,,
2.8679999954,22,160989.1250000000,144913.4218750000,170138.8125000000,160152.1250000000,128385.3203125000,54114.7539062500,108048.6484375000,148509.7187500000,,,
2.8719999953,22,160853.6250000000,144924.0312500000,170000.9843750000,160029.5781250000,128256.3593750000,53990.1132812500,107920.5468750000,148679.2343750000,,,
2.8759999953,22,160751.9218750000,144888.6250000000,169897.7968750000,159936.9531250000,128155.4296875000,53887.0351562500,107815.7265625000,148707.8593750000,,,
2.8799999952,22,160847.4375000000,144876.6093750000,169999.0468750000,160017.2031250000,128251.0234375000,53967.2343750000,107909.9218750000,148578.1718750000,,,
2.8839999954,22,160986.0156250000,144877.2812500000,170142.1093750000,160138.7968750000,128389.9609375000,54094.1835937500,108038.6953125000,148442.9375000000,,,
2.8879999954,22,160966.6875000000,144880.8750000000,170122.1093750000,160118.5625000000,128374.5937500000,54079.1367187500,108015.0937500000,148483.2500000000,,,
2.8919999953,22,160811.3593750000,144871.2187500000,169965.2031250000,159980.8281250000,128226.5078125000,53934.2968750000,107867.8437500000,148630.7187500000,,,
2.8959999953,22,160736.4062500000,144859.6875000000,169888.8906250000,159908.0625000000,128149.9531250000,53856.0000000000,107791.6640625000,148682.1875000000,,,
2.8999999953,22,160839.0312500000,144856.9218750000,169993.1718750000,159998.4375000000,128242.3593750000,53937.3281250000,107881.5156250000,148562.2968750000,,,
2.9039999954,22,160975.8281250000,144865.7500000000,170129.4843750000,160128.1718750000,128372.4453125000,54061.6210937500,108004.8437500000,148436.9062500000,,,
2.9079999954,22,160962.3593750000,144880.6875000000,170111.4375000000,160117.3281250000,128357.7734375000,54050.8359375000,107981.9375000000,148483.1718750000,,,
2.9119999954,22,160813.6562500000,144880.9062500000,169959.2187500000,159986.5156250000,128211.5703125000,53909.5390625000,107833.2968750000,148638.7343750000,,,
2.9159999953,22,160725.7343750000,144860.3125000000,169872.3437500000,159916.1875000000,128122.3281250000,53817.8320312500,107744.5156250000,148679.5625000000,,,
2.9199999953,22,160814.1718750000,144844.0312500000,169967.0468750000,160002.6406250000,128207.3046875000,53887.4101562500,107823.1796875000,148542.8750000000,,,
2.9239999952,22,160941.9218750000,144835.9531250000,170100.2500000000,160113.1250000000,128332.9921875000,54003.4960937500,107939.0781250000,148394.2031250000,,,
2.9279999954,22,160931.7343750000,144846.4218750000,170088.9218750000,160099.6875000000,128327.0390625000,54011.2226562500,107927.2500000000,148438.8593750000,,,
2.9319999954,22,160802.6875000000,144860.7656250000,169958.6875000000,159991.8906250000,128205.7500000000,53898.0585937500,107807.5156250000,148615.3437500000,,,
2.9359999953,22,160719.0625000000,144842.1718750000,169874.6718750000,159924.9687500000,128122.9765625000,53807.1875000000,107721.6875000000,148662.8437500000,,,
2.9399999953,22,160833.1875000000,144847.5625000000,169990.4687500000,160024.3906250000,128230.9609375000,53901.6796875000,107825.7031250000,148553.2500000000,,,
2.9439999952,23,160990.2031250000,144870.3906250000,170144.4218750000,160161.0468750000,128377.4062500000,54046.2500000000,107963.8125000000,148435.8750000000,,,
2.9479999952,23,160986.5625000000,144895.0468750000,170133.1875000000,160155.9531250000,128370.4375000000,54051.0781250000,107952.4062500000,148492.3437500000,,,
2.9519999952,23,160838.0937500000,144897.3281250000,169978.2343750000,160029.9687500000,128222.9140625000,53912.4335937500,107805.4531250000,148653.3593750000,,,
2.9559999951,23,160740.8437500000,144873.3125000000,169879.1562500000,159943.5781250000,128124.2343750000,53809.3320312500,107708.3828125000,148692.9218750000,,,
2.9599999951,23,160839.7656250000,144865.8281250000,169983.3281250000,160017.7343750000,128219.6171875000,53884.7539062500,107798.0234375000,148567.9062500000,,,
