Time:250Hz,Epoch,Channel 1,Channel 2,Channel 3,Channel 4,Channel 5,Channel 6,Channel 7,Channel 8,Event Id,Event Date,Event Duration
0.0000000000,0,150615.9843750000,199599.5937500000,175869.9531250000,151829.7031250000,117644.0078125000,151373.2812500000,131890.2968750000,143713.0468750000,,,
0.0040000000,0,150250.6093750000,197713.5937500000,175509.8125000000,151452.1406250000,117283.8203125000,151038.3750000000,131553.0625000000,143473.7343750000,,,
0.0079999999,0,149504.9218750000,201042.3437500000,174509.2343750000,150623.5156250000,116551.0625000000,150337.4531250000,130856.3593750000,142912.6718750000,,,
0.0119999999,0,149407.7031250000,205000.9687500000,174338.7343750000,150523.4687500000,116459.7578125000,150242.4531250000,130758.7031250000,142806.4843750000,,,
0.0159999998,0,150064.7031250000,204093.5156250000,175154.6875000000,151231.5468750000,117128.3046875000,150879.9843750000,131350.9375000000,143277.8906250000,,,
0.0199999998,0,150597.5468750000,199595.3281250000,175908.8906250000,151799.5312500000,117655.5468750000,151401.5000000000,131877.5625000000,143711.5937500000,,,
0.0240000000,0,150259.0937500000,197739.2812500000,175577.7968750000,151438.4218750000,117309.5937500000,151085.4531250000,131612.4687500000,143496.7500000000,,,
0.0279999999,0,149534.5937500000,201047.2031250000,174596.6250000000,150615.0156250000,116596.5781250000,150384.4843750000,130939.3984375000,142947.5781250000,,,
0.0319999999,0,149421.2656250000,204962.2968750000,174395.2656250000,150511.0312500000,116484.9453125000,150270.1562500000,130810.3828125000,142827.8593750000,,,
0.0359999998,0,150049.1718750000,204058.3593750000,175155.7343750000,151219.4843750000,117114.0625000000,150874.5781250000,131362.5937500000,143276.8906250000,,,
0.0399999998,0,150588.4062500000,199606.9687500000,175887.3750000000,151803.5000000000,117637.4375000000,151400.6875000000,131896.3593750000,143710.7187500000,,,
0.0440000000,0,150246.6718750000,197769.6250000000,175532.1562500000,151435.3125000000,117288.8046875000,151068.0468750000,131608.3906250000,143484.6875000000,,,
0.0480000000,0,149506.9375000000,201015.7343750000,174530.0468750000,150623.4687500000,116560.3437500000,150358.1718750000,130909.1953125000,142921.3593750000,,,
0.0519999999,0,149404.1093750000,204868.9218750000,174353.5625000000,150506.2812500000,116461.7734375000,150254.5312500000,130797.0000000000,142807.4843750000,,,
0.0559999999,0,150058.7187500000,203996.6406250000,175145.7500000000,151208.2968750000,117108.0234375000,150874.6562500000,131392.8750000000,143277.3437500000,,,
0.0599999998,0,150595.2187500000,199614.0468750000,175900.2031250000,151801.4062500000,117635.5625000000,151380.5781250000,131894.5937500000,143707.6875000000,,,
0.0639999998,0,150266.3593750000,197808.1093750000,175594.1562500000,151446.2812500000,117312.3046875000,151061.6562500000,131579.3281250000,143498.2031250000,,,
0.0680000000,0,149526.6562500000,201017.0625000000,174597.9062500000,150631.9687500000,116582.8750000000,150351.3750000000,130889.1640625000,142935.9375000000,,,
0.0719999999,0,149405.0468750000,204831.0312500000,174372.6093750000,150517.3906250000,116461.4765625000,150233.0468750000,130779.0859375000,142806.2968750000,,,
0.0759999999,0,150050.0625000000,203984.6250000000,175146.3906250000,151210.7343750000,117099.1718750000,150844.3906250000,131373.4062500000,143269.7031250000,,,
0.0799999998,0,150575.7812500000,199653.1562500000,175892.5625000000,151788.3437500000,117616.3281250000,151347.7187500000,131865.7031250000,143694.2187500000,,,
0.0839999998,0,150238.5937500000,197856.2031250000,175569.1093750000,151438.9687500000,117284.5390625000,151028.6406250000,131553.4062500000,143476.8593750000,,,
0.0880000000,0,149503.8281250000,201027.9531250000,174563.9218750000,150627.0781250000,116565.9531250000,150327.0000000000,130864.1875000000,142918.5000000000,,,
0.0919999999,0,149394.2031250000,204837.5468750000,174356.8281250000,150506.0937500000,116456.9218750000,150214.2968750000,130744.8359375000,142800.7968750000,,,
0.0959999999,0,150038.6562500000,204017.1406250000,175124.4062500000,151208.6406250000,117090.8046875000,150830.0468750000,131338.9687500000,143264.0781250000,,,
0.0999999999,0,150548.2812500000,199711.5781250000,175842.8906250000,151788.9843750000,117592.5156250000,151316.6250000000,131824.5781250000,143667.7187500000,,,
0.1039999998,0,150220.4843750000,197905.2656250000,175513.7968750000,151435.0468750000,117267.1562500000,151002.0781250000,131524.8437500000,143455.2343750000,,,
0.1079999998,0,149488.0000000000,201053.5937500000,174512.7031250000,150622.7968750000,116546.9296875000,150300.6093750000,130836.4062500000,142899.2656250000,,,
0.1120000000,0,149356.8437500000,204846.3906250000,174279.5625000000,150478.3281250000,116415.0781250000,150163.0312500000,130702.6718750000,142756.2968750000,,,
0.1159999999,0,150003.9062500000,204029.8437500000,175045.9218750000,151178.2812500000,117052.6875000000,150776.4062500000,131307.3125000000,143218.8750000000,,,
0.1199999999,0,150543.8906250000,199719.8281250000,175793.2968750000,151774.5312500000,117581.8359375000,151296.9687500000,131814.6562500000,143657.5312500000,,,
0.1239999998,0,150214.1250000000,197901.1093750000,175476.4218750000,151437.7343750000,117254.7109375000,150983.2343750000,131506.2031250000,143448.4687500000,,,
0.1279999998,1,149475.7968750000,201029.5625000000,174474.1875000000,150612.5781250000,116530.1953125000,150280.7343750000,130817.4921875000,142889.9843750000,,,
0.1319999998,1,149354.5625000000,204821.0468750000,174260.7500000000,150464.6718750000,116414.2187500000,150157.8125000000,130698.3203125000,142760.8125000000,,,
0.1359999997,1,150008.8437500000,204035.1875000000,175062.3906250000,151157.5937500000,117062.1015625000,150779.0000000000,131302.1093750000,143230.4062500000,,,
0.1399999997,1,150534.6093750000,199744.6718750000,175792.1093750000,151751.9531250000,117578.0781250000,151284.9218750000,131793.5468750000,143649.6406250000,,,
0.1439999996,1,150208.3437500000,197852.3437500000,175441.2187500000,151412.3281250000,117254.9531250000,150984.8593750000,131494.4843750000,143442.4375000000,,,
0.1479999996,1,149465.8437500000,200906.0156250000,174450.8750000000,150594.2500000000,116524.7812500000,150275.1562500000,130797.3515625000,142879.6562500000,,,
0.1519999998,1,149341.9062500000,204689.4843750000,174247.7968750000,150454.6250000000,116398.1796875000,150151.2343750000,130684.6718750000,142749.8125000000,,,
0.1559999997,1,149994.1406250000,203979.7500000000,175063.7500000000,151163.1718750000,117039.0390625000,150771.6250000000,131292.2656250000,143220.1718750000,,,
0.1599999997,1,150526.0937500000,199779.1093750000,175817.7812500000,151760.8281250000,117562.8750000000,151280.1718750000,131788.8281250000,143642.1093750000,,,
0.1639999996,1,150191.3281250000,197875.6250000000,175452.9218750000,151409.1875000000,117232.4218750000,150972.9531250000,131478.3593750000,143424.3125000000,,,
0.1679999996,1,149470.8906250000,200883.3281250000,174463.9062500000,150612.1718750000,116524.2421875000,150290.7343750000,130804.9375000000,142881.9687500000,,,
0.1719999998,1,149356.6093750000,204648.5000000000,174266.8437500000,150471.9687500000,116410.4062500000,150170.0156250000,130690.3593750000,142761.2343750000,,,
0.1759999997,1,149988.3437500000,203966.4375000000,175068.9062500000,151159.4843750000,117034.3984375000,150767.5781250000,131280.9062500000,143214.4218750000,,,
0.1799999997,1,150513.3906250000,199794.0781250000,175795.5781250000,151747.6562500000,117551.3437500000,151269.4687500000,131781.4531250000,143631.6718750000,,,
0.1839999997,1,150197.0000000000,197877.0781250000,175424.5156250000,151406.0000000000,117240.1796875000,150974.6718750000,131491.8750000000,143428.9531250000,,,
0.1879999996,1,149482.0781250000,200831.5000000000,174430.9375000000,150613.1406250000,116537.4140625000,150294.9531250000,130817.7343750000,142890.3125000000,,,
0.1919999996,1,149361.3750000000,204568.0312500000,174231.8750000000,150474.5156250000,116418.8593750000,150172.4531250000,130697.9453125000,142765.6406250000,,,
0.1959999998,1,149984.0781250000,203930.9218750000,175058.0156250000,151160.6250000000,117031.8750000000,150764.7343750000,131278.8281250000,143214.6406250000,,,
0.1999999997,1,150504.1093750000,199841.1562500000,175829.9062500000,151745.2187500000,117543.3203125000,151272.1562500000,131772.7343750000,143630.4062500000,,,
0.2039999997,1,150197.7968750000,197936.5312500000,175489.6093750000,151416.6718750000,117243.0234375000,150992.2187500000,131495.5000000000,143432.9218750000,,,
0.2079999996,1,149491.7656250000,200825.5468750000,174489.4375000000,150626.3906250000,116548.3281250000,150327.4531250000,130833.3437500000,142901.2968750000,,,
0.2119999996,1,149368.7031250000,204509.8750000000,174276.1562500000,150487.5312500000,116428.1093750000,150219.0937500000,130717.6640625000,142777.0312500000,,,
0.2159999998,1,149995.5312500000,203907.6250000000,175099.1093750000,151167.9062500000,117049.7421875000,150823.0156250000,131315.8281250000,143233.5000000000,,,
0.2199999997,1,150511.8906250000,199891.6875000000,175867.0000000000,151752.4531250000,117561.9375000000,151319.9843750000,131816.1406250000,143646.4531250000,,,
0.2239999997,1,150218.9062500000,197995.1406250000,175521.6406250000,151434.4375000000,117277.2734375000,151052.1093750000,131552.0781250000,143459.9843750000,,,
0.2279999997,1,149521.4062500000,200822.6250000000,174523.5937500000,150646.2656250000,116597.8437500000,150393.2968750000,130901.5000000000,142932.7656250000,,,
0.2319999996,1,149396.0625000000,204474.9843750000,174311.3437500000,150497.5156250000,116478.0000000000,150275.0781250000,130771.6015625000,142809.0156250000,,,
0.2359999996,1,150017.1250000000,203938.4687500000,175120.0000000000,151171.7656250000,117086.2734375000,150871.5468750000,131361.0468750000,143267.8750000000,,,
0.2399999998,1,150536.5625000000,200014.0468750000,175879.6562500000,151760.8281250000,117595.3828125000,151373.7812500000,131856.4531250000,143688.3437500000,,,
0.2439999997,1,150236.0000000000,198133.4062500000,175523.0000000000,151450.8437500000,117298.4062500000,151094.1093750000,131571.1093750000,143492.4375000000,,,
0.2479999997,1,149540.9218750000,200893.9687500000,174513.4218750000,150665.2343750000,116614.2578125000,150432.6562500000,130926.0156250000,142962.8593750000,,,
0.2519999996,1,149417.1875000000,204492.2812500000,174287.8437500000,150518.7187500000,116491.1953125000,150317.2968750000,130824.2031250000,142841.0312500000,,,
0.2559999996,2,150018.0625000000,203985.8906250000,175093.1562500000,151181.0937500000,117088.8984375000,150885.5937500000,131378.4843750000,143275.4375000000,,,
0.2599999995,2,150535.9218750000,200139.5937500000,175855.4062500000,151764.1250000000,117594.5234375000,151377.5156250000,131859.9062500000,143692.5000000000,,,
0.2639999995,2,150243.2656250000,198276.6093750000,175515.5156250000,151440.0156250000,117304.1718750000,151095.0000000000,131595.4687500000,143501.1562500000,,,
0.2679999995,2,149541.9687500000,200959.0156250000,174508.8125000000,150659.8281250000,116621.1484375000,150420.0000000000,130942.2734375000,142960.3906250000,,,
0.2719999994,2,149409.3593750000,204492.2656250000,174277.6562500000,150510.4843750000,116487.7890625000,150283.4375000000,130807.9453125000,142826.2812500000,,,
0.2759999994,2,150017.4531250000,204017.8593750000,175094.6250000000,151173.4218750000,117083.0781250000,150850.5156250000,131383.8750000000,143266.1406250000,,,
0.2799999996,2,150525.8281250000,200255.7968750000,175860.0781250000,151753.9375000000,117576.8984375000,151330.3906250000,131860.2031250000,143673.6250000000,,,
0.2839999995,2,150234.1093750000,198407.7031250000,175500.6562500000,151432.9843750000,117291.0312500000,151060.8750000000,131585.4062500000,143483.9375000000,,,
0.2879999995,2,149573.8906250000,200998.1250000000,174503.8437500000,150675.3906250000,116640.4609375000,150435.4375000000,130959.6484375000,142985.5468750000,,,
0.2919999994,2,149446.0625000000,204443.7343750000,174279.5781250000,150531.6562500000,116508.1484375000,150295.2656250000,130824.4921875000,142853.2968750000,,,
0.2959999994,2,150015.0000000000,203989.6406250000,175068.3906250000,151169.7968750000,117062.5078125000,150825.6718750000,131340.9843750000,143258.7343750000,,,
0.2999999996,2,150507.3281250000,200296.8750000000,175828.2187500000,151736.9062500000,117544.9531250000,151292.3281250000,131799.4531250000,143648.6250000000,,,
0.3039999995,2,150229.4531250000,198455.0625000000,175502.9687500000,151435.2343750000,117278.4218750000,151028.0781250000,131550.7343750000,143464.5625000000,,,
0.3079999995,2,149578.6406250000,200978.4062500000,174533.6406250000,150683.2031250000,116641.6171875000,150410.5468750000,130937.2031250000,142974.3437500000,,,
0.3119999995,2,149440.6093750000,204369.3593750000,174305.3593750000,150541.2500000000,116502.4609375000,150275.9843750000,130793.4062500000,142842.3750000000,,,
0.3159999994,2,149982.0625000000,203952.0156250000,175075.0000000000,151159.7500000000,117036.7812500000,150780.0312500000,131299.7343750000,143224.9687500000,,,
0.3199999994,2,150473.7187500000,200349.4531250000,175828.9843750000,151718.4531250000,117518.5625000000,151248.0781250000,131761.7187500000,143617.3125000000,,,
0.3239999996,2,150217.3437500000,198528.7187500000,175510.8750000000,151430.5468750000,117270.7265625000,151006.6406250000,131524.4375000000,143456.2812500000,,,
0.3279999995,2,149569.3906250000,200976.8437500000,174518.3906250000,150696.6875000000,116640.3046875000,150389.2812500000,130918.0468750000,142967.3593750000,,,
0.3319999995,2,149438.9531250000,204305.5781250000,174289.6406250000,150548.6250000000,116513.2734375000,150257.8750000000,130783.8046875000,142841.9531250000,,,
0.3359999994,2,149978.9062500000,203939.7500000000,175066.6250000000,151162.5156250000,117036.5468750000,150767.5000000000,131286.3437500000,143229.1562500000,,,
0.3399999994,2,150446.1718750000,200448.3281250000,175822.9531250000,151714.3750000000,117489.5937500000,151218.6250000000,131736.6562500000,143596.3906250000,,,
0.3439999996,2,150202.8906250000,198677.3125000000,175513.3750000000,151429.0937500000,117249.3515625000,150996.0781250000,131513.2656250000,143444.2656250000,,,
0.3479999995,2,149588.5937500000,201074.9062500000,174552.1562500000,150692.9375000000,116655.5625000000,150408.6250000000,130941.4140625000,142978.6875000000,,,
0.3519999995,2,149447.8281250000,204337.5312500000,174298.4218750000,150543.2656250000,116513.2968750000,150263.6250000000,130795.7968750000,142841.5468750000,,,
0.3559999994,2,149968.3593750000,203988.2968750000,175050.5312500000,151159.1093750000,117018.4140625000,150750.0156250000,131273.2812500000,143214.9843750000,,,
0.3599999994,2,150443.7031250000,200554.5937500000,175813.8125000000,151704.5625000000,117482.6484375000,151202.4687500000,131717.2968750000,143594.5156250000,,,
0.3639999994,2,150204.2812500000,198773.9218750000,175498.4375000000,151417.4843750000,117249.1093750000,150981.7500000000,131496.6093750000,143445.1250000000,,,
0.3679999996,2,149583.3593750000,201065.9062500000,174517.3125000000,150694.6562500000,116640.3515625000,150389.2343750000,130910.6171875000,142971.3281250000,,,
0.3719999995,2,149456.5468750000,204251.2343750000,174295.5937500000,150546.2656250000,116515.7109375000,150256.2968750000,130786.0859375000,142844.9531250000,,,
0.3759999995,2,149989.0625000000,203925.1875000000,175082.5312500000,151154.2968750000,117035.8437500000,150752.7500000000,131276.4531250000,143225.6406250000,,,
0.3799999994,2,150463.9062500000,200563.0937500000,175840.9218750000,151698.3593750000,117494.3671875000,151208.0468750000,131714.2031250000,143606.5156250000,,,
0.3839999994,3,150212.9843750000,198786.0781250000,175514.2343750000,151420.1562500000,117250.1562500000,150973.5937500000,131483.5468750000,143441.1562500000,,,
0.3879999993,3,149592.5000000000,200996.7031250000,174520.2656250000,150707.5312500000,116648.4531250000,150386.6562500000,130905.5000000000,142965.3593750000,,,
0.3919999993,3,149454.2968750000,204123.3437500000,174269.2031250000,150544.7656250000,116514.0468750000,150248.5156250000,130772.4843750000,142831.7343750000,,,
0.3959999993,3,149969.8593750000,203831.8437500000,175035.4531250000,151126.2500000000,117017.9843750000,150731.2031250000,131252.3125000000,143203.3437500000,,,
0.3999999992,3,150452.3593750000,200563.7656250000,175815.6406250000,151675.0468750000,117491.8984375000,151193.7031250000,131712.9218750000,143594.4062500000,,,
0.4039999992,3,150220.8593750000,198832.9531250000,175520.9062500000,151414.6562500000,117269.8984375000,150984.1718750000,131507.1406250000,143451.6406250000,,,
0.4079999994,3,149599.6718750000,200997.0781250000,174517.9843750000,150700.5000000000,116662.0781250000,150398.9375000000,130918.3437500000,142977.2968750000,,,
0.4119999993,3,149458.1562500000,204066.7031250000,174243.2343750000,150541.9062500000,116519.9765625000,150257.5781250000,130775.1718750000,142841.8906250000,,,
0.4159999993,3,149967.7187500000,203807.1093750000,175019.9062500000,151133.7343750000,117015.9687500000,150732.6093750000,131249.5156250000,143211.8281250000,,,
0.4199999992,3,150427.3125000000,200594.7343750000,175790.6875000000,151681.9218750000,117461.9140625000,151178.8125000000,131680.7343750000,143583.5781250000,,,
0.4239999992,3,150203.0312500000,198859.2187500000,175489.4218750000,151433.2031250000,117243.1015625000,150975.5625000000,131474.0468750000,143442.6250000000,,,
0.4279999994,3,149599.5000000000,200973.5468750000,174500.6250000000,150704.7343750000,116661.4375000000,150407.3125000000,130920.9218750000,142984.2343750000,,,
0.4319999993,3,149469.2500000000,204017.8593750000,174251.9531250000,150534.5156250000,116531.6953125000,150273.0312500000,130793.9453125000,142856.8593750000,,,
0.4359999993,3,149960.5625000000,203793.5937500000,175011.4218750000,151120.8281250000,117005.0312500000,150733.6250000000,131240.8750000000,143209.2187500000,,,
0.4399999992,3,150421.6875000000,200636.7500000000,175788.2968750000,151683.3437500000,117454.7265625000,151172.2656250000,131670.4843750000,143574.4531250000,,,
0.4439999992,3,150207.0781250000,198898.9218750000,175505.3750000000,151435.0000000000,117246.7187500000,150976.3593750000,131475.7656250000,143439.0625000000,,,
0.4479999992,3,149585.4218750000,200972.3437500000,174505.9375000000,150710.6093750000,116644.2734375000,150390.6250000000,130900.6953125000,142961.5468750000,,,
0.4519999993,3,149430.8750000000,204006.1875000000,174232.5937500000,150523.2500000000,116493.5546875000,150233.5781250000,130756.7656250000,142812.5781250000,,,
0.4559999993,3,149937.9531250000,203797.5156250000,175000.8125000000,151104.0937500000,116986.7109375000,150712.4375000000,131228.7343750000,143182.5625000000,,,
0.4599999993,3,150407.5468750000,200645.7812500000,175795.2500000000,151655.7656250000,117445.7109375000,151158.0312500000,131671.3281250000,143557.1562500000,,,
0.4639999992,3,150195.7031250000,198893.2031250000,175526.4687500000,151412.2968750000,117244.0937500000,150958.7656250000,131476.5468750000,143421.2812500000,,,
0.4679999992,3,149597.1250000000,200931.5781250000,174541.8750000000,150703.8281250000,116661.7031250000,150398.2343750000,130911.9375000000,142966.9375000000,,,
0.4719999994,3,149453.8125000000,203968.0468750000,174272.6093750000,150541.4375000000,116517.6718750000,150255.2031250000,130762.1562500000,142831.7031250000,,,
0.4759999993,3,149939.0781250000,203794.0781250000,175017.0000000000,151110.5468750000,116985.0468750000,150702.8593750000,131210.5781250000,143174.3593750000,,,
0.4799999993,3,150401.2500000000,200661.1875000000,175788.4843750000,151650.8906250000,117433.8593750000,151143.6250000000,131652.5156250000,143543.3750000000,,,
0.4839999992,3,150195.2812500000,198897.0312500000,175517.3437500000,151402.7031250000,117233.8203125000,150955.6875000000,131465.1093750000,143419.4218750000,,,
0.4879999992,3,149617.0156250000,200927.1406250000,174542.1406250000,150702.3281250000,116669.0234375000,150411.1406250000,130920.6015625000,142986.0625000000,,,
0.4919999992,3,149461.8593750000,203969.9843750000,174259.7031250000,150536.5625000000,116515.2578125000,150252.7031250000,130766.5625000000,142839.2968750000,,,
0.4959999993,3,149949.0781250000,203812.4843750000,175013.1093750000,151119.8125000000,116992.7968750000,150709.3437500000,131218.5312500000,143188.2968750000,,,
0.4999999993,3,150412.3750000000,200701.2500000000,175790.4218750000,151653.0000000000,117444.2109375000,151155.7187500000,131656.7812500000,143561.7968750000,,,
0.5039999993,3,150202.3281250000,198925.2031250000,175498.6718750000,151419.8593750000,117241.6250000000,150970.8593750000,131469.4062500000,143430.8750000000,,,
0.5079999992,3,149613.8750000000,200925.6718750000,174521.8750000000,150731.5312500000,116670.9609375000,150413.0468750000,130922.3984375000,142982.5781250000,,,
0.5119999992,4,149466.8125000000,203957.7812500000,174266.1406250000,150562.1562500000,116527.0859375000,150260.2343750000,130781.2812500000,142845.5156250000,,,
0.5159999991,4,149956.5000000000,203824.0156250000,175033.7500000000,151123.4843750000,117000.2265625000,150719.0625000000,131231.5468750000,143201.2343750000,,,
0.5199999991,4,150412.1562500000,200715.5000000000,175805.0312500000,151666.2500000000,117440.5078125000,151157.2812500000,131655.2343750000,143564.9687500000,,,
0.5239999990,4,150205.3593750000,198921.7343750000,175526.6718750000,151425.4375000000,117243.6406250000,150967.9687500000,131468.2500000000,143431.8437500000,,,
0.5279999990,4,149602.2187500000,200901.8750000000,174536.6250000000,150719.9375000000,116655.6953125000,150395.8593750000,130906.9453125000,142967.3906250000,,,
0.5319999990,4,149454.2656250000,203935.3750000000,174262.5468750000,150545.2500000000,116508.7109375000,150246.6718750000,130764.6015625000,142829.8750000000,,,
0.5359999991,4,149962.1718750000,203824.5000000000,175033.3125000000,151122.8906250000,117006.7734375000,150723.9062500000,131238.7031250000,143204.5312500000,,,
0.5399999991,4,150439.6562500000,200745.4843750000,175832.1250000000,151684.2812500000,117471.6250000000,151184.6875000000,131684.8437500000,143591.9218750000,,,
0.5439999991,4,150224.1406250000,198933.5625000000,175561.5781250000,151440.0625000000,117267.9375000000,150978.8906250000,131493.7343750000,143444.7187500000,,,
0.5479999990,4,149613.6875000000,200873.4843750000,174556.9531250000,150714.2343750000,116671.8437500000,150405.1875000000,130922.7187500000,142977.9375000000,,,
0.5519999990,4,149445.3593750000,203916.6093750000,174253.9218750000,150527.1406250000,116502.4062500000,150237.7656250000,130756.4453125000,142823.4375000000,,,
0.5559999992,4,149932.2343750000,203836.4843750000,174998.0625000000,151095.5312500000,116973.9140625000,150689.0937500000,131207.3750000000,143174.1718750000,,,
0.5599999991,4,150424.2343750000,200747.7812500000,175802.2031250000,151665.6093750000,117451.6953125000,151157.8750000000,131674.0312500000,143567.2187500000,,,
0.5639999991,4,150231.2968750000,198917.5781250000,175543.6562500000,151434.9062500000,117265.5468750000,150987.2031250000,131503.1250000000,143451.4531250000,,,
0.5679999990,4,149627.7968750000,200869.3125000000,174558.6093750000,150719.7500000000,116681.6875000000,150418.0625000000,130943.7968750000,142993.0625000000,,,
0.5719999990,4,149460.5156250000,203928.0781250000,174260.9687500000,150529.0468750000,116519.8671875000,150255.4687500000,130783.0312500000,142839.7968750000,,,
0.5759999990,4,149943.0468750000,203857.6562500000,175006.7343750000,151088.6875000000,116991.4843750000,150708.2500000000,131231.6250000000,143188.3593750000,,,
0.5799999991,4,150421.7343750000,200767.9531250000,175807.7187500000,151648.1562500000,117456.6562500000,151166.6406250000,131674.7031250000,143573.5468750000,,,
0.5839999991,4,150223.3906250000,198909.9375000000,175549.1562500000,151422.2500000000,117264.6640625000,150985.9843750000,131490.7031250000,143452.1250000000,,,
0.5879999991,4,149606.7968750000,200850.2187500000,174541.3906250000,150701.8437500000,116663.5312500000,150400.8906250000,130912.0390625000,142979.4843750000,,,
0.5919999990,4,149432.3750000000,203930.6250000000,174240.3125000000,150514.4062500000,116489.6953125000,150228.7500000000,130743.1953125000,142817.8593750000,,,
0.5959999990,4,149918.3593750000,203876.9062500000,174987.4218750000,151090.4062500000,116960.7968750000,150686.3593750000,131196.0000000000,143170.1875000000,,,
0.5999999992,4,150414.3281250000,200767.0156250000,175800.0156250000,151671.0000000000,117445.6328125000,151159.9062500000,131666.3125000000,143569.0156250000,,,
0.6039999991,4,150242.6718750000,198881.6718750000,175556.5625000000,151465.0937500000,117280.4921875000,151001.3593750000,131514.2187500000,143468.4843750000,,,
0.6079999991,4,149648.5625000000,200820.6406250000,174571.1718750000,150748.6718750000,116703.3593750000,150442.1250000000,130960.6406250000,143018.6562500000,,,
0.6119999990,4,149466.1250000000,203930.7343750000,174261.3125000000,150548.5468750000,116525.3984375000,150260.4843750000,130784.8750000000,142847.3125000000,,,
0.6159999990,4,149939.8750000000,203899.7812500000,175001.2812500000,151106.9843750000,116984.6718750000,150703.3437500000,131221.8437500000,143183.8750000000,,,
0.6199999989,4,150442.4687500000,200780.1093750000,175827.5468750000,151682.6718750000,117478.7343750000,151179.4843750000,131696.6406250000,143582.4218750000,,,
0.6239999991,4,150243.5312500000,198862.4843750000,175572.5781250000,151465.6718750000,117287.0078125000,150996.4062500000,131515.6250000000,143456.7812500000,,,
0.6279999991,4,149641.0312500000,200777.9375000000,174579.4062500000,150742.7500000000,116700.8906250000,150427.5000000000,130956.4296875000,143001.7031250000,,,
0.6319999991,4,149472.0937500000,203903.2968750000,174287.5312500000,150529.2343750000,116532.7968750000,150261.4218750000,130795.2343750000,142853.7812500000,,,
0.6359999990,4,149939.3125000000,203899.5156250000,175020.2812500000,151085.5781250000,116985.2578125000,150705.2656250000,131222.4843750000,143191.0312500000,,,
0.6399999990,5,150433.9375000000,200778.6093750000,175826.7968750000,151654.4531250000,117464.9453125000,151189.4687500000,131682.8281250000,143591.1406250000,,,
0.6439999989,5,150247.3593750000,198857.0937500000,175577.1875000000,151458.2812500000,117283.8671875000,151021.4218750000,131515.5937500000,143478.5937500000,,,
0.6479999989,5,149633.8593750000,200777.7968750000,174560.6875000000,150747.5156250000,116690.7812500000,150436.7031250000,130953.2968750000,143006.7656250000,,,
0.6519999988,5,149449.3281250000,203917.6562500000,174223.5781250000,150533.0781250000,116511.9062500000,150247.8437500000,130780.2109375000,142836.5312500000,,,
0.6559999988,5,149932.2343750000,203913.6562500000,174956.3125000000,151085.5781250000,116983.3828125000,150707.6093750000,131225.9218750000,143187.3593750000,,,
0.6599999988,5,150425.2031250000,200785.1250000000,175785.0000000000,151658.9843750000,117465.5390625000,151182.2968750000,131691.9687500000,143582.8593750000,,,
0.6639999989,5,150221.2656250000,198831.7812500000,175548.4062500000,151435.2343750000,117272.2031250000,150995.0000000000,131510.4375000000,143449.0937500000,,,
0.6679999989,5,149606.5312500000,200735.4531250000,174542.6562500000,150710.0937500000,116672.5156250000,150423.1250000000,130938.1406250000,142981.9843750000,,,
0.6719999989,5,149436.8281250000,203890.4062500000,174230.5781250000,150509.3437500000,116506.9687500000,150248.8906250000,130780.5859375000,142827.2812500000,,,
0.6759999988,5,149933.3906250000,203908.4531250000,174976.9843750000,151092.0000000000,116989.8437500000,150711.7656250000,131241.0156250000,143187.5781250000,,,
0.6799999988,5,150409.9375000000,200766.4531250000,175781.1093750000,151653.0312500000,117452.9843750000,151176.5312500000,131690.5781250000,143567.2500000000,,,
0.6839999990,5,150230.3593750000,198792.5937500000,175557.9531250000,151440.3125000000,117280.5703125000,151018.1562500000,131533.2343750000,143460.6562500000,,,
0.6879999989,5,149614.5312500000,200681.8281250000,174565.7812500000,150725.3125000000,116684.7734375000,150433.3281250000,130961.7968750000,142989.3281250000,,,
0.6919999989,5,149427.3281250000,203849.4687500000,174243.5625000000,150532.1093750000,116499.5078125000,150244.4687500000,130776.0234375000,142819.2343750000,,,
0.6959999988,5,149913.3750000000,203893.3437500000,174976.0468750000,151079.6875000000,116969.6484375000,150698.6718750000,131221.7500000000,143170.6250000000,,,
0.6999999988,5,150420.5312500000,200754.8437500000,175803.5312500000,151654.0781250000,117462.8281250000,151182.0937500000,131697.7968750000,143576.3125000000,,,
0.7039999987,5,150242.8593750000,198759.6562500000,175580.5937500000,151436.6250000000,117288.4531250000,151023.6562500000,131535.5156250000,143469.7656250000,,,
0.7079999989,5,149617.8750000000,200639.2656250000,174581.8125000000,150711.6093750000,116681.3125000000,150430.5312500000,130954.1562500000,142988.8750000000,,,
0.7119999989,5,149435.3593750000,203830.9843750000,174253.0312500000,150509.6562500000,116501.2031250000,150254.5000000000,130779.3281250000,142824.5937500000,,,
0.7159999989,5,149901.1250000000,203899.1406250000,174960.5937500000,151063.2343750000,116951.2734375000,150695.0000000000,131204.5937500000,143155.3906250000,,,
0.7199999988,5,150406.7343750000,200748.2500000000,175788.8593750000,151661.7187500000,117449.5781250000,151176.9375000000,131689.1250000000,143555.3125000000,,,
0.7239999988,5,150237.7343750000,198729.2187500000,175589.7187500000,151464.2500000000,117290.0390625000,151024.2343750000,131546.2187500000,143458.3437500000,,,
0.7279999990,5,149618.1250000000,200605.4375000000,174593.5937500000,150733.6250000000,116688.7968750000,150439.2031250000,130969.2265625000,142988.9531250000,,,
0.7319999989,5,149418.0781250000,203816.3750000000,174256.5468750000,150498.6093750000,116491.5703125000,150243.6562500000,130777.1250000000,142812.7656250000,,,
0.7359999989,5,149904.5312500000,203909.8437500000,174995.6250000000,151058.8750000000,116966.9375000000,150699.6406250000,131232.9375000000,143166.5156250000,,,
0.7399999988,5,150424.4375000000,200764.1718750000,175842.2656250000,151672.8593750000,117474.6562500000,151200.2968750000,131722.4375000000,143583.7968750000,,,
0.7439999988,5,150243.8281250000,198720.5781250000,175630.3125000000,151477.2187500000,117297.2031250000,151034.5156250000,131554.5625000000,143472.5625000000,,,
0.7479999987,5,149599.9531250000,200589.4531250000,174615.1093750000,150726.9375000000,116664.0625000000,150427.9843750000,130947.9843750000,142979.0312500000,,,
0.7519999989,5,149399.0312500000,203819.2343750000,174269.8750000000,150485.0937500000,116463.1953125000,150231.8593750000,130750.7343750000,142801.5312500000,,,
0.7559999989,5,149906.1875000000,203944.3437500000,175025.1875000000,151057.8750000000,116960.5312500000,150710.8437500000,131224.3125000000,143176.1562500000,,,
0.7599999988,5,150444.8906250000,200808.4375000000,175892.3906250000,151683.7187500000,117487.9843750000,151228.2187500000,131733.0625000000,143610.6093750000,,,
0.7639999988,5,150267.6406250000,198736.9375000000,175672.8125000000,151481.7187500000,117315.3593750000,151067.5625000000,131569.9062500000,143501.7187500000,,,
0.7679999988,6,149612.9218750000,200581.7656250000,174639.7187500000,150729.5781250000,116680.9609375000,150442.5156250000,130962.0390625000,142992.2031250000,,,
0.7719999987,6,149388.1406250000,203828.0937500000,174262.5000000000,150478.5937500000,116463.4609375000,150216.0156250000,130746.6562500000,142784.5000000000,,,
0.7759999987,6,149893.3750000000,203969.2031250000,174983.6406250000,151058.8906250000,116953.6640625000,150690.5468750000,131207.2500000000,143153.4843750000,,,
0.7799999986,6,150444.7031250000,200809.6093750000,175840.5781250000,151692.7031250000,117494.2109375000,151214.2812500000,131731.2656250000,143596.1875000000,,,
0.7839999986,6,150280.8125000000,198709.5468750000,175648.2031250000,151499.7656250000,117338.6640625000,151068.1718750000,131591.8281250000,143500.4531250000,,,
0.7879999985,6,149603.2812500000,200559.0625000000,174609.8125000000,150735.3593750000,116676.6484375000,150427.2812500000,130958.0937500000,142975.6562500000,,,
0.7919999987,6,149388.4375000000,203838.3125000000,174247.8750000000,150489.4843750000,116460.6171875000,150219.4375000000,130742.3359375000,142787.0468750000,,,
0.7959999987,6,149892.9843750000,204004.0937500000,174995.9531250000,151065.9531250000,116948.8359375000,150690.0937500000,131204.4843750000,143154.2656250000,,,
0.7999999986,6,150430.7968750000,200813.8593750000,175854.4375000000,151683.5000000000,117474.4687500000,151200.9375000000,131713.0781250000,143580.7031250000,,,
0.8039999986,6,150273.9218750000,198669.2031250000,175651.5312500000,151511.7031250000,117317.6640625000,151059.4062500000,131569.3125000000,143490.5000000000,,,
0.8079999986,6,149610.3125000000,200508.7968750000,174616.9531250000,150723.9375000000,116671.9765625000,150427.2343750000,130951.2812500000,142976.0000000000,,,
0.8119999988,6,149373.1250000000,203845.4531250000,174232.4531250000,150446.8437500000,116440.9062500000,150191.5781250000,130724.5000000000,142762.0156250000,,,
0.8159999987,6,149879.7968750000,204047.4375000000,174963.8125000000,151022.0937500000,116943.3359375000,150667.0312500000,131198.5000000000,143130.1718750000,,,
0.8199999987,6,150443.6562500000,200826.1406250000,175840.6250000000,151675.1250000000,117497.3437500000,151208.1875000000,131733.7031250000,143582.7187500000,,,
0.8239999986,6,150285.0312500000,198619.5625000000,175659.9375000000,151509.2968750000,117344.1406250000,151066.7343750000,131593.0781250000,143493.0000000000,,,
0.8279999986,6,149616.6406250000,200463.0781250000,174633.0000000000,150732.9218750000,116691.7734375000,150434.0000000000,130968.3437500000,142982.0937500000,,,
0.8319999985,6,149376.7968750000,203845.2031250000,174245.6875000000,150461.7031250000,116455.9296875000,150198.5156250000,130742.5000000000,142772.3750000000,,,
0.8359999987,6,149869.5468750000,204064.0781250000,174956.3125000000,151040.3281250000,116929.8984375000,150667.6875000000,131197.3281250000,143135.0625000000,,,
0.8399999987,6,150432.6562500000,200812.4062500000,175830.4375000000,151683.3593750000,117475.7812500000,151203.8906250000,131726.0625000000,143587.4687500000,,,
0.8439999986,6,150283.5468750000,198556.6875000000,175649.6875000000,151507.0312500000,117327.6718750000,151070.1093750000,131589.7343750000,143504.2968750000,,,
0.8479999986,6,149612.4531250000,200403.4531250000,174616.2500000000,150737.9218750000,116671.3046875000,150436.4375000000,130957.9609375000,142989.5781250000,,,
0.8519999986,6,149352.9062500000,203839.0937500000,174217.9687500000,150454.1562500000,116416.8750000000,150182.9687500000,130706.4765625000,142758.5312500000,,,
0.8559999987,6,149871.1250000000,204093.1406250000,174952.8281250000,151034.7500000000,116926.7109375000,150673.3593750000,131189.6250000000,143134.9531250000,,,
0.8599999987,6,150441.9375000000,200813.1562500000,175837.6250000000,151680.9843750000,117489.5156250000,151212.3750000000,131729.4687500000,143590.5781250000,,,
0.8639999987,6,150298.2812500000,198518.2500000000,175675.1093750000,151512.0000000000,117351.5937500000,151080.6406250000,131601.4531250000,143513.7343750000,,,
0.8679999986,6,149625.6093750000,200373.2656250000,174657.2656250000,150747.0937500000,116697.1406250000,150445.3437500000,130976.3593750000,142996.4687500000,,,
0.8719999986,6,149370.1562500000,203859.0937500000,174257.2187500000,150474.8750000000,116445.5156250000,150193.7812500000,130735.5000000000,142768.9062500000,,,
0.8759999985,6,149876.5781250000,204139.2812500000,174975.4062500000,151048.0312500000,116942.9375000000,150666.7500000000,131207.3593750000,143132.8281250000,,,
0.8799999987,6,150449.6562500000,200828.5000000000,175851.4687500000,151694.0468750000,117503.9453125000,151218.7500000000,131747.2031250000,143592.0000000000,,,
0.8839999987,6,150288.9687500000,198491.9218750000,175661.0625000000,151521.9843750000,117341.8593750000,151082.1250000000,131596.5156250000,143501.5781250000,,,
0.8879999986,6,149620.4062500000,200350.6093750000,174639.1562500000,150762.1406250000,116683.8593750000,150447.5625000000,130965.9296875000,142987.2968750000,,,
0.8919999986,6,149374.0156250000,203865.6406250000,174247.2343750000,150488.8437500000,116439.2187500000,150201.4531250000,130730.9921875000,142765.1875000000,,,
0.8959999986,7,149884.4062500000,204173.3750000000,174966.0937500000,151045.8281250000,116936.9765625000,150678.0156250000,131208.7187500000,143134.1718750000,,,
0.8999999985,7,150457.9687500000,200864.7343750000,175837.5000000000,151690.4531250000,117496.2187500000,151226.3437500000,131750.7343750000,143592.7187500000,,,
0.9039999985,7,150306.2343750000,198506.5625000000,175669.4531250000,151520.6406250000,117350.6328125000,151090.4062500000,131613.5937500000,143510.8281250000,,,
0.9079999984,7,149627.6093750000,200349.7500000000,174649.9531250000,150746.8437500000,116696.0390625000,150447.1093750000,130983.2031250000,142989.7968750000,,,
0.9119999984,7,149371.5625000000,203888.8125000000,174236.6093750000,150471.8125000000,116443.5859375000,150193.3125000000,130734.0781250000,142766.2343750000,,,
0.9159999983,7,149875.5000000000,204222.9687500000,174932.4375000000,151032.4531250000,116933.4375000000,150670.3750000000,131198.0156250000,143138.2031250000,,,
0.9199999985,7,150462.9375000000,200913.9843750000,175828.5937500000,151702.5781250000,117512.1015625000,151239.4062500000,131758.3125000000,143611.9062500000,,,
0.9239999985,7,150310.3750000000,198538.1562500000,175673.3750000000,151533.9687500000,117367.0468750000,151098.9062500000,131623.9531250000,143523.0937500000,,,
0.9279999984,7,149599.5625000000,200373.8906250000,174619.3750000000,150746.5312500000,116672.2187500000,150421.6093750000,130960.1093750000,142967.6093750000,,,
0.9319999984,7,149344.0000000000,203927.5000000000,174200.1718750000,150458.6718750000,116416.2031250000,150173.0937500000,130710.4765625000,142742.6562500000,,,
0.9359999984,7,149866.3281250000,204281.9218750000,174926.3125000000,151031.9375000000,116925.5546875000,150658.9531250000,131192.8437500000,143125.5312500000,,,
0.9399999985,7,150457.0312500000,200958.9375000000,175809.3906250000,151702.1406250000,117501.2343750000,151216.3437500000,131746.5312500000,143594.8125000000,,,
0.9439999985,7,150316.8593750000,198546.6406250000,175641.9531250000,151556.7343750000,117363.0234375000,151091.1093750000,131620.1406250000,143519.4218750000,,,
0.9479999985,7,149620.5000000000,200371.3750000000,174603.3750000000,150762.5156250000,116682.1171875000,150426.5312500000,130966.6484375000,142984.6093750000,,,
0.9519999984,7,149361.1093750000,203963.0625000000,174184.5000000000,150456.6250000000,116425.9687500000,150170.8906250000,130714.6015625000,142760.7343750000,,,
0.9559999984,7,149874.1406250000,204347.9375000000,174903.3593750000,151019.3593750000,116932.4218750000,150653.4531250000,131186.8906250000,143134.5781250000,,,
0.9599999983,7,150479.5625000000,201008.1718750000,175808.9531250000,151702.9687500000,117529.5625000000,151237.0468750000,131756.0312500000,143622.5781250000,,,
0.9639999985,7,150344.4375000000,198556.0781250000,175658.6718750000,151552.8281250000,117396.5234375000,151123.7187500000,131643.2656250000,143556.0312500000,,,
0.9679999985,7,149637.4531250000,200369.0312500000,174617.5937500000,150759.5625000000,116705.1562500000,150453.8750000000,130983.3046875000,143009.3906250000,,,
0.9719999984,7,149362.9531250000,203976.1250000000,174197.7031250000,150453.9218750000,116435.6250000000,150184.7968750000,130723.7265625000,142768.9843750000,,,
0.9759999984,7,149859.1718750000,204378.0000000000,174899.8437500000,151013.0781250000,116921.3437500000,150653.4218750000,131190.5312500000,143125.9687500000,,,
0.9799999984,7,150484.5781250000,201017.2968750000,175813.8593750000,151700.9375000000,117535.1640625000,151256.2031250000,131781.9843750000,143629.5781250000,,,
0.9839999985,7,150353.1718750000,198523.8281250000,175683.7031250000,151558.8906250000,117410.8750000000,151130.1406250000,131669.2500000000,143556.3750000000,,,
0.9879999985,7,149640.1875000000,200332.1250000000,174639.6250000000,150770.2656250000,116711.7031250000,150444.5625000000,130997.2812500000,143000.9218750000,,,
0.9919999985,7,149363.3593750000,203987.2343750000,174198.5781250000,150453.3281250000,116436.3203125000,150179.6875000000,130724.1015625000,142763.8125000000,,,
0.9959999984,7,149866.2031250000,204417.3125000000,174888.3125000000,151014.5000000000,116929.7890625000,150660.7968750000,131187.1562500000,143129.2343750000,,,
0.9999999984,7,150461.2500000000,201021.9687500000,175770.7812500000,151696.3281250000,117510.9765625000,151229.0000000000,131749.7500000000,143596.4531250000,,,
1.0039999983,7,150335.4531250000,198482.3125000000,175640.4375000000,151554.9687500000,117385.1796875000,151111.5937500000,131640.6875000000,143530.9531250000,,,
1.0079999985,7,149650.8750000000,200288.7031250000,174620.8437500000,150772.2187500000,116714.2187500000,150460.1718750000,131000.6328125000,143008.9375000000,,,
1.0119999985,7,149373.2812500000,203968.7500000000,174192.8437500000,150453.6250000000,116442.7031250000,150188.9687500000,130732.9218750000,142771.6406250000,,,
1.0159999984,7,149865.2500000000,204421.6406250000,174875.1093750000,151014.9375000000,116925.3671875000,150647.9531250000,131187.5781250000,143125.6093750000,,,
1.0199999984,7,150479.8906250000,201021.4843750000,175778.4375000000,151702.7656250000,117530.6093750000,151231.9531250000,131767.9843750000,143616.7500000000,,,
1.0239999983,8,150347.0937500000,198457.3437500000,175648.9843750000,151564.9218750000,117402.1796875000,151112.8593750000,131649.6250000000,143544.8125000000,,,
1.0279999983,8,149651.1875000000,200272.8437500000,174626.6093750000,150775.6875000000,116719.8046875000,150456.5781250000,130992.2109375000,143015.0000000000,,,
1.0319999983,8,149357.6250000000,204012.2812500000,174179.1875000000,150436.8125000000,116430.2578125000,150172.3750000000,130709.3750000000,142765.9062500000,,,
1.0359999982,8,149870.5468750000,204511.4687500000,174878.0937500000,151005.4843750000,116939.8750000000,150655.8437500000,131198.0468750000,143138.2187500000,,,
1.0399999982,8,150476.5937500000,201100.3125000000,175778.0312500000,151696.9375000000,117534.6328125000,151235.5468750000,131772.3281250000,143618.7968750000,,,
1.0439999981,8,150339.1718750000,198516.6406250000,175651.5312500000,151558.2343750000,117396.5781250000,151112.9375000000,131644.6562500000,143545.2500000000,,,
1.0479999983,8,149654.0937500000,200315.0625000000,174635.5156250000,150779.7500000000,116722.1328125000,150466.7656250000,131001.9531250000,143025.8906250000,,,
1.0519999983,8,149367.5156250000,204062.1406250000,174191.3750000000,150463.8125000000,116434.6562500000,150186.9843750000,130724.4218750000,142781.4843750000,,,
1.0559999982,8,149850.0000000000,204571.6250000000,174853.0625000000,151005.1093750000,116904.4687500000,150643.6093750000,131170.4218750000,143124.4687500000,,,
1.0599999982,8,150470.5312500000,201150.5000000000,175742.7656250000,151695.5937500000,117514.2421875000,151239.8906250000,131755.1875000000,143618.3437500000,,,
1.0639999982,8,150368.8125000000,198521.8281250000,175653.1250000000,151580.0468750000,117417.7656250000,151148.9687500000,131666.5781250000,143575.6093750000,,,
1.0679999983,8,149674.3593750000,200305.6875000000,174656.2968750000,150787.6093750000,116742.0078125000,150490.5312500000,131019.6796875000,143048.2656250000,,,
1.0719999983,8,149364.0937500000,204054.2812500000,174201.6093750000,150458.7187500000,116437.7421875000,150185.9375000000,130722.3828125000,142778.7031250000,,,
1.0759999983,8,149847.3906250000,204578.7656250000,174876.9375000000,151006.4843750000,116913.6953125000,150631.6718750000,131171.6562500000,143115.4843750000,,,
1.0799999982,8,150465.7968750000,201139.7968750000,175780.6562500000,151696.7968750000,117519.6640625000,151225.7343750000,131756.3281250000,143601.5468750000,,,
1.0839999982,8,150352.9375000000,198479.7656250000,175671.5468750000,151574.9843750000,117405.1328125000,151127.3906250000,131655.1250000000,143547.4531250000,,,
1.0879999981,8,149652.9531250000,200251.2031250000,174651.5468750000,150785.7968750000,116719.0234375000,150460.5000000000,131000.5546875000,143014.5156250000,,,
1.0919999983,8,149355.2968750000,204028.4062500000,174192.2812500000,150454.7031250000,116427.2265625000,150166.9062500000,130715.3593750000,142756.9218750000,,,
1.0959999983,8,149849.2968750000,204586.1718750000,174851.4375000000,150997.6406250000,116907.1796875000,150629.3125000000,131164.2031250000,143108.9062500000,,,
1.0999999982,8,150486.4531250000,201145.5312500000,175753.1875000000,151704.8281250000,117526.7968750000,151242.1718750000,131760.1562500000,143613.6718750000,,,
1.1039999982,8,150381.9375000000,198451.3906250000,175665.0781250000,151588.9218750000,117423.3750000000,151153.8750000000,131669.8437500000,143569.2031250000,,,
1.1079999981,8,149681.4218750000,200199.7812500000,174658.1562500000,150799.5468750000,116737.6406250000,150482.1093750000,131010.7187500000,143038.1718750000,,,
1.1119999983,8,149378.5156250000,204004.5312500000,174204.4375000000,150463.2500000000,116439.5937500000,150180.2343750000,130719.7578125000,142775.8593750000,,,
1.1159999983,8,149872.1718750000,204587.2968750000,174876.9062500000,151013.0781250000,116926.1953125000,150639.7968750000,131179.8281250000,143125.9843750000,,,
1.1199999982,8,150498.4687500000,201139.6406250000,175784.4687500000,151715.9062500000,117542.1171875000,151243.6250000000,131772.9531250000,143625.1562500000,,,
1.1239999982,8,150385.8750000000,198423.7656250000,175682.8906250000,151605.2812500000,117435.3359375000,151143.4687500000,131676.9062500000,143572.5781250000,,,
1.1279999982,8,149683.1562500000,200177.6875000000,174665.2031250000,150810.2500000000,116751.2890625000,150475.4531250000,131019.8671875000,143039.0937500000,,,
1.1319999981,8,149354.1406250000,204018.0781250000,174175.2187500000,150451.6718750000,116425.0234375000,150160.7031250000,130704.8671875000,142759.6250000000,,,
1.1359999983,8,149850.3125000000,204632.6406250000,174839.8437500000,150999.3750000000,116909.7031250000,150633.9218750000,131164.6250000000,143116.0937500000,,,
1.1399999983,8,150476.9843750000,201166.8281250000,175757.9687500000,151706.4062500000,117528.2734375000,151232.6718750000,131760.6718750000,143609.0625000000,,,
1.1439999982,8,150368.9843750000,198419.6250000000,175662.4062500000,151587.5781250000,117425.7890625000,151135.2343750000,131671.0000000000,143558.5781250000,,,
1.1479999982,8,149662.1562500000,200186.8593750000,174630.4218750000,150796.5781250000,116732.9453125000,150466.3750000000,131010.3984375000,143024.2812500000,,,
1.1519999981,9,149336.0000000000,204077.4531250000,174146.7343750000,150440.7500000000,116411.1328125000,150145.9531250000,130699.6640625000,142745.0156250000,,,
1.1559999981,9,149844.9218750000,204722.3906250000,174825.8125000000,151000.4531250000,116912.4140625000,150627.3281250000,131167.6562500000,143114.2187500000,,,
1.1599999981,9,150485.1718750000,201230.1093750000,175747.9062500000,151713.9218750000,117544.7187500000,151236.6718750000,131769.5468750000,143619.2812500000,,,
1.1639999980,9,150385.6093750000,198429.5625000000,175664.3593750000,151599.5000000000,117448.6640625000,151148.2343750000,131684.2968750000,143575.8593750000,,,
1.1679999980,9,149688.3906250000,200181.2812500000,174656.3750000000,150809.7968750000,116763.7109375000,150484.5000000000,131032.9843750000,143048.5781250000,,,
1.1719999979,9,149370.5781250000,204097.1250000000,174168.1093750000,150452.1718750000,116447.1796875000,150171.2968750000,130726.8046875000,142778.1093750000,,,
1.1759999981,9,149853.6718750000,204755.3125000000,174804.1250000000,150996.5625000000,116918.6093750000,150630.0937500000,131174.5468750000,143122.2343750000,,,
1.1799999981,9,150481.2343750000,201254.5625000000,175710.2968750000,151703.8281250000,117535.8359375000,151230.1875000000,131768.0625000000,143610.9843750000,,,
1.1839999980,9,150382.0625000000,198419.2812500000,175634.7656250000,151599.8750000000,117438.0703125000,151138.9062500000,131679.9062500000,143564.6093750000,,,
1.1879999980,9,149683.3437500000,200152.7343750000,174625.6718750000,150810.4687500000,116747.2968750000,150476.0781250000,131015.5468750000,143036.5468750000,,,
1.1919999979,9,149377.7656250000,204095.5625000000,174165.0000000000,150455.3125000000,116442.7265625000,150176.7187500000,130718.2500000000,142776.7187500000,,,
1.1959999981,9,149851.0937500000,204779.6562500000,174812.5937500000,150995.8593750000,116909.8125000000,150616.1406250000,131161.7500000000,143105.0156250000,,,
1.1999999981,9,150477.2031250000,201247.4062500000,175704.1093750000,151707.9375000000,117525.7265625000,151208.6406250000,131758.4687500000,143592.1093750000,,,
1.2039999980,9,150385.5468750000,198371.7500000000,175635.3281250000,151619.6406250000,117432.5156250000,151132.9843750000,131676.5781250000,143557.1875000000,,,
1.2079999980,9,149667.5312500000,200104.1875000000,174622.1875000000,150818.9218750000,116726.9062500000,150456.3437500000,131005.2734375000,143017.0937500000,,,
1.2119999980,9,149334.9375000000,204076.4375000000,174126.5625000000,150447.1406250000,116401.3125000000,150134.9062500000,130694.2500000000,142737.2031250000,,,
1.2159999979,9,149819.2031250000,204775.0000000000,174760.4531250000,150978.5625000000,116881.5390625000,150592.2500000000,131148.4218750000,143079.3750000000,,,
1.2199999981,9,150475.6406250000,201214.2500000000,175686.7031250000,151710.4843750000,117530.2343750000,151221.1406250000,131768.6562500000,143594.5468750000,,,
1.2239999981,9,150395.8750000000,198289.4843750000,175635.3906250000,151629.6718750000,117452.3671875000,151153.0468750000,131697.7343750000,143571.1875000000,,,
1.2279999980,9,149675.4687500000,199996.9531250000,174633.1250000000,150835.9687500000,116748.1015625000,150470.1562500000,131022.3046875000,143029.7031250000,,,
1.2319999980,9,149336.3281250000,204002.5156250000,174143.4062500000,150440.5625000000,116418.2656250000,150143.5625000000,130701.9140625000,142745.7656250000,,,
1.2359999979,9,149801.4687500000,204729.0937500000,174767.5000000000,150965.4531250000,116874.6171875000,150581.5468750000,131131.2031250000,143069.7656250000,,,
1.2399999981,9,150447.9062500000,201143.6250000000,175676.3437500000,151691.2187500000,117509.8437500000,151202.6406250000,131737.3593750000,143576.0625000000,,,
1.2439999981,9,150376.1718750000,198168.7031250000,175626.9375000000,151612.9843750000,117437.1328125000,151143.2500000000,131674.2500000000,143561.0781250000,,,
1.2479999980,9,149667.1250000000,199876.0781250000,174638.9531250000,150815.1875000000,116739.1171875000,150466.7500000000,131008.8125000000,143031.0625000000,,,
1.2519999980,9,149323.5000000000,203931.3593750000,174147.5468750000,150438.9843750000,116399.7890625000,150125.7031250000,130678.7421875000,142740.3906250000,,,
1.2559999980,9,149822.0000000000,204712.2500000000,174792.6406250000,150983.2812500000,116890.2812500000,150591.5000000000,131138.4218750000,143092.3281250000,,,
1.2599999979,9,150483.5000000000,201120.8906250000,175707.1875000000,151717.5312500000,117537.7109375000,151228.0312500000,131761.0937500000,143609.5625000000,,,
1.2639999981,9,150401.8593750000,198095.3750000000,175648.0000000000,151632.1875000000,117459.6093750000,151158.0781250000,131697.6562500000,143579.8281250000,,,
1.2679999981,9,149687.7968750000,199806.6875000000,174646.7343750000,150830.1093750000,116763.5234375000,150480.0156250000,131034.0312500000,143043.1093750000,,,
1.2719999980,9,149329.1875000000,203930.4218750000,174139.6562500000,150432.7031250000,116411.4843750000,150131.1718750000,130691.8046875000,142740.1093750000,,,
1.2759999980,9,149816.8906250000,204750.6718750000,174767.6406250000,150963.4062500000,116891.8359375000,150596.4218750000,131146.5156250000,143085.2968750000,,,
1.2799999979,10,150486.8125000000,201119.4062500000,175685.8125000000,151706.9687500000,117552.2812500000,151242.2812500000,131781.3125000000,143611.2343750000,,,
1.2839999979,10,150412.5156250000,198039.4062500000,175643.2968750000,151634.4375000000,117480.4218750000,151170.9062500000,131719.3593750000,143588.9218750000,,,
1.2879999978,10,149691.1093750000,199752.1250000000,174641.3593750000,150835.9687500000,116767.4921875000,150483.6093750000,131038.3984375000,143049.7031250000,,,
1.2919999978,10,149330.3437500000,203931.7656250000,174124.2343750000,150435.2812500000,116406.2500000000,150132.1875000000,130691.0312500000,142745.8125000000,,,
1.2959999978,10,149820.2968750000,204798.8906250000,174747.7187500000,150965.0781250000,116881.5156250000,150595.7343750000,131139.5156250000,143091.3906250000,,,
1.2999999977,10,150491.8281250000,201132.6562500000,175671.1406250000,151700.3750000000,117544.2890625000,151240.9062500000,131775.7187500000,143612.0312500000,,,
1.3039999979,10,150430.4843750000,197998.8125000000,175650.8906250000,151651.1875000000,117484.8515625000,151193.9687500000,131725.8281250000,143604.5312500000,,,
1.3079999979,10,149704.6718750000,199706.5312500000,174652.9531250000,150844.1875000000,116771.0546875000,150507.2500000000,131044.0078125000,143067.6875000000,,,
1.3119999978,10,149314.9218750000,203927.9531250000,174119.0781250000,150424.6875000000,116392.0859375000,150124.0156250000,130677.8046875000,142738.1718750000,,,
1.3159999978,10,149787.9843750000,204816.4843750000,174729.6875000000,150953.6250000000,116861.5546875000,150569.2031250000,131115.2500000000,143063.6875000000,33029,1.3160096176,0.0000000000
1.3199999977,10,150475.4375000000,201123.6250000000,175665.5156250000,151704.7500000000,117541.1171875000,151230.5625000000,131765.0312500000,143600.3125000000,,,
1.3239999979,10,150414.0625000000,197931.3125000000,175655.9687500000,151642.2812500000,117481.5781250000,151175.5156250000,131716.5468750000,143585.7187500000,,,
1.3279999979,10,149685.8750000000,199641.4531250000,174672.3750000000,150832.9375000000,116761.7812500000,150481.1250000000,131030.8125000000,143043.2656250000,,,
1.3319999978,10,149314.4375000000,203914.5156250000,174152.3125000000,150428.0156250000,116390.0781250000,150117.7812500000,130673.6171875000,142736.0000000000,,,
1.3359999978,10,149806.1093750000,204826.5937500000,174764.8281250000,150949.2187500000,116872.4218750000,150578.1875000000,131132.7656250000,143079.2656250000,,,
1.3399999978,10,150512.3437500000,201115.6250000000,175709.2343750000,151703.2187500000,117566.9765625000,151252.6250000000,131800.2343750000,143629.2500000000,,,
1.3439999977,10,150462.4843750000,197889.3906250000,175694.9531250000,151651.5625000000,117515.1875000000,151212.7968750000,131755.3593750000,143630.0937500000,,,
1.3479999979,10,149710.1406250000,199581.2968750000,174675.1562500000,150838.4218750000,116774.5703125000,150505.7968750000,131046.4765625000,143068.8125000000,,,
1.3519999979,10,149320.2812500000,203887.8437500000,174116.7187500000,150417.9843750000,116392.4375000000,150128.5937500000,130674.9062500000,142743.2968750000,,,
1.3559999978,10,149805.7187500000,204851.4843750000,174722.7187500000,150947.0000000000,116876.9765625000,150581.3281250000,131129.1875000000,143081.2500000000,,,
1.3599999978,10,150500.7500000000,201123.9375000000,175659.1250000000,151704.9375000000,117566.6796875000,151247.4843750000,131785.9531250000,143621.5625000000,,,
1.3639999977,10,150447.0312500000,197848.5937500000,175651.4218750000,151652.7343750000,117513.5234375000,151208.9843750000,131738.0000000000,143620.4375000000,,,
1.3679999979,10,149720.5000000000,199540.8750000000,174671.3437500000,150849.8906250000,116796.0312500000,150518.5625000000,131053.4453125000,143081.6875000000,,,
1.3719999979,10,149335.9843750000,203894.0156250000,174139.7031250000,150420.7500000000,116412.5312500000,150141.6562500000,130684.7812500000,142762.8281250000,,,
1.3759999978,10,149809.0156250000,204901.1562500000,174738.7812500000,150932.9687500000,116879.3906250000,150583.8281250000,131126.4531250000,143089.1093750000,,,
1.3799999978,10,150507.2656250000,201157.0156250000,175676.3437500000,151701.5000000000,117569.8984375000,151250.1406250000,131787.1875000000,143626.7656250000,,,
1.3839999977,10,150458.3750000000,197829.6718750000,175678.9531250000,151659.9843750000,117521.0859375000,151211.5937500000,131749.7812500000,143624.0781250000,,,
1.3879999977,10,149711.0312500000,199513.9531250000,174690.6562500000,150835.2031250000,116783.2109375000,150505.0937500000,131051.7812500000,143070.6562500000,,,
1.3919999979,10,149310.1250000000,203918.7500000000,174137.6406250000,150392.5781250000,116384.7968750000,150117.1718750000,130667.6093750000,142740.9062500000,,,
1.3959999979,10,149784.0625000000,204951.5156250000,174733.0937500000,150928.6406250000,116853.2109375000,150558.2343750000,131108.2968750000,143063.4375000000,,,
1.3999999978,10,150504.9843750000,201182.5781250000,175680.0781250000,151719.6875000000,117564.6171875000,151248.3906250000,131785.2031250000,143624.9375000000,,,
1.4039999978,10,150470.5312500000,197809.9687500000,175694.3906250000,151652.5468750000,117536.8281250000,151230.3125000000,131761.7187500000,143644.0312500000,,,
1.4079999977,11,149717.3281250000,199479.1250000000,174701.9218750000,150824.9218750000,116793.8828125000,150518.0312500000,131047.1953125000,143084.3593750000,,,
1.4119999977,11,149303.5468750000,203927.5000000000,174133.1562500000,150382.5781250000,116379.9921875000,150108.2343750000,130645.1328125000,142735.0937500000,,,
1.4159999976,11,149785.7031250000,205003.7812500000,174713.5156250000,150912.6406250000,116855.4921875000,150558.8281250000,131098.5937500000,143067.5468750000,,,
1.4199999976,11,150500.8593750000,201206.5781250000,175643.6562500000,151689.2343750000,117562.2265625000,151245.3906250000,131779.2812500000,143622.8437500000,,,
1.4239999976,11,150460.0937500000,197771.2343750000,175656.7656250000,151661.9843750000,117518.3515625000,151217.2812500000,131747.4687500000,143628.2343750000,,,
1.4279999975,11,149711.4531250000,199443.4062500000,174683.1562500000,150844.9375000000,116778.9687500000,150508.9375000000,131047.5468750000,143072.7812500000,,,
1.4319999977,11,149298.5000000000,203962.2812500000,174133.5156250000,150394.8593750000,116371.4062500000,150105.0000000000,130656.3984375000,142730.5312500000,,,
1.4359999977,11,149767.8906250000,205101.6875000000,174716.0625000000,150906.7031250000,116835.7500000000,150548.1250000000,131092.1250000000,143052.8437500000,,,
1.4399999976,11,150484.5781250000,201267.5937500000,175643.5468750000,151690.2343750000,117544.6328125000,151230.7656250000,131766.4375000000,143603.4218750000,,,
1.4439999976,11,150467.0156250000,197747.8437500000,175672.8125000000,151673.2500000000,117529.3984375000,151221.6250000000,131756.4843750000,143629.4375000000,,,
1.4479999975,11,149726.4062500000,199409.8281250000,174710.8906250000,150853.7031250000,116801.0703125000,150514.5468750000,131060.2109375000,143080.6093750000,,,
1.4519999977,11,149299.7656250000,204002.9375000000,174137.7500000000,150396.9531250000,116377.5546875000,150093.8281250000,130646.7187500000,142725.3437500000,,,
1.4559999977,11,149773.7343750000,205186.8437500000,174711.2656250000,150913.5781250000,116844.6875000000,150542.1718750000,131088.2656250000,143050.8437500000,,,
1.4599999976,11,150495.0937500000,201308.4218750000,175642.8125000000,151699.1875000000,117556.4375000000,151238.4687500000,131769.3281250000,143606.3281250000,,,
1.4639999976,11,150467.0937500000,197728.0312500000,175672.1562500000,151682.2187500000,117527.6562500000,151218.5468750000,131745.5312500000,143622.1718750000,,,
1.4679999975,11,149720.8281250000,199384.7968750000,174702.1093750000,150865.5000000000,116789.3750000000,150506.2187500000,131038.5312500000,143071.5625000000,,,
1.4719999975,11,149308.2187500000,204040.8750000000,174146.2187500000,150400.6250000000,116380.7187500000,150104.8281250000,130646.3671875000,142733.7656250000,,,
1.4759999977,11,149779.5000000000,205263.2031250000,174717.0312500000,150912.7343750000,116844.3125000000,150551.9062500000,131086.9218750000,143054.9062500000,,,
1.4799999977,11,150508.3906250000,201320.5781250000,175640.1093750000,151702.2500000000,117561.2656250000,151254.8906250000,131774.9062500000,143615.7031250000,,,
1.4839999976,11,150482.0781250000,197639.4531250000,175666.5000000000,151680.0625000000,117533.1250000000,151235.0625000000,131756.7500000000,143632.5468750000,,,
1.4879999976,11,149715.3437500000,199285.4531250000,174689.0781250000,150851.7187500000,116779.3750000000,150501.0000000000,131039.1484375000,143064.6562500000,,,
1.4919999975,11,149289.1718750000,204033.7031250000,174124.5781250000,150380.8593750000,116358.6171875000,150085.1718750000,130632.6328125000,142718.2500000000,,,
1.4959999977,11,149761.8906250000,205313.3125000000,174699.7500000000,150881.4687500000,116828.7031250000,150537.8750000000,131072.6250000000,143045.8750000000,,,
1.4999999977,11,150508.5000000000,201321.0781250000,175647.1875000000,151694.8437500000,117568.2890625000,151256.1718750000,131778.2343750000,143621.9375000000,,,
1.5039999976,11,150516.2812500000,197531.7343750000,175710.6562500000,151710.2187500000,117574.4609375000,151262.9062500000,131792.9062500000,143672.5000000000,,,
1.5079999976,11,149737.1250000000,199158.0937500000,174731.5312500000,150868.6718750000,116802.7343750000,150524.0625000000,131058.1406250000,143098.6875000000,,,
1.5119999975,11,149264.7656250000,203989.9843750000,174130.2656250000,150363.7500000000,116334.3125000000,150084.7187500000,130611.9062500000,142709.2343750000,,,
1.5159999975,11,149743.4062500000,205328.8125000000,174692.1093750000,150868.7187500000,116809.0156250000,150543.0468750000,131058.7031250000,143035.2812500000,,,
1.5199999977,11,150525.5156250000,201266.5781250000,175647.5156250000,151702.0937500000,117581.5156250000,151292.4687500000,131790.3281250000,143639.7968750000,,,
1.5239999976,11,150493.0781250000,197373.8906250000,175670.6562500000,151699.4531250000,117548.6562500000,151270.4687500000,131767.1562500000,143650.1718750000,,,
1.5279999976,11,149707.6250000000,198995.9843750000,174690.7968750000,150855.3750000000,116773.2812500000,150517.0625000000,131032.6328125000,143066.5312500000,,,
1.5319999976,11,149255.5156250000,203908.9531250000,174112.4843750000,150366.2343750000,116324.2265625000,150070.3437500000,130601.3593750000,142694.0156250000,,,
1.5359999975,12,149745.7656250000,205295.4531250000,174689.7187500000,150881.6250000000,116809.6562500000,150531.9218750000,131054.5234375000,143029.5468750000,,,
1.5399999975,12,150516.1562500000,201188.0468750000,175653.3593750000,151710.4843750000,117574.9453125000,151271.1875000000,131780.3750000000,143620.8906250000,,,
1.5439999974,12,150512.8281250000,197225.6250000000,175710.0312500000,151710.1406250000,117573.7343750000,151276.4218750000,131784.2656250000,143661.5156250000,,,
1.5479999974,12,149727.2031250000,198845.1562500000,174736.8437500000,150861.3437500000,116798.3906250000,150523.0625000000,131048.9140625000,143081.7656250000,,,
1.5519999973,12,149270.0156250000,203848.2343750000,174158.5625000000,150361.5156250000,116345.0703125000,150078.2187500000,130615.5781250000,142710.0156250000,,,
1.5559999973,12,149743.4062500000,205309.0000000000,174709.8593750000,150871.1406250000,116813.1953125000,150530.5312500000,131051.8359375000,143032.1093750000,,,
1.5599999975,12,150518.8281250000,201209.0000000000,175652.2031250000,151705.4218750000,117582.6718750000,151277.5468750000,131785.2812500000,143624.4218750000,,,
1.5639999975,12,150530.4218750000,197220.8750000000,175720.3906250000,151727.8906250000,117592.5390625000,151296.4843750000,131801.3750000000,143675.0937500000,,,
1.5679999974,12,149737.1093750000,198850.5000000000,174751.2031250000,150872.1093750000,116806.8906250000,150538.5937500000,131059.2656250000,143092.4062500000,,,
1.5719999974,12,149259.4843750000,203899.5781250000,174148.6718750000,150366.0312500000,116331.5000000000,150074.0625000000,130602.3828125000,142705.6406250000,,,
1.5759999973,12,149734.5468750000,205411.0781250000,174697.1562500000,150864.7343750000,116803.0000000000,150519.5625000000,131040.8437500000,143028.6250000000,,,
1.5799999975,12,150522.0468750000,201320.6562500000,175656.3125000000,151708.5781250000,117586.0234375000,151274.4375000000,131787.4687500000,143631.2187500000,,,
1.5839999975,12,150531.0625000000,197287.9843750000,175723.5312500000,151728.9375000000,117597.2031250000,151291.3593750000,131807.4687500000,143678.6875000000,,,
1.5879999974,12,149742.6250000000,198888.4843750000,174754.6562500000,150880.8750000000,116816.7343750000,150541.3593750000,131070.9609375000,143101.1875000000,,,
1.5919999974,12,149263.7656250000,203947.7187500000,174152.1875000000,150365.8593750000,116340.4062500000,150073.7968750000,130613.9921875000,142711.7187500000,,,
1.5959999973,12,149747.1875000000,205478.7812500000,174700.8750000000,150871.0937500000,116819.8750000000,150525.1093750000,131063.8281250000,143040.5625000000,,,
1.5999999973,12,150532.9062500000,201376.4218750000,175645.4531250000,151722.3593750000,117591.5703125000,151282.5312500000,131794.9687500000,143642.1250000000,,,
1.6039999975,12,150541.6093750000,197298.0312500000,175713.5156250000,151745.5937500000,117596.3203125000,151297.2968750000,131806.6875000000,143684.2187500000,,,
1.6079999974,12,149741.6093750000,198875.6406250000,174747.9218750000,150885.1406250000,116803.7578125000,150531.9218750000,131057.1250000000,143092.8593750000,,,
1.6119999974,12,149252.9687500000,203969.9062500000,174140.4062500000,150348.4531250000,116320.6875000000,150054.8593750000,130592.0312500000,142696.4375000000,,,
1.6159999974,12,149734.9843750000,205544.2500000000,174690.5000000000,150857.7500000000,116801.1015625000,150510.1406250000,131042.1328125000,143027.5781250000,,,
1.6199999973,12,150518.7031250000,201432.0781250000,175642.5781250000,151706.8125000000,117577.4921875000,151266.7187500000,131780.2500000000,143628.1093750000,,,
1.6239999975,12,150536.0781250000,197349.6718750000,175754.2968750000,151741.9531250000,117595.8906250000,151287.7656250000,131807.0156250000,143681.7500000000,,,
1.6279999975,12,149741.6875000000,198997.5156250000,174811.8750000000,150876.9531250000,116811.8046875000,150531.4843750000,131065.3281250000,143101.0781250000,,,
1.6319999974,12,149259.9687500000,204128.6562500000,174180.5312500000,150347.9687500000,116336.0312500000,150061.2500000000,130608.3359375000,142710.5156250000,,,
1.6359999974,12,149730.1562500000,205689.1406250000,174689.1093750000,150845.7343750000,116801.4218750000,150507.3281250000,131041.7812500000,143025.2500000000,,,
1.6399999973,12,150528.3750000000,201462.1093750000,175621.0468750000,151701.7343750000,117591.0625000000,151280.3906250000,131794.6562500000,143633.3125000000,,,
1.6439999973,12,150543.5937500000,197311.7656250000,175756.5937500000,151739.3750000000,117602.6484375000,151301.5781250000,131817.0156250000,143686.3125000000,,,
1.6479999975,12,149755.3906250000,198943.7812500000,174841.7031250000,150895.2812500000,116824.5390625000,150550.9375000000,131080.0000000000,143112.7187500000,,,
1.6519999974,12,149253.4218750000,204112.0781250000,174205.3750000000,150353.5468750000,116330.8515625000,150062.2187500000,130601.7109375000,142703.7656250000,,,
1.6559999974,12,149726.0000000000,205716.8437500000,174708.0937500000,150844.6406250000,116798.7656250000,150515.5937500000,131036.7109375000,143024.5468750000,,,
1.6599999974,12,150512.5312500000,201489.1250000000,175623.3750000000,151693.5781250000,117579.6640625000,151272.6718750000,131780.1875000000,143621.4843750000,,,
1.6639999973,13,150538.6250000000,197279.9531250000,175757.1875000000,151735.7812500000,117604.2890625000,151293.1875000000,131813.4843750000,143677.0000000000,,,
1.6679999973,13,149758.2968750000,198864.6562500000,174837.6406250000,150893.7500000000,116831.4609375000,150542.9687500000,131083.1875000000,143107.2968750000,,,
1.6719999972,13,149264.6562500000,204052.9218750000,174203.4062500000,150356.2343750000,116340.4296875000,150062.0468750000,130611.5000000000,142708.9843750000,,,
1.6759999972,13,149720.2031250000,205706.2031250000,174696.5156250000,150842.2500000000,116787.8515625000,150498.2031250000,131026.1406250000,143014.8125000000,,,
1.6799999971,13,150523.9843750000,201502.1875000000,175628.9531250000,151690.3125000000,117587.7343750000,151273.0156250000,131787.1718750000,143628.7500000000,,,
1.6839999971,13,150563.6718750000,197296.2968750000,175771.1093750000,151745.1093750000,117625.1796875000,151315.1718750000,131833.2968750000,143704.1406250000,,,
1.6879999973,13,149754.3437500000,198882.9218750000,174808.4062500000,150891.4375000000,116824.4375000000,150536.3437500000,131076.2968750000,143108.6406250000,,,
1.6919999972,13,149244.9218750000,204087.3750000000,174135.0625000000,150344.2968750000,116320.8750000000,150041.6718750000,130591.3281250000,142695.6093750000,,,
1.6959999972,13,149705.2031250000,205769.9375000000,174637.3906250000,150829.5937500000,116779.9609375000,150487.0468750000,131022.0156250000,143009.2656250000,,,
1.6999999972,13,150501.1250000000,201557.5156250000,175579.9218750000,151680.9843750000,117570.6015625000,151258.9843750000,131777.3750000000,143614.0000000000,,,
1.7039999971,13,150546.9375000000,197301.9062500000,175749.4687500000,151746.3437500000,117612.1718750000,151303.0000000000,131827.1093750000,143689.0468750000,,,
1.7079999973,13,149764.7500000000,198869.0312500000,174835.6875000000,150899.4843750000,116835.2421875000,150552.5000000000,131093.5781250000,143119.0781250000,,,
1.7119999973,13,149245.5312500000,204116.0312500000,174172.0625000000,150338.5625000000,116316.1562500000,150047.4843750000,130591.9765625000,142698.2031250000,,,
1.7159999972,13,149712.2031250000,205840.6875000000,174668.2968750000,150828.2500000000,116778.1953125000,150491.9218750000,131021.8515625000,143013.6093750000,,,
1.7199999972,13,150522.2656250000,201607.2031250000,175612.2343750000,151688.6562500000,117586.2109375000,151274.4062500000,131792.0156250000,143631.7968750000,,,
1.7239999971,13,150568.0781250000,197304.8750000000,175775.0468750000,151754.5312500000,117632.6093750000,151321.1093750000,131842.9218750000,143709.7812500000,,,
1.7279999971,13,149760.7812500000,198848.0625000000,174839.7343750000,150903.8593750000,116836.6406250000,150544.0468750000,131087.4843750000,143115.3906250000,,,
1.7319999973,13,149231.6718750000,204118.9843750000,174153.8906250000,150339.3593750000,116310.7343750000,150032.7031250000,130578.7812500000,142685.3281250000,,,
1.7359999972,13,149691.6093750000,205879.7187500000,174629.8281250000,150822.1406250000,116766.6562500000,150473.6562500000,131002.8359375000,142993.3906250000,,,
1.7399999972,13,150499.5937500000,201635.6562500000,175568.8125000000,151685.1406250000,117567.3281250000,151253.0937500000,131767.0468750000,143603.5937500000,,,
1.7439999972,13,150548.7656250000,197286.9062500000,175746.9687500000,151753.4218750000,117613.9140625000,151299.4375000000,131825.8750000000,143678.1562500000,,,
1.7479999971,13,149761.2343750000,198800.4843750000,174843.7812500000,150917.5937500000,116833.1250000000,150543.9687500000,131089.9218750000,143105.0156250000,,,
1.7519999973,13,149245.4843750000,204107.3906250000,174181.0625000000,150351.3750000000,116317.0703125000,150044.8906250000,130591.6484375000,142695.5781250000,,,
1.7559999973,13,149702.6093750000,205927.6406250000,174661.8593750000,150819.8593750000,116769.5312500000,150480.3750000000,131010.0781250000,143006.6406250000,,,
1.7599999972,13,150518.3281250000,201699.2500000000,175597.6718750000,151693.5781250000,117579.8281250000,151260.9531250000,131780.1093750000,143622.2031250000,,,
1.7639999972,13,150573.7343750000,197317.4531250000,175777.2500000000,151773.1406250000,117635.8828125000,151314.4531250000,131841.5937500000,143706.3750000000,,,
1.7679999971,13,149782.8593750000,198806.4375000000,174869.5625000000,150927.6875000000,116855.5781250000,150565.0937500000,131102.5937500000,143135.7343750000,,,
1.7719999971,13,149254.9687500000,204134.6875000000,174202.4218750000,150356.7656250000,116335.2265625000,150056.6562500000,130601.2031250000,142713.5000000000,,,
1.7759999973,13,149703.3281250000,205984.3125000000,174665.7187500000,150830.7968750000,116782.3515625000,150483.1875000000,131016.8359375000,143010.8750000000,,,
1.7799999972,13,150505.2812500000,201754.4687500000,175580.0000000000,151682.4062500000,117574.6718750000,151262.9843750000,131773.1406250000,143616.2187500000,,,
1.7839999972,13,150558.8281250000,197339.5312500000,175741.5781250000,151762.1718750000,117624.7265625000,151321.9687500000,131834.1562500000,143694.2656250000,,,
1.7879999971,13,149762.5781250000,198791.8125000000,174822.8125000000,150911.7187500000,116835.8359375000,150557.7968750000,131088.7656250000,143110.6562500000,,,
1.7919999971,14,149214.7187500000,204113.4062500000,174132.7343750000,150325.7187500000,116293.3281250000,150026.1875000000,130564.6406250000,142661.6250000000,,,
1.7959999971,14,149660.7656250000,206001.2656250000,174606.5468750000,150794.5625000000,116738.5000000000,150451.3750000000,130980.0390625000,142956.2656250000,,,
1.7999999970,14,150499.5156250000,201786.1250000000,175571.3125000000,151682.4531250000,117574.4609375000,151262.1562500000,131776.0156250000,143598.4375000000,,,
1.8039999970,14,150572.3437500000,197350.5000000000,175763.7812500000,151775.4687500000,117643.6640625000,151338.5468750000,131848.1406250000,143705.9687500000,,,
1.8079999969,14,149770.0937500000,198779.0468750000,174834.0781250000,150921.2187500000,116846.9921875000,150569.4218750000,131093.5468750000,143125.0781250000,,,
1.8119999969,14,149224.6093750000,204114.0625000000,174132.7031250000,150337.1875000000,116301.7500000000,150040.2187500000,130568.5312500000,142687.4218750000,,,
1.8159999971,14,149675.0312500000,206041.9062500000,174599.5156250000,150802.2031250000,116746.0859375000,150470.5468750000,130985.5859375000,142988.6406250000,,,
1.8199999970,14,150504.5625000000,201851.4062500000,175558.7812500000,151686.3437500000,117568.7500000000,151267.9687500000,131769.0625000000,143615.5156250000,,,
1.8239999970,14,150581.4375000000,197405.9375000000,175765.9375000000,151782.4218750000,117640.5468750000,151340.3437500000,131843.1250000000,143717.1718750000,,,
1.8279999970,14,149802.2187500000,198810.9062500000,174871.9843750000,150934.4687500000,116873.0859375000,150590.2031250000,131118.5781250000,143151.6875000000,,,
1.8319999969,14,149248.8281250000,204148.8281250000,174181.7187500000,150327.9687500000,116323.5078125000,150048.2187500000,130589.4296875000,142701.0781250000,,,
1.8359999971,14,149657.8437500000,206094.9062500000,174605.2656250000,150770.2812500000,116731.5468750000,150436.8593750000,130971.6406250000,142959.4843750000,,,
1.8399999971,14,150486.3750000000,201921.9062500000,175553.3906250000,151655.9531250000,117558.1796875000,151240.6875000000,131757.7968750000,143588.5156250000,,,
1.8439999970,14,150577.2812500000,197450.4375000000,175774.9375000000,151769.8906250000,117645.8906250000,151334.0937500000,131847.5625000000,143703.5781250000,,,
1.8479999970,14,149794.8437500000,198816.6562500000,174875.5937500000,150923.7343750000,116872.0156250000,150586.0781250000,131112.5156250000,143137.0468750000,,,
1.8519999969,14,149244.5156250000,204142.7968750000,174173.0781250000,150329.6093750000,116328.7656250000,150052.1250000000,130586.8203125000,142693.9687500000,,,
1.8559999969,14,149689.7812500000,206121.3281250000,174638.0156250000,150793.8437500000,116772.8046875000,150478.3906250000,131001.0078125000,142993.7031250000,,,
1.8599999971,14,150524.2812500000,201961.2500000000,175594.5312500000,151680.9531250000,117600.0468750000,151281.0625000000,131788.3125000000,143627.9062500000,,,
1.8639999970,14,150601.9843750000,197465.4375000000,175809.8437500000,151778.7187500000,117669.8125000000,151355.6875000000,131862.0312500000,143731.1718750000,,,
1.8679999970,14,149805.5000000000,198788.8906250000,174900.1093750000,150936.3906250000,116874.4843750000,150594.5000000000,131107.0156250000,143153.9062500000,,,
1.8719999969,14,149247.2812500000,204114.6250000000,174196.4375000000,150338.7187500000,116321.8984375000,150056.9062500000,130583.9843750000,142704.9375000000,,,
1.8759999969,14,149677.9062500000,206127.6562500000,174650.4218750000,150799.3906250000,116750.4843750000,150462.9375000000,130990.6328125000,142985.1250000000,,,
1.8799999971,14,150501.8281250000,201986.1406250000,175600.3906250000,151677.2187500000,117570.7890625000,151251.8281250000,131776.7656250000,143605.5156250000,,,
1.8839999971,14,150591.0156250000,197464.0468750000,175815.9062500000,151794.5781250000,117654.7890625000,151341.0625000000,131868.2812500000,143715.4843750000,,,
1.8879999970,14,149798.3437500000,198757.1562500000,174901.8593750000,150940.6406250000,116869.3593750000,150589.4531250000,131125.0625000000,143140.9062500000,,,
1.8919999970,14,149238.6406250000,204086.0625000000,174186.8281250000,150324.9062500000,116315.9921875000,150051.4375000000,130593.2890625000,142692.5468750000,,,
1.8959999969,14,149672.3593750000,206136.9687500000,174638.1406250000,150782.7656250000,116745.3906250000,150465.1406250000,130989.5078125000,142981.8437500000,,,
1.8999999969,14,150501.0000000000,202016.5000000000,175583.6250000000,151681.7812500000,117566.3906250000,151265.6875000000,131768.2812500000,143606.0468750000,,,
1.9039999971,14,150603.1406250000,197473.1562500000,175807.7500000000,151807.8437500000,117663.1093750000,151363.1875000000,131869.0781250000,143723.9375000000,,,
1.9079999970,14,149811.3437500000,198726.1875000000,174885.3906250000,150957.1562500000,116877.3046875000,150604.7187500000,131124.9843750000,143146.8125000000,,,
1.9119999970,14,149249.6093750000,204037.0156250000,174158.9687500000,150338.5312500000,116323.2656250000,150057.1093750000,130594.4687500000,142694.9062500000,,,
1.9159999969,14,149664.8906250000,206095.2812500000,174596.7343750000,150772.4687500000,116739.2500000000,150445.4218750000,130981.4062500000,142963.0468750000,,,
1.9199999969,15,150497.5156250000,201984.3906250000,175560.0781250000,151661.3125000000,117570.0859375000,151250.4843750000,131772.4687500000,143595.5156250000,,,
1.9239999969,15,150584.6250000000,197417.5312500000,175785.5937500000,151782.7500000000,117656.0234375000,151337.7968750000,131863.4218750000,143704.6250000000,,,
1.9279999968,15,149795.9218750000,198631.5000000000,174884.6406250000,150933.7500000000,116874.3515625000,150580.0468750000,131121.8437500000,143130.0468750000,,,
1.9319999968,15,149222.7343750000,203913.2031250000,174172.2187500000,150312.5156250000,116307.2812500000,150017.7187500000,130575.5625000000,142668.0000000000,,,
1.9359999967,15,149632.2031250000,205971.1562500000,174597.4531250000,150757.6875000000,116713.5234375000,150403.5781250000,130952.8359375000,142935.4531250000,,,
1.9399999967,15,150467.6875000000,201859.1562500000,175530.0781250000,151650.7031250000,117543.8046875000,151208.2656250000,131743.5000000000,143569.2031250000,,,
1.9439999969,15,150580.3593750000,197255.7343750000,175749.2187500000,151782.7187500000,117651.9765625000,151314.0000000000,131855.6406250000,143697.0312500000,,,
1.9479999968,15,149802.5937500000,198414.2968750000,174840.4843750000,150949.5937500000,116877.4921875000,150570.7812500000,131125.8125000000,143132.3750000000,,,
1.9519999968,15,149221.1250000000,203702.6406250000,174096.6562500000,150325.7187500000,116295.2578125000,150013.4531250000,130568.9843750000,142666.8750000000,,,
1.9559999967,15,149636.7656250000,205821.7500000000,174531.2500000000,150756.3750000000,116706.7109375000,150414.0937500000,130954.4765625000,142943.6250000000,,,
1.9599999967,15,150486.4531250000,201752.9218750000,175503.4843750000,151658.4218750000,117553.2734375000,151240.1250000000,131759.3281250000,143593.3906250000,,,
1.9639999969,15,150604.5312500000,197147.6250000000,175757.5156250000,151793.8125000000,117672.9218750000,151358.5000000000,131877.5625000000,143726.7500000000,,,
1.9679999969,15,149831.7500000000,198303.8593750000,174874.5781250000,150961.7187500000,116913.4296875000,150617.1562500000,131155.6875000000,143165.7187500000,,,
1.9719999968,15,149236.5781250000,203622.8437500000,174124.1250000000,150329.6875000000,116323.5078125000,150041.1093750000,130588.5703125000,142686.3437500000,,,
1.9759999968,15,149648.5937500000,205793.1250000000,174558.4218750000,150756.8750000000,116733.1875000000,150434.5000000000,130972.7968750000,142957.5781250000,,,
1.9799999967,15,150495.2812500000,201743.4843750000,175535.3906250000,151651.8750000000,117574.9140625000,151249.7343750000,131774.5625000000,143600.7656250000,,,
1.9839999967,15,150604.1562500000,197109.1093750000,175787.2031250000,151787.7812500000,117678.5859375000,151353.3281250000,131883.3750000000,143725.8125000000,,,
1.9879999969,15,149816.9218750000,198242.3906250000,174894.5937500000,150945.7343750000,116895.0859375000,150598.3593750000,131144.8593750000,143155.2500000000,,,
1.9919999968,15,149236.3281250000,203580.8750000000,174159.5625000000,150322.2500000000,116317.3906250000,150035.6875000000,130594.3359375000,142690.5312500000,,,
1.9959999968,15,149645.9062500000,205796.5625000000,174582.7812500000,150740.8593750000,116724.0625000000,150425.2812500000,130972.0156250000,142960.8437500000,,,
1.9999999967,15,150487.3906250000,201771.1562500000,175539.7187500000,151624.7812500000,117561.0234375000,151241.0156250000,131766.5625000000,143597.9218750000,,,
2.0039999967,15,150610.3281250000,197128.5000000000,175793.3750000000,151785.2343750000,117679.6015625000,151371.2656250000,131886.8906250000,143737.1875000000,,,
2.0079999969,15,149822.8750000000,198234.9062500000,174899.2500000000,150953.0000000000,116895.0000000000,150616.4062500000,131141.9843750000,143163.1406250000,,,
2.0119999968,15,149227.4218750000,203583.6875000000,174142.2500000000,150314.0937500000,116298.2890625000,150039.1250000000,130570.4062500000,142684.1718750000,,,
2.0159999968,15,149631.7187500000,205860.6718750000,174563.8437500000,150740.9218750000,116696.5468750000,150419.4531250000,130942.8046875000,142947.5781250000,,,
2.0199999968,15,150476.0781250000,201895.5000000000,175531.8593750000,151632.7500000000,117535.6484375000,151237.6875000000,131740.3281250000,143586.2343750000,,,
2.0239999967,15,150601.1718750000,197258.5625000000,175791.7656250000,151775.2343750000,117659.8125000000,151363.9687500000,131866.6093750000,143723.3750000000,,,
2.0279999967,15,149820.4062500000,198348.3906250000,174903.8125000000,150938.2812500000,116890.8203125000,150613.0625000000,131136.7031250000,143154.8750000000,,,
2.0319999969,15,149219.6562500000,203716.3281250000,174147.5937500000,150292.4062500000,116299.8203125000,150032.3593750000,130568.0781250000,142676.0468750000,,,
2.0359999968,15,149615.0937500000,206013.5625000000,174555.2031250000,150716.5156250000,116696.8437500000,150407.8906250000,130938.4609375000,142933.4375000000,,,
2.0399999968,15,150465.7968750000,202039.7812500000,175512.4687500000,151621.0312500000,117547.9609375000,151231.1250000000,131749.0312500000,143580.2031250000,,,
2.0439999967,15,150606.5468750000,197368.2812500000,175789.4843750000,151790.3906250000,117688.3984375000,151372.1250000000,131896.2812500000,143734.6875000000,,,
2.0479999967,16,149819.2343750000,198396.2500000000,174899.2500000000,150958.8437500000,116906.8828125000,150617.8906250000,131159.5781250000,143162.6093750000,,,
2.0519999966,16,149219.8125000000,203696.3125000000,174131.4531250000,150310.5625000000,116311.7031250000,150038.4687500000,130586.1562500000,142683.2656250000,,,
2.0559999966,16,149611.7031250000,205977.4218750000,174533.9375000000,150716.7500000000,116703.3046875000,150409.5781250000,130949.8359375000,142936.2187500000,,,
2.0599999966,16,150458.9375000000,202006.2031250000,175491.5625000000,151628.2187500000,117543.6406250000,151223.7187500000,131745.6406250000,143573.8125000000,,,
2.0639999965,16,150600.4531250000,197304.5625000000,175760.1718750000,151793.2343750000,117675.7109375000,151360.2968750000,131875.4062500000,143724.0156250000,,,
2.0679999965,16,149832.4531250000,198302.4218750000,174877.5000000000,150964.9062500000,116908.2500000000,150626.6093750000,131148.3750000000,143170.7343750000,,,
2.0719999967,16,149239.9531250000,203602.8437500000,174124.7968750000,150321.0468750000,116318.5468750000,150050.7812500000,130583.8437500000,142699.2812500000,,,
2.0759999966,16,149633.5625000000,205910.5625000000,174536.6562500000,150736.3281250000,116708.8828125000,150419.8281250000,130947.6640625000,142956.3750000000,,,
2.0799999966,16,150481.2343750000,201957.7812500000,175516.2500000000,151642.7812500000,117552.0625000000,151239.5468750000,131750.1718750000,143596.6093750000,,,
2.0839999965,16,150630.3593750000,197252.1250000000,175797.4687500000,151823.3437500000,117697.0625000000,151389.4218750000,131898.4531250000,143754.9687500000,,,
2.0879999965,16,149871.5000000000,198222.0625000000,174921.0625000000,150997.0468750000,116942.0234375000,150661.4375000000,131182.5468750000,143209.6250000000,,,
2.0919999967,16,149252.7187500000,203525.8125000000,174154.3593750000,150327.5937500000,116331.1484375000,150056.8281250000,130595.2968750000,142713.1406250000,,,
2.0959999966,16,149630.7187500000,205874.9062500000,174552.3593750000,150729.4062500000,116712.0234375000,150407.7812500000,130946.2968750000,142952.5000000000,,,
2.0999999966,16,150480.6875000000,201948.9375000000,175517.0000000000,151641.0156250000,117554.0468750000,151228.2500000000,131746.8750000000,143596.2656250000,,,
2.1039999966,16,150628.6093750000,197212.7968750000,175787.8750000000,151817.7968750000,117694.9453125000,151380.7656250000,131890.4843750000,143756.7343750000,,,
2.1079999965,16,149856.7343750000,198138.4062500000,174901.5312500000,150993.7500000000,116928.7968750000,150641.7812500000,131164.3906250000,143197.0156250000,,,
2.1119999965,16,149237.6250000000,203449.1562500000,174119.2187500000,150330.0312500000,116314.6562500000,150037.1093750000,130573.5468750000,142699.5937500000,,,
2.1159999967,16,149623.6718750000,205841.5781250000,174513.9531250000,150733.6250000000,116698.2656250000,150400.4687500000,130930.4453125000,142949.6562500000,,,
2.1199999966,16,150482.8437500000,201934.3750000000,175491.3281250000,151639.6718750000,117552.1484375000,151231.4687500000,131743.6406250000,143598.8437500000,,,
2.1239999966,16,150633.6562500000,197179.0781250000,175776.3906250000,151809.3281250000,117700.2578125000,151383.0468750000,131892.7656250000,143757.5937500000,,,
2.1279999965,16,149855.2812500000,198080.2031250000,174895.0937500000,150985.0000000000,116936.1718750000,150633.1250000000,131171.8750000000,143187.7656250000,,,
2.1319999965,16,149244.0000000000,203403.0937500000,174135.4687500000,150323.5156250000,116337.5859375000,150043.8125000000,130600.2109375000,142701.3437500000,,,
2.1359999967,16,149630.0781250000,205838.1093750000,174537.5312500000,150726.1875000000,116724.1484375000,150413.0156250000,130958.6562500000,142957.8906250000,,,
2.1399999966,16,150488.0625000000,201945.4218750000,175515.6562500000,151634.9062500000,117578.1640625000,151242.3593750000,131768.0468750000,143608.0312500000,,,
2.1439999966,16,150641.8125000000,197146.5000000000,175813.8906250000,151820.6718750000,117724.4218750000,151399.5312500000,131914.9687500000,143769.9375000000,,,
2.1479999966,16,149853.7968750000,198023.1250000000,174923.5312500000,150992.8906250000,116941.4062500000,150647.2812500000,131176.1093750000,143195.8125000000,,,
2.1519999965,16,149233.1093750000,203360.3906250000,174131.6562500000,150320.3437500000,116326.8281250000,150043.8437500000,130586.2343750000,142701.3750000000,,,
2.1559999965,16,149615.0937500000,205831.9687500000,174516.3437500000,150717.2031250000,116705.2890625000,150403.8750000000,130935.9375000000,142951.3281250000,,,
2.1599999967,16,150468.0312500000,201938.1250000000,175487.9218750000,151629.9375000000,117550.0546875000,151219.5312500000,131737.0937500000,143592.3437500000,,,
2.1639999966,16,150645.5156250000,197094.4062500000,175806.7031250000,151839.9843750000,117720.0000000000,151375.1562500000,131902.5625000000,143766.0000000000,,,
2.1679999966,16,149884.6718750000,197913.7656250000,174947.6093750000,151022.8437500000,116963.1328125000,150644.9218750000,131183.9375000000,143213.5156250000,,,
2.1719999965,16,149255.3750000000,203238.8437500000,174164.6875000000,150345.1875000000,116342.0625000000,150061.0000000000,130594.3359375000,142715.5000000000,,,
2.1759999965,17,149633.2968750000,205711.1875000000,174558.8281250000,150748.1093750000,116718.2421875000,150419.1875000000,130945.9687500000,142959.8281250000,,,
2.1799999964,17,150508.5781250000,201781.7031250000,175541.2968750000,151669.7968750000,117583.7109375000,151262.0781250000,131765.3281250000,143620.9062500000,,,
2.1839999964,17,150668.9843750000,196857.2968750000,175848.4062500000,151855.1562500000,117741.1328125000,151430.6562500000,131921.5937500000,143787.3437500000,,,
2.1879999964,17,149887.5781250000,197630.8750000000,174976.2031250000,151023.8906250000,116967.1250000000,150693.4218750000,131189.7031250000,143222.6250000000,,,
2.1919999963,17,149250.5468750000,202999.4531250000,174179.8906250000,150321.3906250000,116332.5468750000,150076.4218750000,130575.2109375000,142714.7500000000,,,
2.1959999963,17,149595.0468750000,205563.2343750000,174530.9375000000,150709.2343750000,116672.2734375000,150404.0625000000,130884.7343750000,142929.4062500000,,,
2.1999999965,17,150459.7656250000,201710.5468750000,175493.9062500000,151630.2812500000,117531.2265625000,151246.8593750000,131698.9687500000,143585.4531250000,,,
2.2039999964,17,150628.6718750000,196812.2343750000,175788.9687500000,151822.8125000000,117697.4687500000,151428.9375000000,131865.0312500000,143760.8125000000,,,
2.2079999964,17,149854.8281250000,197600.5312500000,174911.1875000000,150992.8593750000,116929.2812500000,150691.9687500000,131137.7031250000,143201.7968750000,,,
2.2119999963,17,149228.9062500000,203007.7968750000,174111.8125000000,150313.5156250000,116308.0859375000,150080.0156250000,130537.1250000000,142706.2812500000,,,
2.2159999963,17,149602.5625000000,205640.8125000000,174488.9062500000,150697.5937500000,116678.4140625000,150435.2812500000,130879.0546875000,142951.9375000000,,,
2.2199999965,17,150471.3593750000,201824.2343750000,175469.7343750000,151618.9687500000,117537.3906250000,151277.5468750000,131694.2812500000,143610.5625000000,,,
2.2239999964,17,150650.8750000000,196914.1093750000,175796.4218750000,151837.0000000000,117711.0625000000,151456.6875000000,131869.3750000000,143789.9218750000,,,
2.2279999964,17,149880.3906250000,197676.7656250000,174941.6875000000,151011.7187500000,116949.4531250000,150719.5156250000,131149.5781250000,143229.8750000000,,,
2.2319999964,17,149236.3281250000,203087.8593750000,174144.0781250000,150317.5312500000,116315.0000000000,150090.1093750000,130537.9531250000,142713.2343750000,,,
2.2359999963,17,149593.1406250000,205757.8281250000,174504.7500000000,150696.2812500000,116670.0703125000,150427.6093750000,130864.1875000000,142944.7343750000,,,
2.2399999963,17,150460.7031250000,201967.8437500000,175477.7500000000,151614.7031250000,117534.7890625000,151266.7187500000,131683.8750000000,143600.2343750000,,,
2.2439999965,17,150642.0468750000,197044.0312500000,175800.1250000000,151833.0000000000,117712.8593750000,151443.8750000000,131862.4531250000,143777.0156250000,,,
2.2479999964,17,149882.8281250000,197767.4531250000,174946.8906250000,151029.0468750000,116958.9218750000,150713.8750000000,131150.8906250000,143226.9843750000,,,
2.2519999964,17,149237.0781250000,203176.5000000000,174140.2656250000,150325.9062500000,116317.8437500000,150088.2343750000,130535.7578125000,142712.9062500000,,,
2.2559999963,17,149590.1406250000,205866.0312500000,174494.7187500000,150700.5000000000,116667.0390625000,150422.1406250000,130857.1093750000,142937.3750000000,,,
2.2599999963,17,150454.9375000000,202085.8593750000,175466.1406250000,151623.5000000000,117522.2890625000,151253.8906250000,131671.2968750000,143588.3437500000,,,
2.2639999965,17,150657.0468750000,197143.0312500000,175808.7968750000,151844.7343750000,117715.4921875000,151448.5156250000,131868.2187500000,143785.9531250000,,,
2.2679999964,17,149913.6250000000,197833.4843750000,174987.3125000000,151037.0000000000,116980.7031250000,150731.9843750000,131178.3281250000,143249.4843750000,,,
2.2719999964,17,149232.5781250000,203219.2812500000,174147.1875000000,150325.8437500000,116297.8906250000,150075.4687500000,130519.5546875000,142706.2031250000,,,
2.2759999963,17,149575.1250000000,205933.5468750000,174483.5937500000,150697.3593750000,116633.4062500000,150395.6718750000,130824.4921875000,142919.3281250000,,,
2.2799999963,17,150447.1875000000,202170.5625000000,175475.6406250000,151614.3750000000,117503.6796875000,151240.2656250000,131646.2187500000,143574.8906250000,,,
2.2839999963,17,150646.5000000000,197201.9375000000,175819.0625000000,151843.5156250000,117699.9843750000,151441.7500000000,131839.9843750000,143773.5625000000,,,
2.2879999964,17,149886.0156250000,197853.2500000000,174958.8750000000,151028.8593750000,116947.3593750000,150715.7031250000,131133.2500000000,143225.6562500000,,,
2.2919999964,17,149235.0937500000,203232.1875000000,174143.5468750000,150322.1718750000,116303.8750000000,150081.3906250000,130520.6250000000,142709.0625000000,,,
2.2959999964,17,149577.6406250000,205967.2343750000,174489.4687500000,150679.7968750000,116646.9531250000,150400.8437500000,130835.4140625000,142925.9062500000,,,
2.2999999963,17,150455.6718750000,202230.2500000000,175464.3906250000,151608.3437500000,117520.9218750000,151250.6718750000,131665.1562500000,143589.5000000000,,,
2.3039999963,18,150665.3125000000,197249.6562500000,175799.5937500000,151854.9531250000,117723.1875000000,151458.8437500000,131867.5312500000,143794.8593750000,,,
2.3079999962,18,149903.6093750000,197856.2031250000,174935.5156250000,151042.0468750000,116965.5703125000,150725.0468750000,131151.4062500000,143242.7187500000,,,
2.3119999962,18,149241.1093750000,203227.3593750000,174109.2187500000,150324.8593750000,116308.8593750000,150083.2656250000,130524.4062500000,142717.7343750000,,,
2.3159999961,18,149568.4687500000,205999.0156250000,174445.9687500000,150673.5468750000,116636.5468750000,150395.2656250000,130829.4062500000,142922.4062500000,,,
2.3199999961,18,150434.6406250000,202276.0625000000,175425.5000000000,151599.5781250000,117501.1796875000,151234.2343750000,131651.0156250000,143573.5468750000,,,
2.3239999961,18,150651.4062500000,197270.4375000000,175784.5781250000,151849.6562500000,117715.0078125000,151448.3437500000,131861.5781250000,143782.6718750000,,,
2.3279999963,18,149896.7500000000,197845.4218750000,174941.6406250000,151038.2968750000,116965.6015625000,150725.8437500000,131149.5781250000,143240.2031250000,,,
2.3319999962,18,149233.4843750000,203221.3750000000,174105.7812500000,150315.2031250000,116308.4609375000,150086.0000000000,130517.5703125000,142717.8593750000,,,
2.3359999962,18,149565.2031250000,206033.1562500000,174430.5937500000,150658.5000000000,116636.8671875000,150399.4218750000,130818.9687500000,142929.2031250000,,,
2.3399999961,18,150437.4062500000,202327.1250000000,175420.0937500000,151590.7812500000,117505.4453125000,151238.6250000000,131641.6250000000,143581.1875000000,,,
2.3439999961,18,150653.1562500000,197282.6093750000,175782.0312500000,151848.2968750000,117712.4062500000,151448.5625000000,131847.5625000000,143784.7500000000,,,
2.3479999963,18,149902.8125000000,197831.0000000000,174946.9531250000,151043.7656250000,116960.8750000000,150730.2656250000,131140.6718750000,143243.8281250000,,,
2.3519999962,18,149230.7812500000,203221.1093750000,174115.2812500000,150317.2656250000,116295.2578125000,150078.0625000000,130504.5312500000,142709.7343750000,,,
2.3559999962,18,149560.4531250000,206059.1562500000,174437.0000000000,150655.8593750000,116625.6796875000,150392.3906250000,130806.4453125000,142917.5000000000,,,
2.3599999961,18,150440.4062500000,202356.8125000000,175421.8906250000,151589.6718750000,117505.7968750000,151243.8125000000,131642.2500000000,143580.0625000000,,,
2.3639999961,18,150670.2656250000,197281.0312500000,175796.7812500000,151856.0781250000,117731.3125000000,151469.4531250000,131867.9843750000,143799.6562500000,,,
2.3679999961,18,149913.4843750000,197795.2187500000,174962.3437500000,151053.2656250000,116980.7500000000,150737.7343750000,131161.6250000000,143251.4062500000,,,
2.3719999962,18,149231.3750000000,203202.9687500000,174120.7187500000,150316.0000000000,116306.5234375000,150071.8750000000,130514.4609375000,142711.4843750000,,,
2.3759999962,18,149555.9687500000,206092.8750000000,174428.3906250000,150660.0000000000,116628.5781250000,150377.5625000000,130806.1250000000,142915.7343750000,,,
2.3799999962,18,150445.0781250000,202404.5156250000,175405.5781250000,151593.3281250000,117513.6015625000,151237.9375000000,131644.6875000000,143588.2968750000,,,
2.3839999961,18,150678.2343750000,197291.9843750000,175781.8593750000,151849.7968750000,117741.7265625000,151467.1250000000,131873.2656250000,143810.7656250000,,,
2.3879999961,18,149918.6562500000,197778.7656250000,174949.4375000000,151044.9687500000,116984.9140625000,150739.4375000000,131161.2187500000,143261.8125000000,,,
2.3919999963,18,149237.2968750000,203206.4843750000,174119.5937500000,150305.8906250000,116307.4140625000,150075.2500000000,130516.7890625000,142718.9687500000,,,
2.3959999962,18,149565.3593750000,206141.0937500000,174447.9218750000,150651.7343750000,116633.5703125000,150385.6875000000,130818.8593750000,142923.2968750000,,,
2.3999999962,18,150456.0156250000,202457.8125000000,175439.9062500000,151600.2968750000,117522.3203125000,151243.9062500000,131660.7500000000,143588.8125000000,,,
2.4039999961,18,150694.6562500000,197315.6093750000,175816.9218750000,151864.7031250000,117760.5546875000,151476.4843750000,131895.2031250000,143813.7656250000,,,
2.4079999961,18,149935.9843750000,197770.3750000000,174965.8281250000,151058.3281250000,117007.5781250000,150759.2343750000,131178.5000000000,143272.5000000000,,,
2.4119999961,18,149249.4218750000,203216.9531250000,174110.7343750000,150313.7500000000,116323.5625000000,150098.1562500000,130512.2578125000,142734.6562500000,,,
2.4159999962,18,149574.2968750000,206198.6093750000,174430.0781250000,150654.4687500000,116643.2265625000,150392.4531250000,130801.3750000000,142939.3906250000,,,
2.4199999962,18,150457.0937500000,202530.3125000000,175417.5937500000,151596.2968750000,117525.9921875000,151248.2343750000,131657.2187500000,143604.5468750000,,,
2.4239999962,18,150697.8125000000,197346.8593750000,175805.8437500000,151878.9843750000,117766.1328125000,151491.7968750000,131909.9375000000,143829.9062500000,,,
2.4279999961,18,149944.8593750000,197772.3125000000,174987.3750000000,151077.5312500000,117020.7968750000,150760.7343750000,131210.4375000000,143283.2500000000,,,
2.4319999961,19,149241.7031250000,203224.6562500000,174125.8437500000,150321.0937500000,116322.3750000000,150075.8125000000,130547.7734375000,142726.5000000000,,,
2.4359999960,19,149562.6562500000,206236.5625000000,174427.1093750000,150654.7187500000,116639.6015625000,150377.2968750000,130844.6406250000,142926.8437500000,,,
2.4399999960,19,150456.9843750000,202581.3281250000,175398.6562500000,151606.7343750000,117529.7500000000,151230.0937500000,131689.7968750000,143591.6718750000,,,
2.4439999959,19,150693.9218750000,197373.4062500000,175775.5312500000,151890.2187500000,117762.9687500000,151457.7343750000,131932.6718750000,143809.6875000000,,,
2.4479999959,19,149935.0468750000,197765.0625000000,174954.9062500000,151087.4062500000,117009.6953125000,150723.4843750000,131227.5156250000,143260.3906250000,,,
2.4519999959,19,149238.7500000000,203218.6875000000,174106.8750000000,150333.7031250000,116322.7031250000,150042.4375000000,130572.2890625000,142709.5312500000,,,
2.4559999960,19,149544.8750000000,206261.7656250000,174402.8593750000,150641.0312500000,116630.1640625000,150331.1250000000,130857.0859375000,142896.2656250000,,,
2.4599999960,19,150430.1875000000,202621.1718750000,175366.2812500000,151581.1250000000,117511.2968750000,151186.3593750000,131689.5312500000,143558.5000000000,,,
2.4639999960,19,150683.5156250000,197389.4531250000,175754.6875000000,151873.5625000000,117758.8593750000,151438.6093750000,131933.4218750000,143797.1093750000,,,
2.4679999959,19,149935.4531250000,197738.4531250000,174950.1406250000,151067.7656250000,117018.0625000000,150728.7343750000,131235.8437500000,143264.4218750000,,,
2.4719999959,19,149242.0937500000,203188.6562500000,174108.9687500000,150307.4218750000,116331.1484375000,150055.0312500000,130580.0625000000,142718.8281250000,,,
2.4759999961,19,149543.0468750000,206266.0312500000,174402.8125000000,150625.4687500000,116631.5546875000,150327.7500000000,130861.1640625000,142898.7500000000,,,
2.4799999960,19,150428.5156250000,202653.9531250000,175369.8437500000,151563.9843750000,117509.4140625000,151185.1406250000,131694.3593750000,143562.1250000000,,,
2.4839999960,19,150681.7187500000,197412.4687500000,175767.7031250000,151858.9218750000,117755.1875000000,151434.3281250000,131934.7656250000,143798.3437500000,,,
2.4879999959,19,149941.6250000000,197738.1093750000,174969.2656250000,151067.6406250000,117023.0781250000,150723.7500000000,131243.2187500000,143268.5468750000,,,
2.4919999959,19,149241.2187500000,203180.2031250000,174116.1093750000,150306.7500000000,116328.6250000000,150047.8125000000,130575.5625000000,142717.3593750000,,,
2.4959999959,19,149536.1562500000,206283.3281250000,174408.4375000000,150619.5468750000,116623.0312500000,150326.0312500000,130845.3593750000,142895.1875000000,,,
2.4999999960,19,150430.8593750000,202694.7812500000,175390.9375000000,151570.7656250000,117512.9843750000,151188.9218750000,131692.6250000000,143564.2187500000,,,
2.5039999960,19,150685.2968750000,197451.4375000000,175788.8125000000,151864.0937500000,117762.1093750000,151434.5312500000,131940.1562500000,143797.1093750000,,,
2.5079999960,19,149930.5156250000,197740.0468750000,174967.0937500000,151063.3437500000,117012.6171875000,150708.7031250000,131233.6406250000,143251.2812500000,,,
2.5119999959,19,149224.0468750000,203164.2187500000,174098.0312500000,150299.2968750000,116311.3515625000,150027.1562500000,130565.2890625000,142696.5937500000,,,
2.5159999959,19,149521.9375000000,206297.0625000000,174384.8125000000,150607.1250000000,116605.8593750000,150312.5625000000,130836.1093750000,142883.6875000000,,,
2.5199999961,19,150406.2031250000,202743.4531250000,175363.9531250000,151555.1250000000,117483.2109375000,151170.2812500000,131670.6718750000,143546.4218750000,,,
2.5239999960,19,150675.6562500000,197494.5937500000,175772.0468750000,151863.0937500000,117746.2812500000,151437.1875000000,131930.6718750000,143794.4062500000,,,
2.5279999960,19,149943.5000000000,197750.6093750000,174966.0937500000,151086.5156250000,117018.4140625000,150735.9531250000,131242.1875000000,143271.3750000000,,,
2.5319999959,19,149228.8437500000,203163.6562500000,174092.6562500000,150312.9218750000,116308.9375000000,150039.5468750000,130561.6640625000,142704.7187500000,,,
2.5359999959,19,149520.7031250000,206325.5312500000,174379.2500000000,150622.1250000000,116597.9765625000,150303.6093750000,130828.4921875000,142876.5000000000,,,
2.5399999958,19,150411.2968750000,202810.0000000000,175356.5156250000,151576.6093750000,117479.0000000000,151160.1406250000,131663.0000000000,143542.2656250000,,,
2.5439999960,19,150689.3593750000,197564.8906250000,175776.0156250000,151897.8593750000,117752.4531250000,151430.9218750000,131931.8125000000,143794.7500000000,,,
2.5479999960,19,149949.9062500000,197783.6562500000,174983.5781250000,151112.0781250000,117021.8984375000,150721.4531250000,131245.8437500000,143262.4687500000,,,
2.5519999960,19,149219.6250000000,203160.8593750000,174104.0625000000,150330.6250000000,116299.2812500000,150018.1718750000,130555.9218750000,142686.6250000000,,,
2.5559999959,19,149494.5781250000,206339.8750000000,174368.0937500000,150619.9843750000,116571.9062500000,150280.8125000000,130805.8828125000,142852.1718750000,,,
2.5599999959,20,150389.9531250000,202853.3281250000,175344.7187500000,151574.2500000000,117460.4687500000,151146.0156250000,131648.0937500000,143522.2343750000,,,
2.5639999958,20,150671.6562500000,197594.3750000000,175765.4218750000,151895.6406250000,117736.6250000000,151419.2187500000,131920.1718750000,143780.1250000000,,,
2.5679999958,20,149941.8125000000,197775.9218750000,174970.5156250000,151114.2812500000,117015.9140625000,150720.4218750000,131241.8125000000,143258.7656250000,,,
2.5719999957,20,149233.8437500000,203148.5468750000,174108.4843750000,150348.5625000000,116317.0937500000,150035.5781250000,130571.5390625000,142704.9687500000,,,
2.5759999957,20,149523.9531250000,206349.1250000000,174396.3750000000,150643.9375000000,116609.2109375000,150307.0781250000,130838.7890625000,142883.2500000000,,,
2.5799999957,20,150396.2812500000,202886.8281250000,175362.5312500000,151572.6250000000,117478.2265625000,151152.1250000000,131661.4218750000,143532.2343750000,,,
2.5839999958,20,150665.4218750000,197621.0000000000,175778.2500000000,151886.9218750000,117744.8046875000,151420.6250000000,131926.0781250000,143777.4687500000,,,
2.5879999958,20,149941.9218750000,197765.3593750000,174981.7812500000,151114.3281250000,117028.1250000000,150730.1562500000,131254.7968750000,143260.7968750000,,,
2.5919999958,20,149226.8437500000,203103.5000000000,174088.2968750000,150337.4062500000,116319.3515625000,150037.0312500000,130578.1875000000,142697.1093750000,,,
2.5959999957,20,149491.4687500000,206320.0000000000,174336.5312500000,150607.2968750000,116581.8046875000,150288.8125000000,130819.5859375000,142854.0156250000,,,
2.5999999957,20,150379.7812500000,202888.6406250000,175308.5312500000,151551.4218750000,117466.0156250000,151148.9375000000,131659.2812500000,143519.1250000000,,,
2.6039999959,20,150665.7656250000,197607.5312500000,175742.1093750000,151873.5937500000,117748.0546875000,151429.7343750000,131938.1406250000,143779.7031250000,,,
2.6079999958,20,149951.0312500000,197710.3281250000,174955.5312500000,151109.0781250000,117037.6406250000,150747.1406250000,131266.6250000000,143273.2968750000,,,
2.6119999958,20,149243.0937500000,203049.9062500000,174074.1093750000,150337.4531250000,116333.4062500000,150060.1718750000,130589.5859375000,142720.1406250000,,,
2.6159999957,20,149517.5156250000,206302.8906250000,174340.2343750000,150631.3437500000,116606.7187500000,150313.1562500000,130838.6015625000,142885.2968750000,,,
2.6199999957,20,150401.3437500000,202906.7500000000,175317.6562500000,151556.9218750000,117489.5937500000,151160.4375000000,131674.0625000000,143544.0937500000,,,
2.6239999956,20,150691.1562500000,197621.0000000000,175750.7812500000,151876.8281250000,117769.5390625000,151443.1250000000,131944.2343750000,143805.6406250000,,,
2.6279999958,20,149952.6718750000,197685.1406250000,174935.0937500000,151106.7187500000,117029.2734375000,150731.0468750000,131244.7656250000,143273.1093750000,,,
2.6319999958,20,149223.9687500000,202992.0937500000,174027.5625000000,150337.0312500000,116304.9140625000,150026.1406250000,130556.0625000000,142700.7031250000,,,
2.6359999957,20,149477.3593750000,206262.4687500000,174272.1562500000,150608.2343750000,116554.4140625000,150265.9218750000,130788.8984375000,142848.0625000000,,,
2.6399999957,20,150357.3906250000,202894.6093750000,175240.7031250000,151551.0000000000,117430.0234375000,151114.5000000000,131621.4062500000,143500.7968750000,,,
2.6439999957,20,150670.1406250000,197592.4843750000,175697.2343750000,151900.0625000000,117736.8984375000,151415.2812500000,131924.0468750000,143780.7500000000,,,
2.6479999959,20,149958.3906250000,197617.9531250000,174925.6562500000,151145.0781250000,117027.9062500000,150739.0625000000,131257.2500000000,143276.6718750000,,,
2.6519999958,20,149230.8593750000,202916.8125000000,174033.8750000000,150362.0625000000,116309.1250000000,150036.4375000000,130570.7578125000,142707.4375000000,,,
2.6559999958,20,149490.4531250000,206217.7812500000,174280.6875000000,150634.7812500000,116572.6015625000,150272.0468750000,130810.1953125000,142856.7031250000,,,
2.6599999957,20,150379.7031250000,202868.6718750000,175250.9531250000,151576.7968750000,117462.9609375000,151129.1406250000,131652.5000000000,143515.8750000000,,,
2.6639999957,20,150670.1562500000,197549.7968750000,175691.0156250000,151909.5625000000,117750.3593750000,151415.8437500000,131933.8593750000,143775.3593750000,,,
2.6679999956,20,149961.3593750000,197541.7968750000,174915.4375000000,151153.7656250000,117046.9531250000,150740.5156250000,131272.7187500000,143273.5468750000,,,
2.6719999958,20,149225.3906250000,202843.0468750000,174012.8437500000,150353.5781250000,116317.2578125000,150034.2343750000,130577.8359375000,142699.5937500000,,,
2.6759999958,20,149474.8281250000,206172.2968750000,174252.8906250000,150618.2812500000,116568.1796875000,150269.9531250000,130810.7109375000,142846.6093750000,,,
2.6799999957,20,150369.8281250000,202845.2187500000,175251.2500000000,151558.2968750000,117460.1953125000,151135.2343750000,131655.3281250000,143516.6875000000,,,
2.6839999957,20,150683.2031250000,197509.3750000000,175730.6562500000,151904.2187500000,117767.1250000000,151439.2656250000,131953.7812500000,143795.0156250000,,,
2.6879999957,21,149970.7187500000,197471.7187500000,174960.9687500000,151143.3906250000,117054.6250000000,150753.6093750000,131281.8906250000,143283.2812500000,,,
2.6919999956,21,149244.2656250000,202758.5625000000,174060.0000000000,150352.9062500000,116332.2187500000,150051.8906250000,130593.7968750000,142718.1875000000,,,
2.6959999956,21,149491.6250000000,206114.2187500000,174297.6093750000,150607.7187500000,116578.0703125000,150285.6875000000,130818.9453125000,142862.8125000000,,,
2.6999999955,21,150377.2343750000,202807.2656250000,175274.0468750000,151548.6406250000,117459.0156250000,151140.8125000000,131650.5156250000,143519.9218750000,,,
2.7039999955,21,150693.9843750000,197434.2968750000,175731.1406250000,151910.6875000000,117772.9453125000,151444.5156250000,131956.9843750000,143798.1875000000,,,
2.7079999954,21,149988.2656250000,197341.2187500000,174954.8906250000,151162.6718750000,117074.0390625000,150773.0468750000,131299.8125000000,143297.7656250000,,,
2.7119999956,21,149247.5156250000,202612.3281250000,174031.9687500000,150349.8750000000,116341.7187500000,150057.9218750000,130600.4531250000,142721.0000000000,,,
2.7159999956,21,149487.8125000000,205972.5468750000,174248.2343750000,150592.7187500000,116579.8671875000,150283.7031250000,130816.7734375000,142860.8593750000,,,
2.7199999955,21,150384.8593750000,202663.9375000000,175236.4843750000,151541.0156250000,117472.4531250000,151155.2343750000,131668.9375000000,143530.3125000000,,,
2.7239999955,21,150703.3125000000,197279.4218750000,175709.7968750000,151903.5468750000,117785.4453125000,151468.8437500000,131980.2031250000,143812.3750000000,,,
2.7279999955,21,149991.6406250000,197166.0937500000,174951.5625000000,151150.9687500000,117081.8203125000,150794.5625000000,131320.8906250000,143307.4375000000,,,
2.7319999957,21,149244.5156250000,202421.6250000000,174034.7812500000,150346.6093750000,116342.7109375000,150081.5781250000,130621.1328125000,142721.7031250000,,,
2.7359999956,21,149484.9531250000,205811.3125000000,174258.5625000000,150589.9062500000,116580.6484375000,150316.5625000000,130846.6484375000,142865.7968750000,,,
2.7399999956,21,150368.5781250000,202554.0468750000,175227.2031250000,151516.5312500000,117456.8750000000,151174.8750000000,131679.2343750000,143525.0781250000,,,
2.7439999955,21,150700.6250000000,197177.3125000000,175702.2343750000,151887.2968750000,117782.6796875000,151498.2656250000,131998.6093750000,143820.0156250000,,,
2.7479999955,21,150004.8125000000,197035.3906250000,174961.2656250000,151148.5000000000,117097.0312500000,150842.2500000000,131361.5468750000,143331.0000000000,,,
2.7519999954,21,149262.2968750000,202291.6406250000,174052.4062500000,150348.5312500000,116366.1015625000,150130.1718750000,130666.0546875000,142754.3437500000,,,
2.7559999956,21,149505.3593750000,205716.2656250000,174273.2343750000,150593.4531250000,116612.3515625000,150355.6406250000,130890.0781250000,142895.8125000000,,,
2.7599999956,21,150387.2187500000,202501.6562500000,175242.7187500000,151527.2031250000,117492.3828125000,151208.5156250000,131724.1875000000,143550.5312500000,,,
2.7639999955,21,150715.0937500000,197131.8750000000,175720.6250000000,151897.0781250000,117818.4609375000,151529.6250000000,132041.5156250000,143838.7343750000,,,
2.7679999955,21,150036.5937500000,196982.9375000000,174980.9375000000,151169.4218750000,117146.3828125000,150881.9687500000,131408.7812500000,143362.1093750000,,,
2.7719999955,21,149304.7812500000,202255.0625000000,174078.3593750000,150380.8906250000,116421.2421875000,150174.0000000000,130719.7812500000,142791.5156250000,,,
2.7759999956,21,149517.6406250000,205724.9531250000,174288.0625000000,150604.2656250000,116630.0312500000,150371.5468750000,130911.3750000000,142901.9218750000,,,
2.7799999956,21,150394.5156250000,202569.1093750000,175251.9375000000,151530.7187500000,117503.1953125000,151204.5312500000,131726.8437500000,143544.2343750000,,,
2.7839999956,21,150732.0468750000,197243.0468750000,175725.4843750000,151910.1406250000,117827.5234375000,151526.8281250000,132033.3906250000,143837.3750000000,,,
2.7879999955,21,150038.8437500000,197114.2812500000,174983.2031250000,151178.2031250000,117132.3281250000,150858.9375000000,131390.1406250000,143345.8281250000,,,
2.7919999955,21,149292.2812500000,202423.6406250000,174069.5468750000,150389.2812500000,116387.6093750000,150135.6718750000,130679.2812500000,142765.9843750000,,,
2.7959999954,21,149512.8906250000,205980.6718750000,174279.9062500000,150623.3281250000,116607.8203125000,150342.1875000000,130876.8281250000,142890.7656250000,,,
2.7999999956,21,150395.2656250000,202906.0781250000,175265.2968750000,151558.0781250000,117487.5000000000,151190.6406250000,131714.3437500000,143546.8593750000,,,
2.8039999956,21,150732.3281250000,197595.6250000000,175764.7187500000,151948.8281250000,117821.7343750000,151519.3750000000,132039.8906250000,143845.5781250000,,,
2.8079999955,21,150038.3437500000,197430.2500000000,175026.0781250000,151208.5625000000,117128.6796875000,150862.7187500000,131380.8906250000,143360.8125000000,,,
2.8119999955,21,149278.6250000000,202716.1250000000,174096.4218750000,150388.0156250000,116375.5156250000,150128.5156250000,130658.8437500000,142769.0156250000,,,
2.8159999955,22,149493.5781250000,206280.8593750000,174293.5625000000,150612.1718750000,116586.0390625000,150324.9843750000,130844.6406250000,142886.0625000000,,,
2.8199999954,22,150364.0625000000,203215.5781250000,175257.6562500000,151535.5000000000,117451.8046875000,151160.9062500000,131664.0781250000,143527.0625000000,,,
2.8239999954,22,150704.4687500000,197868.2500000000,175748.6250000000,151919.9843750000,117782.5468750000,151494.4843750000,131986.7031250000,143824.3906250000,,,
2.8279999953,22,150025.0156250000,197659.1406250000,175008.4687500000,151185.2031250000,117103.7578125000,150850.0781250000,131344.5156250000,143347.2500000000,,,
2.8319999953,22,149266.9375000000,202933.4375000000,174065.9218750000,150378.9062500000,116352.4453125000,150111.4843750000,130623.5937500000,142755.0625000000,,,
2.8359999952,22,149485.0781250000,206517.0625000000,174262.3125000000,150597.6406250000,116572.2500000000,150304.2343750000,130820.8437500000,142874.8281250000,,,
2.8399999954,22,150359.2656250000,203461.2968750000,175218.9218750000,151524.0625000000,117444.9062500000,151142.6093750000,131643.4218750000,143520.7031250000,,,
2.8439999954,22,150700.5468750000,198088.0781250000,175710.8125000000,151915.8593750000,117785.3906250000,151469.2656250000,131971.2968750000,143816.6406250000,,,
2.8479999953,22,150017.7968750000,197823.4375000000,174984.2812500000,151198.7656250000,117109.7421875000,150814.4062500000,131329.8750000000,143331.3750000000,,,
2.8519999953,22,149266.1250000000,203064.3906250000,174060.6093750000,150393.5156250000,116363.8437500000,150086.7500000000,130617.7265625000,142744.7968750000,,,
2.8559999953,22,149479.1250000000,206660.0156250000,174249.7656250000,150606.6406250000,116575.9531250000,150283.4687500000,130812.6640625000,142862.2031250000,,,
2.8599999954,22,150356.0781250000,203602.8593750000,175218.9218750000,151530.0000000000,117447.3515625000,151130.6406250000,131634.3125000000,143510.6406250000,,,
2.8639999954,22,150709.0781250000,198174.3437500000,175723.6562500000,151920.9843750000,117791.6953125000,151472.5937500000,131968.9375000000,143816.3906250000,,,
2.8679999954,22,150027.1250000000,197848.3750000000,174985.5625000000,151203.8906250000,117109.2578125000,150813.5468750000,131328.6406250000,143330.5312500000,,,
2.8719999953,22,149277.0468750000,203080.2343750000,174063.2343750000,150389.3593750000,116366.3906250000,150082.6250000000,130616.2187500000,142746.8593750000,,,
2.8759999953,22,149479.9531250000,206694.7343750000,174248.6562500000,150600.9843750000,116566.6718750000,150263.3437500000,130792.4687500000,142853.4843750000,,,
2.8799999952,22,150363.7656250000,203638.4062500000,175209.9687500000,151527.9062500000,117442.8437500000,151117.6406250000,131625.4843750000,143508.9375000000,,,
2.8839999954,22,150717.1875000000,198168.3281250000,175713.0625000000,151921.9218750000,117791.3671875000,151466.9687500000,131967.7812500000,143818.1406250000,,,
2.8879999954,22,150047.9687500000,197794.0625000000,174997.9062500000,151214.6250000000,117128.0859375000,150827.6875000000,131345.5468750000,143350.4375000000,,,
2.8919999953,22,149293.8125000000,203017.2343750000,174071.9218750000,150393.5937500000,116382.8906250000,150099.3281250000,130637.3046875000,142765.5312500000,,,
2.8959999953,22,149476.7968750000,206664.4687500000,174237.2343750000,150585.1093750000,116565.4375000000,150266.9218750000,130802.4765625000,142853.9687500000,,,
2.8999999953,22,150357.3906250000,203624.0625000000,175188.9843750000,151524.0625000000,117440.9140625000,151117.9062500000,131628.5937500000,143503.8906250000,,,
2.9039999954,22,150724.6093750000,198137.8437500000,175690.2343750000,151930.4218750000,117799.7421875000,151477.6718750000,131977.1250000000,143821.9375000000,,,
2.9079999954,22,150047.0312500000,197732.7187500000,174973.4218750000,151221.4687500000,117127.5781250000,150832.0937500000,131346.4062500000,143346.6875000000,,,
2.9119999954,22,149273.2343750000,202971.6562500000,174048.0625000000,150404.9218750000,116361.7265625000,150087.8593750000,130615.1718750000,142747.2656250000,,,
2.9159999953,22,149462.8437500000,206681.9687500000,174237.2812500000,150602.2812500000,116552.2187500000,150263.2500000000,130790.8359375000,142849.2187500000,,,
2.9199999953,22,150350.9062500000,203693.1562500000,175217.7187500000,151531.7187500000,117436.6484375000,151116.7031250000,131627.8906250000,143506.8906250000,,,
2.9239999952,22,150713.5000000000,198201.1875000000,175715.5937500000,151936.4062500000,117788.8750000000,151468.4375000000,131968.4531250000,143819.2968750000,,,
2.9279999954,22,150044.8593750000,197783.9218750000,174996.3593750000,151228.6718750000,117123.6640625000,150826.8906250000,131328.3750000000,143348.1093750000,,,
2.9319999954,22,149282.5000000000,203033.0312500000,174052.8906250000,150406.4687500000,116366.5781250000,150089.1718750000,130602.9140625000,142760.9687500000,,,
2.9359999953,22,149458.1718750000,206767.9218750000,174205.3125000000,150597.0156250000,116542.8281250000,150242.7031250000,130775.2734375000,142844.9218750000,,,
2.9399999953,22,150339.4218750000,203814.1250000000,175161.2812500000,151523.9687500000,117419.9140625000,151095.0781250000,131616.6562500000,143494.1250000000,,,
2.9439999952,23,150715.4687500000,198329.4218750000,175677.1718750000,151942.5781250000,117791.4765625000,151462.5468750000,131979.4062500000,143817.1718750000,,,
