Time:250Hz,Epoch,Channel 1,Channel 2,Channel 3,Channel 4,Channel 5,Channel 6,Channel 7,Channel 8,Event Id,Event Date,Event Duration
0.0000000000,0,152016.2343750000,151963.5000000000,177242.3750000000,171298.0468750000,160658.2500000000,163469.1562500000,58898.7421875000,172003.8125000000,,,
0.0040000000,0,152022.5000000000,151972.4062500000,177246.1406250000,171306.8437500000,160661.9531250000,163477.2812500000,58909.7656250000,172009.1562500000,,,
0.0079999999,0,152030.5468750000,151982.5468750000,177256.5625000000,171299.5156250000,160668.3125000000,163484.6562500000,58905.5039062500,172010.0937500000,,,
0.0119999999,0,152033.5000000000,151982.4531250000,177264.2343750000,171303.4843750000,160676.4687500000,163483.9843750000,58914.3281250000,172012.6093750000,,,
0.0159999998,0,152006.8750000000,151964.7031250000,177225.9687500000,171310.0781250000,160646.7968750000,163467.8125000000,58885.1718750000,172001.6718750000,,,
0.0199999998,0,152009.5000000000,151970.7968750000,177229.5937500000,171306.8906250000,160648.5156250000,163463.4218750000,58885.3046875000,172004.0781250000,,,
0.0240000000,0,152018.9843750000,151983.2031250000,177242.0937500000,171299.5468750000,160658.0625000000,163472.1875000000,58897.8046875000,172010.7343750000,,,
0.0279999999,0,152016.0937500000,151976.7656250000,177234.5156250000,171314.6406250000,160648.8906250000,163464.4843750000,58879.2695312500,172001.6093750000,,,
0.0319999999,0,152019.1562500000,151979.7812500000,177231.5156250000,171316.8906250000,160645.7343750000,163457.8437500000,58872.4570312500,171999.8437500000,,,
0.0359999998,0,152034.5468750000,151995.9531250000,177252.4062500000,171297.2656250000,160666.8437500000,163474.1406250000,58892.9765625000,172018.1093750000,,,
0.0399999998,0,152039.4062500000,151994.3125000000,177263.3281250000,171309.4218750000,160679.3906250000,163476.9531250000,58912.2070312500,172021.8906250000,,,
0.0440000000,0,152028.9375000000,151981.7968750000,177248.0937500000,171322.8750000000,160665.5781250000,163460.9687500000,58900.0039062500,172006.8437500000,,,
0.0480000000,0,152022.2968750000,151976.6093750000,177239.6406250000,171323.3281250000,160656.5312500000,163458.4843750000,58887.9882812500,171994.0781250000,,,
0.0519999999,0,152019.2656250000,151972.0312500000,177238.1718750000,171315.3125000000,160653.5312500000,163461.1093750000,58882.0312500000,171991.0781250000,,,
0.0559999999,0,152015.2343750000,151968.5156250000,177234.1718750000,171322.5312500000,160646.9375000000,163458.0781250000,58875.2460937500,171993.0781250000,,,
0.0599999998,0,152024.5468750000,151983.9062500000,177246.3281250000,171327.3125000000,160657.3750000000,163467.9687500000,58885.1718750000,172006.1406250000,,,
0.0639999998,0,152022.1250000000,151981.0156250000,177244.9531250000,171315.5000000000,160658.3906250000,163467.2812500000,58895.9257812500,172004.1406250000,,,
0.0680000000,0,151991.3906250000,151944.6875000000,177217.1406250000,171313.8593750000,160630.1718750000,163442.9531250000,58862.5859375000,171968.6718750000,,,
0.0719999999,0,151994.6562500000,151951.1562500000,177220.7656250000,171312.7343750000,160631.7031250000,163445.1718750000,58859.5546875000,171971.0937500000,,,
0.0759999999,0,151980.3125000000,151943.9687500000,177200.1562500000,171299.0000000000,160613.3593750000,163433.5156250000,58838.3945312500,171969.4062500000,,,
0.0799999998,0,151986.0781250000,151954.7031250000,177205.3906250000,171309.6875000000,160621.7187500000,163447.8906250000,58865.9140625000,171978.5937500000,,,
0.0839999998,0,151986.1406250000,151954.8125000000,177212.5312500000,171305.2343750000,160628.0781250000,163458.1093750000,58883.6953125000,171978.4062500000,,,
0.0880000000,0,151978.6250000000,151940.4843750000,177209.7187500000,171295.2187500000,160621.4531250000,163446.4062500000,58867.8984375000,171961.2656250000,,,
0.0919999999,0,151984.2031250000,151946.5937500000,177207.6250000000,171303.3281250000,160623.8125000000,163450.7500000000,58868.6210937500,171964.8437500000,,,
0.0959999999,0,151999.5781250000,151960.8437500000,177228.8437500000,171297.9062500000,160643.5625000000,163461.5156250000,58880.2109375000,171982.7812500000,,,
0.0999999999,0,152011.0468750000,151972.6093750000,177242.7500000000,171301.4531250000,160652.5937500000,163465.0468750000,58889.1953125000,171995.2343750000,,,
0.1039999998,0,152006.1093750000,151985.3593750000,177217.9531250000,171295.7812500000,160632.9843750000,163475.3750000000,58862.2929687500,172000.7812500000,,,
0.1079999998,0,151986.4843750000,151952.2812500000,177201.5312500000,171305.2812500000,160619.5781250000,163457.4843750000,58852.7421875000,171972.5156250000,,,
0.1120000000,0,151982.2500000000,151936.4062500000,177208.9843750000,171288.3593750000,160626.7968750000,163438.3437500000,58866.9335937500,171957.6250000000,,,
0.1159999999,0,151994.9843750000,151948.0000000000,177224.8593750000,171296.9375000000,160643.1562500000,163441.5781250000,58884.2070312500,171969.6718750000,,,
0.1199999999,0,152011.2187500000,151966.2812500000,177238.7812500000,171298.6562500000,160652.9218750000,163449.3906250000,58881.4179687500,171984.0156250000,,,
0.1239999998,0,152031.8125000000,151993.7187500000,177252.6250000000,171312.7968750000,160664.7187500000,163475.1875000000,58889.9453125000,172001.0000000000,,,
0.1279999998,1,152026.1250000000,151979.7187500000,177248.9062500000,171326.7187500000,160664.2812500000,163469.0156250000,58914.8359375000,171992.5937500000,,,
0.1319999998,1,152009.7968750000,151949.3125000000,177240.5781250000,171318.5000000000,160654.7343750000,163453.6250000000,58906.2265625000,171972.1093750000,,,
0.1359999997,1,152010.0937500000,151964.5625000000,177232.8593750000,171326.2812500000,160648.4843750000,163463.7031250000,58881.5781250000,171988.3281250000,,,
0.1399999997,1,152013.1718750000,151967.5937500000,177238.7343750000,171317.7812500000,160651.7031250000,163458.4843750000,58876.5351562500,171997.5937500000,,,
0.1439999996,1,152002.4375000000,151959.9062500000,177228.2187500000,171295.8437500000,160641.2968750000,163461.8281250000,58867.2812500000,171993.1875000000,,,
0.1479999996,1,151989.4843750000,151944.2968750000,177217.1718750000,171294.5781250000,160628.7031250000,163448.6875000000,58846.3046875000,171974.9218750000,,,
0.1519999998,1,151990.0781250000,151946.8437500000,177217.9531250000,171295.5468750000,160628.2656250000,163442.5156250000,58852.2617187500,171976.2187500000,,,
0.1559999997,1,151981.0625000000,151941.7968750000,177206.7031250000,171292.9687500000,160617.7031250000,163432.0937500000,58848.3164062500,171976.9062500000,,,
0.1599999997,1,151993.4843750000,151953.6718750000,177222.4531250000,171298.2500000000,160636.1562500000,163441.3125000000,58886.3789062500,171988.9062500000,,,
0.1639999996,1,151999.6562500000,151958.7500000000,177227.7343750000,171314.5312500000,160640.5000000000,163438.7343750000,58888.0429687500,171987.6406250000,,,
0.1679999996,1,152011.8281250000,151974.6875000000,177239.6250000000,171283.9375000000,160650.5625000000,163442.8750000000,58894.1015625000,171995.8750000000,,,
0.1719999998,1,152011.7968750000,151970.0937500000,177240.6875000000,171281.5000000000,160650.5312500000,163440.2656250000,58883.8320312500,171996.1718750000,,,
0.1759999997,1,151987.3437500000,151946.0312500000,177211.2343750000,171286.6406250000,160627.1406250000,163435.2812500000,58855.6679687500,171981.3593750000,,,
0.1799999997,1,151977.3906250000,151932.8906250000,177200.5937500000,171288.3281250000,160619.9531250000,163430.9375000000,58852.9023437500,171972.4062500000,,,
0.1839999997,1,151979.4531250000,151932.9687500000,177202.7343750000,171284.5781250000,160621.8906250000,163431.3437500000,58860.2265625000,171967.3125000000,,,
0.1879999996,1,152001.0781250000,151956.6250000000,177226.2031250000,171287.7968750000,160642.1093750000,163450.4375000000,58879.9687500000,171980.0000000000,,,
0.1919999996,1,152023.9531250000,151981.7031250000,177250.4843750000,171305.0937500000,160663.7187500000,163469.1562500000,58900.5117187500,172002.0625000000,,,
0.1959999998,1,152021.7343750000,151976.2968750000,177246.1875000000,171300.4062500000,160659.8593750000,163465.6093750000,58886.2695312500,172003.4687500000,,,
0.1999999997,1,152001.2656250000,151957.5468750000,177218.3281250000,171296.5937500000,160634.7812500000,163455.7500000000,58854.4335937500,171988.0156250000,,,
0.2039999997,1,151990.9062500000,151947.6250000000,177201.3906250000,171303.4843750000,160620.7343750000,163447.8125000000,58855.0781250000,171971.2187500000,,,
0.2079999996,1,152028.1875000000,151989.1406250000,177242.5468750000,171306.4687500000,160657.0000000000,163465.9375000000,58889.3281250000,171995.7656250000,,,
0.2119999996,1,152028.8593750000,151983.4062500000,177246.7812500000,171301.5312500000,160660.9687500000,163458.2656250000,58878.4648437500,171996.3281250000,,,
0.2159999998,1,152004.7500000000,151957.8437500000,177221.9375000000,171317.0781250000,160638.8125000000,163438.7656250000,58838.0429687500,171980.1250000000,,,
0.2199999997,1,151996.2187500000,151943.5625000000,177224.5937500000,171317.4687500000,160640.0156250000,163424.9531250000,58871.0898437500,171968.0000000000,,,
0.2239999997,1,151995.6875000000,151946.6562500000,177220.7343750000,171313.7656250000,160637.2187500000,163436.0625000000,58889.6757812500,171967.2031250000,,,
0.2279999997,1,151991.1718750000,151944.7968750000,177212.2031250000,171303.6250000000,160628.2343750000,163440.7812500000,58871.2773437500,171961.6718750000,,,
0.2319999996,1,152006.5156250000,151959.0781250000,177233.0156250000,171312.9062500000,160644.7812500000,163446.2968750000,58883.5351562500,171977.6875000000,,,
0.2359999996,1,151995.4375000000,151948.5312500000,177222.0000000000,171308.5312500000,160634.3281250000,163444.4062500000,58868.4882812500,171978.8906250000,,,
0.2399999998,1,152004.1875000000,151959.3125000000,177236.1875000000,171297.6093750000,160646.1250000000,163450.8437500000,58873.9882812500,171990.9687500000,,,
0.2439999997,1,151999.1406250000,151961.2500000000,177226.0781250000,171302.3281250000,160636.6875000000,163443.0781250000,58859.1796875000,171987.7656250000,,,
0.2479999997,1,151987.7187500000,151948.8281250000,177209.9218750000,171288.0625000000,160623.7343750000,163432.8125000000,58856.6054687500,171969.0781250000,,,
0.2519999996,1,151986.9687500000,151950.0000000000,177206.8125000000,171289.8125000000,160621.7187500000,163433.0312500000,58856.0156250000,171965.4843750000,,,
0.2559999996,2,151999.6250000000,151961.9062500000,177225.0781250000,171296.0312500000,160641.2500000000,163441.2343750000,58882.8359375000,171979.6250000000,,,
0.2599999995,2,152014.3281250000,151978.2500000000,177246.5156250000,171294.9531250000,160662.4062500000,163449.7343750000,58902.7148437500,171994.6875000000,,,
0.2639999995,2,152019.8750000000,151990.9843750000,177242.3593750000,171313.7812500000,160659.0625000000,163461.4531250000,58883.8320312500,172002.8750000000,,,
0.2679999995,2,151988.2031250000,151944.5625000000,177203.7500000000,171322.4843750000,160625.7500000000,163428.5000000000,58839.5468750000,171962.4218750000,,,
0.2719999994,2,151995.9843750000,151948.0781250000,177221.1093750000,171296.7343750000,160640.3906250000,163435.8906250000,58867.7382812500,171963.3125000000,,,
0.2759999994,2,152005.3906250000,151959.0937500000,177230.2812500000,171290.7656250000,160647.9062500000,163451.2343750000,58883.1328125000,171977.6562500000,,,
0.2799999996,2,152003.5625000000,151960.3906250000,177225.0468750000,171298.5312500000,160643.4531250000,163454.4375000000,58875.8632812500,171981.4687500000,,,
0.2839999995,2,152011.4531250000,151969.2656250000,177232.3750000000,171308.5000000000,160650.0781250000,163457.5468750000,58888.1484375000,171985.5937500000,,,
0.2879999995,2,152016.7343750000,151974.5468750000,177240.2343750000,171301.4218750000,160654.3125000000,163465.8906250000,58897.0546875000,171986.5937500000,,,
0.2919999994,2,152009.0156250000,151962.1250000000,177233.5625000000,171304.8281250000,160645.2187500000,163453.8125000000,58877.3398437500,171977.2500000000,,,
0.2959999994,2,152013.2500000000,151974.8750000000,177233.5000000000,171310.5937500000,160649.1875000000,163464.2500000000,58886.1914062500,171991.7187500000,,,
0.2999999996,2,152024.7343750000,151990.2343750000,177244.3125000000,171316.0937500000,160662.1406250000,163471.6562500000,58906.0390625000,172012.0468750000,,,
0.3039999995,2,152019.6406250000,151978.2187500000,177241.3593750000,171320.2031250000,160657.3437500000,163457.5156250000,58897.4023437500,172001.0781250000,,,
0.3079999995,2,152015.2656250000,151969.9843750000,177238.2031250000,171316.2343750000,160654.1562500000,163457.0625000000,58891.6875000000,171990.2656250000,,,
0.3119999995,2,152017.5468750000,151968.8281250000,177242.4062500000,171323.8125000000,160658.0468750000,163456.3593750000,58889.3007812500,171989.8906250000,,,
0.3159999994,2,152017.3750000000,151967.5000000000,177241.0156250000,171320.5781250000,160657.8437500000,163446.9687500000,58886.6445312500,171994.9375000000,,,
0.3199999994,2,152017.8125000000,151972.7500000000,177242.2500000000,171295.3906250000,160657.3906250000,163450.8437500000,58884.2578125000,172000.5156250000,,,
0.3239999996,2,152018.9375000000,151978.1718750000,177242.4843750000,171297.9843750000,160656.0000000000,163458.6406250000,58880.1562500000,172005.3750000000,,,
0.3279999995,2,152011.2968750000,151974.5468750000,177228.7031250000,171294.0937500000,160646.7500000000,163459.3125000000,58880.2890625000,171998.7187500000,,,
0.3319999995,2,152014.4375000000,151973.8437500000,177237.9531250000,171296.5625000000,160655.0625000000,163458.5625000000,58898.2070312500,172000.4062500000,,,
0.3359999994,2,152010.0312500000,151969.3750000000,177234.6562500000,171282.8281250000,160652.2500000000,163455.5312500000,58880.5039062500,172004.7031250000,,,
0.3399999994,2,152008.7500000000,151972.7968750000,177228.4531250000,171284.3593750000,160648.7812500000,163454.6718750000,58872.0000000000,172009.5000000000,,,
0.3439999996,2,152018.1875000000,151986.7812500000,177232.9375000000,171293.6406250000,160654.6093750000,163464.5625000000,58885.1718750000,172016.5468750000,,,
0.3479999995,2,152025.1562500000,151985.4843750000,177246.5156250000,171303.7031250000,160664.8593750000,163462.8750000000,58895.4453125000,172011.4062500000,,,
0.3519999995,2,152028.5468750000,151984.9218750000,177255.9843750000,171314.8125000000,160673.8593750000,163466.5468750000,58895.0429687500,172011.6406250000,,,
0.3559999994,2,152016.7343750000,151983.2656250000,177236.0468750000,171308.1250000000,160657.1875000000,163470.2031250000,58878.0625000000,172014.7500000000,,,
0.3599999994,2,152007.7812500000,151962.0468750000,177228.6718750000,171313.6250000000,160648.2500000000,163460.1718750000,58871.9765625000,172002.5000000000,,,
0.3639999994,2,152000.4062500000,151947.1406250000,177222.7187500000,171293.9062500000,160638.7812500000,163444.9375000000,58868.7304687500,171984.7187500000,,,
0.3679999996,2,152019.6875000000,151962.7656250000,177250.9062500000,171291.4687500000,160663.1093750000,163451.8593750000,58906.6289062500,171989.0312500000,,,
0.3719999995,2,152030.6562500000,151980.0781250000,177259.0937500000,171300.4531250000,160670.3437500000,163471.7031250000,58893.9414062500,172002.6093750000,,,
0.3759999995,2,152022.7187500000,151983.9687500000,177235.4687500000,171307.1406250000,160651.5468750000,163477.4218750000,58859.9062500000,172013.7968750000,,,
0.3799999994,2,152011.7812500000,151958.2656250000,177229.7187500000,171316.1250000000,160645.7343750000,163454.3750000000,58875.4609375000,171997.9062500000,,,
0.3839999994,3,152018.0312500000,151963.0625000000,177240.9843750000,171299.5468750000,160653.9687500000,163460.2812500000,58891.9570312500,171999.4375000000,,,
0.3879999993,3,152012.8281250000,151957.7343750000,177237.2031250000,171293.0781250000,160649.5625000000,163459.3125000000,58882.6757812500,171992.9218750000,,,
0.3919999993,3,152010.8125000000,151963.3125000000,177229.9375000000,171288.8750000000,160648.2968750000,163459.6406250000,58884.7695312500,171994.3125000000,,,
0.3959999993,3,152021.5937500000,151975.6406250000,177244.0781250000,171282.7031250000,160662.4843750000,163472.4218750000,58906.3320312500,172012.2343750000,,,
0.3999999992,3,152027.2500000000,151976.7500000000,177256.7812500000,171280.2812500000,160670.1875000000,163475.3281250000,58911.6718750000,172014.7343750000,,,
0.4039999992,3,152012.1562500000,151971.1093750000,177229.0312500000,171297.3437500000,160646.0000000000,163471.8437500000,58879.1367187500,172007.2656250000,,,
0.4079999994,3,152006.6562500000,151962.7968750000,177219.2031250000,171299.6562500000,160635.6093750000,163464.1093750000,58865.6718750000,171995.0937500000,,,
0.4119999993,3,152012.7343750000,151967.1406250000,177231.6250000000,171287.2656250000,160649.7500000000,163471.8437500000,58891.1796875000,171998.0937500000,,,
0.4159999993,3,152021.2968750000,151975.0312500000,177243.6093750000,171284.3593750000,160661.6406250000,163477.9218750000,58897.2695312500,172009.8437500000,,,
0.4199999992,3,152012.2031250000,151962.2031250000,177236.9062500000,171290.9531250000,160654.9062500000,163466.5312500000,58886.0039062500,172000.1093750000,,,
0.4239999992,3,152006.2187500000,151957.1718750000,177227.6093750000,171293.1562500000,160647.6562500000,163460.0156250000,58879.7265625000,171990.6406250000,,,
0.4279999994,3,152012.3437500000,151973.1250000000,177229.2656250000,171293.0312500000,160649.9375000000,163475.9218750000,58885.1445312500,171996.2812500000,,,
0.4319999993,3,152011.1093750000,151977.7968750000,177227.4375000000,171284.5000000000,160646.7500000000,163484.3906250000,58879.9414062500,172000.2187500000,,,
0.4359999993,3,152010.0312500000,151977.8750000000,177226.3437500000,171291.6250000000,160646.3125000000,163486.1406250000,58874.1484375000,172005.0781250000,,,
0.4399999992,3,152017.1875000000,151975.4375000000,177239.2500000000,171302.0937500000,160657.0000000000,163481.7031250000,58881.0937500000,172005.6875000000,,,
0.4439999992,3,152022.5000000000,151970.8750000000,177248.1250000000,171298.7187500000,160667.4218750000,163473.7656250000,58903.2226562500,172000.5468750000,,,
0.4479999992,3,152014.2656250000,151960.1718750000,177240.3750000000,171291.6093750000,160660.3125000000,163462.8750000000,58900.7265625000,171983.1093750000,,,
0.4519999993,3,152018.1406250000,151965.6406250000,177241.3593750000,171301.0468750000,160659.9375000000,163462.8750000000,58885.6523437500,171984.1718750000,,,
0.4559999993,3,152018.7968750000,151967.0625000000,177243.3125000000,171293.8281250000,160663.3437500000,163473.7343750000,58898.5000000000,171992.8437500000,,,
0.4599999993,3,152011.9687500000,151964.7812500000,177235.2500000000,171288.5468750000,160657.5312500000,163475.1406250000,58906.1992187500,171996.3281250000,,,
0.4639999992,3,152013.5937500000,151969.0000000000,177238.7812500000,171287.2343750000,160657.6093750000,163471.8906250000,58903.6250000000,171997.9687500000,,,
0.4679999992,3,152036.3125000000,151993.4843750000,177268.7500000000,171301.1250000000,160681.8281250000,163489.3750000000,58920.9804687500,172013.9531250000,,,
0.4719999994,3,152003.9687500000,151959.9843750000,177230.3125000000,171316.1406250000,160647.5468750000,163464.7812500000,58883.4296875000,171988.0625000000,,,
0.4759999993,3,152004.5312500000,151963.1406250000,177237.8281250000,171299.5156250000,160654.1718750000,163464.8593750000,58887.7187500000,171994.8281250000,,,
0.4799999993,3,152003.0625000000,151958.0000000000,177238.5781250000,171287.3437500000,160653.0468750000,163451.4843750000,58884.6093750000,171994.8593750000,,,
0.4839999992,3,151999.2187500000,151957.4375000000,177228.8125000000,171290.1093750000,160642.9375000000,163452.0156250000,58870.8476562500,171988.7343750000,,,
0.4879999992,3,151985.2812500000,151942.2500000000,177209.0156250000,171297.2968750000,160624.5156250000,163457.2968750000,58858.8593750000,171972.3750000000,,,
0.4919999992,3,151991.5781250000,151948.4218750000,177218.9375000000,171289.4531250000,160635.8906250000,163470.2343750000,58885.8437500000,171977.6093750000,,,
0.4959999993,3,151997.7500000000,151955.1562500000,177224.2500000000,171290.1562500000,160642.4218750000,163467.2812500000,58880.8789062500,171986.8593750000,,,
0.4999999993,3,152004.4062500000,151962.8593750000,177228.8906250000,171289.5156250000,160647.0937500000,163474.3593750000,58870.8203125000,171995.1718750000,,,
0.5039999993,3,152017.2812500000,151978.5156250000,177245.0625000000,171290.2656250000,160661.0156250000,163484.0937500000,58881.1484375000,172004.9843750000,,,
0.5079999992,3,152009.5468750000,151966.3593750000,177234.8906250000,171303.0000000000,160654.0937500000,163482.9687500000,58882.5703125000,171994.6718750000,,,
0.5119999992,4,152006.9218750000,151968.3281250000,177229.4062500000,171305.3593750000,160653.1875000000,163494.2812500000,58880.2890625000,171998.6875000000,,,
0.5159999991,4,151989.8281250000,151949.7031250000,177213.0156250000,171294.9843750000,160635.4062500000,163479.6718750000,58850.1953125000,171991.6875000000,,,
0.5199999991,4,151988.1406250000,151955.8593750000,177208.5625000000,171290.2031250000,160627.8125000000,163487.2031250000,58832.2226562500,171996.1718750000,,,
0.5239999990,4,152016.1718750000,151995.4218750000,177228.5468750000,171292.2187500000,160642.8281250000,163514.6250000000,58835.5781250000,172024.3906250000,,,
0.5279999990,4,152011.2187500000,151988.0625000000,177214.4062500000,171288.2187500000,160629.9062500000,163512.5312500000,58829.1132812500,172020.0937500000,,,
0.5319999990,4,151986.8125000000,151948.0468750000,177196.4687500000,171282.0000000000,160616.4843750000,163499.2812500000,58841.8789062500,171991.4687500000,,,
0.5359999991,4,151994.2656250000,151961.1562500000,177203.9687500000,171279.0000000000,160626.1718750000,163509.5468750000,58848.2382812500,172004.2968750000,,,
0.5399999991,4,152006.5781250000,151974.6875000000,177218.5625000000,171284.3593750000,160639.5781250000,163518.3281250000,58848.5859375000,172020.8750000000,,,
0.5439999991,4,152004.5000000000,151966.4531250000,177222.7812500000,171288.7812500000,160641.3281250000,163516.3593750000,58842.1757812500,172013.7656250000,,,
0.5479999990,4,151998.8281250000,151963.3125000000,177210.5156250000,171286.7968750000,160631.7031250000,163510.1093750000,58824.0429687500,172002.3906250000,,,
0.5519999990,4,152004.8906250000,151967.6875000000,177217.1875000000,171280.8281250000,160638.5937500000,163511.2343750000,58823.3750000000,172003.8906250000,,,
0.5559999992,4,151994.6562500000,151958.6406250000,177205.7343750000,171272.6406250000,160627.1093750000,163504.1093750000,58809.9882812500,172000.0312500000,,,
0.5599999991,4,152007.9375000000,151972.8906250000,177221.4531250000,171275.8281250000,160639.7656250000,163521.6718750000,58816.6406250000,172014.3593750000,,,
0.5639999991,4,152013.7812500000,151970.6875000000,177233.7187500000,171273.9218750000,160649.2656250000,163521.1406250000,58826.1367187500,172012.2656250000,,,
0.5679999990,4,152018.6406250000,151977.7187500000,177235.4687500000,171278.9218750000,160647.9531250000,163521.3281250000,58828.3085937500,172012.1875000000,,,
0.5719999990,4,152012.4218750000,151976.5000000000,177219.6406250000,171285.3750000000,160636.1562500000,163525.7812500000,58823.4804687500,172013.3281250000,,,
0.5759999990,4,152015.6718750000,151978.1875000000,177227.3281250000,171277.0937500000,160645.1093750000,163525.4218750000,58835.2031250000,172019.6875000000,,,
0.5799999991,4,152005.9218750000,151967.5156250000,177216.6093750000,171280.5781250000,160635.8281250000,163510.4687500000,58829.2734375000,172012.8750000000,,,
0.5839999991,4,151998.3437500000,151963.5468750000,177202.4687500000,171284.3906250000,160620.5156250000,163500.7031250000,58811.0078125000,172002.4687500000,,,
0.5879999991,4,152012.4218750000,151980.9531250000,177217.4062500000,171295.5781250000,160632.1093750000,163512.1250000000,58821.1484375000,172011.6406250000,,,
0.5919999990,4,152011.2968750000,151982.8125000000,177213.1718750000,171279.5625000000,160629.7656250000,163516.5156250000,58814.6562500000,172015.4843750000,,,
0.5959999990,4,152002.1250000000,151972.1093750000,177204.5937500000,171273.3906250000,160622.3437500000,163507.0781250000,58804.1132812500,172010.6562500000,,,
0.5999999992,4,152005.0781250000,151968.4062500000,177218.2343750000,171276.3906250000,160633.2031250000,163505.4531250000,58820.7968750000,172009.8750000000,,,
0.6039999991,4,152019.7500000000,151984.9218750000,177239.8281250000,171289.3281250000,160650.6562500000,163517.8593750000,58832.6015625000,172019.3750000000,,,
0.6079999991,4,152009.2500000000,151982.9375000000,177217.8437500000,171300.6718750000,160632.7656250000,163512.3906250000,58797.0078125000,172012.1562500000,,,
0.6119999990,4,152003.4687500000,151976.2031250000,177210.3593750000,171289.8906250000,160623.0312500000,163514.8906250000,58797.3281250000,172010.0625000000,,,
0.6159999990,4,151986.5625000000,151955.1875000000,177193.4531250000,171293.3437500000,160606.4062500000,163507.8593750000,58795.5312500000,171998.8437500000,,,
0.6199999989,4,151982.3281250000,151948.7187500000,177190.9843750000,171282.1562500000,160604.2812500000,163494.8281250000,58802.6406250000,171992.5000000000,,,
0.6239999991,4,151994.0156250000,151964.1875000000,177203.1093750000,171284.3906250000,160616.7812500000,163511.8593750000,58821.8984375000,172003.6250000000,,,
0.6279999991,4,151987.9531250000,151963.0625000000,177192.2031250000,171273.5000000000,160607.6875000000,163521.0000000000,58813.2070312500,171998.3437500000,,,
0.6319999991,4,151988.4218750000,151961.3437500000,177196.0000000000,171273.0937500000,160613.4062500000,163517.8906250000,58820.6640625000,171998.2343750000,,,
0.6359999990,4,151989.5625000000,151955.1562500000,177204.7187500000,171287.0156250000,160619.5000000000,163506.7031250000,58817.0976562500,171997.7187500000,,,
0.6399999990,5,151988.3906250000,151961.9375000000,177199.5468750000,171281.5781250000,160614.7968750000,163511.5625000000,58804.3007812500,172003.6250000000,,,
0.6439999989,5,151994.4687500000,151975.2187500000,177203.8437500000,171275.5156250000,160619.0468750000,163520.3906250000,58816.8554687500,172010.7343750000,,,
0.6479999989,5,151976.2343750000,151946.3281250000,177186.1562500000,171288.5937500000,160607.1875000000,163506.4375000000,58814.0937500000,171986.0625000000,,,
0.6519999988,5,151968.2500000000,151930.9062500000,177182.1718750000,171292.3750000000,160602.4843750000,163486.7187500000,58801.9687500000,171966.0468750000,,,
0.6559999988,5,151975.0000000000,151936.4843750000,177190.9687500000,171287.2812500000,160610.1093750000,163490.2656250000,58812.5898437500,171970.6093750000,,,
0.6599999988,5,151975.5468750000,151940.1562500000,177189.1718750000,171278.5937500000,160608.1562500000,163497.1875000000,58807.2812500000,171974.8437500000,,,
0.6639999989,5,151992.6562500000,151956.7656250000,177207.7031250000,171284.6093750000,160624.0000000000,163507.4531250000,58825.8671875000,171985.6562500000,,,
0.6679999989,5,151998.5468750000,151966.8437500000,177212.5781250000,171291.6250000000,160625.9531250000,163515.2031250000,58830.0781250000,171989.5937500000,,,
0.6719999989,5,152002.7968750000,151974.2812500000,177219.7656250000,171272.7187500000,160628.4843750000,163519.1718750000,58828.8710937500,171994.2968750000,,,
0.6759999988,5,151994.5781250000,151971.4375000000,177202.8750000000,171278.7031250000,160615.4218750000,163519.5312500000,58820.2070312500,171999.9531250000,,,
0.6799999988,5,151970.9843750000,151949.9843750000,177169.6093750000,171282.1406250000,160587.5312500000,163504.1562500000,58798.6445312500,171987.3906250000,,,
0.6839999990,5,151973.5000000000,151951.5312500000,177172.0000000000,171282.2968750000,160587.2500000000,163500.8906250000,58795.2890625000,171984.0937500000,,,
0.6879999989,5,151966.6406250000,151941.0000000000,177166.0156250000,171286.0781250000,160580.0937500000,163487.1562500000,58781.5312500000,171969.0000000000,,,
0.6919999989,5,151977.9843750000,151955.7656250000,177180.7500000000,171293.0312500000,160594.2343750000,163494.8750000000,58792.5546875000,171978.5156250000,,,
0.6959999988,5,151988.0312500000,151968.9218750000,177193.2187500000,171289.8593750000,160606.8281250000,163509.0468750000,58805.1601562500,171996.5468750000,,,
0.6999999988,5,151982.4062500000,151955.0156250000,177190.9375000000,171286.7187500000,160604.9375000000,163501.3750000000,58806.6093750000,171992.5937500000,,,
0.7039999987,5,151994.0781250000,151960.8750000000,177213.3281250000,171289.1875000000,160623.5000000000,163508.7968750000,58821.6835937500,171995.0156250000,,,
0.7079999989,5,151998.1250000000,151972.3437500000,177213.8125000000,171295.5156250000,160625.4843750000,163517.7500000000,58817.8750000000,171998.5000000000,,,
0.7119999989,5,151979.6406250000,151956.0625000000,177190.2968750000,171290.3750000000,160603.8125000000,163503.2968750000,58808.1914062500,171983.3750000000,,,
0.7159999989,5,151974.2500000000,151947.5156250000,177185.9218750000,171301.5312500000,160598.7968750000,163500.3750000000,58803.6601562500,171978.7812500000,,,
0.7199999988,5,151976.6406250000,151949.2812500000,177192.5468750000,171295.3593750000,160604.0156250000,163506.1093750000,58806.6093750000,171984.4687500000,,,
0.7239999988,5,151980.9531250000,151959.8750000000,177191.4218750000,171287.9843750000,160604.2031250000,163518.3750000000,58806.4765625000,171991.9062500000,,,
0.7279999990,5,151985.6250000000,151963.4218750000,177196.0625000000,171289.5468750000,160608.0625000000,163518.7968750000,58816.9882812500,171990.0000000000,,,
0.7319999989,5,151988.8437500000,151965.5625000000,177197.9843750000,171283.7968750000,160609.8906250000,163518.5156250000,58812.2148437500,171994.5781250000,,,
0.7359999989,5,151982.9687500000,151957.2500000000,177195.0625000000,171280.2812500000,160606.5468750000,163511.7031250000,58801.5390625000,171991.8281250000,,,
0.7399999988,5,151982.9375000000,151951.7500000000,177195.8125000000,171281.9531250000,160610.7500000000,163508.0468750000,58818.4921875000,171989.0000000000,,,
0.7439999988,5,151980.4687500000,151943.4375000000,177194.0781250000,171282.5156250000,160608.6562500000,163504.7500000000,58819.0546875000,171979.6250000000,,,
0.7479999987,5,151983.9062500000,151950.8125000000,177196.4062500000,171293.3281250000,160609.0312500000,163511.1093750000,58811.3281250000,171978.6718750000,,,
0.7519999989,5,151979.8281250000,151952.1562500000,177189.6562500000,171286.4843750000,160603.3437500000,163507.8125000000,58808.3242187500,171980.5000000000,,,
0.7559999989,5,151966.1562500000,151936.5937500000,177176.5312500000,171280.6562500000,160588.5937500000,163488.4375000000,58798.3203125000,171971.3593750000,,,
0.7599999988,5,151957.3281250000,151930.9062500000,177163.2343750000,171286.2187500000,160575.8593750000,163487.7968750000,58777.3750000000,171966.8750000000,,,
0.7639999988,5,151969.2343750000,151941.5625000000,177181.6875000000,171285.0312500000,160594.4687500000,163504.3437500000,58804.6523437500,171973.7968750000,,,
0.7679999988,6,151992.3906250000,151966.9531250000,177211.6718750000,171280.2656250000,160621.1875000000,163520.0625000000,58833.8593750000,171989.2968750000,,,
0.7719999987,6,151982.7031250000,151957.8593750000,177197.0468750000,171289.6718750000,160607.0781250000,163510.8437500000,58808.9687500000,171984.5468750000,,,
0.7759999987,6,151967.2500000000,151941.8750000000,177170.0156250000,171289.3437500000,160585.4062500000,163503.0312500000,58793.4414062500,171978.9218750000,,,
0.7799999986,6,151983.3437500000,151960.1406250000,177184.9843750000,171289.7031250000,160598.6250000000,163516.9843750000,58818.9218750000,171997.8906250000,,,
0.7839999986,6,151997.9843750000,151976.9375000000,177199.2031250000,171291.9218750000,160607.7187500000,163531.2500000000,58829.9726562500,172012.8281250000,,,
0.7879999985,6,151988.3125000000,151973.6875000000,177185.2031250000,171287.5781250000,160593.7500000000,163528.5468750000,58808.6757812500,172004.0781250000,,,
0.7919999987,6,151967.3281250000,151946.1093750000,177167.7031250000,171272.8593750000,160575.8593750000,163507.1093750000,58786.2226562500,171980.1250000000,,,
0.7959999987,6,151975.4531250000,151950.8593750000,177184.2343750000,171268.3750000000,160591.7656250000,163509.3125000000,58802.9335937500,171989.2812500000,,,
0.7999999986,6,151998.3437500000,151974.5781250000,177220.0312500000,171271.5937500000,160625.7187500000,163525.1406250000,58837.2929687500,172013.5468750000,,,
0.8039999986,6,151987.6093750000,151965.7031250000,177211.4062500000,171283.5781250000,160621.2968750000,163523.4687500000,58828.3359375000,172006.7343750000,,,
0.8079999986,6,151961.5937500000,151945.0625000000,177176.8593750000,171278.2812500000,160590.3906250000,163503.2968750000,58790.7851562500,171981.9843750000,,,
0.8119999988,6,151976.1250000000,151955.4843750000,177197.4843750000,171277.0937500000,160611.0000000000,163513.7343750000,58814.0664062500,171990.7031250000,,,
0.8159999987,6,151994.8750000000,151975.4375000000,177216.6250000000,171280.0156250000,160632.7656250000,163538.0000000000,58844.5625000000,172013.7656250000,,,
0.8199999987,6,151985.1406250000,151962.4218750000,177202.2031250000,171265.8750000000,160618.0468750000,163525.0312500000,58830.4531250000,172005.0937500000,,,
0.8239999986,6,151968.8281250000,151926.7812500000,177190.3750000000,171272.4531250000,160605.0312500000,163502.2031250000,58814.5742187500,171975.5156250000,,,
0.8279999986,6,151975.6718750000,151938.5312500000,177192.1093750000,171278.9687500000,160608.1250000000,163507.8281250000,58811.5703125000,171973.5781250000,,,
0.8319999985,6,151980.3437500000,151948.3437500000,177193.8281250000,171280.5000000000,160609.5156250000,163514.4843750000,58807.1171875000,171978.3906250000,,,
0.8359999987,6,151999.0937500000,151965.7500000000,177219.8281250000,171270.0625000000,160636.2031250000,163529.7187500000,58842.6328125000,171997.1875000000,,,
0.8399999987,6,151999.7812500000,151961.8281250000,177217.3593750000,171279.8906250000,160637.7656250000,163525.6718750000,58849.2851562500,172001.5781250000,,,
0.8439999986,6,151986.2968750000,151947.3437500000,177194.3437500000,171270.7656250000,160616.4687500000,163504.2656250000,58819.5625000000,171985.9687500000,,,
0.8479999986,6,151993.4375000000,151954.1562500000,177203.0625000000,171271.1406250000,160623.2500000000,163509.4687500000,58823.5625000000,171985.1406250000,,,
0.8519999986,6,151999.7031250000,151962.4218750000,177212.0468750000,171266.1562500000,160629.3437500000,163518.7187500000,58836.8125000000,171992.7812500000,,,
0.8559999987,6,152017.2500000000,151985.7656250000,177234.0625000000,171266.3437500000,160646.3125000000,163533.9062500000,58853.1171875000,172015.0156250000,,,
0.8599999987,6,152005.6093750000,151980.6562500000,177212.7968750000,171287.2656250000,160631.5937500000,163534.3906250000,58839.6015625000,172018.5625000000,,,
0.8639999987,6,151986.2187500000,151961.8593750000,177194.1250000000,171295.1250000000,160612.8750000000,163518.7812500000,58817.7421875000,172000.9218750000,,,
0.8679999986,6,151982.6406250000,151960.9531250000,177194.9531250000,171288.1250000000,160609.1718750000,163517.6562500000,58806.6640625000,171995.0625000000,,,
0.8719999986,6,151981.1250000000,151965.5937500000,177197.5625000000,171273.0468750000,160608.7968750000,163521.0625000000,58799.4218750000,171998.5312500000,,,
0.8759999985,6,151983.0781250000,151974.2187500000,177201.1875000000,171273.0468750000,160611.1875000000,163523.4687500000,58822.9726562500,172008.9843750000,,,
0.8799999987,6,151984.3593750000,151976.8281250000,177204.9375000000,171275.6718750000,160613.0781250000,163519.7968750000,58831.1250000000,172017.7031250000,,,
0.8839999987,6,151966.6093750000,151947.7812500000,177185.8437500000,171282.4531250000,160592.5156250000,163500.8281250000,58803.8750000000,171992.0937500000,,,
0.8879999986,6,151970.8437500000,151947.6406250000,177186.0625000000,171284.3125000000,160589.3750000000,163497.6718750000,58797.0078125000,171980.9843750000,,,
0.8919999986,6,151981.2187500000,151952.8281250000,177197.8593750000,171283.8281250000,160600.0156250000,163496.8593750000,58811.0078125000,171980.7968750000,,,
0.8959999986,7,151998.9843750000,151973.5625000000,177212.3437500000,171295.1718750000,160617.0312500000,163516.5000000000,58817.5781250000,172003.5937500000,,,
0.8999999985,7,152008.3906250000,151987.0156250000,177218.0312500000,171274.5156250000,160626.2500000000,163533.0468750000,58831.0976562500,172022.3125000000,,,
0.9039999985,7,151999.0625000000,151972.3437500000,177207.1562500000,171277.5468750000,160614.7812500000,163520.7812500000,58828.0390625000,172013.1406250000,,,
0.9079999984,7,151999.1406250000,151970.5312500000,177204.5312500000,171278.0937500000,160609.2031250000,163517.7812500000,58824.6328125000,172004.8593750000,,,
0.9119999984,7,152010.7031250000,151977.5000000000,177224.3281250000,171276.0000000000,160626.0625000000,163530.9843750000,58833.5937500000,172012.8750000000,,,
0.9159999983,7,151996.6718750000,151964.4843750000,177200.7031250000,171277.9843750000,160608.8437500000,163517.4375000000,58800.1992187500,172005.1562500000,,,
0.9199999985,7,152005.7968750000,151974.0625000000,177211.6406250000,171288.2500000000,160619.8437500000,163512.3125000000,58804.7304687500,172010.9218750000,,,
0.9239999985,7,151992.7812500000,151960.5781250000,177203.7812500000,171272.0781250000,160614.8750000000,163500.9687500000,58817.4179687500,171999.7031250000,,,
0.9279999984,7,151985.9218750000,151949.5156250000,177203.6718750000,171268.0781250000,160616.5468750000,163499.3593750000,58834.3710937500,171986.5937500000,,,
0.9319999984,7,151997.9062500000,151962.1250000000,177219.6875000000,171281.7031250000,160631.8906250000,163505.2812500000,58852.3398437500,171993.9375000000,,,
0.9359999984,7,152005.1250000000,151969.0000000000,177232.2187500000,171285.0625000000,160642.1875000000,163501.6875000000,58868.8359375000,172003.3593750000,,,
0.9399999985,7,152006.1406250000,151972.5937500000,177231.1093750000,171284.5781250000,160641.3593750000,163502.3125000000,58872.1367187500,172007.6406250000,,,
0.9439999985,7,151996.7343750000,151957.1093750000,177217.5781250000,171287.9531250000,160627.9218750000,163490.2968750000,58861.5390625000,171989.6718750000,,,
0.9479999985,7,152003.7343750000,151956.0625000000,177228.5156250000,171286.3281250000,160636.5000000000,163476.0468750000,58876.1328125000,171977.2343750000,,,
0.9519999984,7,152021.4062500000,151982.4062500000,177249.1406250000,171289.0000000000,160655.4687500000,163489.4531250000,58899.7890625000,171995.1406250000,,,
0.9559999984,7,151993.2343750000,151957.9218750000,177216.5000000000,171279.2968750000,160630.2187500000,163477.7968750000,58884.5820312500,171987.1250000000,,,
0.9599999983,7,151994.5781250000,151948.0937500000,177219.3125000000,171288.4687500000,160634.4062500000,163464.6718750000,58891.1523437500,171985.0312500000,,,
0.9639999985,7,151999.2968750000,151954.7187500000,177221.4375000000,171291.9062500000,160635.9687500000,163462.0468750000,58892.2539062500,171989.0937500000,,,
0.9679999985,7,152004.4531250000,151964.1093750000,177227.6875000000,171291.0937500000,160638.4062500000,163465.5312500000,58887.7734375000,171992.5781250000,,,
0.9719999984,7,152018.2656250000,151982.6250000000,177237.1562500000,171291.6875000000,160647.9218750000,163479.6718750000,58901.0234375000,172010.9218750000,,,
0.9759999984,7,152022.1875000000,151979.2968750000,177249.8125000000,171302.2187500000,160659.0781250000,163475.7500000000,58911.7265625000,172016.1250000000,,,
0.9799999984,7,152013.9687500000,151971.0000000000,177243.0000000000,171304.3437500000,160650.2656250000,163470.5781250000,58897.2695312500,172011.5937500000,,,
0.9839999985,7,152009.5781250000,151965.9062500000,177240.3125000000,171306.0312500000,160647.2031250000,163469.9062500000,58889.9179687500,172004.2343750000,,,
0.9879999985,7,152007.4375000000,151961.1093750000,177238.9531250000,171302.7656250000,160649.3437500000,163472.4531250000,58902.2031250000,171997.1406250000,,,
0.9919999985,7,152013.1406250000,151964.1718750000,177251.2031250000,171291.2812500000,160661.3593750000,163471.8906250000,58919.5312500000,171999.7031250000,,,
0.9959999984,7,152011.5312500000,151958.5000000000,177250.4218750000,171293.1093750000,160661.2343750000,163468.5312500000,58916.9023437500,172002.7968750000,,,
0.9999999984,7,152016.0625000000,151965.1093750000,177250.6718750000,171294.2812500000,160662.1406250000,163475.9218750000,58916.9804687500,172009.9843750000,,,
1.0039999983,7,152023.3437500000,151970.9062500000,177254.1250000000,171304.1093750000,160666.5468750000,163480.3437500000,58920.4414062500,172014.8593750000,,,
1.0079999985,7,152022.7500000000,151967.6875000000,177252.7343750000,171299.7656250000,160665.5468750000,163479.5625000000,58921.3281250000,172008.5937500000,,,
1.0119999985,7,152027.5781250000,151976.1562500000,177253.0312500000,171286.5156250000,160664.5625000000,163483.2343750000,58917.8398437500,172014.0312500000,,,
1.0159999984,7,152019.3125000000,151966.2031250000,177243.6406250000,171274.8750000000,160656.3750000000,163474.5937500000,58908.7226562500,172014.3281250000,,,
1.0199999984,7,152010.5625000000,151957.3281250000,177234.7656250000,171281.3125000000,160649.0781250000,163466.6406250000,58908.5078125000,172009.9062500000,,,
1.0239999983,8,152004.5000000000,151951.9375000000,177226.9531250000,171284.9843750000,160641.9218750000,163464.2187500000,58898.2070312500,172001.7968750000,,,
1.0279999983,8,152009.7343750000,151965.3437500000,177230.6562500000,171284.6562500000,160647.7343750000,163477.4218750000,58910.9726562500,172006.3125000000,,,
1.0319999983,8,152005.6406250000,151965.4843750000,177226.3906250000,171291.9843750000,160646.6718750000,163477.6093750000,58907.3281250000,172001.5312500000,,,
1.0359999982,8,152007.2656250000,151968.0625000000,177230.0468750000,171279.6718750000,160649.8593750000,163482.2500000000,58901.9335937500,172005.0781250000,,,
1.0399999982,8,152023.3437500000,151979.3281250000,177257.8593750000,171287.6875000000,160673.3750000000,163493.0312500000,58932.0546875000,172018.2656250000,,,
1.0439999981,8,152016.3906250000,151966.0937500000,177251.2812500000,171296.6406250000,160666.0625000000,163484.6093750000,58929.1328125000,172005.8750000000,,,
1.0479999983,8,151987.7968750000,151935.8437500000,177211.0468750000,171308.6562500000,160630.3125000000,163458.4218750000,58885.1171875000,171973.3750000000,,,
1.0519999983,8,151995.3281250000,151944.6406250000,177219.1875000000,171308.7656250000,160636.0468750000,163460.4375000000,58884.1250000000,171973.8437500000,,,
1.0559999982,8,152008.2656250000,151960.6562500000,177233.0000000000,171305.5468750000,160646.9062500000,163469.0156250000,58908.9375000000,171992.5781250000,,,
1.0599999982,8,152024.1718750000,151976.5781250000,177251.5781250000,171310.5625000000,160660.1250000000,163474.1250000000,58920.1210937500,172010.3281250000,33029,1.0635522476,0.0000000000
1.0639999982,8,152029.5937500000,151979.0312500000,177258.9843750000,171322.0781250000,160664.9062500000,163472.2187500000,58917.4648437500,172014.2968750000,,,
1.0679999983,8,152012.5781250000,151964.8906250000,177235.7343750000,171322.2031250000,160644.5937500000,163464.9375000000,58897.2695312500,171999.6875000000,,,
1.0719999983,8,152017.4687500000,151977.5781250000,177238.0937500000,171322.5781250000,160647.2031250000,163477.5312500000,58898.6367187500,172007.5625000000,,,
1.0759999983,8,152016.8437500000,151974.2187500000,177238.6250000000,171321.1406250000,160648.1093750000,163475.7812500000,58906.3085937500,172009.6562500000,,,
1.0799999982,8,152018.6093750000,151970.3437500000,177241.9531250000,171322.9843750000,160649.3750000000,163469.9531250000,58902.5000000000,172008.7187500000,,,
1.0839999982,8,152029.3437500000,151984.6562500000,177251.4687500000,171319.0781250000,160660.5312500000,163483.2968750000,58912.2617187500,172018.0312500000,,,
1.0879999981,8,152038.6718750000,152001.3437500000,177259.2812500000,171303.7500000000,160671.1562500000,163503.1718750000,58921.5429687500,172028.4375000000,,,
1.0919999983,8,152022.2343750000,151970.0468750000,177244.9531250000,171318.6406250000,160658.1718750000,163479.4062500000,58908.7460937500,172003.7656250000,,,
1.0959999983,8,152018.5937500000,151963.4687500000,177242.6250000000,171314.5625000000,160656.7187500000,163471.1093750000,58905.9570312500,172000.1875000000,,,
1.0999999982,8,152028.5468750000,151978.7812500000,177253.1562500000,171315.6875000000,160668.2812500000,163488.8750000000,58918.1093750000,172018.7500000000,,,
1.1039999982,8,152021.2968750000,151969.7968750000,177248.2500000000,171310.2656250000,160663.4843750000,163478.4687500000,58907.7539062500,172012.6406250000,,,
1.1079999981,8,152022.5000000000,151968.4375000000,177252.5781250000,171307.4531250000,160666.9218750000,163476.2656250000,58918.6992187500,172005.2656250000,,,
1.1119999983,8,152039.0468750000,151989.3593750000,177266.1250000000,171319.9843750000,160682.4218750000,163494.0937500000,58946.2968750000,172024.3281250000,,,
1.1159999983,8,152037.6875000000,151993.4531250000,177263.1093750000,171305.8125000000,160679.2500000000,163494.6562500000,58934.1484375000,172035.2500000000,,,
1.1199999982,8,152027.5468750000,151980.9375000000,177254.2656250000,171288.9218750000,160668.9843750000,163488.2187500000,58915.0507812500,172032.1562500000,,,
1.1239999982,8,152036.1875000000,151986.4531250000,177268.9062500000,171288.5468750000,160680.2500000000,163491.7187500000,58933.4765625000,172034.8125000000,,,
1.1279999982,8,152037.2812500000,151983.7968750000,177269.4687500000,171300.7500000000,160678.9375000000,163489.9375000000,58931.6289062500,172026.1562500000,,,
1.1319999981,8,152040.4687500000,151987.6875000000,177273.0312500000,171308.0000000000,160682.2343750000,163490.9843750000,58930.7695312500,172025.2187500000,,,
1.1359999983,8,152040.5312500000,151986.9687500000,177272.4687500000,171320.1718750000,160682.6093750000,163487.4687500000,58920.4414062500,172027.3281250000,,,
1.1399999983,8,152032.2656250000,151982.5468750000,177259.6562500000,171315.3437500000,160671.7968750000,163483.9062500000,58914.6484375000,172026.1562500000,,,
1.1439999982,8,152040.5312500000,152003.2812500000,177265.7656250000,171288.8125000000,160680.1406250000,163505.7656250000,58931.3593750000,172042.4843750000,,,
1.1479999982,8,152039.3750000000,151989.6406250000,177273.7343750000,171296.5937500000,160687.1406250000,163502.3593750000,58940.2382812500,172032.8281250000,,,
1.1519999981,9,152045.9687500000,151998.5468750000,177273.7343750000,171316.8125000000,160687.7812500000,163500.9062500000,58940.4531250000,172036.5312500000,,,
1.1559999981,9,152038.3281250000,151997.0781250000,177260.9375000000,171311.1562500000,160675.9531250000,163492.1406250000,58929.9101562500,172037.6562500000,,,
1.1599999981,9,152034.5000000000,151995.5000000000,177258.9062500000,171308.6562500000,160674.9843750000,163499.2500000000,58929.5625000000,172040.6406250000,,,
1.1639999980,9,152032.1562500000,151993.5625000000,177259.1250000000,171303.9687500000,160674.0312500000,163498.2031250000,58923.9570312500,172036.4843750000,,,
1.1679999980,9,152044.3437500000,152009.4687500000,177270.0156250000,171299.2187500000,160682.2656250000,163508.8593750000,58931.9492187500,172041.1406250000,,,
1.1719999979,9,152055.2031250000,152016.9062500000,177282.6093750000,171313.9531250000,160689.8281250000,163513.8750000000,58938.9765625000,172046.1093750000,,,
1.1759999981,9,152040.7968750000,151995.3906250000,177264.9687500000,171307.0781250000,160677.0781250000,163498.3125000000,58935.0859375000,172035.5937500000,,,
1.1799999981,9,152040.2343750000,151995.7031250000,177260.0000000000,171308.3125000000,160674.8906250000,163496.0625000000,58930.1796875000,172036.4062500000,,,
1.1839999980,9,152054.0781250000,152012.0781250000,177274.1718750000,171307.0312500000,160688.7031250000,163511.0781250000,58928.1679687500,172046.7343750000,,,
1.1879999980,9,152068.0781250000,152028.4531250000,177286.5000000000,171314.5312500000,160700.5468750000,163524.4062500000,58934.5781250000,172054.8593750000,,,
1.1919999979,9,152052.6875000000,152001.9062500000,177271.2656250000,171329.2031250000,160686.4218750000,163504.1093750000,58940.2382812500,172036.2187500000,,,
1.1959999981,9,152048.3593750000,152001.6406250000,177265.5781250000,171312.2812500000,160682.5312500000,163505.6093750000,58944.7421875000,172041.3281250000,,,
1.1999999981,9,152051.1250000000,152008.3750000000,177265.0468750000,171314.5156250000,160684.1875000000,163509.2031250000,58942.1953125000,172051.3125000000,,,
1.2039999980,9,152044.1718750000,152002.2500000000,177256.9687500000,171310.1093750000,160677.1093750000,163500.6250000000,58920.7890625000,172043.2187500000,,,
1.2079999980,9,152039.8125000000,151994.2031250000,177252.2812500000,171312.4218750000,160672.3281250000,163492.8125000000,58906.3867187500,172030.2812500000,,,
1.2119999980,9,152055.7031250000,152008.6093750000,177267.5937500000,171324.9687500000,160686.1718750000,163495.6875000000,58930.7148437500,172039.8281250000,,,
1.2159999979,9,152071.4062500000,152027.5781250000,177287.0937500000,171312.4218750000,160703.9375000000,163511.5937500000,58956.7070312500,172063.0156250000,,,
1.2199999981,9,152063.8593750000,152015.7187500000,177287.7656250000,171301.5781250000,160703.9375000000,163507.4843750000,58955.4179687500,172061.5937500000,,,
1.2239999981,9,152049.4375000000,152011.2968750000,177255.4375000000,171310.1093750000,160679.2500000000,163502.2343750000,58927.8710937500,172055.5312500000,,,
1.2279999980,9,152055.8750000000,152023.6875000000,177261.2968750000,171310.0625000000,160682.2656250000,163515.6406250000,58939.5390625000,172059.5156250000,,,
1.2319999980,9,152046.3750000000,152010.8906250000,177257.7968750000,171305.1562500000,160675.6406250000,163507.3437500000,58938.4140625000,172048.4375000000,,,
1.2359999979,9,152047.3750000000,152010.3593750000,177261.5000000000,171302.9218750000,160678.5000000000,163511.0781250000,58938.5742187500,172053.0625000000,,,
1.2399999981,9,152048.8906250000,152013.0312500000,177266.6562500000,171301.4687500000,160682.4687500000,163510.6718750000,58938.8945312500,172058.6562500000,,,
1.2439999981,9,152056.2500000000,152025.9062500000,177273.3593750000,171304.8750000000,160689.3906250000,163522.6718750000,58942.4648437500,172068.1250000000,,,
1.2479999980,9,152053.1406250000,152015.6718750000,177276.0468750000,171311.9375000000,160690.0625000000,163515.5000000000,58947.0234375000,172058.1875000000,,,
1.2519999980,9,152051.4531250000,152005.2656250000,177286.2031250000,171305.6250000000,160697.6250000000,163508.1562500000,58963.4375000000,172046.7343750000,,,
1.2559999980,9,152030.9531250000,151991.8437500000,177258.1250000000,171295.8437500000,160677.1875000000,163507.3437500000,58940.8281250000,172040.8750000000,,,
1.2599999979,9,152038.7031250000,152001.9375000000,177265.7500000000,171299.5156250000,160684.4843750000,163519.2343750000,58944.1523437500,172052.3125000000,,,
1.2639999981,9,152037.7187500000,152006.7812500000,177260.3593750000,171305.5000000000,160678.7656250000,163521.0781250000,58936.5898437500,172055.6250000000,,,
1.2679999981,9,152033.2343750000,152003.2968750000,177254.8593750000,171305.5781250000,160670.7187500000,163512.9218750000,58926.5859375000,172045.8750000000,,,
1.2719999980,9,152029.7812500000,151996.9375000000,177252.3125000000,171301.9531250000,160666.6250000000,163509.6250000000,58930.7695312500,172037.5468750000,,,
1.2759999980,9,152026.5781250000,151994.6562500000,177248.4687500000,171298.3593750000,160663.7500000000,163511.5625000000,58932.7265625000,172038.2187500000,,,
1.2799999979,10,152015.3906250000,151984.3906250000,177233.9375000000,171291.0625000000,160650.7656250000,163504.1562500000,58921.9179687500,172031.1093750000,,,
1.2839999979,10,152019.9531250000,151986.5156250000,177243.1875000000,171292.3593750000,160655.9687500000,163502.6093750000,58921.5937500000,172031.4062500000,,,
1.2879999978,10,152018.7500000000,151973.2031250000,177247.7656250000,171294.5781250000,160658.3906250000,163490.1562500000,58907.9960937500,172017.2500000000,,,
1.2919999978,10,152012.4531250000,151966.4218750000,177236.7500000000,171290.5312500000,160650.0156250000,163490.2656250000,58920.7109375000,172009.9062500000,,,
1.2959999978,10,152030.2500000000,151989.8281250000,177254.7187500000,171290.7500000000,160669.0625000000,163509.1406250000,58947.7734375000,172032.5937500000,,,
1.2999999977,10,152043.2187500000,152013.2812500000,177267.9218750000,171294.5000000000,160682.6093750000,163522.6093750000,58942.4882812500,172054.6875000000,,,
1.3039999979,10,152030.2031250000,151990.0000000000,177254.5000000000,171302.8125000000,160669.4687500000,163507.6718750000,58930.2304687500,172038.9531250000,,,
1.3079999979,10,152024.7031250000,151981.2031250000,177246.0312500000,171289.1875000000,160659.4062500000,163497.5312500000,58927.5781250000,172020.9218750000,,,
1.3119999978,10,152035.1875000000,151991.0937500000,177255.0937500000,171297.3125000000,160668.5781250000,163504.9687500000,58935.6757812500,172024.1406250000,,,
1.3159999978,10,152046.1406250000,151999.9687500000,177274.3281250000,171305.2031250000,160686.1718750000,163509.5468750000,58948.3632812500,172035.6250000000,,,
1.3199999977,10,152037.1250000000,151996.1718750000,177261.7968750000,171303.0312500000,160675.5468750000,163499.4843750000,58931.0898437500,172033.9843750000,,,
1.3239999979,10,152034.4218750000,151995.0937500000,177258.0937500000,171300.9062500000,160670.8281250000,163493.7812500000,58921.5937500000,172031.2968750000,,,
1.3279999979,10,152032.8125000000,151992.5781250000,177257.4531250000,171304.7187500000,160666.4687500000,163488.1718750000,58918.0546875000,172026.5625000000,,,
1.3319999978,10,152044.5781250000,152002.6562500000,177274.1718750000,171305.5468750000,160682.9531250000,163500.3437500000,58946.1367187500,172035.9687500000,,,
1.3359999978,10,152057.7500000000,152015.1250000000,177296.4218750000,171304.2187500000,160703.2031250000,163508.6718750000,58956.5703125000,172052.8906250000,,,
1.3399999978,10,152049.2968750000,152011.3437500000,177287.2812500000,171310.1875000000,160699.0781250000,163506.7031250000,58932.6992187500,172058.5781250000,,,
1.3439999977,10,152029.3906250000,151990.3125000000,177256.1718750000,171327.6875000000,160673.2968750000,163496.8593750000,58898.2070312500,172041.2812500000,,,
1.3479999979,10,152036.0468750000,151999.7656250000,177257.2656250000,171324.8437500000,160674.2968750000,163504.2187500000,58925.0820312500,172042.2500000000,,,
1.3519999979,10,152043.7500000000,152007.9062500000,177264.6718750000,171317.3750000000,160682.2656250000,163508.3750000000,58957.2148437500,172046.0000000000,,,
1.3559999978,10,152049.8593750000,152012.2343750000,177274.8906250000,171319.2031250000,160692.9843750000,163514.4062500000,58966.3359375000,172052.2187500000,,,
1.3599999978,10,152043.9375000000,152008.0156250000,177270.2812500000,171315.6093750000,160690.5781250000,163516.6250000000,58951.7695312500,172054.0000000000,,,
1.3639999977,10,152035.5625000000,151999.4843750000,177257.1093750000,171321.1875000000,160678.8593750000,163510.8593750000,58939.3515625000,172047.5000000000,,,
1.3679999979,10,152037.2343750000,151998.7656250000,177261.4843750000,171317.5156250000,160681.4531250000,163512.3906250000,58946.6210937500,172043.0781250000,,,
1.3719999979,10,152058.8437500000,152024.3281250000,177288.3750000000,171307.7812500000,160706.4218750000,163533.6406250000,58970.6796875000,172063.0312500000,,,
1.3759999978,10,152055.9531250000,152017.3593750000,177288.9375000000,171292.0625000000,160707.0625000000,163533.7656250000,58968.1054687500,172068.0781250000,,,
1.3799999978,10,152025.4062500000,151985.6718750000,177254.9531250000,171291.0625000000,160675.2343750000,163510.6718750000,58936.8046875000,172047.0781250000,,,
1.3839999977,10,152019.8281250000,151983.2031250000,177247.4531250000,171292.2968750000,160667.1250000000,163504.5625000000,58926.7460937500,172039.7187500000,,,
1.3879999977,10,152030.6562500000,151994.9531250000,177259.0625000000,171293.4531250000,160674.4218750000,163509.1250000000,58933.2617187500,172038.8750000000,,,
1.3919999979,10,152041.0625000000,151999.0156250000,177271.2656250000,171305.9062500000,160683.2187500000,163508.3750000000,58940.5585937500,172035.8593750000,,,
1.3959999979,10,152042.2500000000,151992.9687500000,177281.0625000000,171298.3593750000,160689.4218750000,163501.1250000000,58947.0781250000,172033.7187500000,,,
1.3999999978,10,152046.5625000000,152008.1250000000,177278.1093750000,171291.0156250000,160688.4218750000,163513.4687500000,58945.1171875000,172049.3750000000,,,
1.4039999978,10,152034.4687500000,152001.0781250000,177253.5156250000,171297.6406250000,160668.3437500000,163505.8437500000,58927.7656250000,172043.2968750000,,,
1.4079999977,11,152025.9062500000,151988.3125000000,177245.5156250000,171306.8593750000,160660.9687500000,163493.4843750000,58923.2031250000,172028.5156250000,,,
1.4119999977,11,152033.6093750000,151995.1718750000,177257.1406250000,171310.8906250000,160668.5468750000,163501.0468750000,58928.7851562500,172031.4687500000,,,
1.4159999976,11,152034.5156250000,152004.5625000000,177263.2968750000,171290.7968750000,160675.2031250000,163516.6250000000,58935.1679687500,172044.6562500000,,,
1.4199999976,11,152040.3125000000,152009.7656250000,177272.8281250000,171299.3281250000,160686.5312500000,163522.7500000000,58946.9140625000,172056.2968750000,,,
1.4239999976,11,152039.0468750000,152006.4687500000,177271.5937500000,171318.6875000000,160686.2500000000,163516.8125000000,58948.1484375000,172053.1718750000,,,
1.4279999975,11,152038.7343750000,152007.8281250000,177271.5937500000,171313.5156250000,160684.6718750000,163514.2656250000,58949.3046875000,172049.3281250000,,,
1.4319999977,11,152041.5781250000,152010.7031250000,177276.4375000000,171312.8750000000,160686.4218750000,163515.6093750000,58946.3242187500,172051.4218750000,,,
1.4359999977,11,152039.9375000000,152015.9843750000,177273.8125000000,171309.8750000000,160683.5468750000,163520.9687500000,58937.4726562500,172059.0937500000,,,
1.4399999976,11,152029.4843750000,152000.9375000000,177262.9062500000,171321.5937500000,160673.5156250000,163512.3906250000,58934.1484375000,172050.7500000000,,,
1.4439999976,11,152034.1406250000,152001.5781250000,177263.3906250000,171309.9843750000,160674.9062500000,163514.5156250000,58945.6562500000,172047.9843750000,,,
1.4479999975,11,152043.0312500000,152006.2031250000,177271.3437500000,171290.7968750000,160680.8125000000,163516.7968750000,58954.2656250000,172047.4218750000,,,
1.4519999977,11,152030.0156250000,151990.5625000000,177251.2656250000,171301.2656250000,160663.1093750000,163505.8437500000,58933.3437500000,172033.5312500000,,,
1.4559999977,11,152029.1250000000,151994.4531250000,177247.1875000000,171300.6406250000,160661.1562500000,163515.6875000000,58923.3398437500,172041.2812500000,,,
1.4599999976,11,152035.3593750000,152006.7812500000,177252.3125000000,171307.5937500000,160669.6875000000,163520.8750000000,58930.0703125000,172057.1875000000,,,
1.4639999976,11,152045.7031250000,152012.0937500000,177272.8750000000,171300.7187500000,160687.5625000000,163518.2968750000,58952.8984375000,172065.1562500000,,,
1.4679999975,11,152029.8281250000,151986.6093750000,177262.3125000000,171297.5781250000,160673.4843750000,163503.1406250000,58950.4570312500,172039.4375000000,,,
1.4719999975,11,152014.7031250000,151979.6406250000,177235.1406250000,171297.0156250000,160650.0156250000,163497.8593750000,58929.6406250000,172025.1406250000,,,
1.4759999977,11,152015.2656250000,151983.1875000000,177238.8125000000,171295.3906250000,160653.0468750000,163496.5156250000,58928.0859375000,172027.8906250000,,,
1.4799999977,11,152021.2187500000,151989.9218750000,177250.1093750000,171295.9531250000,160662.2500000000,163499.7656250000,58927.7382812500,172037.5312500000,,,
1.4839999976,11,152023.1562500000,151987.4687500000,177254.7500000000,171296.3281250000,160665.8906250000,163497.1562500000,58930.7421875000,172030.1718750000,,,
1.4879999976,11,152033.7187500000,151998.7968750000,177269.2031250000,171298.2812500000,160677.5625000000,163508.8593750000,58943.6718750000,172031.5156250000,,,
1.4919999975,11,152036.8593750000,151998.1250000000,177275.9843750000,171295.7812500000,160681.6718750000,163504.5000000000,58946.5937500000,172027.9531250000,,,
1.4959999977,11,152029.8593750000,151992.0312500000,177263.1093750000,171306.4062500000,160670.0781250000,163497.2656250000,58940.1015625000,172027.5781250000,,,
1.4999999977,11,152021.4062500000,151985.2187500000,177252.3125000000,171298.5000000000,160658.9218750000,163495.3906250000,58930.0429687500,172027.0156250000,,,
1.5039999976,11,152022.1562500000,151988.9843750000,177247.5000000000,171306.7031250000,160654.7968750000,163498.3437500000,58925.4296875000,172028.3281250000,,,
1.5079999976,11,152032.2343750000,152005.7187500000,177254.8593750000,171305.4218750000,160661.4218750000,163505.9062500000,58934.5781250000,172035.5156250000,,,
1.5119999975,11,152048.5156250000,152021.7031250000,177279.0156250000,171310.4062500000,160682.7500000000,163518.2968750000,58946.1640625000,172048.8750000000,,,
1.5159999975,11,152032.7500000000,152004.3125000000,177264.4843750000,171307.4531250000,160673.5468750000,163510.6718750000,58927.7929687500,172043.7031250000,,,
1.5199999977,11,152014.5625000000,151991.7187500000,177234.1718750000,171302.3906250000,160649.7031250000,163500.3437500000,58903.0078125000,172040.8750000000,,,
1.5239999976,11,152014.1562500000,151981.2031250000,177238.8125000000,171300.7812500000,160656.4843750000,163496.8906250000,58929.8046875000,172034.7343750000,,,
1.5279999976,11,152023.4375000000,151986.8125000000,177256.7812500000,171296.9375000000,160673.8437500000,163505.4218750000,58948.5234375000,172035.2187500000,,,
1.5319999976,11,152021.8125000000,151981.7343750000,177258.9375000000,171304.6406250000,160673.1718750000,163499.7031250000,58939.3789062500,172026.5625000000,,,
1.5359999975,12,152025.8593750000,151991.0468750000,177257.6406250000,171314.2500000000,160669.7343750000,163506.1406250000,58938.7890625000,172035.3750000000,,,
1.5399999975,12,152031.2968750000,151998.3437500000,177260.4062500000,171308.2656250000,160673.9687500000,163514.8125000000,58952.9257812500,172047.6406250000,,,
1.5439999974,12,152045.4375000000,152009.2500000000,177279.3750000000,171286.8593750000,160689.0937500000,163522.3750000000,58973.1757812500,172055.2500000000,,,
1.5479999974,12,152038.7812500000,151995.0156250000,177272.0156250000,171299.4062500000,160679.3125000000,163508.6406250000,58961.2109375000,172039.0312500000,,,
1.5519999973,12,152011.0781250000,151970.0625000000,177235.0781250000,171290.7500000000,160647.4375000000,163492.4062500000,58930.9296875000,172014.6718750000,,,
1.5559999973,12,152011.3437500000,151972.7500000000,177235.3593750000,171286.2656250000,160647.2031250000,163496.2500000000,58926.2109375000,172018.0000000000,,,
1.5599999975,12,152017.3281250000,151982.1093750000,177243.8281250000,171278.8593750000,160655.0156250000,163503.2500000000,58932.3789062500,172029.8281250000,,,
1.5639999975,12,152027.2187500000,151993.7812500000,177257.5937500000,171283.7968750000,160667.5625000000,163511.0000000000,58939.0039062500,172039.4375000000,,,
1.5679999974,12,152032.7500000000,151996.5625000000,177269.9843750000,171290.9375000000,160676.2500000000,163509.9843750000,58948.8476562500,172035.0625000000,,,
1.5719999974,12,152030.9531250000,151997.8281250000,177272.6875000000,171289.5468750000,160678.4531250000,163511.9375000000,58955.5273437500,172031.2031250000,,,
1.5759999973,12,152031.0000000000,152000.7812500000,177270.4687500000,171289.8125000000,160678.2343750000,163518.7812500000,58950.6992187500,172037.5000000000,,,
1.5799999975,12,152013.7031250000,151975.8906250000,177244.5000000000,171298.5312500000,160657.4531250000,163499.3281250000,58930.2578125000,172019.6406250000,,,
1.5839999975,12,152026.0468750000,151989.2187500000,177255.6562500000,171303.8125000000,160669.2812500000,163509.0468750000,58946.4882812500,172027.8125000000,,,
1.5879999974,12,152041.5468750000,152005.6406250000,177270.0625000000,171307.1562500000,160681.9062500000,163521.2968750000,58960.6210937500,172040.2656250000,,,
1.5919999974,12,152034.3125000000,151994.1875000000,177265.3750000000,171293.5156250000,160675.5468750000,163501.9062500000,58952.4414062500,172030.2031250000,,,
1.5959999973,12,152043.2968750000,152004.9843750000,177276.8750000000,171291.5781250000,160687.8437500000,163508.0937500000,58963.6523437500,172044.2343750000,,,
1.5999999973,12,152034.0312500000,151999.2187500000,177265.9062500000,171301.9375000000,160679.6562500000,163507.9375000000,58950.6718750000,172048.1718750000,,,
1.6039999975,12,152036.7968750000,152008.7968750000,177267.1875000000,171300.7031250000,160682.6875000000,163520.5937500000,58957.3476562500,172059.7343750000,,,
1.6079999974,12,152047.9531250000,152024.9218750000,177276.7656250000,171303.8906250000,160689.0156250000,163535.3593750000,58968.9648437500,172072.4218750000,,,
1.6119999974,12,152058.1250000000,152032.8906250000,177289.2656250000,171303.0000000000,160696.9843750000,163535.2968750000,58970.4921875000,172076.6875000000,,,
1.6159999974,12,152048.5156250000,152022.3125000000,177271.2656250000,171305.9218750000,160683.5000000000,163537.3125000000,58963.7617187500,172071.3750000000,,,
1.6199999973,12,152032.3437500000,151997.1562500000,177257.3750000000,171310.7500000000,160671.1250000000,163528.6250000000,58967.9179687500,172056.2500000000,,,
1.6239999975,12,152021.4843750000,151982.5156250000,177248.1406250000,171309.9218750000,160660.2656250000,163516.3906250000,58959.6289062500,172041.5312500000,,,
1.6279999975,12,152025.6406250000,151989.5625000000,177252.3906250000,171304.5625000000,160661.2812500000,163517.2968750000,58958.5312500000,172040.4843750000,,,
1.6319999974,12,152040.6406250000,152005.9062500000,177270.0625000000,171310.7343750000,160676.7031250000,163530.3593750000,58970.1992187500,172052.9218750000,,,
1.6359999974,12,152043.8281250000,152012.9843750000,177270.5468750000,171315.3437500000,160680.4687500000,163532.8281250000,58966.7890625000,172065.2656250000,,,
1.6399999973,12,152040.1875000000,152010.1406250000,177268.7968750000,171315.8593750000,160679.9531250000,163531.1718750000,58961.5859375000,172066.2500000000,,,
1.6439999973,12,152027.2031250000,151997.5937500000,177256.8437500000,171306.2187500000,160670.1406250000,163529.2656250000,58951.6367187500,172059.0937500000,,,
1.6479999975,12,152037.8281250000,152004.7187500000,177270.9531250000,171307.5156250000,160682.1250000000,163543.0000000000,58964.6718750000,172062.3437500000,,,
1.6519999974,12,152055.1406250000,152019.5312500000,177290.9218750000,171303.2656250000,160700.0937500000,163553.5625000000,58987.2304687500,172070.7343750000,,,
1.6559999974,12,152049.0000000000,152008.1250000000,177282.9843750000,171304.7500000000,160693.6875000000,163538.2500000000,58976.3398437500,172065.5312500000,,,
1.6599999974,12,152040.4531250000,151999.6250000000,177271.6250000000,171309.3906250000,160685.5312500000,163531.7343750000,58965.8242187500,172064.9062500000,,,
1.6639999973,13,152055.5156250000,152019.0781250000,177283.3593750000,171321.5156250000,160697.2812500000,163545.2812500000,58975.1054687500,172079.5312500000,,,
1.6679999973,13,152072.3125000000,152034.6250000000,177302.5937500000,171329.0156250000,160711.8906250000,163552.1093750000,58989.3750000000,172085.0781250000,,,
1.6719999972,13,152083.2031250000,152048.0468750000,177319.8750000000,171310.6406250000,160725.8125000000,163562.5156250000,59003.8046875000,172094.6093750000,,,
1.6759999972,13,152059.8906250000,152029.9843750000,177285.2500000000,171312.7343750000,160699.2343750000,163551.5468750000,58980.0390625000,172082.7812500000,,,
1.6799999971,13,152043.8750000000,152004.7968750000,177274.0625000000,171307.4062500000,160686.7968750000,163531.7812500000,58966.7109375000,172065.7500000000,,,
1.6839999971,13,152044.6093750000,152004.8906250000,177273.7656250000,171309.7031250000,160684.8281250000,163531.4375000000,58969.8750000000,172063.7343750000,,,
1.6879999973,13,152049.6718750000,152016.6250000000,177278.9687500000,171305.6875000000,160687.7656250000,163534.9843750000,58971.0000000000,172065.8437500000,,,
1.6919999972,13,152056.7343750000,152016.0625000000,177293.8750000000,171309.5781250000,160700.6093750000,163537.7656250000,58973.5781250000,172063.9218750000,,,
1.6959999972,13,152059.4062500000,152018.0468750000,177297.4218750000,171321.1875000000,160705.3281250000,163538.8437500000,58990.9843750000,172071.1875000000,,,
1.6999999972,13,152055.0937500000,152023.5468750000,177284.6718750000,171320.8437500000,160696.1562500000,163548.6250000000,58983.3398437500,172082.0468750000,,,
1.7039999971,13,152053.3437500000,152016.5781250000,177285.2968750000,171310.7343750000,160697.0156250000,163551.0937500000,58989.5625000000,172078.3437500000,,,
1.7079999973,13,152051.4687500000,152010.7500000000,177285.7500000000,171298.2031250000,160695.2656250000,163542.1093750000,58989.4570312500,172067.6406250000,,,
1.7119999973,13,152044.9531250000,152007.0000000000,177276.3125000000,171288.5000000000,160687.2187500000,163542.7500000000,58973.3085937500,172058.5781250000,,,
1.7159999972,13,152037.5468750000,151995.4218750000,177267.9687500000,171290.0781250000,160679.6875000000,163533.6406250000,58962.5781250000,172051.5781250000,,,
1.7199999972,13,152045.7031250000,152006.7343750000,177278.2500000000,171291.2343750000,160690.8750000000,163543.9375000000,58975.7226562500,172065.6093750000,,,
1.7239999971,13,152041.3125000000,152003.1718750000,177273.1406250000,171291.1562500000,160686.1562500000,163540.5625000000,58972.0195312500,172064.4062500000,,,
1.7279999971,13,152042.3281250000,151999.3906250000,177272.5000000000,171300.7187500000,160684.2656250000,163532.7968750000,58969.5546875000,172054.3906250000,,,
1.7319999973,13,152048.0156250000,151999.8906250000,177278.8906250000,171308.6875000000,160688.8281250000,163529.4218750000,58976.5000000000,172048.8125000000,,,
1.7359999972,13,152056.1875000000,152010.2187500000,177289.7812500000,171316.0156250000,160696.6093750000,163534.7031250000,58969.2578125000,172057.3437500000,,,
1.7399999972,13,152053.8593750000,152009.3281250000,177289.0312500000,171310.2656250000,160696.7500000000,163540.2656250000,58965.2890625000,172063.6718750000,,,
1.7439999972,13,152046.5937500000,152003.5937500000,177275.7812500000,171311.1562500000,160686.0937500000,163533.1250000000,58972.9609375000,172058.3906250000,,,
1.7479999971,13,152045.2812500000,152003.7343750000,177271.5312500000,171314.7500000000,160678.3125000000,163527.1406250000,58969.7421875000,172052.6562500000,,,
1.7519999973,13,152048.7968750000,152007.3437500000,177276.5000000000,171322.7500000000,160681.6093750000,163531.8593750000,58972.8789062500,172051.6406250000,,,
1.7559999973,13,152057.1093750000,152021.3593750000,177285.9375000000,171310.8125000000,160690.5468750000,163541.9843750000,58976.3125000000,172065.4531250000,,,
1.7599999972,13,152054.5000000000,152015.5000000000,177284.6250000000,171318.1093750000,160691.1406250000,163539.5156250000,58971.6992187500,172071.1406250000,,,
1.7639999972,13,152040.7968750000,152000.4062500000,177266.6562500000,171321.3750000000,160676.9218750000,163526.3593750000,58952.0937500000,172061.3750000000,,,
1.7679999971,13,152047.5312500000,152005.0468750000,177276.3593750000,171318.7812500000,160685.2343750000,163530.3593750000,58963.3828125000,172064.0312500000,,,
1.7719999971,13,152053.3437500000,152010.3281250000,177284.0937500000,171320.5468750000,160692.9375000000,163532.7968750000,58973.5507812500,172068.9062500000,,,
1.7759999973,13,152048.8906250000,152008.0781250000,177277.6562500000,171324.8437500000,160687.4687500000,163527.3906250000,58973.3359375000,172067.8593750000,,,
1.7799999972,13,152054.2968750000,152011.0781250000,177282.6718750000,171324.1406250000,160694.1406250000,163532.2343750000,58979.9335937500,172074.2968750000,,,
1.7839999972,13,152071.5937500000,152029.4218750000,177303.4062500000,171323.8125000000,160715.4062500000,163550.9687500000,58995.9453125000,172086.8593750000,,,
1.7879999971,13,152069.8437500000,152031.0312500000,177297.8750000000,171327.2500000000,160709.9687500000,163550.0468750000,58984.1445312500,172083.2031250000,,,
1.7919999971,14,152055.3906250000,152007.3437500000,177284.6250000000,171340.6406250000,160696.2812500000,163530.6250000000,58973.5507812500,172063.2500000000,,,
1.7959999971,14,152050.6875000000,152007.8125000000,177278.3750000000,171341.6875000000,160694.1718750000,163532.2656250000,58978.6718750000,172065.3125000000,,,
1.7999999970,14,152045.2187500000,152008.0156250000,177271.6406250000,171323.5156250000,160688.7500000000,163535.7343750000,58975.8281250000,172069.1718750000,,,
1.8039999970,14,152041.6093750000,152000.7031250000,177270.9531250000,171322.4531250000,160686.0156250000,163531.7343750000,58971.5390625000,172064.0468750000,,,
1.8079999969,14,152056.7812500000,152015.6718750000,177291.0156250000,171321.8593750000,160701.9687500000,163539.4062500000,58988.0078125000,172069.1250000000,,,
1.8119999969,14,152058.1718750000,152016.2500000000,177291.8906250000,171304.1093750000,160703.7656250000,163539.2656250000,58991.8437500000,172065.1875000000,,,
1.8159999971,14,152054.2968750000,152012.5468750000,177289.2343750000,171308.8281250000,160700.8750000000,163537.9218750000,58982.7500000000,172065.9531250000,,,
1.8199999970,14,152051.2656250000,152009.3593750000,177289.2343750000,171312.2500000000,160701.7031250000,163533.7500000000,58975.0234375000,172065.9531250000,,,
1.8239999970,14,152051.2031250000,152012.3125000000,177288.0312500000,171315.4218750000,160701.0625000000,163535.5156250000,58975.3750000000,172068.4531250000,,,
1.8279999970,14,152050.1093750000,152014.5937500000,177284.7031250000,171312.1718750000,160697.6875000000,163542.9687500000,58984.7617187500,172065.6875000000,,,
1.8319999969,14,152045.4062500000,152006.0625000000,177280.8437500000,171313.4062500000,160692.4218750000,163539.1093750000,58981.7578125000,172053.8906250000,,,
1.8359999971,14,152045.8906250000,152010.0312500000,177280.0625000000,171310.9375000000,160690.8906250000,163541.6562500000,58973.3359375000,172057.0468750000,,,
1.8399999971,14,152044.2343750000,152003.7343750000,177279.1250000000,171319.8281250000,160687.2187500000,163536.2031250000,58977.0351562500,172058.2656250000,,,
1.8439999970,14,152044.4531250000,152001.7656250000,177278.7187500000,171320.2031250000,160685.6875000000,163528.3750000000,58977.9218750000,172055.2031250000,,,
1.8479999970,14,152056.4843750000,152017.5156250000,177288.0312500000,171329.5000000000,160693.8125000000,163538.3593750000,58983.1250000000,172063.8437500000,,,
1.8519999969,14,152069.2031250000,152035.3281250000,177300.6093750000,171329.5781250000,160705.5468750000,163550.0000000000,58996.9101562500,172073.5468750000,,,
1.8559999969,14,152075.7500000000,152042.5937500000,177306.6250000000,171334.3125000000,160712.3281250000,163552.3281250000,58999.1367187500,172083.9531250000,,,
1.8599999971,14,152060.2500000000,152025.5625000000,177293.8593750000,171321.8125000000,160702.5156250000,163544.7187500000,58986.9609375000,172079.5312500000,,,
1.8639999970,14,152038.2031250000,151997.9375000000,177269.7968750000,171310.6406250000,160683.3906250000,163531.4843750000,58965.1015625000,172059.4375000000,,,
1.8679999970,14,152044.5000000000,152005.7656250000,177273.0156250000,171316.7031250000,160684.6718750000,163534.6562500000,58962.7148437500,172060.4843750000,,,
1.8719999969,14,152049.7031250000,152006.8750000000,177278.5625000000,171310.9375000000,160688.4843750000,163535.8593750000,58971.8867187500,172058.9843750000,,,
1.8759999969,14,152052.4062500000,152014.1875000000,177278.3750000000,171304.7500000000,160687.2812500000,163537.0937500000,58971.5390625000,172065.5781250000,,,
1.8799999971,14,152052.7812500000,152012.9843750000,177279.9375000000,171303.8906250000,160691.5156250000,163541.5000000000,58981.4101562500,172071.3437500000,,,
1.8839999971,14,152061.8281250000,152023.6250000000,177289.1250000000,171300.8593750000,160700.2500000000,163550.4531250000,58990.3125000000,172077.5937500000,,,
1.8879999970,14,152077.5468750000,152036.6406250000,177309.5156250000,171312.1250000000,160716.2656250000,163558.0156250000,59006.2734375000,172083.9218750000,,,
1.8919999970,14,152057.7031250000,152010.1875000000,177289.2968750000,171320.1718750000,160697.7968750000,163535.0781250000,58976.9843750000,172061.7968750000,,,
1.8959999969,14,152052.3281250000,152001.7187500000,177285.1875000000,171323.0625000000,160695.7968750000,163527.3593750000,58969.0976562500,172055.1562500000,,,
1.8999999969,14,152064.1562500000,152021.8281250000,177299.6406250000,171306.3906250000,160710.0156250000,163546.9062500000,58994.0156250000,172076.0937500000,,,
1.9039999971,14,152063.6562500000,152022.2968750000,177295.3281250000,171311.9062500000,160706.0312500000,163548.2812500000,58997.6367187500,172081.6718750000,,,
1.9079999970,14,152055.6250000000,152012.2812500000,177280.9218750000,171308.9531250000,160691.8593750000,163547.6093750000,58984.3867187500,172069.0625000000,,,
1.9119999970,14,152057.2187500000,152012.8750000000,177282.5625000000,171303.8593750000,160693.6093750000,163554.3125000000,58990.5546875000,172064.8125000000,,,
1.9159999969,14,152061.2343750000,152013.7656250000,177288.1406250000,171297.8593750000,160699.8593750000,163551.7343750000,58993.0781250000,172067.2968750000,,,
1.9199999969,15,152068.5625000000,152016.4687500000,177299.0312500000,171297.7968750000,160710.1562500000,163548.2812500000,58992.1367187500,172075.1875000000,,,
1.9239999969,15,152062.3125000000,152015.2656250000,177288.8906250000,171302.3125000000,160703.6562500000,163543.9843750000,58986.1015625000,172074.4687500000,,,
1.9279999968,15,152077.1875000000,152028.7343750000,177307.2656250000,171313.5468750000,160720.7968750000,163553.3281250000,59005.0117187500,172080.5000000000,,,
1.9319999968,15,152092.3437500000,152047.7187500000,177323.3906250000,171322.4531250000,160735.4687500000,163564.8281250000,59021.1875000000,172091.9531250000,,,
1.9359999967,15,152063.0937500000,152018.7968750000,177285.8906250000,171319.2031250000,160701.9531250000,163544.8281250000,58992.0312500000,172071.7812500000,,,
1.9399999967,15,152058.7968750000,152020.4062500000,177276.5468750000,171317.9687500000,160694.4843750000,163549.9375000000,58988.0859375000,172075.9062500000,,,
1.9439999969,15,152072.5625000000,152036.5000000000,177291.2812500000,171318.4218750000,160706.8750000000,163561.8750000000,59006.7539062500,172093.6406250000,,,
1.9479999968,15,152077.1406250000,152031.0625000000,177300.2343750000,171315.8593750000,160710.1875000000,163545.2968750000,59008.0976562500,172083.4218750000,,,
1.9519999968,15,152072.6406250000,152028.4062500000,177295.7343750000,171310.7812500000,160703.2812500000,163543.0000000000,58996.0273437500,172078.8906250000,,,
1.9559999967,15,152056.6562500000,152011.7968750000,177282.3125000000,171306.4375000000,160695.1875000000,163540.0468750000,58991.1445312500,172068.7812500000,,,
1.9599999967,15,152075.5937500000,152033.0156250000,177303.5625000000,171313.7656250000,160716.3281250000,163555.2031250000,59001.7148437500,172089.2968750000,,,
1.9639999969,15,152078.2187500000,152029.6093750000,177308.9062500000,171319.7187500000,160720.2343750000,163553.1875000000,59005.3593750000,172087.3906250000,,,
1.9679999969,15,152059.9531250000,152014.0625000000,177283.4687500000,171306.6250000000,160694.8593750000,163538.2187500000,58991.1992187500,172070.3593750000,,,
1.9719999968,15,152061.9843750000,152016.8437500000,177286.4218750000,171311.3750000000,160695.4218750000,163539.7812500000,58994.0703125000,172067.5625000000,,,
1.9759999968,15,152051.1250000000,151996.8125000000,177277.7656250000,171319.7343750000,160687.2968750000,163517.7812500000,58987.7656250000,172052.2187500000,,,
1.9799999967,15,152054.9531250000,152004.1093750000,177282.2187500000,171319.7187500000,160692.9843750000,163522.0468750000,58989.3203125000,172062.0625000000,,,
1.9839999967,15,152069.9062500000,152022.6718750000,177304.8750000000,171309.2031250000,160709.4062500000,163536.4062500000,59001.7929687500,172077.0156250000,,,
1.9879999969,15,152057.8906250000,152008.4843750000,177291.5937500000,171306.2187500000,160695.4531250000,163530.6562500000,58991.4414062500,172061.8281250000,,,
1.9919999968,15,152047.3125000000,152007.2968750000,177271.2187500000,171322.4531250000,160679.9218750000,163527.0156250000,58978.5937500000,172053.4375000000,,,
1.9959999968,15,152038.4062500000,151991.5000000000,177266.6250000000,171321.7187500000,160675.8281250000,163517.3281250000,58978.3789062500,172043.4531250000,,,
1.9999999967,15,152063.6562500000,152023.4375000000,177296.1250000000,171324.5156250000,160705.8906250000,163548.7343750000,59015.5546875000,172075.3125000000,,,
2.0039999967,15,152065.6093750000,152017.9687500000,177301.3906250000,171327.5468750000,160711.4375000000,163548.2343750000,59018.3437500000,172075.0468750000,,,
2.0079999969,15,152050.0312500000,152005.6093750000,177269.3906250000,171330.4687500000,160685.9375000000,163538.2187500000,58992.9687500000,172060.7812500000,,,
2.0119999968,15,152041.2812500000,151990.5625000000,177261.8593750000,171324.9375000000,160676.6250000000,163527.3906250000,58986.1835937500,172044.2656250000,,,
2.0159999968,15,152046.7500000000,152003.1875000000,177263.9687500000,171320.2812500000,160675.4531250000,163530.3125000000,58977.8398437500,172053.2656250000,,,
2.0199999968,15,152049.6562500000,152010.9687500000,177267.5625000000,171318.2343750000,160678.1875000000,163535.7343750000,58980.1484375000,172064.1406250000,,,
2.0239999967,15,152063.8906250000,152028.4531250000,177287.8750000000,171310.5937500000,160698.2187500000,163550.1250000000,59003.1601562500,172083.9218750000,,,
2.0279999967,15,152044.8281250000,152010.4375000000,177263.9687500000,171304.6093750000,160677.2968750000,163533.9375000000,58982.3750000000,172066.6250000000,,,
2.0319999969,15,152047.7500000000,152011.4062500000,177273.0937500000,171295.3906250000,160684.1875000000,163536.5312500000,58989.5898437500,172063.1718750000,,,
2.0359999968,15,152039.9687500000,151997.7968750000,177267.7812500000,171300.0468750000,160680.1718750000,163530.7968750000,58989.0000000000,172054.1875000000,,,
2.0399999968,15,152043.9375000000,152001.7500000000,177269.2812500000,171316.3593750000,160683.5000000000,163538.1718750000,58992.4062500000,172063.0937500000,,,
2.0439999967,15,152047.0156250000,152006.8750000000,177271.1562500000,171297.8281250000,160684.6250000000,163542.5937500000,58994.4179687500,172069.1250000000,,,
2.0479999967,16,152056.2812500000,152017.4687500000,177279.6406250000,171299.0000000000,160690.6250000000,163549.7500000000,59000.5585937500,172072.7187500000,,,
2.0519999966,16,152044.4218750000,152000.8906250000,177269.6093750000,171299.5937500000,160678.4531250000,163537.2500000000,58985.8867187500,172055.5000000000,,,
2.0559999966,16,152046.0781250000,152004.4062500000,177271.5625000000,171301.1250000000,160681.3437500000,163538.8125000000,58989.4023437500,172059.4375000000,,,
2.0599999966,16,152048.4218750000,152006.0625000000,177277.5781250000,171292.4375000000,160687.9218750000,163536.2343750000,58993.0507812500,172064.5625000000,,,
2.0639999965,16,152051.0781250000,152006.8906250000,177282.5937500000,171296.5625000000,160692.3906250000,163532.2656250000,58990.3398437500,172064.9687500000,,,
2.0679999965,16,152045.9531250000,152003.6562500000,177277.8437500000,171287.2031250000,160686.7656250000,163527.3125000000,58989.8046875000,172055.5000000000,,,
2.0719999967,16,152040.6406250000,151994.8281250000,177269.6875000000,171296.6718750000,160679.8750000000,163526.5781250000,58987.5781250000,172044.8281250000,,,
2.0759999966,16,152031.8906250000,151986.5156250000,177253.5468750000,171311.0312500000,160666.5625000000,163519.0468750000,58973.0390625000,172038.6875000000,,,
2.0799999966,16,152046.0312500000,151999.4062500000,177271.6718750000,171322.6093750000,160685.6406250000,163533.3750000000,58998.7617187500,172056.4687500000,,,
2.0839999965,16,152049.2500000000,152005.1562500000,177275.7500000000,171311.5625000000,160689.5625000000,163538.5468750000,59003.1601562500,172063.3593750000,,,
2.0879999965,16,152057.1562500000,152010.2968750000,177285.8125000000,171305.4375000000,160696.0937500000,163540.7187500000,59007.4804687500,172067.4531250000,,,
2.0919999967,16,152055.6875000000,152012.1250000000,177274.6718750000,171303.5468750000,160688.7812500000,163546.1875000000,59002.9453125000,172067.4375000000,,,
2.0959999966,16,152050.8593750000,152009.0625000000,177267.0781250000,171291.3593750000,160681.6718750000,163539.8593750000,58992.7812500000,172066.7031250000,,,
2.0999999966,16,152047.0156250000,151996.2500000000,177266.7968750000,171296.1875000000,160680.3750000000,163523.5000000000,58983.3125000000,172059.7968750000,,,
2.1039999966,16,152044.2343750000,152000.6718750000,177257.6718750000,171308.0468750000,160672.1718750000,163526.0468750000,58963.0351562500,172064.0312500000,,,
2.1079999965,16,152049.1875000000,152011.8593750000,177263.6250000000,171293.1093750000,160677.1562500000,163536.9843750000,58974.1132812500,172071.7500000000,,,
2.1119999965,16,152049.1406250000,152016.7187500000,177262.3906250000,171297.7968750000,160676.5781250000,163546.1406250000,58994.9804687500,172075.6875000000,,,
2.1159999967,16,152037.1718750000,152000.2968750000,177257.9375000000,171290.5312500000,160671.6093750000,163536.0000000000,58997.0468750000,172063.7031250000,,,
2.1199999966,16,152036.0781250000,152003.1718750000,177260.8125000000,171281.2031250000,160673.2187500000,163535.1093750000,58991.2539062500,172068.5937500000,,,
2.1239999966,16,152029.7187500000,151995.5468750000,177258.4687500000,171283.2343750000,160669.1093750000,163525.1562500000,58980.7656250000,172064.7031250000,,,
2.1279999965,16,152026.7968750000,151995.8906250000,177250.7968750000,171290.1562500000,160662.2812500000,163525.9062500000,58975.4023437500,172058.9375000000,,,
2.1319999965,16,152032.9687500000,152000.7500000000,177259.1250000000,171291.7656250000,160666.8593750000,163530.7187500000,58981.1953125000,172056.4375000000,,,
2.1359999967,16,152043.0312500000,152009.9843750000,177272.7500000000,171289.3437500000,160675.5312500000,163536.4062500000,58986.0742187500,172064.0781250000,,,
2.1399999966,16,152044.9843750000,152010.8906250000,177278.2500000000,171287.7500000000,160681.4062500000,163538.4062500000,58979.5039062500,172069.9843750000,,,
2.1439999966,16,152031.6718750000,151990.2187500000,177268.2343750000,171297.1093750000,160674.3437500000,163521.2656250000,58981.9453125000,172056.0625000000,,,
2.1479999966,16,152021.0312500000,151969.4531250000,177253.5156250000,171309.1250000000,160662.4062500000,163502.5468750000,58991.9218750000,172029.9062500000,,,
2.1519999965,16,152027.7343750000,151982.1875000000,177257.2968750000,171301.8437500000,160664.7187500000,163512.1250000000,58990.5820312500,172033.0781250000,,,
2.1559999965,16,152033.2812500000,151992.2500000000,177264.2187500000,171296.4375000000,160673.5156250000,163522.2656250000,58987.5234375000,172042.1718750000,,,
2.1599999967,16,152032.6093750000,151990.6406250000,177269.5781250000,171295.7656250000,160680.0312500000,163521.5312500000,58978.0039062500,172045.3593750000,,,
2.1639999966,16,152023.8437500000,151977.1718750000,177258.8437500000,171306.5156250000,160670.3281250000,163509.0625000000,58979.6367187500,172035.8125000000,,,
2.1679999966,16,152019.0781250000,151973.3437500000,177249.1718750000,171304.9687500000,160658.9843750000,163509.1718750000,58988.1953125000,172028.9375000000,,,
2.1719999965,16,152039.9062500000,151995.9531250000,177277.4843750000,171300.5156250000,160681.1875000000,163525.1562500000,59014.2656250000,172043.7187500000,,,
2.1759999965,17,152049.2187500000,152010.6250000000,177286.3906250000,171310.5156250000,160690.5781250000,163536.5625000000,59019.5234375000,172058.0781250000,,,
2.1799999964,17,152034.0937500000,151999.5937500000,177264.6406250000,171319.8437500000,160673.7500000000,163528.7031250000,59001.6328125000,172056.8593750000,,,
2.1839999964,17,152010.9687500000,151971.6718750000,177234.4687500000,171302.6250000000,160646.6093750000,163504.2656250000,58974.9453125000,172036.2656250000,,,
2.1879999964,17,152016.7187500000,151976.2343750000,177239.8281250000,171299.9218750000,160650.6093750000,163502.1406250000,58973.4414062500,172031.6250000000,,,
2.1919999963,17,152027.3593750000,151991.5781250000,177249.3281250000,171298.7187500000,160659.5937500000,163513.5156250000,58978.4570312500,172040.3437500000,,,
2.1959999963,17,152034.8906250000,152007.3750000000,177258.7500000000,171287.2656250000,160669.4843750000,163522.8750000000,58983.6367187500,172057.2343750000,,,
2.1999999965,17,152035.9687500000,152004.4062500000,177267.3281250000,171299.0625000000,160676.8750000000,163520.8437500000,58982.7500000000,172063.8906250000,,,
2.2039999964,17,152030.5312500000,152000.7500000000,177257.7500000000,171311.5937500000,160668.8750000000,163515.4843750000,58972.3437500000,172062.6093750000,,,
2.2079999964,17,152033.7500000000,152007.0781250000,177257.0312500000,171292.0000000000,160667.4062500000,163524.2812500000,58975.4257812500,172065.2812500000,,,
2.2119999963,17,152042.2656250000,152014.2500000000,177264.6093750000,171291.2343750000,160670.8906250000,163530.3906250000,58983.5546875000,172067.2187500000,,,
2.2159999963,17,152054.1250000000,152024.8593750000,177281.3750000000,171290.9843750000,160682.7656250000,163534.5468750000,58991.2812500000,172075.3125000000,,,
2.2199999965,17,152044.0156250000,152016.6875000000,177267.6406250000,171290.0000000000,160673.9218750000,163528.6406250000,58984.4414062500,172072.5781250000,,,
2.2239999964,17,152022.2343750000,151989.6406250000,177244.8281250000,171293.8593750000,160657.1250000000,163516.4375000000,58976.7421875000,172051.4531250000,,,
2.2279999964,17,152031.4843750000,151993.8593750000,177261.0000000000,171292.4375000000,160671.6718750000,163515.9062500000,58986.6914062500,172047.2031250000,,,
2.2319999964,17,152036.1093750000,151989.0625000000,177268.5000000000,171292.5468750000,160677.6250000000,163511.7187500000,58979.5312500000,172040.5781250000,,,
2.2359999963,17,152043.6093750000,152000.2187500000,177275.1875000000,171293.6718750000,160684.7343750000,163523.1406250000,58992.0585937500,172051.3437500000,,,
2.2399999963,17,152041.1250000000,151998.0625000000,177272.2812500000,171298.7187500000,160680.3750000000,163518.1875000000,58997.2343750000,172056.7656250000,,,
2.2439999965,17,152029.6875000000,151983.0000000000,177258.7656250000,171299.6250000000,160669.9531250000,163508.9531250000,58990.2851562500,172044.9843750000,,,
2.2479999964,17,152040.5625000000,152001.6875000000,177266.8906250000,171291.0156250000,160678.1093750000,163531.9218750000,59000.2929687500,172057.1093750000,,,
2.2519999964,17,152055.5781250000,152018.3281250000,177288.6562500000,171281.2812500000,160693.9218750000,163540.9843750000,59015.2578125000,172067.9687500000,,,
2.2559999963,17,152058.7343750000,152010.7500000000,177298.4375000000,171299.4375000000,160706.0781250000,163544.3906250000,59033.6328125000,172068.6718750000,,,
2.2599999963,17,152040.9062500000,151987.4687500000,177273.0937500000,171312.4531250000,160688.1093750000,163529.8593750000,59009.8945312500,172053.0000000000,,,
2.2639999965,17,152042.8437500000,151990.7187500000,177273.0625000000,171306.1718750000,160686.5000000000,163527.3906250000,59009.9218750000,172054.5781250000,,,
2.2679999964,17,152043.5625000000,151994.8750000000,177270.2500000000,171304.8281250000,160680.5468750000,163522.9531250000,59012.0664062500,172051.6093750000,,,
2.2719999964,17,152048.7656250000,152005.8750000000,177271.5937500000,171309.8750000000,160678.7968750000,163526.1562500000,59013.3789062500,172054.3125000000,,,
2.2759999963,17,152056.9375000000,152016.0468750000,177280.4687500000,171311.2187500000,160686.3125000000,163533.2812500000,59014.8828125000,172063.8906250000,,,
2.2799999963,17,152061.9531250000,152027.7812500000,177286.7187500000,171307.0312500000,160692.5000000000,163544.7187500000,59012.3359375000,172079.2656250000,,,
2.2839999963,17,152063.8125000000,152037.0625000000,177292.2187500000,171302.2187500000,160698.1093750000,163557.0000000000,59020.4609375000,172091.1406250000,,,
2.2879999964,17,152037.9218750000,151997.8281250000,177268.9062500000,171308.0468750000,160676.6875000000,163531.0312500000,59003.6718750000,172062.1250000000,,,
2.2919999964,17,152032.9687500000,151992.7031250000,177263.7031250000,171307.9687500000,160671.9531250000,163527.3593750000,59000.9335937500,172049.6718750000,,,
2.2959999964,17,152043.2343750000,152007.3281250000,177268.6718750000,171308.8437500000,160678.6406250000,163543.7812500000,59004.9843750000,172062.0156250000,,,
2.2999999963,17,152051.9218750000,152022.1093750000,177273.3593750000,171298.5468750000,160683.4062500000,163555.8906250000,59002.5703125000,172081.1093750000,,,
2.3039999963,18,152046.9062500000,152009.1718750000,177273.2031250000,171301.9375000000,160679.7187500000,163548.8125000000,59003.4843750000,172076.9843750000,,,
2.3079999962,18,152031.2968750000,151980.5312500000,177258.9375000000,171313.2812500000,160664.2656250000,163524.2968750000,58997.3398437500,172049.5625000000,,,
2.3119999962,18,152041.0468750000,151994.4531250000,177267.0312500000,171309.3125000000,160670.7500000000,163527.6250000000,59002.5703125000,172052.8125000000,,,
2.3159999961,18,152050.7187500000,152010.7500000000,177278.4843750000,171308.3750000000,160683.0937500000,163541.9218750000,59010.8593750000,172069.9062500000,,,
2.3199999961,18,152046.2500000000,152001.0468750000,177281.2968750000,171295.0312500000,160684.1093750000,163537.0468750000,59001.9531250000,172071.2187500000,,,
2.3239999961,18,152041.7968750000,151999.1718750000,177268.3750000000,171299.1718750000,160675.0156250000,163537.1250000000,58987.0429687500,172070.7656250000,,,
2.3279999963,18,152025.2343750000,151979.0781250000,177242.8906250000,171299.0625000000,160653.7187500000,163519.8281250000,58967.6210937500,172048.7968750000,,,
2.3319999962,18,152049.1875000000,151998.6406250000,177273.1406250000,171296.9375000000,160680.9375000000,163531.8437500000,58998.0937500000,172060.7500000000,,,
2.3359999962,18,152049.2968750000,151998.3906250000,177277.5781250000,171295.0312500000,160686.0937500000,163539.0468750000,59006.8906250000,172063.5781250000,,,
2.3399999961,18,152045.0156250000,151996.1406250000,177266.3906250000,171304.7500000000,160677.7812500000,163545.1406250000,58997.5546875000,172065.2031250000,,,
2.3439999961,18,152048.6562500000,151996.7500000000,177269.4687500000,171304.9843750000,160680.9218750000,163545.8125000000,59004.7187500000,172066.9843750000,,,
2.3479999963,18,152055.2343750000,152003.8437500000,177274.2968750000,171303.8125000000,160681.8906250000,163554.0937500000,59010.1640625000,172068.7187500000,,,
2.3519999962,18,152076.4375000000,152019.7187500000,177303.8281250000,171306.7812500000,160703.7187500000,163564.0468750000,59028.2656250000,172077.8437500000,,,
2.3559999962,18,152064.0312500000,152008.0000000000,177286.0781250000,171301.0000000000,160691.8125000000,163553.2187500000,59017.4843750000,172070.7031250000,,,
2.3599999961,18,152057.4531250000,152001.1875000000,177276.0468750000,171297.2656250000,160685.0781250000,163542.4843750000,59011.5820312500,172070.6718750000,,,
2.3639999961,18,152069.9843750000,152014.2187500000,177291.8906250000,171306.3593750000,160700.4687500000,163546.6250000000,59030.1445312500,172084.1718750000,,,
2.3679999961,18,152069.5781250000,152012.0468750000,177293.4843750000,171316.0625000000,160701.1093750000,163545.7343750000,59028.6953125000,172081.1406250000,,,
2.3719999962,18,152073.8906250000,152028.2500000000,177293.5625000000,171305.5000000000,160701.1093750000,163561.6875000000,59026.6562500000,172086.8593750000,,,
2.3759999962,18,152074.7812500000,152033.2812500000,177299.0781250000,171299.6250000000,160704.5000000000,163564.1562500000,59027.7578125000,172091.8750000000,,,
2.3799999962,18,152050.9687500000,152001.3437500000,177282.8593750000,171290.9531250000,160687.1718750000,163545.0312500000,59005.9492187500,172069.2343750000,,,
2.3839999961,18,152041.5468750000,151997.4843750000,177270.8906250000,171293.9687500000,160680.0937500000,163547.2031250000,59006.5664062500,172066.4687500000,,,
2.3879999961,18,152059.0937500000,152018.1875000000,177287.1250000000,171301.9062500000,160696.3437500000,163558.9218750000,59033.8203125000,172079.3750000000,,,
2.3919999963,18,152076.5312500000,152032.1875000000,177306.4843750000,171307.5937500000,160711.3906250000,163565.8437500000,59032.0234375000,172088.2968750000,,,
2.3959999962,18,152059.2812500000,152006.1718750000,177287.4687500000,171302.1406250000,160692.8750000000,163542.7500000000,59004.3671875000,172069.4375000000,,,
2.3999999962,18,152052.5468750000,152004.0000000000,177277.6562500000,171294.6562500000,160682.1250000000,163544.2031250000,59003.8867187500,172071.6406250000,,,
2.4039999961,18,152048.4375000000,152005.3906250000,177265.2343750000,171288.2187500000,160672.7343750000,163547.8281250000,58999.9414062500,172076.0937500000,,,
2.4079999961,18,152059.9531250000,152016.0625000000,177279.5000000000,171295.0312500000,160687.2187500000,163559.5468750000,59025.5312500000,172082.5000000000,,,
2.4119999961,18,152062.7187500000,152024.2187500000,177284.0937500000,171290.3906250000,160693.6562500000,163572.1562500000,59035.2695312500,172087.6250000000,,,
2.4159999962,18,152047.4218750000,152009.0937500000,177270.2968750000,171296.1875000000,160681.9375000000,163557.2656250000,59021.2148437500,172076.9843750000,,,
2.4199999962,18,152042.4531250000,152005.5000000000,177266.7031250000,171292.5937500000,160677.8281250000,163556.2812500000,59012.9531250000,172079.6406250000,,,
2.4239999962,18,152056.2812500000,152021.1875000000,177281.2500000000,171290.3906250000,160690.7031250000,163565.3125000000,59021.4257812500,172094.2500000000,,,
2.4279999961,18,152037.7968750000,151993.5312500000,177261.4843750000,171293.1093750000,160671.0156250000,163540.8437500000,58992.9687500000,172069.7343750000,,,
2.4319999961,19,152059.3281250000,152016.2343750000,177284.4062500000,171299.5156250000,160691.0781250000,163561.2031250000,59014.5859375000,172080.9218750000,,,
2.4359999960,19,152066.5000000000,152018.9375000000,177292.5156250000,171304.1562500000,160698.2968750000,163564.8906250000,59023.3593750000,172084.9687500000,,,
2.4399999960,19,152043.9375000000,151994.0000000000,177265.2812500000,171294.5625000000,160675.1562500000,163540.4687500000,58998.0390625000,172067.7343750000,,,
2.4439999959,19,152049.0625000000,151989.8906250000,177276.7656250000,171302.3281250000,160684.9687500000,163534.3125000000,59002.1171875000,172061.2968750000,,,
2.4479999959,19,152067.6250000000,152006.8750000000,177297.7656250000,171308.7656250000,160705.4531250000,163550.2968750000,59032.7187500000,172070.1406250000,,,
2.4519999959,19,152070.8437500000,152017.3281250000,177300.1562500000,171305.4218750000,160706.0000000000,163560.5625000000,59036.3398437500,172074.1718750000,,,
2.4559999960,19,152068.9531250000,152022.3906250000,177297.9531250000,171299.2500000000,160701.1406250000,163562.9062500000,59021.4804687500,172081.2968750000,,,
2.4599999960,19,152065.4687500000,152023.6250000000,177291.7343750000,171294.6093750000,160698.6250000000,163560.4843750000,59022.5000000000,172087.2500000000,,,
2.4639999960,19,152068.4531250000,152022.4218750000,177299.4843750000,171301.1250000000,160709.8593750000,163557.0468750000,59041.7031250000,172090.5000000000,,,
2.4679999959,19,152071.9062500000,152021.5468750000,177303.2656250000,171309.2031250000,160715.2968750000,163557.7500000000,59042.7773437500,172088.1406250000,,,
2.4719999959,19,152071.5156250000,152023.0937500000,177297.6093750000,171315.7187500000,160712.4687500000,163561.4218750000,59040.2031250000,172086.3437500000,,,
2.4759999961,19,152067.5468750000,152015.3125000000,177292.7187500000,171313.9531250000,160706.2656250000,163555.3281250000,59030.0117187500,172082.4843750000,,,
2.4799999960,19,152061.3906250000,152009.7343750000,177289.2968750000,171304.3437500000,160702.1406250000,163552.3593750000,59030.1171875000,172082.5312500000,,,
2.4839999960,19,152069.0937500000,152021.2656250000,177299.4843750000,171307.7187500000,160710.7968750000,163564.4062500000,59029.7695312500,172093.7187500000,,,
2.4879999959,19,152065.7656250000,152022.3750000000,177291.5156250000,171307.1875000000,160701.4687500000,163562.2500000000,59007.3710937500,172089.9687500000,,,
2.4919999959,19,152070.4843750000,152028.7343750000,177293.1875000000,171317.2500000000,160699.5625000000,163564.4843750000,59020.4609375000,172089.3281250000,,,
2.4959999959,19,152054.9062500000,152004.6718750000,177280.3125000000,171314.0312500000,160686.0937500000,163540.2812500000,59020.5156250000,172073.0937500000,,,
2.4999999960,19,152044.0156250000,151997.7500000000,177264.1093750000,171302.4062500000,160672.6875000000,163536.9843750000,59005.6289062500,172073.4375000000,,,
2.5039999960,19,152047.5781250000,152004.5312500000,177267.5937500000,171291.9531250000,160673.5156250000,163544.7187500000,59001.3125000000,172080.3125000000,,,
2.5079999960,19,152058.0781250000,152013.8437500000,177280.2812500000,171305.2031250000,160684.8125000000,163551.0468750000,59010.2421875000,172085.8125000000,,,
2.5119999959,19,152071.0000000000,152030.7187500000,177293.5312500000,171300.1093750000,160695.2656250000,163563.9218750000,59019.7109375000,172094.5312500000,,,
2.5159999959,19,152056.5156250000,152008.3125000000,177281.2656250000,171300.2656250000,160678.3906250000,163550.3437500000,59009.1445312500,172077.4062500000,,,
2.5199999961,19,152029.6718750000,151976.4843750000,177253.0000000000,171299.5937500000,160656.3281250000,163537.7656250000,59000.6679687500,172055.4687500000,,,
2.5239999960,19,152034.3906250000,151979.3281250000,177261.4531250000,171296.3593750000,160667.5000000000,163539.8906250000,59012.7890625000,172059.0156250000,,,
2.5279999960,19,152043.0312500000,151985.6718750000,177273.8437500000,171301.6875000000,160679.4687500000,163537.3906250000,59021.6953125000,172057.7812500000,,,
2.5319999959,19,152052.3906250000,151995.2500000000,177284.0937500000,171303.5625000000,160687.2500000000,163544.3906250000,59024.1367187500,172059.2187500000,,,
2.5359999959,19,152057.9687500000,152001.2812500000,177288.6562500000,171303.7500000000,160689.4687500000,163550.5000000000,59015.7421875000,172066.2031250000,,,
2.5399999958,19,152064.0468750000,152009.9218750000,177296.6718750000,171295.9531250000,160698.0312500000,163551.6875000000,59024.4296875000,172079.5781250000,,,
2.5439999960,19,152076.5781250000,152022.8750000000,177308.6250000000,171305.6093750000,160712.0625000000,163557.6093750000,59037.9492187500,172095.8125000000,,,
2.5479999960,19,152065.5000000000,152007.4843750000,177297.0781250000,171307.7031250000,160699.0781250000,163542.1406250000,59018.8515625000,172081.0937500000,,,
2.5519999960,19,152070.2968750000,152019.9531250000,177296.0468750000,171305.0468750000,160697.8906250000,163543.2656250000,59018.4765625000,172084.0156250000,,,
2.5559999959,19,152067.3593750000,152016.1406250000,177292.1093750000,171298.2500000000,160695.6093750000,163542.1406250000,59020.4882812500,172083.6875000000,,,
2.5599999959,20,152065.6875000000,152013.2031250000,177290.8281250000,171301.9843750000,160694.7812500000,163544.0156250000,59020.6757812500,172084.6875000000,,,
2.5639999958,20,152063.3593750000,152014.2500000000,177287.0937500000,171304.1093750000,160690.8750000000,163542.1406250000,59012.5781250000,172089.2968750000,,,
2.5679999958,20,152062.0625000000,152008.7500000000,177284.7656250000,171306.9687500000,160688.9062500000,163537.6875000000,59018.6093750000,172084.5468750000,,,
2.5719999957,20,152065.6562500000,152009.6093750000,177288.1875000000,171300.2656250000,160692.7187500000,163545.1406250000,59024.9414062500,172079.0937500000,,,
2.5759999957,20,152065.4687500000,152011.4218750000,177287.5000000000,171300.8593750000,160692.4531250000,163552.1718750000,59015.9843750000,172079.6406250000,,,
2.5799999957,20,152077.4687500000,152024.4843750000,177304.5781250000,171298.3906250000,160709.2187500000,163563.9218750000,59036.1250000000,172099.8125000000,,,
2.5839999958,20,152072.5781250000,152019.9375000000,177298.2187500000,171305.5781250000,160704.8906250000,163562.8125000000,59037.6289062500,172103.6718750000,,,
2.5879999958,20,152054.6718750000,152002.2343750000,177276.5000000000,171303.4531250000,160686.0156250000,163553.8125000000,59020.8906250000,172085.8281250000,,,
2.5919999958,20,152059.6250000000,152005.9218750000,177280.6250000000,171301.0156250000,160688.1093750000,163551.2343750000,59021.2929687500,172081.5468750000,,,
2.5959999957,20,152063.0000000000,152004.2656250000,177281.6250000000,171307.6406250000,160690.3906250000,163549.4843750000,59019.2812500000,172080.9843750000,,,
2.5999999957,20,152067.0000000000,152005.1250000000,177282.3437500000,171303.7031250000,160691.7031250000,163551.2343750000,59018.5039062500,172089.3750000000,,,
2.6039999959,20,152067.8906250000,152008.3125000000,177281.6250000000,171292.2812500000,160689.1562500000,163555.9218750000,59011.6914062500,172090.9843750000,,,
2.6079999958,20,152092.5312500000,152035.4375000000,177311.7187500000,171296.2968750000,160712.9687500000,163577.1093750000,59034.0859375000,172107.7968750000,,,
2.6119999958,20,152089.2968750000,152016.7656250000,177318.6406250000,171307.3437500000,160717.2031250000,163562.5000000000,59048.5195312500,172092.7500000000,,,
2.6159999957,20,152077.7343750000,152009.4375000000,177299.3281250000,171315.4218750000,160702.8906250000,163552.8125000000,59037.6835937500,172084.6875000000,,,
2.6199999957,20,152075.7187500000,152009.3593750000,177296.0468750000,171322.1875000000,160701.9687500000,163549.5468750000,59031.8085937500,172088.4375000000,,,
2.6239999956,20,152064.5937500000,151998.4531250000,177285.5625000000,171312.3593750000,160691.6718750000,163537.1562500000,59012.2539062500,172081.2812500000,,,
2.6279999958,20,152061.7500000000,151999.9531250000,177283.6406250000,171290.2968750000,160690.1718750000,163545.6718750000,59012.0937500000,172079.7500000000,,,
2.6319999958,20,152072.8281250000,152011.9687500000,177301.2031250000,171287.1718750000,160706.9375000000,163558.1562500000,59037.8164062500,172084.5468750000,,,
2.6359999957,20,152084.4687500000,152023.2812500000,177313.8906250000,171308.4531250000,160719.0000000000,163556.0781250000,59049.5898437500,172091.8906250000,,,
2.6399999957,20,152084.1093750000,152025.2343750000,177314.1250000000,171290.9375000000,160718.6093750000,163551.7187500000,59040.9257812500,172098.8125000000,,,
2.6439999957,20,152065.7187500000,152009.2500000000,177290.9843750000,171289.2968750000,160697.2187500000,163538.8437500000,59002.1406250000,172089.2968750000,,,
2.6479999959,20,152049.6718750000,151990.2187500000,177270.7812500000,171280.4687500000,160678.5000000000,163526.3593750000,58987.9804687500,172071.3437500000,,,
2.6519999958,20,152061.3125000000,151998.8750000000,177280.3281250000,171298.1718750000,160684.5468750000,163532.1562500000,59004.2070312500,172072.6093750000,,,
2.6559999958,20,152065.0468750000,152009.1406250000,177274.2187500000,171306.7656250000,160676.8437500000,163540.5000000000,58991.7343750000,172080.7343750000,,,
2.6599999957,20,152070.0312500000,152011.8281250000,177278.2187500000,171306.5781250000,160680.4843750000,163542.2656250000,58998.5742187500,172090.6406250000,,,
2.6639999957,20,152080.6875000000,152014.5156250000,177290.8437500000,171321.4843750000,160695.2656250000,163538.2187500000,59023.8671875000,172095.5625000000,,,
2.6679999956,20,152095.0625000000,152031.2500000000,177309.7031250000,171319.6562500000,160713.1250000000,163548.9531250000,59044.1171875000,172105.8125000000,,,
2.6719999958,20,152105.7656250000,152050.7812500000,177316.0000000000,171319.0937500000,160720.2968750000,163578.5156250000,59043.7695312500,172118.1562500000,,,
2.6759999958,20,152074.7812500000,152016.0468750000,177281.0781250000,171326.5468750000,160688.8281250000,163556.5625000000,59005.9492187500,172089.8593750000,,,
2.6799999957,20,152061.7968750000,152002.5000000000,177273.7656250000,171318.0781250000,160680.6562500000,163549.8593750000,59002.2226562500,172081.1875000000,,,
2.6839999957,20,152064.4843750000,152005.1718750000,177282.8593750000,171320.4062500000,160690.0625000000,163551.0156250000,59021.1601562500,172085.0312500000,,,
2.6879999957,21,152060.6406250000,152007.2656250000,177276.5781250000,171317.9375000000,160682.5468750000,163548.4687500000,59010.6992187500,172082.3750000000,,,
2.6919999956,21,152070.1093750000,152017.3750000000,177288.2968750000,171311.2187500000,160690.5156250000,163554.9062500000,59013.9960937500,172085.9687500000,,,
2.6959999956,21,152077.2968750000,152021.5937500000,177299.0781250000,171303.3281250000,160699.9687500000,163561.6406250000,59032.0507812500,172092.9375000000,,,
2.6999999955,21,152085.9062500000,152029.3750000000,177307.4218750000,171317.2500000000,160708.6562500000,163566.5781250000,59050.1289062500,172103.4062500000,,,
2.7039999955,21,152079.6562500000,152022.2031250000,177298.1406250000,171314.0312500000,160698.7031250000,163562.2812500000,59033.9804687500,172099.5156250000,,,
2.7079999954,21,152079.9375000000,152024.7656250000,177294.4218750000,171311.5312500000,160696.2343750000,163565.6875000000,59028.1054687500,172097.6875000000,,,
2.7119999956,21,152093.7656250000,152040.8437500000,177307.6875000000,171317.5468750000,160708.7031250000,163575.3750000000,59038.9414062500,172105.8125000000,,,
2.7159999956,21,152076.1718750000,152019.8750000000,177292.5156250000,171310.9687500000,160694.2812500000,163559.8125000000,59020.1132812500,172088.6562500000,,,
2.7199999955,21,152067.8125000000,152010.0312500000,177291.7656250000,171290.5781250000,160696.0937500000,163559.0937500000,59024.9140625000,172086.3750000000,,,
2.7239999955,21,152070.7812500000,152015.7500000000,177297.1562500000,171293.3437500000,160704.3906250000,163563.3750000000,59035.9101562500,172092.4062500000,,,
2.7279999955,21,152076.9531250000,152019.4531250000,177305.2500000000,171301.1250000000,160712.1718750000,163561.2968750000,59037.4921875000,172094.0625000000,,,
2.7319999957,21,152067.4843750000,152008.9062500000,177295.1875000000,171301.1875000000,160702.8593750000,163555.3125000000,59027.8125000000,172080.5781250000,,,
2.7359999956,21,152086.6093750000,152033.2343750000,177314.9062500000,171306.9687500000,160720.5937500000,163573.7343750000,59047.5781250000,172098.0625000000,,,
2.7399999956,21,152089.4531250000,152039.1562500000,177313.5156250000,171316.0625000000,160720.2187500000,163572.4531250000,59047.5234375000,172110.1562500000,,,
2.7439999955,21,152074.1093750000,152018.5156250000,177294.3125000000,171320.7812500000,160700.7187500000,163551.5468750000,59029.8515625000,172097.2031250000,,,
2.7479999955,21,152078.5156250000,152025.5937500000,177295.8125000000,171307.1406250000,160700.2343750000,163559.7343750000,59033.2031250000,172098.1718750000,,,
2.7519999954,21,152079.6562500000,152020.7656250000,177299.2500000000,171315.9843750000,160700.5000000000,163557.3125000000,59038.4882812500,172087.5156250000,,,
2.7559999956,21,152087.3593750000,152030.6562500000,177308.9531250000,171325.7968750000,160707.1250000000,163562.9531250000,59043.0195312500,172094.6562500000,,,
2.7599999956,21,152080.6562500000,152027.1718750000,177301.0937500000,171317.9687500000,160698.7031250000,163552.3906250000,59028.8320312500,172097.1718750000,,,
2.7639999955,21,152079.3125000000,152028.1093750000,177294.3906250000,171314.5625000000,160693.7968750000,163557.0000000000,59025.4492187500,172101.3437500000,,,
2.7679999955,21,152097.2343750000,152048.2500000000,177310.7812500000,171320.7812500000,160710.9062500000,163576.9062500000,59044.3867187500,172114.4062500000,,,
2.7719999955,21,152115.2500000000,152060.0312500000,177332.9531250000,171326.9218750000,160732.1562500000,163588.5468750000,59063.2695312500,172121.3750000000,,,
2.7759999956,21,152108.7968750000,152046.0312500000,177333.1250000000,171312.5468750000,160730.0781250000,163573.3593750000,59057.1015625000,172112.8437500000,,,
2.7799999956,21,152096.7812500000,152029.8593750000,177313.5625000000,171334.6875000000,160715.1406250000,163558.3593750000,59037.8164062500,172104.2656250000,,,
2.7839999956,21,152094.6093750000,152036.2343750000,177303.8593750000,171330.5468750000,160709.9375000000,163568.8750000000,59031.7812500000,172111.0937500000,,,
2.7879999955,21,152086.3125000000,152022.2343750000,177300.8281250000,171311.0000000000,160707.0468750000,163557.7968750000,59034.5703125000,172097.7500000000,,,
2.7919999955,21,152076.9218750000,152017.2812500000,177298.9687500000,171298.9843750000,160706.1250000000,163554.5312500000,59037.8710937500,172084.8125000000,,,
2.7959999954,21,152069.6562500000,152017.6562500000,177297.9531250000,171298.9062500000,160704.9843750000,163559.8125000000,59033.6054687500,172083.7968750000,,,
2.7999999956,21,152059.8437500000,152008.6406250000,177291.5937500000,171293.6718750000,160698.7500000000,163550.7968750000,59023.8671875000,172080.2812500000,,,
2.8039999956,21,152069.0156250000,152019.7500000000,177302.2187500000,171293.1875000000,160709.2187500000,163560.1406250000,59038.7265625000,172088.8593750000,,,
2.8079999955,21,152079.3906250000,152029.8593750000,177311.8437500000,171282.4843750000,160717.9531250000,163574.9375000000,59051.1445312500,172095.6250000000,,,
2.8119999955,21,152070.1718750000,152018.3281250000,177295.8125000000,171292.9218750000,160702.2656250000,163562.2812500000,59034.7031250000,172079.0000000000,,,
2.8159999955,22,152079.2812500000,152029.6875000000,177304.3593750000,171296.8593750000,160711.6093750000,163568.1875000000,59046.9882812500,172085.6250000000,,,
2.8199999954,22,152088.4062500000,152040.5312500000,177314.9375000000,171304.3437500000,160723.7031250000,163582.1093750000,59060.1328125000,172101.1250000000,,,
2.8239999954,22,152090.3437500000,152042.3281250000,177315.0156250000,171302.2812500000,160723.8281250000,163582.5312500000,59051.8710937500,172105.3593750000,,,
2.8279999953,22,152074.7343750000,152016.3906250000,177298.3281250000,171298.3437500000,160708.5937500000,163562.1406250000,59035.5898437500,172086.7187500000,,,
2.8319999953,22,152064.2968750000,152005.6875000000,177289.9843750000,171300.2187500000,160700.7656250000,163551.8437500000,59037.0664062500,172070.9687500000,,,
2.8359999952,22,152076.2812500000,152029.6406250000,177302.4375000000,171307.2968750000,160711.7343750000,163572.3437500000,59045.2734375000,172089.2656250000,,,
2.8399999954,22,152084.1093750000,152046.1093750000,177307.8281250000,171317.9218750000,160717.9531250000,163586.2812500000,59052.1914062500,172108.8125000000,,,
2.8439999954,22,152052.4062500000,152005.7343750000,177277.8593750000,171302.8906250000,160689.5000000000,163555.0625000000,59034.7304687500,172082.6093750000,,,
2.8479999953,22,152055.3593750000,152006.0156250000,177282.3437500000,171309.7031250000,160691.2500000000,163549.4843750000,59036.9843750000,172076.8437500000,,,
2.8519999953,22,152066.7656250000,152014.8281250000,177290.9062500000,171313.7812500000,160695.1562500000,163554.3906250000,59031.1640625000,172077.6250000000,,,
2.8559999953,22,152064.5156250000,152015.3906250000,177278.7187500000,171304.3437500000,160681.6093750000,163552.7031250000,59013.0859375000,172079.7187500000,,,
2.8599999954,22,152071.0468750000,152018.5312500000,177284.7656250000,171306.2187500000,160691.4531250000,163561.7500000000,59033.9804687500,172090.4531250000,,,
2.8639999954,22,152070.0625000000,152010.5468750000,177287.6875000000,171305.5781250000,160696.6562500000,163557.6718750000,59038.7812500000,172090.4687500000,,,
2.8679999954,22,152069.0156250000,152009.2812500000,177288.5156250000,171302.7656250000,160695.5312500000,163553.2500000000,59026.4179687500,172086.9062500000,,,
2.8719999953,22,152063.3750000000,152003.8125000000,177282.7187500000,171308.2656250000,160687.7031250000,163555.6250000000,59018.0742187500,172077.5156250000,,,
2.8759999953,22,152069.6562500000,152010.0937500000,177290.8437500000,171304.3437500000,160690.7031250000,163556.6718750000,59019.3906250000,172078.1093750000,,,
2.8799999952,22,152071.9062500000,152013.9531250000,177297.2656250000,171306.0312500000,160696.8750000000,163556.0781250000,59028.3476562500,172085.4062500000,,,
2.8839999954,22,152057.7187500000,152000.8906250000,177285.1406250000,171287.9375000000,160687.4062500000,163546.8125000000,59016.1953125000,172079.0937500000,,,
2.8879999954,22,152054.6875000000,152000.3281250000,177280.5781250000,171288.3281250000,160684.7812500000,163544.4218750000,59014.2656250000,172076.5000000000,,,
2.8919999953,22,152076.3906250000,152022.8593750000,177306.1406250000,171299.8593750000,160710.2812500000,163563.2968750000,59051.2812500000,172091.3281250000,,,
2.8959999953,22,152088.4843750000,152039.7187500000,177314.7968750000,171302.3281250000,160719.2968750000,163574.5937500000,59062.5742187500,172104.6562500000,,,
2.8999999953,22,152071.3750000000,152019.3906250000,177295.1406250000,171302.4687500000,160699.9687500000,163559.6250000000,59040.0937500000,172092.5937500000,,,
2.9039999954,22,152069.5781250000,152010.8125000000,177296.8281250000,171297.4843750000,160698.5625000000,163559.3593750000,59039.1562500000,172082.8906250000,,,
2.9079999954,22,152091.2812500000,152034.0625000000,177323.0937500000,171292.1406250000,160718.5468750000,163575.9062500000,59062.4921875000,172096.1406250000,,,
2.9119999954,22,152090.3437500000,152040.3125000000,177313.1875000000,171304.6875000000,160707.6875000000,163578.2187500000,59049.9648437500,172097.0781250000,,,
2.9159999953,22,152104.2031250000,152050.4062500000,177334.0625000000,171303.4843750000,160721.0468750000,163580.8437500000,59056.4296875000,172106.6250000000,,,
2.9199999953,22,152074.8593750000,152021.6718750000,177289.9375000000,171323.1250000000,160686.1718750000,163560.0000000000,59024.8593750000,172092.4843750000,,,
2.9239999952,22,152059.9218750000,152005.0468750000,177273.3593750000,171317.0312500000,160675.0468750000,163551.9218750000,59021.6406250000,172082.3750000000,,,
2.9279999954,22,152078.4531250000,152032.2656250000,177294.5781250000,171314.2187500000,160696.6406250000,163579.2656250000,59044.3320312500,172102.6562500000,,,
2.9319999954,22,152096.8750000000,152051.9218750000,177315.7968750000,171321.8125000000,160715.7656250000,163591.9218750000,59063.1367187500,172115.2500000000,,,
2.9359999953,22,152097.0781250000,152037.2031250000,177324.7031250000,171320.2812500000,160722.9218750000,163572.1562500000,59066.7851562500,172106.6718750000,,,
2.9399999953,22,152084.7656250000,152024.8593750000,177308.3125000000,171315.2343750000,160712.1093750000,163570.4062500000,59052.4882812500,172102.2968750000,,,
2.9439999952,23,152085.1093750000,152027.3281250000,177304.9375000000,171327.0156250000,160710.8593750000,163583.5000000000,59045.8359375000,172106.5937500000,,,
2.9479999952,23,152096.5000000000,152031.2031250000,177322.6875000000,171336.7968750000,160726.0000000000,163587.3125000000,59067.9375000000,172108.7656250000,,,
2.9519999952,23,152091.0625000000,152025.3437500000,177319.6250000000,171317.8906250000,160721.0781250000,163580.8125000000,59066.9453125000,172098.8906250000,,,
2.9559999951,23,152090.6093750000,152027.6562500000,177321.0312500000,171314.8281250000,160722.2812500000,163582.6718750000,59064.7734375000,172099.4375000000,,,
2.9599999951,23,152080.8906250000,152023.3437500000,177304.3437500000,171316.1406250000,160711.4687500000,163582.6406250000,59056.9921875000,172102.8437500000,,,
