Time:250Hz,Epoch,Channel 1,Channel 2,Channel 3,Channel 4,Channel 5,Channel 6,Channel 7,Channel 8,Event Id,Event Date,Event Duration
0.0000000000,0,177190.0781250000,209513.8437500000,168653.4375000000,169493.2031250000,136172.9062500000,122583.8906250000,134869.9687500000,154656.5468750000,,,
0.0040000000,0,177470.8750000000,190900.8906250000,168941.3125000000,169898.5468750000,136480.3281250000,122916.1640625000,135257.7343750000,152832.2343750000,,,
0.0079999999,0,176961.9218750000,192421.7500000000,168203.4375000000,168989.8437500000,135589.3281250000,122049.3515625000,134301.0156250000,154359.2968750000,,,
0.0119999999,0,176453.8125000000,212193.6562500000,167585.7343750000,168176.0312500000,134898.3437500000,121422.5156250000,133472.1875000000,157051.6406250000,,,
0.0159999998,0,176559.3281250000,221017.4375000000,167838.6875000000,168459.1093750000,135224.1562500000,121687.2812500000,133846.8593750000,156963.2187500000,,,
0.0199999998,0,177178.1718750000,209602.8593750000,168625.9687500000,169465.2343750000,136162.1406250000,122602.6875000000,134988.0625000000,154628.1093750000,,,
0.0240000000,0,177474.5468750000,190948.9531250000,168920.6718750000,169908.8750000000,136465.3437500000,122856.9140625000,135088.1562500000,152844.9531250000,,,
0.0279999999,0,176958.6250000000,192361.5625000000,168121.2031250000,168990.2968750000,135505.6406250000,122006.0078125000,134143.0781250000,154455.7500000000,,,
0.0319999999,0,176466.2812500000,212126.1562500000,167570.3593750000,168171.1250000000,134887.6718750000,121374.7500000000,133558.8750000000,157107.1406250000,,,
0.0359999998,0,176578.3750000000,221042.7500000000,167851.7500000000,168491.4531250000,135229.4375000000,121747.6015625000,133792.7031250000,156989.6562500000,,,
0.0399999998,0,177095.7968750000,209655.2968750000,168530.1406250000,169426.6718750000,136026.3437500000,122637.8281250000,134739.3906250000,154509.7968750000,,,
0.0440000000,0,177436.0312500000,190975.7500000000,168903.6562500000,169834.7968750000,136466.6093750000,122982.3828125000,135376.4218750000,152771.0625000000,,,
0.0480000000,0,177051.1093750000,192273.0468750000,168305.7656250000,169021.2500000000,135701.2343750000,122141.5390625000,134363.8281250000,154444.2500000000,,,
0.0519999999,0,176368.5468750000,211996.4687500000,167407.8125000000,168135.7968750000,134704.3906250000,121230.8750000000,133234.5625000000,156987.1093750000,,,
0.0559999999,0,176550.6406250000,221040.4531250000,167765.0156250000,168480.2812500000,135155.6406250000,121665.6640625000,133744.3281250000,157029.7656250000,,,
0.0599999998,0,177180.5625000000,209799.3906250000,168612.9687500000,169471.3437500000,136134.3593750000,122710.8359375000,134964.4375000000,154681.5468750000,,,
0.0639999998,0,177445.5312500000,191060.1562500000,168959.9843750000,169832.7968750000,136503.8281250000,122957.7656250000,135280.9375000000,152778.7500000000,,,
0.0680000000,0,176970.1875000000,192153.4531250000,168211.2968750000,168984.7187500000,135591.3906250000,122178.4453125000,134292.8125000000,154296.8281250000,,,
0.0719999999,0,176391.1875000000,211887.2968750000,167460.6250000000,168154.5156250000,134757.3125000000,121412.0859375000,133299.0468750000,156973.3281250000,,,
0.0759999999,0,176551.6093750000,221024.1406250000,167817.2343750000,168472.0937500000,135198.4531250000,121645.8671875000,133637.2187500000,156949.8281250000,,,
0.0799999998,0,177133.2968750000,209877.0625000000,168565.0625000000,169437.5312500000,136086.2343750000,122644.5859375000,134837.8281250000,154594.3906250000,,,
0.0839999998,0,177430.9062500000,191096.7187500000,168875.0468750000,169846.0468750000,136437.2031250000,122888.8593750000,135339.7187500000,152800.8281250000,,,
0.0880000000,0,177025.7656250000,192090.6406250000,168247.0312500000,169017.3125000000,135649.9531250000,122088.8046875000,134366.4375000000,154417.6875000000,,,
0.0919999999,0,176427.6406250000,211818.7500000000,167494.0781250000,168171.0937500000,134794.2500000000,121508.3203125000,133414.8125000000,157019.2500000000,,,
0.0959999999,0,176535.6718750000,221038.9375000000,167776.0625000000,168452.8281250000,135159.8593750000,121792.7187500000,133704.5468750000,156983.7812500000,,,
0.0999999999,0,177116.1250000000,209947.1562500000,168593.9218750000,169400.6718750000,136103.1093750000,122617.7656250000,134828.4375000000,154568.2187500000,,,
0.1039999998,0,177408.6562500000,191148.9375000000,168882.4375000000,169844.1562500000,136425.3750000000,123030.5312500000,135202.7656250000,152692.7968750000,,,
0.1079999998,0,177075.5781250000,192025.8125000000,168284.7187500000,169078.6718750000,135701.4531250000,122210.9531250000,134442.7968750000,154469.4062500000,,,
0.1120000000,0,176465.6093750000,211765.9062500000,167543.7812500000,168173.1875000000,134841.7500000000,121369.5156250000,133364.1718750000,157098.6718750000,,,
0.1159999999,0,176471.3281250000,221038.0312500000,167667.3281250000,168421.5937500000,135041.8125000000,121712.6796875000,133654.6562500000,156884.8125000000,,,
0.1199999999,0,177175.0625000000,210068.9218750000,168640.0468750000,169442.5625000000,136171.1562500000,122621.9218750000,134966.0156250000,154676.0156250000,,,
0.1239999998,0,177451.7031250000,191227.3125000000,168944.9062500000,169866.5468750000,136479.4843750000,122943.4921875000,135198.0000000000,152769.5000000000,,,
0.1279999998,1,176934.8437500000,191884.1406250000,168133.2187500000,168977.0156250000,135523.7187500000,122349.4921875000,134261.0000000000,154170.8281250000,,,
0.1319999998,1,176443.4062500000,211653.5156250000,167507.5468750000,168159.5937500000,134809.0781250000,121483.3281250000,133413.1250000000,157045.5000000000,,,
0.1359999997,1,176611.6250000000,221204.4687500000,167841.9375000000,168463.2656250000,135233.8125000000,121571.3515625000,133786.7343750000,157234.4062500000,,,
0.1399999997,1,177103.0468750000,210500.8593750000,168551.9375000000,169411.1875000000,136044.5625000000,122629.1640625000,134728.8593750000,154638.7812500000,,,
0.1439999996,1,177395.6406250000,191378.2343750000,168875.9531250000,169848.0468750000,136424.3593750000,123019.9062500000,135321.8593750000,152630.9843750000,,,
0.1479999996,1,176966.1875000000,191822.4687500000,168176.4375000000,168983.7812500000,135576.0000000000,122295.1796875000,134331.1875000000,154189.4687500000,,,
0.1519999998,1,176449.7812500000,211570.0937500000,167502.0781250000,168142.7656250000,134806.9062500000,121516.1796875000,133356.4531250000,157088.4531250000,,,
0.1559999997,1,176557.0156250000,221209.6875000000,167816.3125000000,168445.5156250000,135204.2500000000,121670.3281250000,133786.8125000000,157072.7500000000,,,
0.1599999997,1,177083.8593750000,210698.6718750000,168513.9375000000,169397.4843750000,136031.0156250000,122655.7421875000,134675.1875000000,154619.6093750000,,,
0.1639999996,1,177445.9375000000,191495.1875000000,168937.2656250000,169858.6562500000,136505.1250000000,123090.4218750000,135279.6250000000,152705.5781250000,,,
0.1679999996,1,177015.0625000000,191763.3750000000,168275.0000000000,169021.4062500000,135672.7812500000,122164.5546875000,134389.9843750000,154237.2343750000,,,
0.1719999998,1,176451.6406250000,211477.8593750000,167549.7031250000,168169.0781250000,134857.2187500000,121488.8203125000,133404.0781250000,157027.6718750000,,,
0.1759999997,1,176511.4218750000,221155.6250000000,167714.2343750000,168433.3906250000,135098.5468750000,121848.7187500000,133693.8906250000,157004.8906250000,,,
0.1799999997,1,177119.7031250000,210675.6406250000,168550.5156250000,169384.1562500000,136075.7812500000,122735.7578125000,134890.8281250000,154717.5625000000,,,
0.1839999997,1,177505.1562500000,191530.6406250000,168999.4218750000,169913.3437500000,136551.4375000000,123176.2031250000,135342.7812500000,152823.6562500000,,,
0.1879999996,1,177020.3437500000,191655.7656250000,168241.5312500000,169036.2187500000,135660.3593750000,122384.4687500000,134393.7656250000,154204.7500000000,,,
0.1919999996,1,176439.0625000000,211346.2187500000,167508.1406250000,168121.1250000000,134821.3593750000,121514.6562500000,133428.2187500000,157026.6562500000,,,
0.1959999998,1,176568.9843750000,221099.7187500000,167801.8125000000,168434.4375000000,135203.9062500000,121670.3281250000,133810.9687500000,157144.2343750000,,,
0.1999999997,1,177141.0156250000,210384.4062500000,168587.4218750000,169432.7812500000,136097.2656250000,122741.2812500000,134844.5156250000,154716.6250000000,,,
0.2039999997,1,177454.0000000000,191381.4062500000,168946.8437500000,169867.7500000000,136495.3750000000,123179.2031250000,135355.5781250000,152743.5625000000,,,
0.2079999996,1,176964.5625000000,191492.3906250000,168204.6562500000,169000.7500000000,135615.3281250000,122298.8203125000,134347.8125000000,154124.3906250000,,,
0.2119999996,1,176443.1875000000,211220.9375000000,167555.3750000000,168146.6562500000,134866.3437500000,121508.4609375000,133461.9843750000,156997.3281250000,,,
0.2159999998,1,176593.5625000000,221072.9531250000,167816.5937500000,168485.0156250000,135208.1562500000,121891.9296875000,133810.3281250000,157168.4375000000,,,
0.2199999997,1,177179.1562500000,210372.3281250000,168636.5625000000,169469.9062500000,136169.5937500000,122703.3828125000,135012.5156250000,154809.4062500000,,,
0.2239999997,1,177419.0312500000,191400.1250000000,168904.6562500000,169885.2187500000,136453.6250000000,123032.4921875000,135386.6093750000,152683.3281250000,,,
0.2279999997,1,176984.8906250000,191428.7812500000,168216.9375000000,169014.5468750000,135603.3593750000,122334.6328125000,134248.8125000000,154161.3593750000,,,
0.2319999996,1,176433.3437500000,211155.8125000000,167506.9062500000,168136.0625000000,134810.8750000000,121584.5000000000,133408.7812500000,156987.0625000000,,,
0.2359999996,1,176506.0312500000,221061.6093750000,167717.8281250000,168412.1718750000,135093.4687500000,121717.7734375000,133700.2500000000,157060.6875000000,,,
0.2399999998,1,177109.9843750000,210508.8906250000,168562.0781250000,169389.2812500000,136082.9375000000,122630.1875000000,134814.5156250000,154722.7343750000,,,
0.2439999997,1,177385.0468750000,191515.1406250000,168867.6093750000,169815.6875000000,136435.5156250000,123094.3125000000,135266.7500000000,152662.0312500000,,,
0.2479999997,1,176967.7187500000,191400.9531250000,168175.1718750000,169010.8125000000,135582.2812500000,122259.1015625000,134263.5625000000,154153.8906250000,,,
0.2519999996,1,176457.2187500000,211066.5156250000,167588.8437500000,168164.2343750000,134906.6250000000,121500.1718750000,133518.0000000000,156965.9531250000,,,
0.2559999996,2,176539.9375000000,221095.3750000000,167763.5000000000,168445.1406250000,135153.7343750000,121814.8203125000,133828.1093750000,157069.0781250000,,,
0.2599999995,2,177133.3281250000,210768.0468750000,168552.7500000000,169401.5000000000,136055.7968750000,122741.8203125000,134778.7656250000,154790.7812500000,,,
0.2639999995,2,177440.7500000000,191684.5781250000,168907.0156250000,169837.5312500000,136446.7343750000,123182.8281250000,135214.1406250000,152745.0156250000,,,
0.2679999995,2,177007.9531250000,191333.3125000000,168220.6093750000,169022.7031250000,135618.8906250000,122372.6093750000,134292.5312500000,154124.8750000000,,,
0.2719999994,2,176418.2656250000,210922.9375000000,167492.0625000000,168119.1718750000,134795.3437500000,121452.1328125000,133374.9843750000,156917.6250000000,,,
0.2759999994,2,176516.2500000000,221048.6250000000,167777.1250000000,168380.5156250000,135165.2968750000,121706.6484375000,133737.0781250000,157038.4531250000,,,
0.2799999996,2,177101.6406250000,210886.1875000000,168541.9375000000,169374.5000000000,136059.8750000000,122635.8671875000,134846.5781250000,154738.9062500000,,,
0.2839999995,2,177436.8906250000,191760.6406250000,168930.7187500000,169861.3437500000,136488.2187500000,123056.4375000000,135333.2343750000,152732.1875000000,,,
0.2879999995,2,176978.0156250000,191225.2812500000,168198.1250000000,169036.4062500000,135590.4375000000,122312.4531250000,134295.3281250000,154063.9843750000,,,
0.2919999994,2,176398.9531250000,210771.4218750000,167479.5468750000,168140.7031250000,134785.6562500000,121433.5703125000,133300.3281250000,156875.7968750000,,,
0.2959999994,2,176492.9375000000,221009.8750000000,167706.7500000000,168402.0000000000,135083.5156250000,121735.5625000000,133681.7968750000,157043.3125000000,,,
0.2999999996,2,177075.0937500000,210937.8750000000,168513.7500000000,169366.2031250000,136017.0937500000,122689.1953125000,134722.8906250000,154745.6406250000,,,
0.3039999995,2,177394.5625000000,191784.4843750000,168905.0312500000,169836.0468750000,136458.4531250000,123107.0000000000,135240.1875000000,152682.0312500000,,,
0.3079999995,2,176961.0156250000,191130.3281250000,168180.0000000000,169038.8906250000,135574.1562500000,122308.9062500000,134226.7656250000,154044.8906250000,,,
0.3119999995,2,176386.8125000000,210659.7343750000,167429.2187500000,168140.0156250000,134745.4531250000,121432.4453125000,133420.0468750000,156864.0312500000,,,
0.3159999994,2,176485.4375000000,221018.4218750000,167724.7500000000,168386.3906250000,135121.1562500000,121655.4687500000,133733.1093750000,157052.9843750000,,,
0.3199999994,2,177085.3906250000,211110.2656250000,168521.2343750000,169364.2031250000,136032.7343750000,122587.8593750000,134702.1406250000,154797.7343750000,,,
0.3239999996,2,177399.2968750000,191909.4062500000,168853.9531250000,169855.4375000000,136381.4687500000,123102.2500000000,135132.7187500000,152708.5625000000,,,
0.3279999995,2,176972.6562500000,191060.2968750000,168162.2968750000,169054.7968750000,135554.4375000000,122314.6250000000,134264.1093750000,154013.0781250000,,,
0.3319999995,2,176408.0312500000,210578.2812500000,167470.5000000000,168137.3593750000,134766.9375000000,121461.3281250000,133315.3593750000,156863.8125000000,,,
0.3359999994,2,176477.6562500000,221008.2656250000,167703.9687500000,168363.9218750000,135080.0625000000,121666.4687500000,133550.5312500000,157048.7968750000,,,
0.3399999994,2,177065.3593750000,211085.1250000000,168493.9531250000,169337.2343750000,135995.6093750000,122567.3437500000,134660.0312500000,154759.1406250000,,,
0.3439999996,2,177397.4687500000,191940.3750000000,168836.8437500000,169832.8593750000,136383.7812500000,123036.7812500000,135184.4531250000,152715.1875000000,,,
0.3479999995,2,176996.9531250000,191002.2812500000,168212.6718750000,169047.0468750000,135616.7500000000,122307.1953125000,134331.4531250000,154015.8906250000,,,
0.3519999995,2,176459.2343750000,210507.5781250000,167542.7656250000,168151.8906250000,134845.3750000000,121466.3437500000,133411.4843750000,156902.1093750000,,,
0.3559999994,2,176522.3906250000,221047.3437500000,167736.9062500000,168385.4531250000,135113.9687500000,121701.5234375000,133650.4687500000,157112.7187500000,,,
0.3599999994,2,177076.5937500000,211152.3281250000,168481.8281250000,169341.5312500000,135986.7812500000,122585.1484375000,134643.5781250000,154788.1250000000,,,
0.3639999994,2,177412.7500000000,191999.0625000000,168877.2187500000,169837.9843750000,136428.2187500000,123023.5859375000,135208.4531250000,152717.3906250000,,,
0.3679999996,2,176998.4687500000,190938.9531250000,168246.0312500000,169059.1406250000,135645.5312500000,122266.4765625000,134321.6875000000,154002.4843750000,,,
0.3719999995,2,176399.3125000000,210420.5625000000,167454.2187500000,168144.0781250000,134751.2812500000,121389.5000000000,133293.0468750000,156875.6406250000,,,
0.3759999995,2,176458.2656250000,221048.0625000000,167655.2812500000,168378.9687500000,135032.2343750000,121618.6953125000,133600.8281250000,157085.3125000000,,,
0.3799999994,2,177040.9531250000,211297.8593750000,168457.2343750000,169369.6093750000,135957.9218750000,122535.0703125000,134633.5000000000,154778.2031250000,,,
0.3839999994,3,177388.9843750000,192082.1093750000,168852.0781250000,169897.9531250000,136394.0000000000,122999.7656250000,135156.3906250000,152693.0312500000,,,
0.3879999993,3,176968.9062500000,190845.5000000000,168189.3281250000,169101.3906250000,135586.2812500000,122220.8515625000,134278.5625000000,153968.1875000000,,,
0.3919999993,3,176391.1562500000,210301.9531250000,167456.9843750000,168173.1406250000,134749.9843750000,121350.1562500000,133301.2812500000,156837.0781250000,,,
0.3959999993,3,176461.2187500000,221046.3437500000,167663.9218750000,168413.7812500000,135034.9531250000,121577.1250000000,133573.3906250000,157072.5625000000,,,
0.3999999992,3,177055.7812500000,211406.7500000000,168475.0625000000,169385.0312500000,135972.2187500000,122505.2500000000,134617.8437500000,154799.3750000000,,,
0.4039999992,3,177392.8750000000,192161.4687500000,168844.7031250000,169881.3593750000,136389.5468750000,122978.7343750000,135143.4375000000,152712.4843750000,,,
0.4079999994,3,176974.6093750000,190782.7656250000,168190.7031250000,169081.2187500000,135591.3906250000,122216.1562500000,134282.1562500000,153962.1250000000,,,
0.4119999993,3,176401.9687500000,210225.8593750000,167466.0000000000,168159.3437500000,134763.4843750000,121354.0156250000,133312.0312500000,156839.2187500000,,,
0.4159999993,3,176462.0156250000,221066.8437500000,167661.7187500000,168369.2343750000,135038.1718750000,121577.5000000000,133575.5312500000,157090.0312500000,,,
0.4199999992,3,177048.6718750000,211520.9062500000,168460.2031250000,169343.6562500000,135962.1875000000,122495.4843750000,134620.2500000000,154821.5781250000,,,
0.4239999992,3,177414.0156250000,192251.9687500000,168873.1562500000,169872.4531250000,136420.5781250000,122979.7812500000,135170.9062500000,152740.1093750000,,,
0.4279999994,3,177007.3125000000,190735.6718750000,168229.4843750000,169083.6406250000,135635.6562500000,122219.5390625000,134319.1406250000,153984.1875000000,,,
0.4319999993,3,176421.5468750000,210146.7656250000,167488.7343750000,168139.9531250000,134790.2187500000,121342.8281250000,133331.6562500000,156856.8906250000,,,
0.4359999993,3,176481.3906250000,221070.0781250000,167682.5781250000,168358.3750000000,135059.7812500000,121562.4531250000,133587.4062500000,157119.0468750000,,,
0.4399999992,3,177067.1250000000,211619.2343750000,168482.1250000000,169329.8906250000,135985.2187500000,122477.1640625000,134635.4843750000,154859.8750000000,,,
0.4439999992,3,177435.7656250000,192343.2187500000,168903.2343750000,169867.0625000000,136451.6562500000,122966.3203125000,135200.3125000000,152771.8125000000,,,
0.4479999992,3,177036.1406250000,190678.1875000000,168267.6875000000,169107.1250000000,135673.0156250000,122208.8906250000,134351.7031250000,153994.8750000000,,,
0.4519999993,3,176450.9687500000,210053.2656250000,167526.3125000000,168176.0781250000,134822.8906250000,121318.7734375000,133356.5781250000,156862.3906250000,,,
0.4559999993,3,176503.1875000000,221085.9687500000,167713.1093750000,168385.9375000000,135084.7500000000,121525.3515625000,133612.8437500000,157132.4843750000,,,
0.4599999993,3,177080.4218750000,211741.0156250000,168498.7343750000,169356.9218750000,135993.5937500000,122429.6093750000,134648.6250000000,154875.2968750000,,,
0.4639999992,3,177436.0156250000,192439.3281250000,168906.1250000000,169885.4531250000,136444.8281250000,122904.6562500000,135200.0625000000,152762.7968750000,,,
0.4679999992,3,177034.1093750000,190622.9375000000,168269.9375000000,169112.0625000000,135668.8593750000,122147.1718750000,134359.9375000000,153959.1875000000,,,
0.4719999994,3,176441.5312500000,209957.7656250000,167517.7031250000,168169.3593750000,134812.9687500000,121255.3671875000,133356.3125000000,156827.4218750000,,,
0.4759999993,3,176482.3750000000,221078.2656250000,167690.3437500000,168372.1875000000,135062.1406250000,121456.9609375000,133596.3906250000,157113.0625000000,,,
0.4799999993,3,177054.5000000000,211872.3125000000,168474.7812500000,169343.9375000000,135967.7187500000,122358.4218750000,134625.1875000000,154874.5468750000,,,
0.4839999992,3,177411.1406250000,192552.1875000000,168884.6718750000,169889.1875000000,136421.8125000000,122840.5234375000,135177.1250000000,152756.8125000000,,,
0.4879999992,3,177011.5468750000,190577.6562500000,168252.1562500000,169122.0937500000,135653.6250000000,122089.5546875000,134348.0625000000,153940.6875000000,,,
0.4919999992,3,176422.0312500000,209872.7656250000,167502.6093750000,168165.4062500000,134796.9531250000,121193.5156250000,133353.7656250000,156817.7343750000,,,
0.4959999993,3,176462.2656250000,221091.6562500000,167674.4531250000,168359.9687500000,135041.9687500000,121391.1406250000,133586.3906250000,157112.6718750000,,,
0.4999999993,3,177041.1093750000,211957.7343750000,168462.5781250000,169340.7031250000,135953.6250000000,122294.3437500000,134619.1250000000,154880.2187500000,,,
0.5039999993,3,177404.7031250000,192639.8437500000,168878.2656250000,169891.1093750000,136415.6875000000,122779.4218750000,135184.2656250000,152760.4375000000,,,
0.5079999992,3,177002.2187500000,190521.8125000000,168242.1406250000,169131.2656250000,135642.2031250000,122033.8984375000,134348.4062500000,153919.9062500000,,,
0.5119999992,4,176396.8750000000,209794.6718750000,167475.2187500000,168148.7187500000,134769.2500000000,121125.8125000000,133330.7812500000,156789.4843750000,,,
0.5159999991,4,176431.2500000000,221124.0000000000,167642.3750000000,168323.7656250000,135011.7187500000,121308.5781250000,133563.2656250000,157097.4843750000,,,
0.5199999991,4,177007.2031250000,212085.3593750000,168428.9062500000,169295.9062500000,135921.5312500000,122210.1796875000,134599.1406250000,154872.0312500000,,,
0.5239999990,4,177378.8593750000,192734.3437500000,168856.8593750000,169846.0468750000,136396.0937500000,122703.2734375000,135179.1406250000,152747.8281250000,,,
0.5279999990,4,176987.5156250000,190477.0468750000,168232.4375000000,169089.2656250000,135636.8593750000,121965.1328125000,134356.7500000000,153894.8281250000,,,
0.5319999990,4,176390.9375000000,209696.0937500000,167472.7500000000,168144.8437500000,134771.0781250000,121062.4296875000,133341.3125000000,156762.9062500000,,,
0.5359999991,4,176443.8906250000,221106.1562500000,167657.2656250000,168336.3750000000,135029.5625000000,121261.8046875000,133584.1875000000,157100.8593750000,,,
0.5399999991,4,177016.2500000000,212191.8437500000,168440.7187500000,169298.5625000000,135934.7187500000,122159.2656250000,134618.9687500000,154902.2343750000,,,
0.5439999991,4,177375.8281250000,192821.8593750000,168855.5156250000,169845.2031250000,136398.1562500000,122642.4453125000,135182.7031250000,152770.3125000000,,,
0.5479999990,4,176996.2812500000,190420.3125000000,168243.4687500000,169110.5625000000,135651.2031250000,121905.8828125000,134372.2031250000,153896.2968750000,,,
0.5519999990,4,176409.6562500000,209594.5781250000,167489.9687500000,168164.2812500000,134790.1093750000,121006.2421875000,133366.3750000000,156771.0937500000,,,
0.5559999992,4,176452.0468750000,221102.9218750000,167660.1093750000,168345.5937500000,135031.4531250000,121200.8359375000,133591.4843750000,157124.0156250000,,,
0.5599999991,4,177028.3437500000,212316.0000000000,168447.6562500000,169302.1875000000,135941.2968750000,122094.9218750000,134616.2031250000,154947.7968750000,,,
0.5639999991,4,177396.5781250000,192956.0468750000,168874.7968750000,169867.0000000000,136417.8437500000,122593.2265625000,135213.1250000000,152818.5312500000,,,
0.5679999990,4,177016.1875000000,190395.6718750000,168269.0156250000,169130.7343750000,135675.1406250000,121862.6718750000,134406.8750000000,153921.6406250000,,,
0.5719999990,4,176422.2343750000,209517.0625000000,167508.4218750000,168168.9531250000,134805.0468750000,120943.0234375000,133377.9375000000,156781.6875000000,,,
0.5759999990,4,176446.2812500000,221096.4531250000,167653.7812500000,168339.4375000000,135024.0000000000,121107.2812500000,133584.0625000000,157128.4687500000,,,
0.5799999991,4,177016.0312500000,212404.6250000000,168433.3125000000,169299.6406250000,135925.7812500000,122003.0859375000,134613.3281250000,154955.8281250000,,,
0.5839999991,4,177387.2968750000,193061.1093750000,168863.4218750000,169852.1093750000,136404.1406250000,122511.6328125000,135204.7343750000,152824.8125000000,,,
0.5879999991,4,177008.8750000000,190364.6406250000,168256.6875000000,169116.8750000000,135665.1250000000,121794.9453125000,134406.8281250000,153904.6406250000,,,
0.5919999990,4,176417.9843750000,209423.7968750000,167501.5937500000,168155.2500000000,134800.6875000000,120882.5937500000,133393.8906250000,156757.1875000000,,,
0.5959999990,4,176437.0937500000,221081.3750000000,167646.7812500000,168326.1250000000,135019.5312500000,121057.3359375000,133592.7812500000,157116.0781250000,,,
0.5999999992,4,177004.2500000000,212480.4218750000,168427.7031250000,169290.1406250000,135921.2031250000,121960.1718750000,134610.1406250000,154956.1406250000,,,
0.6039999991,4,177391.4062500000,193134.6093750000,168881.9375000000,169869.5781250000,136423.2031250000,122484.7578125000,135221.5156250000,152829.0937500000,,,
0.6079999991,4,177017.5312500000,190278.9062500000,168282.5625000000,169143.4218750000,135689.7031250000,121769.3828125000,134435.3437500000,153882.4062500000,,,
0.6119999990,4,176417.1718750000,209282.3593750000,167510.3906250000,168168.7031250000,134807.3281250000,120850.2734375000,133405.7656250000,156735.3906250000,,,
0.6159999990,4,176435.2187500000,221041.9687500000,167654.0468750000,168318.9062500000,135024.3281250000,121009.3281250000,133592.6093750000,157116.0156250000,,,
0.6199999989,4,177011.8437500000,212533.2500000000,168445.5156250000,169287.0000000000,135940.0312500000,121916.7421875000,134615.9062500000,154968.2187500000,,,
0.6239999991,4,177405.4375000000,193176.5000000000,168900.2343750000,169871.7968750000,136442.0625000000,122444.7890625000,135239.9218750000,152834.3281250000,,,
0.6279999991,4,177032.9062500000,190188.2187500000,168301.5000000000,169161.1250000000,135709.2812500000,121735.1875000000,134453.5468750000,153877.7031250000,,,
0.6319999991,4,176420.2500000000,209149.1406250000,167515.2187500000,168179.8593750000,134815.0312500000,120805.8828125000,133411.3281250000,156736.0000000000,,,
0.6359999990,4,176428.5468750000,221004.2968750000,167647.7656250000,168317.0312500000,135022.0937500000,120958.5468750000,133600.7968750000,157124.4218750000,,,
0.6399999990,5,177003.2656250000,212643.2343750000,168431.9687500000,169267.9062500000,135928.9843750000,121857.9765625000,134629.9375000000,154989.3437500000,,,
0.6439999989,5,177409.8593750000,193246.1875000000,168905.8593750000,169861.7187500000,136452.8125000000,122403.7265625000,135251.7812500000,152844.3906250000,,,
0.6479999989,5,177052.2187500000,190114.4375000000,168320.3281250000,169155.4687500000,135734.2812500000,121712.6250000000,134469.9062500000,153874.3906250000,,,
0.6519999988,5,176464.7343750000,209058.0000000000,167552.7968750000,168197.1093750000,134855.6093750000,120815.6406250000,133437.1875000000,156762.0781250000,,,
0.6559999988,5,176459.9531250000,221010.7812500000,167672.0937500000,168326.0000000000,135048.9218750000,120956.7265625000,133611.1562500000,157169.8593750000,,,
0.6599999988,5,177016.5156250000,212806.8437500000,168447.0625000000,169264.7968750000,135944.9062500000,121843.9765625000,134626.6875000000,155036.6093750000,,,
0.6639999989,5,177407.7968750000,193354.8437500000,168903.8437500000,169865.0156250000,136454.6875000000,122387.7656250000,135258.6093750000,152864.6875000000,,,
0.6679999989,5,177033.9531250000,190031.5781250000,168303.2500000000,169155.8125000000,135722.9531250000,121684.5468750000,134481.9062500000,153843.4531250000,,,
0.6719999989,5,176429.5156250000,208927.2343750000,167520.6250000000,168170.7187500000,134826.5312500000,120756.8984375000,133434.2812500000,156723.9375000000,,,
0.6759999988,5,176439.8593750000,220990.1250000000,167656.1718750000,168311.1875000000,135029.7500000000,120907.5312500000,133615.2187500000,157160.3281250000,,,
0.6799999988,5,177027.7187500000,212872.0156250000,168460.9062500000,169275.9218750000,135951.8593750000,121842.5546875000,134652.0937500000,155054.1718750000,,,
0.6839999990,5,177421.5312500000,193426.6718750000,168918.4687500000,169888.7812500000,136464.7500000000,122371.9921875000,135269.4218750000,152861.3125000000,,,
0.6879999989,5,177041.1406250000,189967.7500000000,168308.6718750000,169168.6875000000,135729.2031250000,121669.3359375000,134466.5625000000,153825.2656250000,,,
0.6919999989,5,176421.2031250000,208813.5468750000,167515.8281250000,168163.9531250000,134821.4375000000,120738.7968750000,133410.0312500000,156705.0781250000,,,
0.6959999988,5,176417.0312500000,220957.7343750000,167627.5781250000,168301.2343750000,134998.7656250000,120867.5468750000,133581.2500000000,157159.6093750000,,,
0.6999999988,5,176982.0781250000,212850.9062500000,168407.2031250000,169251.8125000000,135900.1250000000,121776.9765625000,134610.7812500000,155029.0156250000,,,
0.7039999987,5,177387.8593750000,193439.8437500000,168882.8750000000,169856.5937500000,136429.9375000000,122335.0078125000,135241.6406250000,152856.6406250000,,,
0.7079999989,5,177041.4843750000,189880.8125000000,168314.0781250000,169174.0468750000,135732.0312500000,121640.8515625000,134487.3437500000,153825.8281250000,,,
0.7119999989,5,176443.1875000000,208689.9218750000,167538.2500000000,168190.8906250000,134841.3437500000,120705.6171875000,133442.5937500000,156727.2031250000,,,
0.7159999989,5,176444.5312500000,220935.0625000000,167666.7343750000,168321.4843750000,135036.2812500000,120865.2890625000,133615.5781250000,157192.5156250000,,,
0.7199999988,5,176992.8593750000,212934.9218750000,168428.1250000000,169249.5000000000,135923.1093750000,121776.5468750000,134622.7656250000,155056.2656250000,,,
0.7239999988,5,177384.8593750000,193514.9687500000,168888.2343750000,169851.6562500000,136439.7812500000,122349.8125000000,135244.2343750000,152837.0156250000,,,
0.7279999990,5,177026.8593750000,189787.2656250000,168307.8593750000,169165.1562500000,135729.5781250000,121640.1562500000,134487.5937500000,153775.7031250000,,,
0.7319999989,5,176408.9062500000,208551.2500000000,167510.6562500000,168170.8750000000,134812.7812500000,120694.4843750000,133428.8593750000,156672.6250000000,,,
0.7359999989,5,176397.3437500000,220901.7031250000,167618.1093750000,168288.6250000000,134987.7187500000,120828.5937500000,133575.8437500000,157158.0468750000,,,
0.7399999988,5,176975.0468750000,213011.2187500000,168406.1718750000,169247.3125000000,135898.3281250000,121743.2343750000,134607.7812500000,155056.2500000000,,,
0.7439999988,5,177400.3437500000,193587.6093750000,168901.7500000000,169875.7968750000,136449.0000000000,122318.5625000000,135272.7031250000,152853.5625000000,,,
0.7479999987,5,177050.4375000000,189739.1718750000,168331.7812500000,169179.3906250000,135753.0312500000,121650.0234375000,134517.3906250000,153780.7968750000,,,
0.7519999989,5,176431.6875000000,208458.8125000000,167530.1562500000,168178.6875000000,134836.4843750000,120712.4843750000,133443.1562500000,156688.5781250000,,,
0.7559999989,5,176419.4531250000,220894.6718750000,167632.4218750000,168290.2343750000,135007.3437500000,120841.9531250000,133589.8750000000,157195.7031250000,,,
0.7599999988,5,176990.9218750000,213145.3437500000,168414.7968750000,169240.9218750000,135912.6718750000,121751.2812500000,134620.2968750000,155098.4687500000,,,
0.7639999988,5,177397.4687500000,193674.7187500000,168898.9375000000,169867.4843750000,136452.5468750000,122315.6953125000,135269.5000000000,152851.4218750000,,,
0.7679999988,6,177040.5156250000,189686.4843750000,168322.6875000000,169175.3750000000,135749.9687500000,121645.7890625000,134516.9531250000,153750.2968750000,,,
0.7719999987,6,176415.6406250000,208374.9218750000,167514.1093750000,168160.8281250000,134820.7656250000,120692.7734375000,133439.6562500000,156660.6875000000,,,
0.7759999987,6,176398.0156250000,220897.4062500000,167613.2968750000,168269.4843750000,134984.5781250000,120810.1406250000,133575.9843750000,157180.2656250000,,,
0.7799999986,6,176975.7656250000,213326.0156250000,168406.4375000000,169215.3125000000,135898.4375000000,121716.6250000000,134606.0937500000,155118.0156250000,,,
0.7839999986,6,177406.7187500000,193831.2812500000,168913.1093750000,169850.7968750000,136463.0312500000,122328.3515625000,135285.7031250000,152869.8906250000,,,
0.7879999985,6,177054.5781250000,189653.0937500000,168337.7187500000,169167.3281250000,135762.0156250000,121668.4218750000,134533.8593750000,153747.5156250000,,,
0.7919999987,6,176423.3437500000,208266.6718750000,167520.9531250000,168148.5625000000,134825.2812500000,120709.1562500000,133441.6875000000,156661.7343750000,,,
0.7959999987,6,176399.0468750000,220866.5625000000,167616.2031250000,168252.4687500000,134986.8593750000,120814.3828125000,133573.1093750000,157199.4687500000,,,
0.7999999986,6,176967.8593750000,213336.3906250000,168404.4687500000,169206.6718750000,135898.2968750000,121721.3203125000,134603.1093750000,155128.6875000000,,,
0.8039999986,6,177389.4687500000,193863.3906250000,168904.1093750000,169846.6250000000,136457.7500000000,122310.6015625000,135276.8593750000,152874.6718750000,,,
0.8079999986,6,177050.0625000000,189577.1718750000,168345.2812500000,169183.5781250000,135775.0000000000,121656.5156250000,134544.9843750000,153746.3593750000,,,
0.8119999988,6,176426.2968750000,208147.5468750000,167531.4687500000,168168.7343750000,134840.1093750000,120703.5546875000,133459.3437500000,156666.9687500000,,,
0.8159999987,6,176400.0625000000,220843.8125000000,167614.4531250000,168276.6718750000,134985.6406250000,120812.2890625000,133571.4218750000,157218.5937500000,,,
0.8199999987,6,176966.9375000000,213365.2500000000,168393.5781250000,169224.8281250000,135886.0312500000,121711.4453125000,134590.9375000000,155143.3125000000,,,
0.8239999986,6,177393.0625000000,193933.7656250000,168895.0781250000,169845.8593750000,136447.5000000000,122308.6953125000,135269.2031250000,152894.7031250000,,,
0.8279999986,6,177058.2812500000,189537.8906250000,168345.4687500000,169185.8750000000,135776.0937500000,121669.1718750000,134548.0156250000,153751.0312500000,,,
0.8319999985,6,176428.0156250000,208058.3437500000,167531.2812500000,168174.3750000000,134842.0625000000,120711.2265625000,133469.1562500000,156665.3750000000,,,
0.8359999987,6,176400.1093750000,220832.5156250000,167615.9062500000,168272.1562500000,134992.0000000000,120791.1796875000,133589.8593750000,157227.6562500000,,,
0.8399999987,6,176962.2812500000,213422.4062500000,168392.1562500000,169217.4843750000,135890.4843750000,121684.4140625000,134599.1093750000,155160.2656250000,,,
0.8439999986,6,177385.1875000000,193999.7500000000,168895.0000000000,169857.4218750000,136452.6562500000,122302.6875000000,135269.4843750000,152894.9531250000,,,
0.8479999986,6,177056.3125000000,189482.7968750000,168350.5937500000,169196.6718750000,135785.6718750000,121655.1484375000,134547.1875000000,153729.7812500000,,,
0.8519999986,6,176434.0937500000,207953.0156250000,167535.8437500000,168179.9687500000,134849.2343750000,120694.3515625000,133464.4843750000,156654.5468750000,,,
0.8559999987,6,176414.6718750000,220834.3750000000,167625.6718750000,168275.5625000000,135003.5312500000,120803.5156250000,133604.2500000000,157255.6875000000,,,
0.8599999987,6,176976.5781250000,213561.0312500000,168401.0937500000,169228.4531250000,135898.9062500000,121694.2031250000,134613.5937500000,155192.4687500000,,,
0.8639999987,6,177388.7500000000,194105.0781250000,168892.2343750000,169849.4062500000,136448.0625000000,122283.1328125000,135275.1718750000,152886.5312500000,,,
0.8679999986,6,177064.6250000000,189434.4375000000,168352.6562500000,169197.8125000000,135783.4687500000,121632.2421875000,134564.6406250000,153704.9218750000,,,
0.8719999986,6,176445.9531250000,207851.6406250000,167544.9062500000,168177.4218750000,134851.4375000000,120692.5546875000,133482.6406250000,156636.4218750000,,,
0.8759999985,6,176415.3437500000,220806.6718750000,167631.0000000000,168267.0312500000,135001.5468750000,120796.1953125000,133597.8125000000,157233.0937500000,,,
0.8799999987,6,176973.7812500000,213672.0937500000,168404.0781250000,169216.8593750000,135896.9062500000,121669.4687500000,134609.7343750000,155185.2343750000,,,
0.8839999987,6,177407.6093750000,194209.7500000000,168915.2968750000,169871.6718750000,136470.4843750000,122286.9921875000,135298.7343750000,152908.0312500000,,,
0.8879999986,6,177076.4062500000,189372.8906250000,168368.0781250000,169222.5468750000,135803.6875000000,121656.1406250000,134586.6718750000,153691.9062500000,,,
0.8919999986,6,176442.2812500000,207733.1250000000,167541.6875000000,168175.2031250000,134853.9843750000,120682.0390625000,133472.6093750000,156622.6875000000,,,
0.8959999986,7,176398.3906250000,220780.1093750000,167613.7656250000,168245.9531250000,134989.2656250000,120767.7656250000,133560.2343750000,157235.7812500000,,,
0.8999999985,7,176941.3906250000,213699.2187500000,168363.7031250000,169183.2812500000,135861.1406250000,121650.3203125000,134571.9375000000,155168.7031250000,,,
0.9039999985,7,177368.9843750000,194251.0468750000,168872.6562500000,169840.7500000000,136429.5937500000,122246.2812500000,135272.9687500000,152870.6718750000,,,
0.9079999984,7,177056.8593750000,189290.7343750000,168352.8750000000,169208.5937500000,135786.4218750000,121640.0468750000,134584.1718750000,153649.0468750000,,,
0.9119999984,7,176432.0781250000,207591.5312500000,167536.9062500000,168186.8906250000,134842.5312500000,120676.5937500000,133478.0625000000,156595.1875000000,,,
0.9159999983,7,176392.9843750000,220735.4531250000,167605.8750000000,168247.0312500000,134974.6718750000,120750.8906250000,133575.2031250000,157247.6875000000,,,
0.9199999985,7,176951.4218750000,213796.5000000000,168379.7500000000,169180.2500000000,135873.2968750000,121638.7890625000,134595.2031250000,155221.0937500000,,,
0.9239999985,7,177380.6562500000,194368.2656250000,168894.9218750000,169841.0156250000,136450.4531250000,122264.7031250000,135288.1718750000,152895.9687500000,,,
0.9279999984,7,177057.0468750000,189261.6250000000,168360.7500000000,169211.5781250000,135798.2500000000,121646.1875000000,134590.6406250000,153630.9531250000,,,
0.9319999984,7,176439.0312500000,207467.9531250000,167548.8750000000,168188.4687500000,134862.2656250000,120685.1015625000,133509.5468750000,156583.1250000000,,,
0.9359999984,7,176390.3750000000,220700.0156250000,167607.2187500000,168242.1250000000,134980.8750000000,120748.0781250000,133594.6562500000,157250.6406250000,,,
0.9399999985,7,176938.5468750000,213887.7187500000,168367.3593750000,169164.0468750000,135861.9062500000,121630.2812500000,134585.1718750000,155232.1250000000,,,
0.9439999985,7,177382.7968750000,194475.1250000000,168895.3125000000,169845.8906250000,136449.7812500000,122257.7343750000,135294.5000000000,152922.1406250000,,,
0.9479999985,7,177072.7343750000,189211.2500000000,168379.0000000000,169228.9843750000,135811.1250000000,121660.2734375000,134615.0000000000,153632.0156250000,,,
0.9519999984,7,176432.1093750000,207353.0468750000,167540.9687500000,168181.0468750000,134845.6093750000,120671.9531250000,133495.2031250000,156568.7656250000,,,
0.9559999984,7,176380.9062500000,220675.7968750000,167597.4843750000,168235.5468750000,134963.2500000000,120733.1406250000,133575.7656250000,157248.7031250000,,,
0.9599999983,7,176938.7343750000,213996.1875000000,168368.1875000000,169164.9687500000,135854.4218750000,121614.0312500000,134580.5312500000,155246.7031250000,,,
0.9639999985,7,177388.2187500000,194603.3593750000,168902.1093750000,169847.2031250000,136451.1875000000,122236.5468750000,135289.9687500000,152927.4218750000,,,
0.9679999985,7,177087.5937500000,189182.8750000000,168392.0625000000,169238.4531250000,135826.5781250000,121640.3437500000,134621.5937500000,153625.4218750000,,,
0.9719999984,7,176456.8906250000,207232.5625000000,167563.2031250000,168200.2031250000,134871.2500000000,120686.3906250000,133519.2500000000,156562.0937500000,,,
0.9759999984,7,176403.3125000000,220640.7656250000,167614.6406250000,168252.0156250000,134983.2343750000,120768.8671875000,133599.9687500000,157264.4062500000,,,
0.9799999984,7,176948.2812500000,214105.2187500000,168372.0156250000,169164.1562500000,135861.7031250000,121632.6718750000,134594.9531250000,155283.1406250000,,,
0.9839999985,7,177395.3281250000,194720.1875000000,168910.2343750000,169848.1718750000,136461.6406250000,122251.8046875000,135309.7968750000,152949.5625000000,,,
0.9879999985,7,177092.4531250000,189126.8750000000,168405.0937500000,169245.1093750000,135839.2656250000,121656.2734375000,134645.4687500000,153607.8593750000,,,
0.9919999985,7,176464.3593750000,207108.8437500000,167574.0625000000,168199.2031250000,134880.6093750000,120683.2734375000,133532.9687500000,156551.6093750000,,,
0.9959999984,7,176406.8437500000,220613.7343750000,167618.4062500000,168245.3437500000,134985.6250000000,120741.9609375000,133599.6718750000,157276.6250000000,,,
0.9999999984,7,176958.9843750000,214170.1250000000,168382.2343750000,169173.8906250000,135871.5468750000,121625.5625000000,134602.9531250000,155300.9218750000,,,
1.0039999983,7,177404.3906250000,194816.8593750000,168916.4062500000,169853.4062500000,136471.5937500000,122259.5312500000,135322.0468750000,152962.7812500000,,,
1.0079999985,7,177103.9218750000,189105.7656250000,168413.3281250000,169254.6875000000,135853.5312500000,121666.3828125000,134664.5000000000,153609.5468750000,,,
1.0119999985,7,176467.1718750000,207013.0000000000,167575.0625000000,168212.3281250000,134885.4375000000,120690.1953125000,133542.8593750000,156545.0312500000,,,
1.0159999984,7,176404.1562500000,220601.7500000000,167613.8593750000,168254.6718750000,134983.1250000000,120737.2109375000,133600.7187500000,157287.2500000000,,,
1.0199999984,7,176943.9843750000,214278.4375000000,168363.7343750000,169154.8437500000,135855.4843750000,121603.1406250000,134586.1562500000,155319.5781250000,,,
1.0239999983,8,177404.2187500000,194920.6875000000,168916.1250000000,169856.8437500000,136472.9062500000,122250.5703125000,135324.2500000000,152980.7031250000,,,
1.0279999983,8,177105.1093750000,189062.6875000000,168415.6562500000,169266.3281250000,135856.7968750000,121683.7656250000,134670.5937500000,153602.0781250000,,,
1.0319999983,8,176459.5312500000,206900.9687500000,167567.5156250000,168224.2031250000,134875.7031250000,120681.3203125000,133537.5156250000,156528.3281250000,,,
1.0359999982,8,176385.2500000000,220573.2343750000,167594.3437500000,168232.7812500000,134959.2812500000,120728.3671875000,133584.3750000000,157281.7812500000,,,
1.0399999982,8,176912.5781250000,214357.8281250000,168332.2187500000,169127.4687500000,135819.5156250000,121593.1875000000,134563.0156250000,155311.3750000000,,,
1.0439999981,8,177364.8281250000,194996.5156250000,168876.4062500000,169817.4687500000,136430.6093750000,122227.7734375000,135300.5156250000,152950.2031250000,,,
1.0479999983,8,177091.6406250000,188991.6406250000,168403.4843750000,169252.9375000000,135844.2187500000,121670.4375000000,134675.0156250000,153566.3906250000,,,
1.0519999983,8,176467.2031250000,206772.4062500000,167573.5000000000,168210.7187500000,134883.0468750000,120683.2500000000,133555.0156250000,156511.5625000000,,,
1.0559999982,8,176407.1406250000,220552.7343750000,167613.5937500000,168238.3593750000,134980.5312500000,120725.9765625000,133605.3593750000,157299.2187500000,,,
1.0599999982,8,176942.6250000000,214420.4531250000,168364.2343750000,169152.3593750000,135851.8593750000,121597.9921875000,134588.8906250000,155345.7343750000,,,
1.0639999982,8,177388.1875000000,195079.0937500000,168904.1718750000,169847.6875000000,136455.2500000000,122229.7578125000,135311.9843750000,152968.5000000000,,,
1.0679999983,8,177106.5000000000,188936.2187500000,168422.2500000000,169271.2812500000,135860.4531250000,121674.5937500000,134679.8437500000,153555.0156250000,,,
1.0719999983,8,176465.2187500000,206650.0468750000,167576.7656250000,168213.9375000000,134885.3281250000,120685.5546875000,133553.4062500000,156499.2812500000,,,
1.0759999983,8,176386.7343750000,220517.4687500000,167597.7656250000,168223.4218750000,134964.7812500000,120711.9218750000,133588.9062500000,157296.7812500000,,,
1.0799999982,8,176928.4843750000,214510.2656250000,168349.1093750000,169145.7031250000,135837.2500000000,121591.0937500000,134575.4062500000,155362.2031250000,,,
1.0839999982,8,177393.3281250000,195176.4843750000,168901.7031250000,169854.0937500000,136454.7968750000,122236.1406250000,135320.6250000000,152994.7031250000,,,
1.0879999981,8,177124.0937500000,188907.6093750000,168428.6093750000,169291.5937500000,135866.7031250000,121687.9765625000,134698.9531250000,153570.7343750000,,,
1.0919999983,8,176482.4843750000,206566.9531250000,167580.2812500000,168239.3593750000,134886.2968750000,120687.2187500000,133565.6875000000,156503.4062500000,,,
1.0959999983,8,176384.1875000000,220532.8437500000,167579.2187500000,168221.6875000000,134946.5468750000,120695.2890625000,133579.3437500000,157302.1718750000,,,
1.0999999982,8,176919.7656250000,214621.9687500000,168330.6093750000,169125.2968750000,135822.1406250000,121558.7500000000,134563.3593750000,155365.3125000000,,,
1.1039999982,8,177391.0625000000,195271.1250000000,168902.3750000000,169844.4531250000,136462.5312500000,122222.8671875000,135320.5468750000,152987.8593750000,,,
1.1079999981,8,177116.9062500000,188851.9218750000,168434.6250000000,169288.9062500000,135882.9218750000,121674.7265625000,134703.4531250000,153538.4843750000,,,
1.1119999983,8,176476.3437500000,206458.9375000000,167585.5468750000,168237.7187500000,134900.5937500000,120680.2734375000,133565.0625000000,156492.1875000000,,,
1.1159999983,8,176393.2500000000,220518.3281250000,167599.8437500000,168221.7656250000,134968.6718750000,120697.3281250000,133588.8906250000,157327.6406250000,,,
1.1199999982,8,176918.0781250000,214738.3281250000,168339.5625000000,169122.1250000000,135826.0937500000,121537.7734375000,134562.0937500000,155386.4843750000,,,
1.1239999982,8,177384.1875000000,195388.2031250000,168902.6718750000,169834.1250000000,136454.9687500000,122207.7343750000,135313.6875000000,152987.8906250000,,,
1.1279999982,8,177126.4531250000,188813.1406250000,168445.9375000000,169299.9062500000,135884.8281250000,121678.6718750000,134705.7812500000,153532.9062500000,,,
1.1319999981,8,176485.4687500000,206346.7656250000,167590.5000000000,168247.7187500000,134895.3125000000,120675.9296875000,133563.2500000000,156501.0937500000,,,
1.1359999983,8,176376.3281250000,220486.9218750000,167581.1718750000,168224.0937500000,134940.9843750000,120668.5234375000,133564.8593750000,157315.9062500000,,,
1.1399999983,8,176899.8437500000,214805.2500000000,168317.2812500000,169104.9375000000,135797.7968750000,121523.8828125000,134536.7031250000,155391.0156250000,,,
1.1439999982,8,177375.7343750000,195467.5156250000,168891.6406250000,169819.4531250000,136441.5468750000,122205.8281250000,135304.2187500000,152992.3906250000,,,
1.1479999982,8,177121.8906250000,188750.8906250000,168438.6406250000,169277.8281250000,135880.0781250000,121676.0937500000,134703.9843750000,153512.4531250000,,,
1.1519999981,9,176482.5312500000,206219.2343750000,167579.0468750000,168216.2656250000,134888.7343750000,120667.6093750000,133557.3437500000,156468.8593750000,,,
1.1559999981,9,176387.6718750000,220455.8593750000,167577.9218750000,168201.7812500000,134945.0937500000,120673.1640625000,133566.2031250000,157331.5625000000,,,
1.1599999981,9,176925.5781250000,214915.2187500000,168332.7500000000,169114.0468750000,135819.3281250000,121543.7578125000,134552.3125000000,155435.2656250000,,,
1.1639999980,9,177399.2343750000,195589.3437500000,168911.3125000000,169844.2812500000,136465.3437500000,122222.5703125000,135321.1875000000,153022.7500000000,,,
1.1679999980,9,177126.4218750000,188712.4687500000,168449.7968750000,169307.5937500000,135893.3593750000,121677.4609375000,134716.1718750000,153495.8437500000,,,
1.1719999979,9,176476.4531250000,206110.5156250000,167587.9062500000,168230.6875000000,134897.0312500000,120662.6484375000,133568.8750000000,156451.9843750000,,,
1.1759999981,9,176374.9218750000,220439.9218750000,167579.9843750000,168208.6250000000,134943.9375000000,120658.0625000000,133567.0312500000,157335.5625000000,,,
1.1799999981,9,176904.2812500000,215000.5937500000,168326.2656250000,169105.8125000000,135807.4687500000,121525.1640625000,134545.3437500000,155432.7500000000,,,
1.1839999980,9,177391.2500000000,195680.0156250000,168916.5312500000,169850.1250000000,136464.5937500000,122200.7656250000,135325.3750000000,153019.7187500000,,,
1.1879999980,9,177141.5312500000,188671.6718750000,168473.0625000000,169327.7656250000,135914.0625000000,121686.3671875000,134743.3125000000,153496.8281250000,,,
1.1919999979,9,176488.4062500000,205989.7343750000,167601.6093750000,168225.4687500000,134912.1250000000,120685.9609375000,133586.8437500000,156454.7187500000,,,
1.1959999981,9,176385.5156250000,220404.5781250000,167589.2500000000,168197.2187500000,134954.7500000000,120667.3984375000,133577.0000000000,157352.0625000000,,,
1.1999999981,9,176900.0312500000,215068.0000000000,168315.8750000000,169083.7187500000,135801.7031250000,121509.3125000000,134535.4375000000,155455.3593750000,,,
1.2039999980,9,177383.9531250000,195771.2187500000,168899.4218750000,169827.5937500000,136455.8750000000,122199.6328125000,135319.2343750000,153035.8906250000,,,
1.2079999980,9,177131.4218750000,188630.0156250000,168453.1562500000,169294.7812500000,135903.4687500000,121688.7265625000,134739.6562500000,153483.1093750000,,,
1.2119999980,9,176484.2343750000,205873.2031250000,167587.7343750000,168211.9218750000,134901.2187500000,120671.6875000000,133583.3125000000,156432.6406250000,,,
1.2159999979,9,176381.8750000000,220381.5625000000,167575.1406250000,168185.1718750000,134937.4687500000,120659.9375000000,133568.7968750000,157348.6562500000,,,
1.2199999981,9,176915.6562500000,215357.2812500000,168321.4843750000,169086.5000000000,135797.5468750000,121506.9296875000,134538.2500000000,155515.7812500000,,,
1.2239999981,9,177402.1562500000,196050.0312500000,168916.5312500000,169835.8125000000,136463.9218750000,122206.5312500000,135332.5312500000,153070.4375000000,,,
1.2279999980,9,177151.8906250000,188646.6718750000,168483.2812500000,169318.9218750000,135925.5000000000,121702.9140625000,134765.7031250000,153470.6875000000,,,
1.2319999980,9,176509.1250000000,205774.8437500000,167625.5625000000,168247.7187500000,134930.7968750000,120689.8203125000,133615.0156250000,156423.2031250000,,,
1.2359999979,9,176389.1093750000,220350.3750000000,167593.7031250000,168215.0312500000,134951.0156250000,120654.9218750000,133579.5468750000,157350.3125000000,,,
1.2399999981,9,176894.8281250000,215343.5625000000,168310.1875000000,169090.9375000000,135789.0468750000,121496.9531250000,134524.8437500000,155496.6562500000,,,
1.2439999981,9,177379.4687500000,196053.2031250000,168904.7031250000,169835.0781250000,136457.7031250000,122196.0703125000,135324.4843750000,153049.3593750000,,,
1.2479999980,9,177128.2500000000,188570.6875000000,168467.7968750000,169316.9687500000,135918.4062500000,121686.5000000000,134760.2656250000,153443.0625000000,,,
1.2519999980,9,176487.7343750000,205652.2031250000,167609.3593750000,168238.7968750000,134921.0937500000,120678.6328125000,133607.2031250000,156400.5156250000,,,
1.2559999980,9,176366.3437500000,220317.8593750000,167572.8593750000,168184.6406250000,134936.4218750000,120651.4140625000,133573.7031250000,157347.0468750000,,,
1.2599999979,9,176900.7500000000,215276.7812500000,168318.4531250000,169084.3593750000,135801.5000000000,121500.3281250000,134542.6250000000,155501.4062500000,,,
1.2639999981,9,177391.9218750000,196044.5625000000,168916.5937500000,169828.0000000000,136468.7812500000,122187.6171875000,135337.4218750000,153061.3593750000,,,
1.2679999981,9,177147.2968750000,188517.4843750000,168483.8125000000,169331.6406250000,135932.7031250000,121695.0078125000,134780.5156250000,153445.7343750000,,,
1.2719999980,9,176498.6562500000,205523.5625000000,167614.4062500000,168252.4687500000,134926.6406250000,120677.5078125000,133613.4843750000,156393.6406250000,33029,1.2749992788,0.0000000000
1.2759999980,9,176372.4843750000,220281.2500000000,167573.8750000000,168171.6562500000,134941.2500000000,120638.1328125000,133576.6875000000,157358.5937500000,,,
1.2799999979,10,176900.7968750000,215317.0156250000,168316.7343750000,169071.1718750000,135804.8750000000,121477.1562500000,134551.2656250000,155529.0156250000,,,
1.2839999979,10,177390.4375000000,196112.6093750000,168910.7187500000,169831.2500000000,136468.3437500000,122182.5000000000,135343.7500000000,153080.6093750000,,,
1.2879999978,10,177145.6875000000,188463.4062500000,168482.0156250000,169333.2500000000,135936.8906250000,121708.9765625000,134784.4218750000,153419.9375000000,,,
1.2919999978,10,176494.9843750000,205367.1406250000,167612.5000000000,168239.6718750000,134926.3906250000,120674.0781250000,133613.5937500000,156359.6093750000,,,
1.2959999978,10,176371.0625000000,220193.7031250000,167574.3593750000,168179.3906250000,134939.0312500000,120630.9453125000,133573.2187500000,157344.8593750000,,,
1.2999999977,10,176905.0625000000,215412.8281250000,168317.2812500000,169082.5625000000,135801.3281250000,121485.2578125000,134543.5156250000,155536.2031250000,,,
1.3039999979,10,177406.4531250000,196262.7656250000,168924.9531250000,169848.6250000000,136478.7187500000,122205.5390625000,135347.5781250000,153100.7500000000,,,
1.3079999979,10,177166.8437500000,188460.7500000000,168505.2187500000,169358.4062500000,135957.9218750000,121697.5234375000,134805.0781250000,153431.6250000000,,,
1.3119999978,10,176509.3281250000,205280.2968750000,167626.2812500000,168265.5312500000,134942.1718750000,120676.1640625000,133638.7500000000,156367.9218750000,,,
1.3159999978,10,176377.3906250000,220206.5468750000,167575.7187500000,168190.9218750000,134942.5156250000,120640.2812500000,133586.8750000000,157371.4687500000,,,
1.3199999977,10,176879.1250000000,215703.7812500000,168287.8750000000,169059.3593750000,135770.4687500000,121461.4375000000,134520.0156250000,155565.2500000000,,,
1.3239999979,10,177381.2968750000,196512.5312500000,168904.4375000000,169831.7812500000,136460.0781250000,122193.8984375000,135335.5937500000,153098.4687500000,,,
1.3279999979,10,177165.7031250000,188438.9375000000,168507.1250000000,169368.6718750000,135961.4375000000,121726.6562500000,134813.2343750000,153412.0000000000,,,
1.3319999978,10,176511.9375000000,205158.6093750000,167632.9843750000,168265.4531250000,134947.7187500000,120698.5390625000,133647.1250000000,156346.4687500000,,,
1.3359999978,10,176373.7968750000,220156.7656250000,167572.4843750000,168181.6562500000,134935.0625000000,120632.0703125000,133587.7343750000,157368.4218750000,,,
1.3399999978,10,176883.2656250000,215732.0000000000,168289.1093750000,169050.8281250000,135770.7500000000,121484.0468750000,134529.5312500000,155581.6406250000,,,
1.3439999977,10,177387.4375000000,196578.7968750000,168910.3437500000,169825.3750000000,136467.8906250000,122210.5000000000,135348.3906250000,153108.6875000000,,,
1.3479999979,10,177161.7500000000,188398.5781250000,168505.0781250000,169354.1093750000,135964.1250000000,121726.7343750000,134823.8593750000,153392.6875000000,,,
1.3519999979,10,176500.0312500000,205026.3750000000,167619.5781250000,168252.9218750000,134936.9375000000,120690.1718750000,133642.9843750000,156317.3906250000,,,
1.3559999978,10,176358.0312500000,220092.9531250000,167559.4218750000,168161.2500000000,134926.2031250000,120624.6406250000,133575.5000000000,157349.4843750000,,,
1.3599999978,10,176869.0781250000,215640.9375000000,168279.4843750000,169032.7031250000,135766.5937500000,121462.2187500000,134523.3906250000,155563.6718750000,,,
1.3639999977,10,177370.2968750000,196545.5937500000,168891.1875000000,169804.3125000000,136451.7187500000,122185.5312500000,135338.8906250000,153098.6406250000,,,
1.3679999979,10,177163.0468750000,188340.0781250000,168506.0000000000,169348.1093750000,135968.0000000000,121731.0546875000,134827.2968750000,153383.2968750000,,,
1.3719999979,10,176521.6406250000,204907.6875000000,167637.8437500000,168262.7968750000,134956.9218750000,120705.0546875000,133660.9531250000,156335.0156250000,,,
1.3759999978,10,176375.7656250000,220075.0312500000,167572.5000000000,168166.4531250000,134937.7500000000,120649.4765625000,133583.3906250000,157386.2500000000,,,
1.3799999978,10,176877.1250000000,215678.0625000000,168289.4062500000,169039.4375000000,135772.1250000000,121477.0468750000,134520.6406250000,155590.6718750000,,,
1.3839999977,10,177376.7343750000,196610.9375000000,168899.9531250000,169816.3125000000,136456.8593750000,122178.5546875000,135338.0937500000,153120.4375000000,,,
1.3879999977,10,177170.3593750000,188323.9062500000,168516.2656250000,169367.1250000000,135977.2343750000,121736.7968750000,134836.0000000000,153389.2031250000,,,
1.3919999979,10,176527.1406250000,204815.5937500000,167647.3125000000,168272.0000000000,134966.7187500000,120712.8046875000,133667.9843750000,156332.9531250000,,,
1.3959999979,10,176388.0937500000,220059.5156250000,167583.2968750000,168174.7968750000,134950.7500000000,120638.0000000000,133587.0156250000,157414.8750000000,,,
1.3999999978,10,176890.9843750000,215798.2031250000,168298.5312500000,169052.0156250000,135787.0156250000,121467.6875000000,134530.5781250000,155631.5781250000,,,
1.4039999978,10,177400.6562500000,196754.4375000000,168920.3125000000,169825.9062500000,136482.1250000000,122191.5390625000,135360.8125000000,153152.4062500000,,,
1.4079999977,11,177196.6562500000,188295.3125000000,168541.1875000000,169384.5000000000,136006.9531250000,121749.5312500000,134863.7187500000,153390.0781250000,,,
1.4119999977,11,176543.2968750000,204689.2343750000,167654.5312500000,168291.0781250000,134974.4062500000,120717.2031250000,133677.5937500000,156321.0156250000,,,
1.4159999976,11,176385.6875000000,220018.3437500000,167573.1562500000,168171.9531250000,134938.3593750000,120628.4531250000,133586.5781250000,157406.8281250000,,,
1.4199999976,11,176878.2656250000,215949.7812500000,168278.2968750000,169020.9062500000,135763.0000000000,121441.7812500000,134517.8750000000,155648.7187500000,,,
1.4239999976,11,177387.4062500000,196918.6406250000,168908.5468750000,169811.9687500000,136469.9218750000,122173.9140625000,135355.7656250000,153160.7343750000,,,
1.4279999975,11,177179.9375000000,188267.9843750000,168533.7031250000,169378.4843750000,135998.9843750000,121746.6093750000,134860.5156250000,153356.1875000000,,,
1.4319999977,11,176528.7812500000,204564.1406250000,167655.2812500000,168273.7968750000,134976.0468750000,120702.0781250000,133684.7968750000,156287.1406250000,,,
1.4359999977,11,176383.4062500000,219989.0156250000,167583.7187500000,168175.7031250000,134947.8750000000,120626.0625000000,133588.6718750000,157412.4531250000,,,
1.4399999976,11,176864.4375000000,216055.3750000000,168276.3750000000,169027.3125000000,135758.3906250000,121413.3750000000,134500.6250000000,155657.2968750000,,,
1.4439999976,11,177366.8906250000,197029.3125000000,168897.0625000000,169805.5781250000,136457.7500000000,122151.0078125000,135342.0625000000,153149.1093750000,,,
1.4479999975,11,177175.7031250000,188233.2187500000,168534.8281250000,169377.1250000000,135996.9531250000,121748.0078125000,134867.2343750000,153332.9218750000,,,
1.4519999977,11,176523.4375000000,204449.5937500000,167650.1875000000,168278.5781250000,134967.8437500000,120712.5390625000,133681.9062500000,156265.3906250000,,,
1.4559999977,11,176361.4687500000,219949.3750000000,167562.4531250000,168161.4062500000,134923.6562500000,120613.9140625000,133575.6562500000,157393.8125000000,,,
1.4599999976,11,176854.4843750000,216116.1718750000,168266.9843750000,169019.1875000000,135744.3906250000,121417.7421875000,134498.3437500000,155658.7187500000,,,
1.4639999976,11,177372.3906250000,197119.0781250000,168904.2031250000,169815.0156250000,136458.2031250000,122172.3046875000,135344.5781250000,153150.5312500000,,,
1.4679999975,11,177192.2031250000,188197.0625000000,168548.3281250000,169398.1562500000,136009.4687500000,121761.2031250000,134876.7187500000,153329.5937500000,,,
1.4719999975,11,176538.6718750000,204314.6406250000,167663.7343750000,168295.3125000000,134980.2500000000,120703.6875000000,133690.0312500000,156251.6718750000,,,
1.4759999977,11,176372.4843750000,219908.2656250000,167566.1718750000,168164.9843750000,134927.5468750000,120605.3828125000,133576.5000000000,157402.9062500000,,,
1.4799999977,11,176872.5000000000,216177.0625000000,168278.5781250000,169026.8281250000,135758.3906250000,121430.8906250000,134504.9687500000,155680.7500000000,,,
1.4839999976,11,177400.5781250000,197200.2500000000,168928.8750000000,169839.5937500000,136486.2656250000,122174.2343750000,135361.0781250000,153176.1250000000,,,
1.4879999976,11,177218.0781250000,188145.4843750000,168576.4843750000,169438.6250000000,136040.7500000000,121763.2656250000,134904.2500000000,153328.1250000000,,,
1.4919999975,11,176548.8125000000,204196.5000000000,167675.5000000000,168307.0000000000,134991.8750000000,120702.0000000000,133701.3281250000,156241.9375000000,,,
1.4959999977,11,176378.0937500000,219872.3437500000,167574.8593750000,168161.6250000000,134932.2656250000,120590.6875000000,133579.2343750000,157403.4218750000,,,
1.4999999977,11,176869.9218750000,216242.3750000000,168280.6562500000,169026.5000000000,135756.4062500000,121407.6875000000,134505.5312500000,155689.5468750000,,,
1.5039999976,11,177387.8125000000,197284.1406250000,168921.0156250000,169839.0312500000,136475.8906250000,122160.7734375000,135361.2656250000,153167.4843750000,,,
1.5079999976,11,177195.5781250000,188110.8750000000,168559.3125000000,169420.9843750000,136022.8281250000,121749.2109375000,134894.6406250000,153294.8593750000,,,
1.5119999975,11,176530.7968750000,204082.0937500000,167658.6875000000,168308.1875000000,134976.5312500000,120693.6562500000,133698.1875000000,156223.5156250000,,,
1.5159999975,11,176356.2812500000,219855.1250000000,167549.7812500000,168160.9843750000,134909.5781250000,120580.2812500000,133571.3750000000,157407.4687500000,,,
1.5199999977,11,176851.7187500000,216357.0937500000,168253.9218750000,169008.0312500000,135732.8281250000,121395.1328125000,134491.6875000000,155707.7500000000,,,
1.5239999976,11,177365.3906250000,197417.6093750000,168891.8593750000,169805.3125000000,136451.4687500000,122141.5156250000,135343.7031250000,153161.7500000000,,,
1.5279999976,11,177184.9062500000,188103.6875000000,168544.0625000000,169408.3750000000,136014.8593750000,121740.2812500000,134886.5625000000,153265.6250000000,,,
1.5319999976,11,176525.6875000000,203982.0000000000,167649.5156250000,168296.1875000000,134972.3437500000,120702.4531250000,133684.9687500000,156203.9843750000,,,
1.5359999975,12,176342.9531250000,219829.8281250000,167537.8750000000,168141.5625000000,134899.2812500000,120583.4687500000,133554.7187500000,157402.1093750000,,,
1.5399999975,12,176836.5625000000,216447.1406250000,168245.1250000000,169001.2187500000,135721.6250000000,121386.5000000000,134483.5937500000,155709.7343750000,,,
1.5439999974,12,177366.9687500000,197549.3125000000,168901.7343750000,169825.0000000000,136456.3281250000,122154.4375000000,135352.1406250000,153177.2187500000,,,
1.5479999974,12,177193.2187500000,188093.1718750000,168565.0000000000,169434.8750000000,136030.5625000000,121771.1796875000,134913.5156250000,153264.3906250000,,,
1.5519999973,12,176527.8906250000,203870.5312500000,167662.4375000000,168307.5156250000,134982.5312500000,120710.5234375000,133712.1406250000,156188.9375000000,,,
1.5559999973,12,176340.4843750000,219811.2656250000,167542.4687500000,168142.8593750000,134903.8437500000,120568.9843750000,133565.5000000000,157409.3437500000,,,
1.5599999975,12,176823.5468750000,216562.9531250000,168230.8750000000,168983.4843750000,135712.4531250000,121376.7578125000,134480.9062500000,155724.8593750000,,,
1.5639999975,12,177355.9531250000,197663.3750000000,168883.7031250000,169819.9531250000,136445.6875000000,122141.6171875000,135347.0468750000,153170.2031250000,,,
1.5679999974,12,177195.2812500000,188056.9687500000,168557.6250000000,169436.9375000000,136029.2187500000,121760.6093750000,134913.6562500000,153239.7500000000,,,
1.5719999974,12,176542.1562500000,203756.0000000000,167666.3281250000,168317.2968750000,134987.8437500000,120709.0546875000,133720.6875000000,156177.8906250000,,,
1.5759999973,12,176355.7500000000,219801.5937500000,167545.4375000000,168154.5468750000,134903.3593750000,120568.5312500000,133574.1093750000,157419.5625000000,,,
1.5799999975,12,176842.0000000000,216647.0156250000,168242.5000000000,168998.6406250000,135717.2812500000,121377.5156250000,134486.7500000000,155745.4062500000,,,
1.5839999975,12,177373.6562500000,197751.7656250000,168902.0468750000,169823.6093750000,136457.4218750000,122149.6953125000,135362.0937500000,153185.8125000000,,,
1.5879999974,12,177213.0625000000,188013.2812500000,168581.1250000000,169450.9375000000,136048.8750000000,121778.6328125000,134939.5156250000,153238.1562500000,,,
1.5919999974,12,176551.5468750000,203625.5000000000,167682.4843750000,168327.5156250000,135001.7343750000,120719.3750000000,133739.7343750000,156166.9687500000,,,
1.5959999973,12,176348.9062500000,219738.7500000000,167545.0937500000,168149.3750000000,134903.9531250000,120565.5234375000,133571.2656250000,157415.2968750000,,,
1.5999999973,12,176835.7656250000,216699.0781250000,168242.8906250000,168994.8281250000,135720.7656250000,121359.7031250000,134486.6718750000,155757.8906250000,,,
1.6039999975,12,177369.8906250000,197841.3750000000,168903.2812500000,169833.5000000000,136465.5312500000,122134.6171875000,135365.2343750000,153193.9531250000,,,
1.6079999974,12,177212.8437500000,187972.6406250000,168584.3125000000,169461.6093750000,136061.1562500000,121782.1250000000,134950.7812500000,153218.2031250000,,,
1.6119999974,12,176554.7968750000,203491.3906250000,167684.3281250000,168324.5937500000,135008.9218750000,120721.0390625000,133741.3906250000,156153.3437500000,,,
1.6159999974,12,176348.9062500000,219695.6875000000,167535.1718750000,168144.5937500000,134895.1718750000,120562.7343750000,133561.7187500000,157429.3906250000,,,
1.6199999973,12,176828.9687500000,216784.1250000000,168224.3906250000,168985.0625000000,135700.7187500000,121368.6093750000,134464.8437500000,155782.9375000000,,,
1.6239999975,12,177369.9687500000,197952.1250000000,168900.8437500000,169820.0312500000,136460.1406250000,122141.6484375000,135358.5312500000,153209.7031250000,,,
1.6279999975,12,177213.2500000000,187946.9687500000,168583.2656250000,169455.5781250000,136057.3281250000,121784.3515625000,134954.1093750000,153210.1875000000,,,
1.6319999974,12,176555.5937500000,203373.9687500000,167681.0312500000,168323.2812500000,135003.6250000000,120733.1093750000,133748.1250000000,156138.4062500000,,,
1.6359999974,12,176354.0937500000,219655.7343750000,167540.6093750000,168139.9531250000,134901.0000000000,120560.5625000000,133569.0156250000,157428.9843750000,,,
1.6399999973,12,176826.2343750000,216844.5000000000,168222.3281250000,168982.9218750000,135699.5156250000,121354.8437500000,134463.9531250000,155782.8593750000,,,
1.6439999973,12,177374.1562500000,198045.4843750000,168903.7968750000,169827.6875000000,136464.3281250000,122148.2968750000,135361.2656250000,153214.9062500000,,,
1.6479999975,12,177225.0781250000,187922.8281250000,168591.4218750000,169461.9062500000,136068.7031250000,121798.6718750000,134965.6718750000,153201.7656250000,,,
1.6519999974,12,176565.9843750000,203238.6250000000,167688.4062500000,168332.4062500000,135012.3281250000,120735.7109375000,133757.8906250000,156125.2343750000,,,
1.6559999974,12,176357.2187500000,219606.8125000000,167542.2500000000,168136.5781250000,134900.7812500000,120565.6640625000,133571.1093750000,157440.2187500000,,,
1.6599999974,12,176833.5312500000,216949.2656250000,168231.7187500000,168967.7343750000,135707.7031250000,121359.1093750000,134473.7968750000,155823.3906250000,,,
1.6639999973,13,177367.0156250000,198184.0781250000,168897.7812500000,169816.6250000000,136456.9687500000,122135.9296875000,135355.8750000000,153226.7343750000,,,
1.6679999973,13,177211.1093750000,187900.2812500000,168584.0468750000,169466.9218750000,136058.6406250000,121786.6015625000,134954.6406250000,153171.4531250000,,,
1.6719999972,13,176542.7031250000,203120.2500000000,167672.6875000000,168325.3750000000,134994.5781250000,120722.6484375000,133747.1875000000,156093.6718750000,,,
1.6759999972,13,176325.6875000000,219576.8125000000,167514.9218750000,168108.6250000000,134870.0781250000,120545.7578125000,133550.1250000000,157425.8750000000,,,
1.6799999971,13,176800.1875000000,217026.6562500000,168199.7187500000,168948.3125000000,135667.7812500000,121335.9921875000,134446.3906250000,155812.3125000000,,,
1.6839999971,13,177356.4218750000,198295.9843750000,168890.0312500000,169809.8750000000,136440.2343750000,122137.0625000000,135361.1875000000,153228.2187500000,,,
1.6879999973,13,177222.2343750000,187918.4843750000,168600.4062500000,169470.9531250000,136068.9843750000,121801.5937500000,134986.9687500000,153173.0937500000,,,
1.6919999972,13,176559.5781250000,203053.5312500000,167691.2812500000,168341.8750000000,135009.0937500000,120737.2656250000,133767.0468750000,156089.7812500000,,,
1.6959999972,13,176341.7968750000,219558.7656250000,167530.0156250000,168129.6562500000,134885.1250000000,120534.3046875000,133562.3281250000,157428.5468750000,,,
1.6999999972,13,176796.8125000000,217217.0625000000,168191.3750000000,168947.1093750000,135661.1093750000,121294.7109375000,134431.1562500000,155813.8125000000,,,
1.7039999971,13,177355.0625000000,198524.1250000000,168885.2343750000,169810.4843750000,136438.5000000000,122106.8593750000,135346.1406250000,153220.8281250000,,,
1.7079999973,13,177236.8750000000,187908.8281250000,168618.2968750000,169490.7968750000,136091.0937500000,121792.5859375000,134992.1406250000,153149.0937500000,,,
1.7119999973,13,176574.0312500000,202916.1875000000,167706.1562500000,168362.2031250000,135027.7656250000,120725.9765625000,133771.2031250000,156071.6718750000,,,
1.7159999972,13,176333.7031250000,219495.9531250000,167518.5468750000,168122.0937500000,134876.5937500000,120523.5000000000,133544.2031250000,157429.1093750000,,,
1.7199999972,13,176807.4062500000,217232.5625000000,168202.3906250000,168937.0312500000,135674.5781250000,121307.1875000000,134442.3593750000,155854.8125000000,,,
1.7239999971,13,177360.0468750000,198578.7187500000,168889.2343750000,169794.8750000000,136446.8906250000,122113.8593750000,135348.8125000000,153254.5781250000,,,
1.7279999971,13,177221.7812500000,187877.1250000000,168597.1718750000,169465.7656250000,136076.2812500000,121782.4687500000,134976.3593750000,153140.3750000000,,,
1.7319999973,13,176564.6093750000,202770.2343750000,167689.7656250000,168340.6406250000,135015.5468750000,120719.0546875000,133764.4843750000,156049.8906250000,,,
1.7359999972,13,176340.7343750000,219431.6093750000,167514.8906250000,168124.1875000000,134872.5937500000,120522.7187500000,133550.3125000000,157441.1093750000,,,
1.7399999972,13,176804.4062500000,217193.5156250000,168191.9375000000,168940.5156250000,135664.7500000000,121286.0234375000,134438.2343750000,155858.3281250000,,,
1.7439999972,13,177366.4062500000,198588.1875000000,168892.9843750000,169794.3906250000,136450.9687500000,122112.1953125000,135360.6250000000,153270.1406250000,,,
1.7479999971,13,177242.8437500000,187866.2343750000,168623.7968750000,169476.9062500000,136102.8437500000,121800.5781250000,135002.1406250000,153155.2031250000,,,
1.7519999973,13,176574.1562500000,202651.4531250000,167711.3906250000,168346.2500000000,135035.5312500000,120712.9687500000,133779.9375000000,156042.1718750000,,,
1.7559999973,13,176331.0781250000,219360.1562500000,167519.1250000000,168110.3437500000,134874.9218750000,120506.0078125000,133546.2968750000,157424.2343750000,,,
1.7599999972,13,176793.2968750000,217232.7500000000,168191.4062500000,168918.7031250000,135665.6875000000,121283.9531250000,134424.0000000000,155855.5625000000,,,
1.7639999972,13,177355.5468750000,198667.7656250000,168887.5937500000,169789.9375000000,136448.5312500000,122098.2734375000,135344.5000000000,153265.2812500000,,,
1.7679999971,13,177235.1093750000,187830.1406250000,168614.4062500000,169474.7812500000,136097.4531250000,121792.5312500000,135003.4062500000,153125.9062500000,,,
1.7719999971,13,176576.2343750000,202524.6718750000,167706.4843750000,168356.1875000000,135036.0781250000,120716.1562500000,133792.5000000000,156013.1562500000,,,
1.7759999973,13,176340.9375000000,219307.7343750000,167519.0468750000,168118.7968750000,134879.5937500000,120515.4531250000,133557.2031250000,157433.0000000000,,,
1.7799999972,13,176794.2031250000,217420.1093750000,168176.5156250000,168918.5937500000,135649.4687500000,121286.2343750000,134417.4687500000,155899.9531250000,,,
1.7839999972,13,177356.7500000000,198925.7968750000,168879.0312500000,169790.4843750000,136435.8593750000,122098.7031250000,135339.1406250000,153296.8281250000,,,
1.7879999971,13,177243.4062500000,187849.8437500000,168620.7187500000,169493.3125000000,136098.6875000000,121799.0781250000,135003.4843750000,153122.7968750000,,,
1.7919999971,14,176584.1406250000,202408.0000000000,167706.0468750000,168363.1406250000,135030.2812500000,120738.2890625000,133788.6875000000,156009.2812500000,,,
1.7959999971,14,176348.6718750000,219261.7656250000,167515.0468750000,168123.6250000000,134870.8437500000,120525.8593750000,133546.5625000000,157451.5312500000,,,
1.7999999970,14,176800.2656250000,217513.5781250000,168173.2187500000,168914.2500000000,135644.8750000000,121285.3515625000,134408.3593750000,155936.0156250000,,,
1.8039999970,14,177355.0312500000,199051.2187500000,168873.0000000000,169790.7500000000,136434.2812500000,122101.7109375000,135336.8281250000,153320.1250000000,,,
1.8079999969,14,177239.2187500000,187839.6875000000,168614.8437500000,169500.8281250000,136098.8125000000,121802.9140625000,135010.8281250000,153112.4531250000,,,
1.8119999969,14,176576.1406250000,202278.5312500000,167701.3125000000,168365.6562500000,135029.8750000000,120727.0781250000,133795.6093750000,155981.9062500000,,,
1.8159999971,14,176331.9843750000,219200.5000000000,167508.0781250000,168106.8593750000,134865.0625000000,120512.7656250000,133550.0781250000,157435.6562500000,,,
1.8199999970,14,176792.5468750000,217495.8750000000,168183.6406250000,168913.8281250000,135655.4218750000,121278.0000000000,134432.4687500000,155930.7187500000,,,
1.8239999970,14,177352.7031250000,199077.0937500000,168886.2187500000,169787.0156250000,136445.6562500000,122100.0468750000,135363.1406250000,153320.7968750000,,,
1.8279999970,14,177244.3906250000,187802.9687500000,168634.7968750000,169504.1875000000,136119.4687500000,121811.0390625000,135038.5468750000,153106.2031250000,,,
1.8319999969,14,176577.2500000000,202151.6875000000,167715.8125000000,168366.7343750000,135044.4687500000,120729.5468750000,133812.2343750000,155968.7343750000,,,
1.8359999971,14,176334.1093750000,219130.9843750000,167516.1250000000,168111.2812500000,134873.4218750000,120515.4765625000,133563.0781250000,157435.7187500000,,,
1.8399999971,14,176785.3593750000,217493.5468750000,168171.7656250000,168909.8593750000,135644.6875000000,121278.7265625000,134424.3125000000,155932.1250000000,,,
1.8439999970,14,177362.0312500000,199111.7812500000,168889.2031250000,169793.7187500000,136447.0156250000,122109.8906250000,135369.7343750000,153329.3593750000,,,
1.8479999970,14,177263.9531250000,187779.1718750000,168652.5312500000,169520.1406250000,136133.7343750000,121833.8125000000,135059.8125000000,153101.9843750000,,,
1.8519999969,14,176598.8437500000,202008.2656250000,167736.8437500000,168390.0156250000,135062.7031250000,120754.8359375000,133837.9531250000,155960.4687500000,,,
1.8559999969,14,176343.0156250000,219066.2656250000,167525.5625000000,168123.1093750000,134878.6875000000,120511.3984375000,133570.7812500000,157452.3125000000,,,
1.8599999971,14,176779.6250000000,217574.7968750000,168169.6718750000,168902.5625000000,135639.5156250000,121260.7031250000,134426.3281250000,155959.5312500000,,,
1.8639999970,14,177345.8281250000,199245.5937500000,168881.6718750000,169771.2187500000,136442.1406250000,122105.2500000000,135376.5468750000,153346.4375000000,,,
1.8679999970,14,177246.7812500000,187777.4218750000,168644.1250000000,169498.0312500000,136133.3125000000,121839.0625000000,135075.8281250000,153096.1093750000,,,
1.8719999969,14,176585.7031250000,201912.0625000000,167728.5312500000,168364.6093750000,135060.8593750000,120758.7812500000,133856.1093750000,155951.0625000000,,,
1.8759999969,14,176333.1875000000,219012.0000000000,167515.1875000000,168090.6250000000,134873.2031250000,120528.6718750000,133589.9843750000,157458.1875000000,,,
1.8799999971,14,176777.9531250000,217692.4062500000,168163.6093750000,168877.6718750000,135636.5156250000,121281.7812500000,134447.2187500000,155993.1718750000,,,
1.8839999971,14,177354.9062500000,199439.7812500000,168882.7968750000,169776.9687500000,136444.2031250000,122112.3593750000,135396.7500000000,153381.9843750000,,,
1.8879999970,14,177275.9062500000,187815.9218750000,168662.7968750000,169527.7343750000,136153.6718750000,121855.1328125000,135106.5937500000,153117.4375000000,,,
1.8919999970,14,176637.9218750000,201824.5625000000,167769.3750000000,168407.7812500000,135104.7656250000,120818.4843750000,133913.4843750000,155974.5781250000,,,
1.8959999969,14,176385.0625000000,219008.4062500000,167554.2187500000,168127.2968750000,134915.4531250000,120578.3437500000,133650.3437500000,157500.4375000000,,,
1.8999999969,14,176830.5312500000,217866.1562500000,168200.1718750000,168911.1406250000,135676.9843750000,121328.2421875000,134513.2031250000,156060.4843750000,,,
1.9039999971,14,177403.9062500000,199661.0625000000,168920.1562500000,169808.6093750000,136488.8437500000,122173.3750000000,135471.0468750000,153439.0312500000,,,
1.9079999970,14,177318.7656250000,187861.0312500000,168704.1093750000,169562.5156250000,136202.1093750000,121912.3984375000,135193.4843750000,153135.1406250000,,,
1.9119999970,14,176655.3750000000,201748.5000000000,167791.1875000000,168416.5468750000,135132.5000000000,120834.5546875000,133974.7187500000,155972.8593750000,,,
1.9159999969,14,176397.2968750000,218986.2187500000,167572.6093750000,168132.2500000000,134940.0468750000,120585.3515625000,133693.0625000000,157522.5937500000,,,
1.9199999969,15,176832.7343750000,217872.5937500000,168217.8125000000,168897.0625000000,135701.3125000000,121331.2421875000,134536.8281250000,156081.6875000000,,,
1.9239999969,15,177404.4375000000,199706.7656250000,168937.9687500000,169797.9687500000,136509.4062500000,122165.2734375000,135486.0625000000,153455.5781250000,,,
1.9279999968,15,177315.3437500000,187860.5468750000,168718.4218750000,169556.1875000000,136220.7812500000,121914.9453125000,135205.9843750000,153131.1406250000,,,
1.9319999968,15,176655.2656250000,201632.8906250000,167801.7500000000,168421.6406250000,135147.5468750000,120844.7421875000,133979.7343750000,155961.0312500000,,,
1.9359999967,15,176381.5468750000,218921.8750000000,167566.3125000000,168112.1875000000,134936.3281250000,120580.2812500000,133677.7500000000,157510.8750000000,,,
1.9399999967,15,176812.3906250000,217871.7343750000,168200.8906250000,168893.5468750000,135685.7343750000,121310.6718750000,134518.1875000000,156067.2031250000,,,
1.9439999969,15,177386.4218750000,199747.0312500000,168919.7500000000,169792.4062500000,136492.4375000000,122152.6953125000,135467.6406250000,153442.8906250000,,,
1.9479999968,15,177302.7500000000,187845.8281250000,168705.2812500000,169555.3281250000,136204.9062500000,121901.7500000000,135192.1250000000,153105.0937500000,,,
1.9519999968,15,176637.1093750000,201511.2812500000,167781.6718750000,168412.2031250000,135120.7500000000,120823.9062500000,133963.1093750000,155920.9687500000,,,
1.9559999967,15,176363.5625000000,218873.4062500000,167545.1718750000,168114.3906250000,134904.0468750000,120553.6171875000,133655.2656250000,157481.0937500000,,,
1.9599999967,15,176786.9375000000,217936.8906250000,168175.6875000000,168881.2656250000,135647.1875000000,121278.2734375000,134480.6875000000,156047.3281250000,,,
1.9639999969,15,177355.2187500000,199854.6718750000,168891.1093750000,169781.4062500000,136452.2500000000,122113.2656250000,135428.1250000000,153411.5468750000,,,
1.9679999969,15,177281.5937500000,187835.6562500000,168689.1875000000,169557.8281250000,136183.2812500000,121874.8437500000,135167.3437500000,153060.8750000000,,,
1.9719999968,15,176625.3437500000,201382.4062500000,167775.1406250000,168424.1406250000,135112.6562500000,120798.0468750000,133943.7500000000,155875.2031250000,,,
1.9759999968,15,176355.3437500000,218814.0781250000,167534.9218750000,168112.4062500000,134895.5312500000,120523.3359375000,133623.9375000000,157471.2500000000,,,
1.9799999967,15,176790.0781250000,218048.9218750000,168169.8906250000,168871.7968750000,135644.8593750000,121261.2343750000,134449.4218750000,156080.9843750000,,,
1.9839999967,15,177370.2656250000,200031.4843750000,168894.7500000000,169773.8750000000,136461.8593750000,122104.0703125000,135402.6718750000,153457.1875000000,,,
1.9879999969,15,177304.2031250000,187857.2187500000,168701.2343750000,169559.3593750000,136203.0468750000,121877.5546875000,135153.2656250000,153081.7968750000,,,
1.9919999968,15,176638.3281250000,201284.7343750000,167780.2968750000,168409.4375000000,135120.8593750000,120796.8125000000,133925.7656250000,155885.4531250000,,,
1.9959999968,15,176360.3437500000,218784.3281250000,167533.7968750000,168092.4218750000,134893.7031250000,120518.0000000000,133606.1093750000,157499.0937500000,,,
1.9999999967,15,176779.1562500000,218145.7187500000,168157.5156250000,168855.5937500000,135630.4218750000,121238.4921875000,134428.0625000000,156106.1718750000,,,
2.0039999967,15,177362.6562500000,200168.1406250000,168893.5781250000,169769.0781250000,136458.3125000000,122093.9296875000,135401.9062500000,153470.8906250000,,,
2.0079999969,15,177295.4687500000,187860.5468750000,168699.8125000000,169557.5312500000,136198.7343750000,121872.5703125000,135155.0781250000,153063.1718750000,,,
2.0119999968,15,176642.4218750000,201175.7968750000,167785.8281250000,168423.9531250000,135125.8437500000,120800.5703125000,133930.2187500000,155866.7031250000,,,
2.0159999968,15,176361.7656250000,218741.9218750000,167534.7968750000,168098.5468750000,134895.9218750000,120512.6875000000,133607.5625000000,157497.0000000000,,,
2.0199999968,15,176786.3593750000,218268.3593750000,168161.2187500000,168862.6250000000,135637.0000000000,121237.7187500000,134438.7500000000,156125.9843750000,,,
2.0239999967,15,177371.6562500000,200345.1093750000,168894.3281250000,169778.4687500000,136461.8593750000,122096.0781250000,135407.1875000000,153483.0000000000,,,
2.0279999967,15,177309.2812500000,187873.4843750000,168710.0312500000,169577.6250000000,136211.0625000000,121891.2343750000,135172.2500000000,153054.1406250000,,,
2.0319999969,15,176647.8906250000,201072.0937500000,167792.3906250000,168443.5312500000,135132.6093750000,120803.7031250000,133944.3281250000,155851.0312500000,,,
2.0359999968,15,176353.9062500000,218710.0156250000,167529.5312500000,168097.9218750000,134888.8750000000,120508.3671875000,133610.6718750000,157495.6562500000,,,
2.0399999968,15,176784.5625000000,218309.8750000000,168162.4062500000,168851.8437500000,135634.0468750000,121239.5625000000,134443.0625000000,156143.8593750000,,,
2.0439999967,15,177373.2656250000,200413.2031250000,168906.9062500000,169771.2968750000,136469.1562500000,122098.8671875000,135416.2031250000,153499.3281250000,,,
2.0479999967,16,177318.4218750000,187858.7343750000,168726.7343750000,169576.9687500000,136225.4687500000,121899.5468750000,135190.9687500000,153055.0468750000,,,
2.0519999966,16,176658.4062500000,200957.1093750000,167804.1406250000,168439.0156250000,135145.5937500000,120823.9296875000,133970.6718750000,155849.7968750000,,,
2.0559999966,16,176364.5468750000,218661.1406250000,167540.4062500000,168091.4062500000,134902.3437500000,120529.6953125000,133641.5937500000,157509.7968750000,,,
2.0599999966,16,176783.2343750000,218333.1562500000,168165.2968750000,168828.5625000000,135643.0312500000,121253.7812500000,134466.3437500000,156156.4062500000,,,
2.0639999965,16,177376.8125000000,200452.4531250000,168910.7343750000,169755.0156250000,136483.1250000000,122123.1640625000,135451.3593750000,153512.3437500000,,,
2.0679999965,16,177324.8281250000,187808.4375000000,168735.3750000000,169568.5468750000,136248.4843750000,121923.6640625000,135230.3125000000,153057.1406250000,,,
2.0719999967,16,176662.2656250000,200797.9687500000,167808.7812500000,168423.9531250000,135162.8593750000,120839.3828125000,133999.5000000000,155838.1875000000,,,
2.0759999966,16,176368.8593750000,218592.3125000000,167538.1406250000,168086.2343750000,134907.0781250000,120536.1015625000,133646.3437500000,157516.7187500000,,,
2.0799999966,16,176804.6250000000,218389.8593750000,168181.5312500000,168854.4687500000,135661.7031250000,121269.0468750000,134482.5937500000,156189.8750000000,,,
2.0839999965,16,177394.1718750000,200561.1875000000,168928.5000000000,169784.3593750000,136501.5000000000,122140.7343750000,135483.0156250000,153542.3750000000,,,
2.0879999965,16,177332.8750000000,187806.0000000000,168747.2031250000,169586.5781250000,136258.4375000000,121938.5468750000,135265.9062500000,153050.0625000000,,,
2.0919999967,16,176674.3750000000,200675.6875000000,167820.7187500000,168450.5000000000,135170.0156250000,120849.8437500000,134034.1093750000,155822.2812500000,,,
2.0959999966,16,176373.5937500000,218537.2968750000,167540.9375000000,168099.5312500000,134907.6562500000,120537.6328125000,133674.7656250000,157524.5000000000,,,
2.0999999966,16,176788.2031250000,218448.4687500000,168157.6562500000,168841.5156250000,135638.4218750000,121260.2734375000,134484.6875000000,156200.7500000000,,,
2.1039999966,16,177373.8593750000,200666.3906250000,168902.4531250000,169771.4843750000,136475.4062500000,122124.5625000000,135464.2812500000,153543.6718750000,,,
2.1079999965,16,177320.2187500000,187804.3593750000,168731.2500000000,169592.9687500000,136244.5156250000,121922.8281250000,135250.4375000000,153036.5156250000,,,
2.1119999965,16,176666.4843750000,200552.1250000000,167814.8125000000,168457.4687500000,135167.6093750000,120840.7187500000,134024.0000000000,155804.9375000000,,,
2.1159999967,16,176360.9218750000,218474.1093750000,167531.0156250000,168085.4531250000,134897.9375000000,120521.4062500000,133659.3281250000,157521.2187500000,,,
2.1199999966,16,176777.8281250000,218515.8750000000,168154.6875000000,168828.3906250000,135631.7343750000,121221.2187500000,134465.1718750000,156214.1875000000,,,
2.1239999966,16,177358.8906250000,200802.9375000000,168894.3281250000,169760.0937500000,136463.8437500000,122093.6875000000,135439.7656250000,153548.0625000000,,,
2.1279999965,16,177318.3906250000,187837.0781250000,168737.7343750000,169604.8906250000,136245.7968750000,121912.6640625000,135243.8906250000,153021.3906250000,,,
2.1319999965,16,176663.6718750000,200432.9218750000,167819.3281250000,168475.0156250000,135162.0000000000,120820.8984375000,134008.2031250000,155770.5937500000,,,
2.1359999967,16,176348.3125000000,218394.6875000000,167522.9062500000,168101.2968750000,134875.9218750000,120485.7031250000,133627.2187500000,157495.0781250000,,,
2.1399999966,16,176754.8437500000,218560.1250000000,168132.5781250000,168834.5156250000,135597.7500000000,121193.8593750000,134424.5312500000,156202.1718750000,,,
2.1439999966,16,177348.4687500000,200907.8593750000,168884.6093750000,169760.2500000000,136445.0312500000,122063.8906250000,135411.4218750000,153548.4375000000,,,
2.1479999966,16,177314.9062500000,187832.2500000000,168737.8125000000,169604.2812500000,136240.5156250000,121890.4296875000,135224.3125000000,153000.2968750000,,,
2.1519999965,16,176660.7187500000,200297.3593750000,167819.0000000000,168469.3906250000,135162.0625000000,120813.0390625000,133997.2500000000,155733.4687500000,,,
2.1559999965,16,176348.0781250000,218315.6718750000,167523.6875000000,168091.0625000000,134881.5000000000,120474.6796875000,133614.1562500000,157479.6406250000,,,
2.1599999967,16,176755.0781250000,218603.8125000000,168132.0625000000,168825.8281250000,135601.3750000000,121173.6093750000,134408.2968750000,156207.5625000000,,,
2.1639999966,16,177349.6718750000,201020.4062500000,168884.0000000000,169752.1562500000,136446.2187500000,122041.8437500000,135391.7812500000,153556.2500000000,,,
2.1679999966,16,177322.9062500000,187838.6562500000,168747.1250000000,169598.8593750000,136251.0000000000,121881.6562500000,135216.4218750000,152992.8750000000,,,
2.1719999965,16,176674.7656250000,200183.7968750000,167834.4531250000,168464.5625000000,135174.9375000000,120808.5078125000,133994.1718750000,155726.2812500000,,,
2.1759999965,17,176353.4218750000,218265.4062500000,167526.4843750000,168088.9687500000,134880.7656250000,120460.3593750000,133595.2500000000,157489.5781250000,,,
2.1799999964,17,176746.7343750000,218684.2812500000,168120.5625000000,168808.4687500000,135587.0781250000,121140.8906250000,134374.8281250000,156222.0468750000,,,
2.1839999964,17,177347.7187500000,201161.0937500000,168879.5937500000,169751.9687500000,136438.9218750000,122026.0937500000,135375.6875000000,153572.6093750000,,,
2.1879999964,17,177316.1406250000,187833.5625000000,168734.3281250000,169610.7656250000,136236.0625000000,121868.1171875000,135190.2968750000,152978.5000000000,,,
2.1919999963,17,176665.1406250000,200036.2812500000,167819.2500000000,168484.9687500000,135160.7656250000,120789.3046875000,133967.7812500000,155694.6875000000,,,
2.1959999963,17,176339.6875000000,218180.2500000000,167506.9062500000,168093.3593750000,134860.9531250000,120438.5781250000,133568.7656250000,157473.5312500000,,,
2.1999999965,17,176732.1718750000,218720.6875000000,168101.7656250000,168808.9531250000,135567.2500000000,121130.3437500000,134354.4375000000,156224.5625000000,,,
2.2039999964,17,177327.3593750000,201247.8125000000,168859.3437500000,169743.2500000000,136418.2656250000,122008.0703125000,135350.9062500000,153564.3437500000,,,
2.2079999964,17,177313.4843750000,187821.4687500000,168735.7500000000,169612.2500000000,136238.1093750000,121862.7500000000,135191.7812500000,152958.7500000000,,,
2.2119999963,17,176665.6718750000,199905.5781250000,167820.6406250000,168483.6875000000,135160.2031250000,120775.8359375000,133961.5781250000,155674.6562500000,,,
2.2159999963,17,176332.2343750000,218111.5781250000,167504.4843750000,168081.1093750000,134854.1875000000,120421.0390625000,133547.9062500000,157462.0000000000,,,
2.2199999965,17,176727.8593750000,218785.0312500000,168103.1250000000,168800.1562500000,135564.1718750000,121117.3906250000,134336.0156250000,156233.1406250000,,,
2.2239999964,17,177322.0156250000,201371.8281250000,168857.0468750000,169745.5000000000,136414.0625000000,122000.2421875000,135332.9375000000,153577.3593750000,,,
2.2279999964,17,177303.0000000000,187827.7812500000,168730.6250000000,169601.0312500000,136234.8125000000,121866.8281250000,135177.5625000000,152948.6718750000,,,
2.2319999964,17,176656.1093750000,199765.7500000000,167818.0625000000,168469.8906250000,135161.2812500000,120783.4843750000,133960.2187500000,155651.8593750000,,,
2.2359999963,17,176324.6562500000,218043.0000000000,167495.8750000000,168059.2968750000,134849.1718750000,120416.9296875000,133544.8750000000,157477.3437500000,,,
2.2399999963,17,176721.2031250000,218828.7187500000,168089.0781250000,168777.0312500000,135555.1875000000,121099.5000000000,134321.6406250000,156263.5625000000,,,
2.2439999965,17,177333.0937500000,201463.1875000000,168863.3750000000,169732.5156250000,136421.9375000000,121989.1875000000,135332.6406250000,153604.9062500000,,,
2.2479999964,17,177327.4531250000,187834.5625000000,168752.8125000000,169618.6562500000,136255.5468750000,121857.8984375000,135196.5000000000,152956.8593750000,,,
2.2519999964,17,176682.3906250000,199668.2500000000,167841.2343750000,168497.8750000000,135181.0156250000,120790.2968750000,133973.6718750000,155654.3437500000,,,
2.2559999963,17,176338.3437500000,217993.4531250000,167504.2187500000,168085.1875000000,134851.7187500000,120412.6640625000,133539.8281250000,157479.7343750000,,,
2.2599999963,17,176714.9843750000,218894.8593750000,168079.3593750000,168789.9062500000,135537.2187500000,121084.5625000000,134296.3125000000,156265.9531250000,,,
2.2639999965,17,177316.4843750000,201595.9062500000,168845.6718750000,169739.1718750000,136399.1718750000,121975.4296875000,135309.0468750000,153602.4375000000,,,
2.2679999964,17,177311.2343750000,187846.3593750000,168736.0781250000,169630.5156250000,136238.0312500000,121853.1250000000,135177.7968750000,152932.0937500000,,,
2.2719999964,17,176657.5468750000,199544.4687500000,167809.4843750000,168500.5312500000,135151.1406250000,120768.5703125000,133950.0781250000,155610.7968750000,,,
2.2759999963,17,176322.6562500000,217935.0937500000,167478.6562500000,168078.3437500000,134829.0625000000,120396.0937500000,133522.9375000000,157465.5156250000,,,
2.2799999963,17,176712.5937500000,218984.5937500000,168066.5937500000,168785.5156250000,135525.4218750000,121071.6562500000,134291.5937500000,156280.3750000000,,,
2.2839999963,17,177315.3906250000,201757.9375000000,168837.6562500000,169733.5312500000,136390.9062500000,121957.0859375000,135300.2500000000,153614.9375000000,,,
2.2879999964,17,177315.5312500000,187868.0000000000,168738.1406250000,169630.3437500000,136239.6406250000,121844.6171875000,135176.4062500000,152916.8593750000,,,
2.2919999964,17,176667.5781250000,199429.8906250000,167822.5625000000,168502.1875000000,135162.6718750000,120776.0234375000,133957.7500000000,155588.8281250000,,,
2.2959999964,17,176323.5937500000,217867.0468750000,167484.8593750000,168073.2187500000,134833.0625000000,120392.5234375000,133520.6562500000,157460.5468750000,,,
2.2999999963,17,176697.4843750000,219020.4531250000,168060.9062500000,168767.1562500000,135517.6406250000,121060.2343750000,134277.2031250000,156283.3750000000,,,
2.3039999963,18,177313.7031250000,201840.7656250000,168844.3593750000,169732.8437500000,136394.3437500000,121968.0781250000,135299.5000000000,153623.5625000000,,,
2.3079999962,18,177321.2343750000,187861.4843750000,168749.8906250000,169647.8906250000,136247.7656250000,121857.6796875000,135181.9843750000,152912.7343750000,,,
2.3119999962,18,176673.1093750000,199283.8125000000,167832.2187500000,168514.2031250000,135167.9375000000,120783.3515625000,133961.0468750000,155572.7656250000,,,
2.3159999961,18,176322.4843750000,217785.7656250000,167483.3437500000,168072.0625000000,134825.5937500000,120383.7812500000,133512.5000000000,157464.2812500000,,,
2.3199999961,18,176700.7031250000,219063.5468750000,168057.3125000000,168767.5625000000,135510.6406250000,121047.4140625000,134262.6093750000,156309.6093750000,,,
2.3239999961,18,177317.6093750000,201941.9062500000,168841.5156250000,169737.2968750000,136390.8906250000,121952.9531250000,135287.9062500000,153644.0937500000,,,
2.3279999963,18,177334.1093750000,187862.8281250000,168759.0625000000,169649.2656250000,136259.8906250000,121862.1328125000,135184.6718750000,152917.5781250000,,,
2.3319999962,18,176685.0937500000,199146.0468750000,167842.1562500000,168518.4375000000,135179.1093750000,120785.4921875000,133958.0625000000,155567.2343750000,,,
2.3359999962,18,176316.4531250000,217723.6875000000,167476.0468750000,168070.2656250000,134817.5781250000,120375.9218750000,133490.6875000000,157466.8593750000,,,
2.3399999961,18,176683.5156250000,219217.2187500000,168040.0625000000,168758.1250000000,135491.1562500000,121027.4531250000,134234.8437500000,156326.0781250000,,,
2.3439999961,18,177305.6562500000,202206.2187500000,168832.4531250000,169730.0000000000,136384.0468750000,121943.9375000000,135278.2968750000,153657.0468750000,,,
2.3479999963,18,177338.6718750000,187894.2343750000,168771.0781250000,169665.2500000000,136276.3281250000,121871.7656250000,135204.8906250000,152901.3281250000,,,
2.3519999962,18,176694.3593750000,199043.2968750000,167855.7187500000,168535.7343750000,135196.6562500000,120795.2031250000,133983.1406250000,155555.5156250000,,,
2.3559999962,18,176327.6406250000,217674.2500000000,167489.2031250000,168075.0937500000,134833.7812500000,120370.2109375000,133511.1250000000,157478.0937500000,,,
2.3599999961,18,176692.2343750000,219290.9687500000,168051.6250000000,168748.6250000000,135503.9843750000,121020.1875000000,134250.3750000000,156351.7031250000,,,
2.3639999961,18,177311.9843750000,202328.6875000000,168841.4843750000,169722.5937500000,136392.5781250000,121936.9921875000,135288.1718750000,153677.4218750000,,,
2.3679999961,18,177338.4062500000,187918.9218750000,168767.6406250000,169662.0781250000,136270.6718750000,121859.6093750000,135195.8593750000,152893.5468750000,,,
2.3719999962,18,176703.1250000000,198945.4531250000,167859.8750000000,168540.8906250000,135198.4843750000,120793.9453125000,133977.5468750000,155541.7812500000,,,
2.3759999962,18,176339.3281250000,217628.4687500000,167498.3125000000,168071.6093750000,134837.9375000000,120374.8203125000,133507.2656250000,157483.8906250000,,,
2.3799999962,18,176694.0625000000,219267.9375000000,168056.3281250000,168748.3281250000,135505.5937500000,121023.9453125000,134245.8125000000,156357.4062500000,,,
2.3839999961,18,177305.0625000000,202303.9843750000,168840.2031250000,169724.4375000000,136387.6875000000,121936.3515625000,135278.1718750000,153679.4062500000,,,
2.3879999961,18,177334.2500000000,187911.6406250000,168776.6250000000,169654.5937500000,136277.7500000000,121869.9375000000,135201.7500000000,152895.0000000000,,,
2.3919999963,18,176696.2812500000,198826.0937500000,167864.2968750000,168528.1250000000,135200.5937500000,120801.7187500000,133987.6718750000,155522.7812500000,,,
2.3959999962,18,176329.4062500000,217564.6718750000,167491.5625000000,168056.9062500000,134829.9218750000,120375.8437500000,133506.4062500000,157475.9531250000,,,
2.3999999962,18,176690.3593750000,219272.4375000000,168050.9062500000,168739.9062500000,135498.0781250000,121017.6953125000,134242.6718750000,156357.6562500000,,,
2.4039999961,18,177314.4218750000,202341.6875000000,168844.0312500000,169717.6562500000,136386.8125000000,121938.4140625000,135278.7656250000,153685.4687500000,,,
2.4079999961,18,177345.7031250000,187914.3281250000,168781.1093750000,169668.9531250000,136279.1093750000,121869.5078125000,135202.3437500000,152883.9531250000,,,
2.4119999961,18,176704.3906250000,198701.6406250000,167865.8906250000,168541.2968750000,135202.0156250000,120800.4375000000,133985.1562500000,155498.5625000000,,,
2.4159999962,18,176329.9218750000,217479.4375000000,167485.7031250000,168058.5156250000,134822.6562500000,120374.8984375000,133497.6875000000,157471.0312500000,,,
2.4199999962,18,176690.4843750000,219327.3125000000,168042.2968750000,168730.3125000000,135489.6093750000,121023.4609375000,134232.3437500000,156377.3437500000,,,
2.4239999962,18,177317.2656250000,202490.9062500000,168841.4843750000,169714.2968750000,136387.8281250000,121939.7812500000,135274.7968750000,153704.4062500000,,,
2.4279999961,18,177354.2812500000,187934.6093750000,168788.0625000000,169665.8437500000,136291.0468750000,121882.1171875000,135212.8906250000,152879.6093750000,,,
2.4319999961,19,176710.0937500000,198580.6718750000,167872.0000000000,168546.0937500000,135211.4843750000,120808.0234375000,133995.4843750000,155488.3750000000,,,
2.4359999960,19,176327.9375000000,217414.9375000000,167482.9218750000,168063.4062500000,134821.2812500000,120366.2656250000,133497.6406250000,157480.2187500000,,,
2.4399999960,19,176686.4375000000,219409.7187500000,168039.1875000000,168727.0937500000,135486.5156250000,121013.5390625000,134229.9687500000,156408.5312500000,,,
2.4439999959,19,177312.1406250000,202661.2187500000,168837.1718750000,169705.7812500000,136383.1250000000,121936.4296875000,135272.9062500000,153737.7812500000,,,
2.4479999959,19,177348.8906250000,187960.8906250000,168783.3125000000,169672.7812500000,136285.6406250000,121878.1171875000,135211.0000000000,152882.0937500000,,,
2.4519999959,19,176707.3281250000,198464.6093750000,167868.0625000000,168542.0156250000,135204.0937500000,120803.6015625000,133993.2500000000,155468.0781250000,,,
2.4559999960,19,176336.8125000000,217354.8750000000,167487.4218750000,168054.0468750000,134819.3281250000,120366.9375000000,133495.3906250000,157474.4687500000,,,
2.4599999960,19,176693.8750000000,219477.4687500000,168042.7812500000,168714.6718750000,135483.5781250000,121000.0156250000,134222.0156250000,156412.8750000000,,,
2.4639999960,19,177311.5625000000,202794.0468750000,168834.4531250000,169694.0781250000,136376.1875000000,121913.7421875000,135263.2343750000,153732.8750000000,,,
2.4679999959,19,177354.2812500000,187976.0937500000,168792.0781250000,169674.2812500000,136293.3125000000,121874.1796875000,135218.5156250000,152853.4843750000,,,
2.4719999959,19,176710.6093750000,198338.5000000000,167875.6718750000,168556.6406250000,135211.8906250000,120806.2031250000,134001.2031250000,155431.5937500000,,,
2.4759999961,19,176319.0312500000,217273.4687500000,167473.3437500000,168065.4687500000,134805.9687500000,120351.7031250000,133483.1250000000,157450.4687500000,,,
2.4799999960,19,176663.8750000000,219529.3750000000,168013.8437500000,168706.9218750000,135456.5937500000,120978.3437500000,134196.1406250000,156407.4843750000,,,
2.4839999960,19,177282.4843750000,202906.6718750000,168808.5000000000,169666.9375000000,136353.3125000000,121892.9765625000,135242.2500000000,153717.3125000000,,,
2.4879999959,19,177350.9531250000,188003.0781250000,168794.6875000000,169674.2812500000,136297.6250000000,121869.0781250000,135217.2343750000,152831.8906250000,,,
2.4919999959,19,176733.0625000000,198224.4218750000,167900.9687500000,168576.4062500000,135237.7500000000,120814.3515625000,134017.3750000000,155422.3906250000,,,
2.4959999959,19,176349.0468750000,217211.3437500000,167500.1718750000,168069.1250000000,134831.9062500000,120359.3984375000,133499.7031250000,157477.7500000000,,,
2.4999999960,19,176699.6406250000,219546.2343750000,168046.5312500000,168727.1250000000,135486.0156250000,120992.3984375000,134218.5937500000,156450.9375000000,,,
2.5039999960,19,177325.6562500000,202981.1875000000,168849.3437500000,169723.7187500000,136389.6250000000,121921.1406250000,135270.4218750000,153775.0000000000,,,
2.5079999960,19,177378.2812500000,188025.9062500000,168817.8906250000,169725.3281250000,136321.0312500000,121899.7890625000,135241.5781250000,152872.0156250000,,,
2.5119999959,19,176736.0312500000,198128.7968750000,167901.9062500000,168592.0625000000,135241.7968750000,120828.5468750000,134030.5156250000,155425.4843750000,,,
2.5159999959,19,176343.7031250000,217149.4687500000,167497.6250000000,168070.5156250000,134831.8281250000,120361.8671875000,133512.8437500000,157475.4687500000,,,
2.5199999961,19,176687.2500000000,219588.1406250000,168037.7031250000,168716.6250000000,135481.9843750000,120989.7968750000,134227.3125000000,156455.5468750000,,,
2.5239999960,19,177306.4531250000,203076.1406250000,168831.0468750000,169698.9375000000,136378.9687500000,121917.4921875000,135272.3281250000,153776.7187500000,,,
2.5279999960,19,177359.3750000000,188040.4531250000,168803.5000000000,169682.5468750000,136312.5625000000,121889.8125000000,135246.0312500000,152846.0781250000,,,
2.5319999959,19,176728.4687500000,198006.2187500000,167897.5312500000,168575.0937500000,135238.7187500000,120829.2968750000,134034.2656250000,155384.1250000000,,,
2.5359999959,19,176335.6406250000,217052.4375000000,167486.9218750000,168058.5468750000,134818.7656250000,120361.6796875000,133496.8593750000,157448.8906250000,,,
2.5399999958,19,176670.5937500000,219624.3750000000,168015.9062500000,168694.8437500000,135455.4062500000,120972.7656250000,134191.1718750000,156446.3750000000,,,
2.5439999960,19,177294.2500000000,203211.1093750000,168818.5312500000,169676.6718750000,136360.3906250000,121899.4687500000,135242.8437500000,153765.1562500000,,,
2.5479999960,19,177365.8906250000,188066.1406250000,168808.4218750000,169686.4375000000,136313.9843750000,121889.7031250000,135242.2500000000,152821.6406250000,,,
2.5519999960,19,176747.5937500000,197891.7500000000,167914.4687500000,168582.4062500000,135252.5000000000,120830.6093750000,134045.2187500000,155365.7500000000,,,
2.5559999959,19,176346.3125000000,216986.6406250000,167497.1093750000,168055.8906250000,134825.3593750000,120349.0468750000,133504.6406250000,157448.7500000000,,,
2.5599999959,20,176675.9062500000,219656.7968750000,168023.5156250000,168695.7968750000,135460.0156250000,120964.2656250000,134202.1718750000,156458.8593750000,,,
2.5639999958,20,177293.2031250000,203309.2500000000,168822.1250000000,169684.8593750000,136362.0000000000,121892.6875000000,135251.1093750000,153778.8906250000,,,
2.5679999958,20,177357.9531250000,188080.1718750000,168809.5937500000,169701.9375000000,136314.1718750000,121888.6640625000,135244.9843750000,152815.5312500000,,,
2.5719999957,20,176731.8281250000,197773.4062500000,167908.3750000000,168591.7187500000,135247.0781250000,120836.2421875000,134044.5937500000,155346.0312500000,,,
2.5759999957,20,176331.3437500000,216904.7500000000,167487.1562500000,168053.9062500000,134817.7968750000,120349.3437500000,133498.9843750000,157444.3750000000,,,
2.5799999957,20,176672.0937500000,219700.9531250000,168020.5937500000,168689.8125000000,135459.1875000000,120967.1328125000,134198.9531250000,156482.3437500000,,,
2.5839999958,20,177300.7968750000,203422.7812500000,168826.3125000000,169685.0625000000,136368.1093750000,121897.5390625000,135250.2968750000,153813.5000000000,,,
2.5879999958,20,177378.9062500000,188105.5781250000,168827.3281250000,169716.3750000000,136334.5625000000,121901.2656250000,135258.6718750000,152834.9531250000,,,
2.5919999958,20,176754.1718750000,197663.4843750000,167930.3437500000,168599.7968750000,135270.3437500000,120841.7421875000,134065.8437500000,155345.4375000000,,,
2.5959999957,20,176342.7968750000,216826.6406250000,167497.2968750000,168053.6406250000,134826.1093750000,120346.9296875000,133506.7031250000,157444.6250000000,,,
2.5999999957,20,176675.4375000000,219743.2031250000,168021.1406250000,168685.7500000000,135456.1093750000,120959.0078125000,134195.5000000000,156495.4062500000,,,
2.6039999959,20,177301.7968750000,203553.3593750000,168828.6718750000,169681.4218750000,136367.9843750000,121888.3359375000,135250.0937500000,153826.0156250000,,,
2.6079999958,20,177369.1718750000,188149.2031250000,168820.6250000000,169706.8281250000,136327.7968750000,121893.6484375000,135259.0937500000,152814.8281250000,,,
2.6119999958,20,176744.7031250000,197558.7812500000,167919.3906250000,168600.5468750000,135260.8437500000,120844.5859375000,134061.1406250000,155307.7031250000,,,
2.6159999957,20,176340.4062500000,216756.1250000000,167492.8750000000,168061.3593750000,134819.5312500000,120350.2500000000,133500.8906250000,157437.1875000000,,,
2.6199999957,20,176666.5625000000,219796.8125000000,168012.6250000000,168682.7031250000,135444.2812500000,120943.8828125000,134184.7343750000,156501.7187500000,,,
2.6239999956,20,177285.1562500000,203689.3437500000,168813.1406250000,169665.7343750000,136350.8125000000,121876.2187500000,135238.0937500000,153826.9375000000,,,
2.6279999958,20,177368.0625000000,188176.9687500000,168821.8593750000,169708.8125000000,136328.0937500000,121898.5859375000,135263.8437500000,152810.0000000000,,,
2.6319999958,20,176745.0156250000,197453.2031250000,167924.1718750000,168603.3593750000,135261.2968750000,120846.2968750000,134063.1250000000,155297.4218750000,,,
2.6359999957,20,176339.4687500000,216690.0937500000,167489.2500000000,168058.3281250000,134812.8281250000,120353.8750000000,133492.9687500000,157439.0625000000,,,
2.6399999957,20,176658.9218750000,219833.5937500000,167998.6093750000,168670.7343750000,135430.3281250000,120950.9609375000,134165.7968750000,156513.4843750000,,,
2.6439999957,20,177280.7031250000,203788.7656250000,168803.1875000000,169664.3281250000,136341.3437500000,121882.1406250000,135223.5000000000,153845.5468750000,,,
2.6479999959,20,177364.7500000000,188218.7656250000,168818.3593750000,169706.9531250000,136324.9843750000,121910.3828125000,135252.9218750000,152810.5625000000,,,
2.6519999958,20,176745.3125000000,197340.2031250000,167926.2343750000,168604.2500000000,135265.0000000000,120860.5156250000,134059.6718750000,155267.6250000000,,,
2.6559999958,20,176337.7500000000,216593.9375000000,167493.5625000000,168060.4843750000,134815.9218750000,120356.4218750000,133493.0468750000,157413.5000000000,,,
2.6599999957,20,176654.8125000000,219853.6250000000,167999.6250000000,168676.6406250000,135427.7500000000,120953.5859375000,134161.6406250000,156507.4843750000,,,
2.6639999957,20,177264.0781250000,203883.6093750000,168790.4218750000,169648.4843750000,136325.7812500000,121870.4453125000,135207.6875000000,153833.1875000000,,,
2.6679999956,20,177351.4687500000,188234.7656250000,168811.1718750000,169699.8281250000,136317.1562500000,121895.9296875000,135241.8593750000,152775.5937500000,,,
2.6719999958,20,176751.6406250000,197211.1875000000,167936.1093750000,168618.3750000000,135275.2187500000,120868.4843750000,134066.0468750000,155240.8593750000,,,
2.6759999958,20,176349.2031250000,216512.8750000000,167502.5312500000,168070.8281250000,134824.3593750000,120362.4062500000,133497.5312500000,157416.1875000000,,,
2.6799999957,20,176672.4062500000,219877.3906250000,168016.7031250000,168680.3125000000,135444.9218750000,120949.8359375000,134171.9531250000,156532.7968750000,,,
2.6839999957,20,177289.7968750000,203973.2500000000,168816.8593750000,169656.3437500000,136351.3750000000,121885.6328125000,135222.2656250000,153871.7343750000,,,
2.6879999957,21,177379.0937500000,188266.8593750000,168840.2187500000,169708.0625000000,136344.2343750000,121917.5781250000,135263.9062500000,152794.6250000000,,,
2.6919999956,21,176766.3125000000,197112.3281250000,167953.5468750000,168625.8437500000,135288.5781250000,120874.4062500000,134077.3906250000,155234.7656250000,,,
2.6959999956,21,176343.7031250000,216436.0000000000,167496.8125000000,168060.8281250000,134813.8281250000,120352.5625000000,133481.8125000000,157409.9062500000,,,
2.6999999955,21,176642.3906250000,219936.1562500000,167982.7968750000,168649.7968750000,135407.0000000000,120927.2734375000,134130.0156250000,156528.7968750000,,,
2.7039999955,21,177257.1406250000,204142.9843750000,168782.7968750000,169631.8281250000,136316.3125000000,121863.3437500000,135189.0937500000,153869.7968750000,,,
2.7079999954,21,177351.1406250000,188304.4843750000,168810.2968750000,169694.9375000000,136317.6250000000,121899.4140625000,135241.5312500000,152777.8750000000,,,
2.7119999956,21,176742.6562500000,197000.8750000000,167925.4843750000,168611.0312500000,135265.7968750000,120867.0078125000,134062.2187500000,155203.3437500000,,,
2.7159999956,21,176337.5156250000,216363.5312500000,167486.4843750000,168061.8437500000,134808.0781250000,120356.6093750000,133484.3593750000,157399.6875000000,,,
2.7199999955,21,176645.6406250000,220046.0937500000,167979.6875000000,168648.0937500000,135406.7500000000,120930.7343750000,134134.4531250000,156552.4062500000,,,
2.7239999955,21,177267.7343750000,204400.6562500000,168783.1562500000,169636.0937500000,136319.9062500000,121872.1093750000,135190.6250000000,153904.8593750000,,,
2.7279999955,21,177374.9375000000,188384.2500000000,168825.8437500000,169713.9062500000,136339.2031250000,121930.0234375000,135253.5781250000,152784.4687500000,,,
2.7319999957,21,176766.0000000000,196909.8906250000,167943.9687500000,168626.0468750000,135289.7812500000,120894.3125000000,134074.3125000000,155192.0781250000,,,
2.7359999956,21,176339.4687500000,216299.5625000000,167483.3437500000,168050.6093750000,134804.7656250000,120367.7968750000,133471.1718750000,157392.4218750000,,,
2.7399999956,21,176638.7500000000,220046.0156250000,167972.4843750000,168650.7812500000,135395.8593750000,120933.6875000000,134115.5156250000,156548.2968750000,,,
2.7439999955,21,177262.4687500000,204426.6250000000,168781.5156250000,169646.5468750000,136313.0468750000,121871.0390625000,135182.3125000000,153900.9843750000,,,
2.7479999955,21,177366.5468750000,188410.3437500000,168825.8750000000,169717.3125000000,136334.1250000000,121932.2500000000,135251.7812500000,152772.3125000000,,,
2.7519999954,21,176770.7187500000,196810.5000000000,167956.6718750000,168646.8437500000,135297.6406250000,120901.1250000000,134087.8593750000,155172.4843750000,,,
2.7559999956,21,176353.7656250000,216212.0625000000,167505.1093750000,168064.9375000000,134822.0000000000,120375.9765625000,133495.9218750000,157389.5000000000,,,
2.7599999956,21,176651.7343750000,220029.0937500000,167985.5468750000,168644.1093750000,135408.3593750000,120943.8515625000,134131.8750000000,156563.2968750000,,,
2.7639999955,21,177266.5156250000,204452.9687500000,168781.2187500000,169636.2187500000,136312.4062500000,121870.1015625000,135176.7343750000,153917.1875000000,,,
2.7679999955,21,177377.9687500000,188425.9062500000,168833.8437500000,169723.1250000000,136342.1718750000,121937.8828125000,135255.4218750000,152791.1250000000,,,
2.7719999955,21,176775.2500000000,196685.9375000000,167958.4843750000,168646.6250000000,135302.6093750000,120909.3593750000,134089.7656250000,155164.8437500000,,,
2.7759999956,21,176355.1093750000,216130.5000000000,167501.4062500000,168067.5156250000,134821.9531250000,120383.9140625000,133483.5781250000,157387.3750000000,,,
2.7799999956,21,176653.6875000000,220123.7968750000,167989.4843750000,168649.2500000000,135411.9062500000,120944.5234375000,134123.5312500000,156588.8281250000,,,
2.7839999956,21,177263.5468750000,204701.9531250000,168787.4687500000,169636.0156250000,136318.4843750000,121873.8515625000,135176.4062500000,153950.5312500000,,,
2.7879999955,21,177378.4687500000,188502.6250000000,168843.0468750000,169739.7656250000,136351.4843750000,121953.7031250000,135263.0625000000,152783.9062500000,,,
2.7919999955,21,176787.3906250000,196604.9531250000,167975.6093750000,168667.6250000000,135317.5937500000,120934.6796875000,134102.7968750000,155145.8281250000,,,
2.7959999954,21,176359.0468750000,216052.8437500000,167505.0000000000,168079.0468750000,134821.9843750000,120389.7343750000,133484.7343750000,157368.0937500000,,,
2.7999999956,21,176644.1093750000,220147.1562500000,167975.0000000000,168646.2812500000,135396.7031250000,120940.5234375000,134108.1406250000,156574.7812500000,,,
2.8039999956,21,177257.0312500000,204801.1093750000,168777.9687500000,169636.7031250000,136309.7187500000,121870.0156250000,135164.1718750000,153945.3593750000,,,
2.8079999955,21,177366.3281250000,188545.6875000000,168833.0312500000,169730.4218750000,136345.6093750000,121943.7265625000,135254.2187500000,152762.7187500000,,,
2.8119999955,21,176772.4843750000,196487.5000000000,167963.3281250000,168658.0781250000,135307.9375000000,120926.7656250000,134096.8437500000,155104.1562500000,,,
2.8159999955,22,176353.0156250000,215958.1406250000,167497.7812500000,168073.8906250000,134813.3750000000,120392.1484375000,133479.1562500000,157352.4375000000,,,
2.8199999954,22,176645.4843750000,220150.9687500000,167972.5312500000,168652.3906250000,135388.7343750000,120941.2500000000,134098.6093750000,156582.0468750000,,,
2.8239999954,22,177258.0937500000,204879.8437500000,168769.0625000000,169625.6093750000,136297.2187500000,121872.7265625000,135150.4687500000,153965.2343750000,,,
2.8279999953,22,177379.4218750000,188595.7187500000,168835.0000000000,169723.0156250000,136345.6406250000,121956.8671875000,135248.1875000000,152785.0312500000,,,
2.8319999953,22,176792.5000000000,196397.8125000000,167974.1875000000,168667.8437500000,135318.4218750000,120948.0937500000,134097.4531250000,155111.2031250000,,,
2.8359999952,22,176355.5625000000,215882.8750000000,167495.7343750000,168072.2031250000,134811.9531250000,120394.8046875000,133469.9062500000,157343.0468750000,,,
2.8399999954,22,176638.4062500000,220156.0156250000,167969.3125000000,168637.4531250000,135388.0312500000,120930.8984375000,134091.3125000000,156576.0937500000,,,
2.8439999954,22,177247.0000000000,204947.5937500000,168768.7968750000,169628.1250000000,136297.1406250000,121860.3906250000,135143.4687500000,153965.7343750000,,,
2.8479999953,22,177368.6562500000,188641.2656250000,168839.9843750000,169741.7656250000,136348.4531250000,121954.5859375000,135243.9218750000,152773.9062500000,,,
2.8519999953,22,176782.5468750000,196297.0625000000,167983.0937500000,168678.8125000000,135323.9218750000,120943.1250000000,134094.5156250000,155072.1562500000,,,
2.8559999953,22,176352.3437500000,215811.0468750000,167505.7968750000,168081.2187500000,134817.2812500000,120392.8984375000,133464.2968750000,157321.9375000000,,,
2.8599999954,22,176631.7187500000,220189.6250000000,167965.4218750000,168635.5000000000,135381.1718750000,120930.0390625000,134073.9062500000,156573.2968750000,,,
2.8639999954,22,177240.2343750000,205061.8750000000,168759.4843750000,169618.7968750000,136286.1718750000,121852.1796875000,135119.0625000000,153968.3750000000,,,
2.8679999954,22,177368.5468750000,188715.9375000000,168835.8750000000,169736.0781250000,136344.3281250000,121944.9062500000,135225.8906250000,152765.6875000000,,,
2.8719999953,22,176784.2343750000,196232.4531250000,167974.9218750000,168680.5468750000,135318.1093750000,120938.2187500000,134074.1562500000,155047.4218750000,,,
2.8759999953,22,176362.4531250000,215756.7656250000,167505.7500000000,168083.0312500000,134818.2500000000,120393.6796875000,133455.8281250000,157314.6406250000,,,
2.8799999952,22,176646.0156250000,220250.4218750000,167972.4218750000,168641.8750000000,135387.8906250000,120939.6406250000,134070.5000000000,156590.2343750000,,,
2.8839999954,22,177247.4218750000,205235.4531250000,168762.0468750000,169618.9218750000,136288.3437500000,121863.1796875000,135111.6093750000,153995.4062500000,,,
2.8879999954,22,177369.3281250000,188787.8906250000,168836.3125000000,169731.5781250000,136344.9687500000,121959.0703125000,135222.4531250000,152770.2031250000,,,
2.8919999953,22,176787.0781250000,196155.2031250000,167982.5312500000,168680.4531250000,135322.6718750000,120950.5078125000,134077.4218750000,155033.7968750000,,,
2.8959999953,22,176358.7031250000,215678.2343750000,167503.7343750000,168075.8437500000,134811.0156250000,120395.1796875000,133441.7343750000,157293.2656250000,,,
2.8999999953,22,176635.0468750000,220278.7500000000,167960.1406250000,168627.7968750000,135369.5312500000,120920.1171875000,134040.7343750000,156576.2031250000,,,
2.9039999954,22,177250.0312500000,205376.0781250000,168763.4843750000,169614.4531250000,136285.1718750000,121851.5937500000,135092.5312500000,154004.3125000000,,,
2.9079999954,22,177391.2968750000,188854.2031250000,168859.7187500000,169748.2343750000,136366.5000000000,121964.7031250000,135227.5625000000,152776.8281250000,,,
2.9119999954,22,176820.6093750000,196060.7656250000,168014.7500000000,168718.5312500000,135354.7187500000,120974.4531250000,134099.6406250000,155024.5156250000,,,
2.9159999953,22,176390.0781250000,215587.4687500000,167527.0156250000,168097.7968750000,134833.7343750000,120419.4765625000,133456.5156250000,157297.0156250000,,,
2.9199999953,22,176648.6406250000,220302.1093750000,167965.6718750000,168632.7500000000,135373.8750000000,120932.8828125000,134044.0000000000,156595.1406250000,,,
2.9239999952,22,177240.6718750000,205491.1406250000,168748.5468750000,169601.0625000000,136269.6718750000,121843.0625000000,135078.6406250000,154016.5937500000,,,
2.9279999954,22,177374.1250000000,188899.9062500000,168838.7187500000,169741.7968750000,136346.8750000000,121960.1718750000,135208.7343750000,152765.8281250000,,,
2.9319999954,22,176803.9687500000,195951.1718750000,167999.7500000000,168703.8906250000,135340.1562500000,120970.2968750000,134081.1562500000,154992.9687500000,,,
2.9359999953,22,176374.8750000000,215498.3906250000,167522.4375000000,168094.6562500000,134826.7812500000,120408.2187500000,133440.4843750000,157275.1875000000,,,
2.9399999953,22,176642.5312500000,220287.4375000000,167973.4375000000,168634.3437500000,135379.7968750000,120930.0625000000,134033.2812500000,156591.0781250000,,,
2.9439999952,23,177243.0468750000,205520.3437500000,168767.1875000000,169600.3437500000,136286.7343750000,121847.1406250000,135076.2187500000,154027.8125000000,,,
