Time:250Hz,Epoch,Channel 1,Channel 2,Channel 3,Channel 4,Channel 5,Channel 6,Channel 7,Channel 8,Event Id,Event Date,Event Duration
0.0000000000,0,199613.3437500000,193363.4531250000,199567.8281250000,184849.5625000000,186277.6250000000,165470.8125000000,172788.2500000000,-7055.8466796875,,,
0.0040000000,0,199624.5937500000,193388.7500000000,199567.0000000000,184850.4375000000,186292.3125000000,165503.2656250000,172766.2031250000,-7022.6679687500,,,
0.0079999999,0,199576.1250000000,193348.2968750000,199502.3281250000,184854.5468750000,186241.6562500000,165480.0937500000,172664.3593750000,-7042.8378906250,,,
0.0119999999,0,199569.8125000000,193315.7656250000,199529.5625000000,184829.8125000000,186272.6875000000,165424.0625000000,172670.0468750000,-7050.4824218750,,,
0.0159999998,0,199520.6562500000,193277.8125000000,199469.8281250000,184754.3906250000,186202.4062500000,165364.3437500000,172674.5000000000,-7099.4594726563,,,
0.0199999998,0,199470.5000000000,193248.1093750000,199397.8906250000,184685.4531250000,186119.0468750000,165431.8125000000,172678.4687500000,-7173.4619140625,,,
0.0240000000,0,199520.0937500000,193274.3437500000,199473.6875000000,184726.9531250000,186192.1562500000,165527.7500000000,172734.7187500000,-7133.6308593750,,,
0.0279999999,0,199541.8750000000,193287.3281250000,199482.5625000000,184794.1406250000,186224.5625000000,165513.2343750000,172739.0000000000,-7083.1787109375,,,
0.0319999999,0,199571.2343750000,193310.1875000000,199524.2187500000,184812.8593750000,186272.4375000000,165525.6093750000,172713.3437500000,-7071.0014648438,,,
0.0359999998,0,199527.8906250000,193282.8281250000,199473.8437500000,184785.1875000000,186223.5937500000,165475.0937500000,172682.8906250000,-7106.2456054688,,,
0.0399999998,0,199530.1250000000,193287.0312500000,199468.4843750000,184778.7500000000,186209.7812500000,165480.0156250000,172735.8125000000,-7097.7431640625,,,
0.0440000000,0,199563.3593750000,193310.6875000000,199505.6093750000,184794.9531250000,186242.2968750000,165523.4062500000,172772.5625000000,-7077.7871093750,,,
0.0480000000,0,199560.3281250000,193294.4375000000,199527.3281250000,184780.7812500000,186275.8437500000,165508.3281250000,172706.3281250000,-7077.6801757813,,,
0.0519999999,0,199533.2500000000,193269.8437500000,199482.6250000000,184776.3125000000,186241.4687500000,165509.4062500000,172708.6406250000,-7096.6162109375,,,
0.0559999999,0,199511.2656250000,193277.1718750000,199450.8125000000,184753.9687500000,186192.7187500000,165498.3750000000,172673.0000000000,-7106.4062500000,,,
0.0599999998,0,199493.5625000000,193254.7968750000,199451.9375000000,184758.2031250000,186190.6406250000,165405.0468750000,172649.6406250000,-7101.5786132813,,,
0.0639999998,0,199581.0000000000,193344.8437500000,199535.9062500000,184774.7812500000,186252.4375000000,165608.7500000000,172865.5468750000,-7058.9580078125,,,
0.0680000000,0,199521.4062500000,193267.1093750000,199473.9218750000,184810.0000000000,186195.5625000000,165599.1562500000,172809.0625000000,-7130.3320312500,,,
0.0719999999,0,199514.0000000000,193265.9062500000,199492.3593750000,184755.4375000000,186212.3593750000,165541.7812500000,172694.6718750000,-7122.5532226563,,,
0.0759999999,0,199552.9218750000,193325.3437500000,199528.8281250000,184760.0468750000,186256.1093750000,165583.6250000000,172713.0468750000,-7068.1850585938,,,
0.0799999998,0,199482.9687500000,193256.5156250000,199432.8906250000,184777.6718750000,186165.5000000000,165559.2656250000,172746.6718750000,-7130.3583984375,,,
0.0839999998,0,199545.9375000000,193313.0781250000,199517.8281250000,184834.3437500000,186208.5781250000,165628.3125000000,172869.6250000000,-7077.3315429688,,,
0.0880000000,0,199542.7500000000,193302.3750000000,199544.7031250000,184828.0468750000,186209.6562500000,165634.7187500000,172865.6562500000,-7084.7075195313,,,
0.0919999999,0,199548.6875000000,193341.3281250000,199571.0156250000,184780.8906250000,186227.2187500000,165615.9375000000,172788.0937500000,-7046.1909179688,,,
0.0959999999,0,199488.5937500000,193279.3593750000,199495.3906250000,184752.4375000000,186158.8281250000,165542.4218750000,172753.7031250000,-7101.3906250000,,,
0.0999999999,0,199478.6406250000,193260.9375000000,199463.2031250000,184757.9062500000,186128.0625000000,165566.0000000000,172777.1718750000,-7150.9580078125,,,
0.1039999998,0,199484.6562500000,193262.2812500000,199460.9687500000,184755.9218750000,186138.9687500000,165559.3437500000,172771.5156250000,-7147.9272460938,,,
0.1079999998,0,199482.4531250000,193257.9531250000,199449.2500000000,184725.3125000000,186150.7968750000,165554.1250000000,172812.6562500000,-7123.5996093750,,,
0.1120000000,0,199430.2656250000,193200.9062500000,199393.0000000000,184701.7343750000,186112.0937500000,165476.2812500000,172758.7968750000,-7148.4633789063,,,
0.1159999999,0,199436.3281250000,193233.8437500000,199397.4531250000,184671.1406250000,186137.0937500000,165511.1250000000,172638.2343750000,-7148.9462890625,,,
0.1199999999,0,199481.2187500000,193250.3437500000,199445.0937500000,184695.1406250000,186179.3437500000,165594.7031250000,172814.8593750000,-7156.7514648438,,,
0.1239999998,0,199449.3906250000,193213.4687500000,199391.4687500000,184736.9375000000,186126.5312500000,165609.0000000000,172855.1406250000,-7186.2290039063,,,
0.1279999998,1,199497.5625000000,193272.6093750000,199452.8437500000,184775.5312500000,186181.1093750000,165621.5781250000,172873.1718750000,-7116.5454101563,,,
0.1319999998,1,199465.9843750000,193221.9062500000,199429.9062500000,184818.6093750000,186178.5625000000,165490.7656250000,172788.7343750000,-7117.6181640625,,,
0.1359999997,1,199453.5156250000,193250.4531250000,199388.7656250000,184755.8593750000,186157.4218750000,165536.5000000000,172690.5625000000,-7096.5629882813,,,
0.1399999997,1,199500.5312500000,193290.4218750000,199451.6406250000,184777.4062500000,186186.5625000000,165683.4062500000,172854.3437500000,-7121.3193359375,,,
0.1439999996,1,199538.2812500000,193291.1093750000,199512.3437500000,184928.2031250000,186262.5156250000,165662.6875000000,172818.9843750000,-7089.4013671875,,,
0.1479999996,1,199509.5156250000,193251.6875000000,199450.9375000000,184882.4375000000,186214.3750000000,165669.5937500000,172905.0937500000,-7114.0507812500,,,
0.1519999998,1,199488.0156250000,193226.1250000000,199423.5312500000,184856.1562500000,186166.3281250000,165686.8593750000,173003.5000000000,-7142.0263671875,,,
0.1559999997,1,199487.5000000000,193255.1406250000,199423.2031250000,184772.6875000000,186160.8281250000,165686.7500000000,172953.2812500000,-7128.8833007813,,,
0.1599999997,1,199468.7812500000,193260.5156250000,199402.0156250000,184660.2187500000,186152.5468750000,165663.1562500000,172901.0625000000,-7112.1196289063,,,
0.1639999996,1,199482.7031250000,193270.0625000000,199424.7656250000,184633.4531250000,186178.9375000000,165711.8281250000,172931.6718750000,-7112.8437500000,,,
0.1679999996,1,199417.7343750000,193191.4375000000,199354.4062500000,184618.4062500000,186127.3593750000,165696.8125000000,172889.7656250000,-7179.3090820313,,,
0.1719999998,1,199467.1093750000,193233.2343750000,199411.1406250000,184697.5781250000,186184.5156250000,165730.2343750000,172879.4218750000,-7123.8676757813,,,
0.1759999997,1,199472.9375000000,193239.7968750000,199431.6093750000,184712.7031250000,186195.4687500000,165699.9531250000,172893.1562500000,-7121.8291015625,,,
0.1799999997,1,199459.2500000000,193245.1718750000,199415.3281250000,184677.4375000000,186161.8593750000,165715.0781250000,172932.6406250000,-7131.8876953125,,,
0.1839999997,1,199439.0781250000,193235.7812500000,199379.8906250000,184725.4531250000,186138.4687500000,165724.8906250000,172892.2187500000,-7129.5805664063,,,
0.1879999996,1,199443.7187500000,193226.5781250000,199407.6562500000,184747.3906250000,186166.9218750000,165731.6718750000,172911.9218750000,-7121.1318359375,,,
0.1919999996,1,199484.5000000000,193235.1562500000,199461.5156250000,184902.1562500000,186189.8281250000,165838.5625000000,173023.6093750000,-7123.0092773438,,,
0.1959999998,1,199539.2968750000,193298.8437500000,199525.5937500000,184909.7187500000,186240.4375000000,165882.5468750000,173087.1562500000,-7079.2089843750,,,
0.1999999997,1,199505.5000000000,193290.5781250000,199491.8125000000,184687.9843750000,186210.3281250000,165843.0781250000,173046.8750000000,-7098.5478515625,,,
0.2039999997,1,199530.7656250000,193329.9843750000,199525.6875000000,184648.5781250000,186252.3593750000,165884.5156250000,173056.2812500000,-7062.5522460938,,,
0.2079999996,1,199454.2968750000,193222.7656250000,199429.4531250000,184759.4062500000,186192.6718750000,165816.5781250000,172956.4531250000,-7121.8022460938,,,
0.2119999996,1,199479.4843750000,193240.6093750000,199440.1250000000,184747.2031250000,186196.4531250000,165860.3125000000,172985.2343750000,-7101.6054687500,,,
0.2159999998,1,199511.7500000000,193289.4843750000,199465.1875000000,184705.4218750000,186203.1093750000,165894.1875000000,173059.6562500000,-7089.4550781250,,,
0.2199999997,1,199544.0468750000,193327.4062500000,199511.2031250000,184763.7812500000,186243.8437500000,165899.0156250000,173068.7031250000,-7041.0947265625,,,
0.2239999997,1,199553.7500000000,193332.4531250000,199517.3281250000,184826.1718750000,186288.5937500000,165898.8125000000,173033.3750000000,-7009.4179687500,,,
0.2279999997,1,199502.3125000000,193255.8906250000,199451.1875000000,184804.8906250000,186205.7031250000,165924.5000000000,173110.9531250000,-7101.3100585938,,,
0.2319999996,1,199488.9218750000,193256.6406250000,199441.0156250000,184750.2343750000,186172.1875000000,165935.6093750000,173096.8593750000,-7109.0351562500,,,
0.2359999996,1,199468.6718750000,193257.8593750000,199419.3437500000,184725.7500000000,186158.5781250000,165881.2968750000,173014.5000000000,-7119.5493164063,,,
0.2399999998,1,199458.1093750000,193245.3750000000,199411.3750000000,184726.9531250000,186161.1093750000,165884.7500000000,172961.1718750000,-7126.9252929688,,,
0.2439999997,1,199490.2031250000,193263.4062500000,199444.0937500000,184769.8437500000,186186.3125000000,165924.3906250000,173037.6093750000,-7095.8920898438,,,
0.2479999997,1,199477.0937500000,193236.8593750000,199440.3437500000,184754.9218750000,186189.4843750000,165904.6875000000,173020.3906250000,-7110.4833984375,,,
0.2519999996,1,199473.5312500000,193247.3125000000,199428.5781250000,184722.3593750000,186176.0625000000,165888.3281250000,173008.6406250000,-7110.2421875000,,,
0.2559999996,2,199458.4218750000,193243.6718750000,199402.4687500000,184693.0000000000,186140.0000000000,165872.7968750000,173010.4218750000,-7130.7875976563,,,
0.2599999995,2,199422.9687500000,193180.3906250000,199368.8593750000,184712.2500000000,186101.1875000000,165898.8906250000,173020.1250000000,-7185.3974609375,,,
0.2639999995,2,199392.3593750000,193130.7187500000,199340.0312500000,184694.7656250000,186078.5781250000,165879.8750000000,172958.8906250000,-7223.5654296875,,,
0.2679999995,2,199410.8906250000,193163.1250000000,199353.8125000000,184681.1093750000,186099.3906250000,165909.2187500000,172952.8281250000,-7188.6162109375,,,
0.2719999994,2,199412.2656250000,193156.8750000000,199359.9843750000,184707.7187500000,186098.0937500000,165901.6718750000,172956.0468750000,-7183.7612304688,,,
0.2759999994,2,199379.9687500000,193116.0781250000,199348.0781250000,184657.7031250000,186085.8593750000,165850.4531250000,172873.8437500000,-7222.8950195313,,,
0.2799999996,2,199414.2500000000,193166.4375000000,199389.4687500000,184676.7656250000,186127.9218750000,165887.8593750000,172861.4687500000,-7188.9111328125,,,
0.2839999995,2,199449.0625000000,193204.3906250000,199426.0156250000,184739.1250000000,186157.5312500000,165905.2500000000,172919.5468750000,-7130.3583984375,,,
0.2879999995,2,199488.4375000000,193240.7656250000,199461.7968750000,184794.6718750000,186190.2031250000,165974.2343750000,173001.1093750000,-7095.4096679688,,,
0.2919999994,2,199438.1718750000,193182.1406250000,199407.3593750000,184760.7812500000,186121.2187500000,165949.0156250000,173021.7968750000,-7164.1542968750,,,
0.2959999994,2,199388.3125000000,193129.6093750000,199349.3437500000,184770.7031250000,186053.3281250000,165881.5625000000,173015.3281250000,-7202.5371093750,,,
0.2999999996,2,199404.7812500000,193144.6093750000,199367.3593750000,184764.9375000000,186063.3437500000,165904.0625000000,173007.8906250000,-7208.4375000000,,,
0.3039999995,2,199481.5156250000,193224.2500000000,199458.1250000000,184795.2343750000,186165.0156250000,165970.0937500000,173016.7968750000,-7134.5161132813,,,
0.3079999995,2,199461.0468750000,193184.5468750000,199439.9218750000,184802.1406250000,186162.5000000000,165933.8125000000,172969.3281250000,-7142.5625000000,,,
0.3119999995,2,199445.2343750000,193163.9687500000,199412.2343750000,184770.6406250000,186126.0468750000,165942.5625000000,173026.0625000000,-7154.3105468750,,,
0.3159999994,2,199447.1562500000,193178.5625000000,199400.7343750000,184747.0625000000,186096.5468750000,165931.8750000000,173025.2031250000,-7162.9204101563,,,
0.3199999994,2,199441.5000000000,193190.7187500000,199386.2187500000,184739.5781250000,186078.3593750000,165926.7500000000,172984.3437500000,-7164.2885742188,,,
0.3239999996,2,199465.6093750000,193185.5156250000,199440.7812500000,184784.7500000000,186127.5781250000,165946.7968750000,172972.8125000000,-7162.8403320313,,,
0.3279999995,2,199455.0781250000,193183.8750000000,199439.1718750000,184804.0312500000,186138.3906250000,165959.6718750000,172972.5468750000,-7170.3237304688,,,
0.3319999995,2,199445.3125000000,193205.9531250000,199412.5625000000,184796.9375000000,186114.5937500000,165970.9062500000,173042.5000000000,-7163.7788085938,,,
0.3359999994,2,199424.7968750000,193181.3593750000,199403.5781250000,184794.6718750000,186100.8125000000,165935.9062500000,172979.7031250000,-7200.1230468750,,,
0.3399999994,2,199396.1718750000,193126.1093750000,199384.6093750000,184796.4687500000,186081.0625000000,165915.8125000000,172975.8906250000,-7248.8051757813,,,
0.3439999996,2,199430.3750000000,193174.2187500000,199410.0937500000,184796.3437500000,186103.7812500000,165972.5937500000,173054.3593750000,-7208.1425781250,,,
0.3479999995,2,199416.9375000000,193164.9375000000,199417.6562500000,184801.5937500000,186115.9062500000,165969.8593750000,173047.1875000000,-7209.4838867188,,,
0.3519999995,2,199388.8281250000,193145.7031250000,199411.4843750000,184782.2031250000,186108.8281250000,165955.9062500000,172993.9531250000,-7222.6533203125,,,
0.3559999994,2,199414.4062500000,193202.9218750000,199441.4687500000,184803.6562500000,186110.0937500000,165996.6250000000,173071.2812500000,-7182.7690429688,,,
0.3599999994,2,199418.4843750000,193194.0781250000,199455.9843750000,184893.3906250000,186115.9375000000,165996.5156250000,173093.2968750000,-7185.3168945313,,,
0.3639999994,2,199433.5625000000,193206.0625000000,199484.6093750000,184987.9062500000,186148.6562500000,165996.9843750000,173070.8750000000,-7163.5644531250,,,
0.3679999996,2,199432.6406250000,193198.7656250000,199484.4375000000,184937.2031250000,186167.3750000000,166013.9062500000,173095.1718750000,-7139.5048828125,,,
0.3719999995,2,199416.4531250000,193177.3906250000,199481.2500000000,184804.2500000000,186164.9843750000,166027.4218750000,173175.5312500000,-7132.9335937500,,,
0.3759999995,2,199431.7656250000,193207.7187500000,199497.2031250000,184823.1406250000,186168.0000000000,166030.8593750000,173196.6093750000,-7107.8281250000,,,
0.3799999994,2,199437.7187500000,193231.9218750000,199516.4687500000,184868.4062500000,186173.6562500000,166019.9687500000,173196.0468750000,-7093.7465820313,,,
0.3839999994,3,199451.8750000000,193244.8437500000,199557.9375000000,184923.1250000000,186212.9531250000,166035.9218750000,173236.0781250000,-7063.4912109375,,,
0.3879999993,3,199473.1718750000,193258.9843750000,199606.4531250000,184950.3281250000,186265.9218750000,166069.0156250000,173316.8125000000,-7008.2915039063,,,
0.3919999993,3,199489.4375000000,193264.3437500000,199622.7968750000,184937.5312500000,186275.6875000000,166070.6562500000,173306.9687500000,-6984.0976562500,,,
0.3959999993,3,199516.5781250000,193305.9687500000,199620.8593750000,184904.7812500000,186265.1250000000,166101.2343750000,173241.1718750000,-6960.7089843750,,,
0.3999999992,3,199521.2343750000,193314.0156250000,199579.8437500000,184962.6406250000,186238.4531250000,166124.5156250000,173177.8125000000,-6965.3222656250,,,
0.4039999992,3,199516.0312500000,193282.1250000000,199535.3281250000,184990.0312500000,186229.0937500000,166161.9531250000,173148.9843750000,-6985.4389648438,,,
0.4079999994,3,199548.2500000000,193293.4531250000,199548.0312500000,184970.8125000000,186274.4062500000,166255.2812500000,173188.2968750000,-6939.7875976563,,,
0.4119999993,3,199560.4062500000,193286.9531250000,199562.8125000000,184925.5156250000,186294.2968750000,166289.1718750000,173231.0000000000,-6895.3701171875,,,
0.4159999993,3,199547.5000000000,193256.5625000000,199556.0781250000,184885.2031250000,186271.4687500000,166246.6093750000,173223.3125000000,-6898.9643554688,,,
0.4199999992,3,199494.9218750000,193226.7968750000,199512.6250000000,184853.4218750000,186209.0000000000,166160.8906250000,173162.1250000000,-6949.6582031250,,,
0.4239999992,3,199493.3750000000,193276.5468750000,199551.7343750000,184869.6406250000,186215.0156250000,166108.0468750000,173166.4687500000,-6949.6582031250,,,
0.4279999994,3,199512.9843750000,193296.7656250000,199608.8906250000,184890.0000000000,186235.9687500000,166092.7656250000,173248.0156250000,-6926.3227539063,,,
0.4319999993,3,199525.6093750000,193301.3593750000,199640.7656250000,184927.9843750000,186232.5312500000,166078.3593750000,173254.1250000000,-6935.9790039063,,,
0.4359999993,3,199489.3281250000,193335.7656250000,199591.6718750000,184894.0312500000,186172.5312500000,166031.0156250000,173194.1718750000,-6996.8920898438,,,
0.4399999992,3,199446.6562500000,193396.6093750000,199578.0468750000,184808.3906250000,186133.1250000000,165983.5625000000,173149.1718750000,-7052.0917968750,,,
0.4439999992,3,199439.4531250000,193475.2656250000,199613.5156250000,184809.9375000000,186123.0937500000,165965.8125000000,173117.6250000000,-7057.8046875000,,,
0.4479999992,3,199509.1250000000,193468.5625000000,199692.1718750000,184883.4375000000,186153.2968750000,165978.2343750000,173136.4843750000,-7023.5532226563,,,
0.4519999993,3,199537.6562500000,193455.2968750000,199705.6718750000,184896.2500000000,186166.1406250000,166000.4843750000,173160.8125000000,-7004.0800781250,,,
0.4559999993,3,199504.1875000000,193406.5000000000,199638.8281250000,184812.0781250000,186124.6718750000,165959.7968750000,173118.5312500000,-7037.6884765625,,,
0.4599999993,3,199553.9375000000,193408.7812500000,199646.6093750000,184798.0000000000,186169.1562500000,165946.5312500000,173146.1406250000,-6994.5849609375,,,
0.4639999992,3,199595.4531250000,193451.4218750000,199650.5312500000,184902.8750000000,186217.4218750000,165885.9375000000,173262.8906250000,-6939.8681640625,,,
0.4679999992,3,199647.4062500000,193492.9218750000,199667.9062500000,184961.7812500000,186275.3125000000,165802.8593750000,173402.1875000000,-6836.6030273438,,,
0.4719999994,3,199637.6718750000,193463.7968750000,199651.2812500000,184922.8906250000,186291.2187500000,165791.2812500000,173440.0781250000,-6739.2656250000,,,
0.4759999993,3,199570.0781250000,193508.9375000000,199599.5156250000,184901.3750000000,186254.9218750000,165919.7812500000,173307.5781250000,-6769.0649414063,,,
0.4799999993,3,199543.2343750000,193515.1875000000,199564.5312500000,184870.2968750000,186233.8750000000,166063.8437500000,173110.5156250000,-6834.9936523438,,,
0.4839999992,3,199508.2031250000,193473.3125000000,199552.5937500000,184881.7187500000,186255.1875000000,166123.7968750000,173060.5000000000,-6848.6997070313,,,
0.4879999992,3,199496.8281250000,193504.1406250000,199570.6250000000,184988.5468750000,186322.2187500000,166089.0312500000,173065.7187500000,-6813.2944335938,,,
0.4919999992,3,199479.4062500000,193376.9375000000,199509.2812500000,185038.6250000000,186256.3750000000,165986.3593750000,172956.3906250000,-6911.3295898438,,,
0.4959999993,3,199489.2968750000,193319.2187500000,199468.5156250000,184910.1718750000,186155.8750000000,165902.7187500000,172931.7500000000,-6982.4077148438,,,
0.4999999993,3,199491.4687500000,193333.8750000000,199460.9687500000,184831.6875000000,186122.3750000000,165847.2812500000,172905.2968750000,-7003.0341796875,,,
0.5039999993,3,199498.2031250000,193310.5625000000,199449.5781250000,184846.2031250000,186125.2187500000,165813.0000000000,172866.1406250000,-7039.1098632813,,,
0.5079999992,3,199492.7031250000,193315.2031250000,199435.7812500000,184816.8906250000,186125.5156250000,165795.4843750000,172797.5625000000,-7071.6718750000,,,
0.5119999992,4,199442.4687500000,193314.1875000000,199396.2187500000,184746.0468750000,186080.6562500000,165748.4375000000,172780.0625000000,-7124.5112304688,,,
0.5159999991,4,199395.5312500000,193310.3906250000,199356.9062500000,184709.7812500000,186027.2656250000,165705.0937500000,172746.5937500000,-7161.3916015625,,,
0.5199999991,4,199331.4218750000,193222.2343750000,199297.0937500000,184680.0156250000,185969.1406250000,165606.7187500000,172653.6562500000,-7237.7006835938,,,
0.5239999990,4,199332.9843750000,193170.5781250000,199296.6562500000,184692.8593750000,185990.1406250000,165595.5781250000,172617.1718750000,-7241.1069335938,,,
0.5279999990,4,199329.6562500000,193120.6562500000,199286.4687500000,184687.7187500000,186002.8750000000,165586.2812500000,172636.1406250000,-7237.7275390625,,,
0.5319999990,4,199338.9843750000,193148.6875000000,199276.3750000000,184657.7031250000,186026.0468750000,165603.8125000000,172647.0781250000,-7201.5175781250,,,
0.5359999991,4,199308.1093750000,193094.8750000000,199249.3437500000,184652.7343750000,186018.4843750000,165568.7343750000,172608.8437500000,-7240.5439453125,,,
0.5399999991,4,199302.9375000000,193082.0000000000,199245.1093750000,184611.5937500000,186028.0156250000,165573.5625000000,172565.7343750000,-7248.5903320313,,,
0.5439999991,4,199306.7500000000,193074.7968750000,199263.8281250000,184571.6562500000,186054.7500000000,165585.6406250000,172545.5312500000,-7249.8779296875,,,
0.5479999990,4,199299.7656250000,193039.0937500000,199278.8750000000,184579.1406250000,186059.4531250000,165580.8281250000,172544.7031250000,-7265.7832031250,,,
0.5519999990,4,199285.6093750000,193032.7343750000,199252.3437500000,184583.2343750000,186023.5937500000,165593.3281250000,172514.0781250000,-7264.9785156250,,,
0.5559999992,4,199347.2656250000,193103.7343750000,199301.8437500000,184583.4218750000,186042.2031250000,165647.3750000000,172529.9218750000,-7208.0888671875,,,
0.5599999991,4,199310.7968750000,193023.4218750000,199260.3750000000,184634.1250000000,185986.2812500000,165591.8593750000,172473.3281250000,-7272.6767578125,,,
0.5639999991,4,199321.1562500000,193021.5312500000,199268.2500000000,184667.2500000000,185993.4843750000,165601.8593750000,172468.9843750000,-7268.8144531250,,,
0.5679999990,4,199346.2812500000,193070.1718750000,199289.9843750000,184720.9687500000,186017.2812500000,165636.9687500000,172520.9218750000,-7227.3203125000,,,
0.5719999990,4,199311.8437500000,193048.3437500000,199252.4375000000,184743.2031250000,185983.5468750000,165603.6093750000,172486.9843750000,-7248.2416992188,,,
0.5759999990,4,199303.9843750000,193057.2812500000,199247.0625000000,184710.9375000000,185971.8125000000,165577.8281250000,172471.3281250000,-7253.7939453125,,,
0.5799999991,4,199309.0312500000,193077.4531250000,199247.8906250000,184616.9843750000,185970.6093750000,165555.0312500000,172459.9687500000,-7253.6328125000,,,
0.5839999991,4,199317.8750000000,193082.9687500000,199257.0156250000,184669.0625000000,185979.9218750000,165540.2187500000,172446.9375000000,-7254.6254882813,,,
0.5879999991,4,199268.5312500000,193040.2968750000,199220.9375000000,184583.6406250000,185951.7500000000,165527.7500000000,172409.2343750000,-7283.9418945313,,,
0.5919999990,4,199221.3437500000,192999.7500000000,199188.5625000000,184498.5625000000,185917.9062500000,165491.6250000000,172368.3281250000,-7315.6992187500,,,
0.5959999990,4,199188.5156250000,192980.5625000000,199161.0468750000,184499.4687500000,185886.2500000000,165436.6093750000,172333.5156250000,-7342.1997070313,,,
0.5999999992,4,199163.5625000000,192946.1562500000,199130.1718750000,184507.2812500000,185853.3437500000,165375.3437500000,172309.3125000000,-7377.6850585938,,,
0.6039999991,4,199164.4062500000,192926.2187500000,199125.0468750000,184532.4687500000,185852.6562500000,165353.7812500000,172299.1562500000,-7378.9189453125,,,
0.6079999991,4,199161.3750000000,192904.1250000000,199117.2968750000,184533.4531250000,185851.6562500000,165351.0156250000,172271.4375000000,-7371.9453125000,,,
0.6119999990,4,199147.4218750000,192875.8281250000,199103.1718750000,184476.7031250000,185837.9531250000,165341.7343750000,172254.9218750000,-7382.8081054688,,,
0.6159999990,4,199136.7812500000,192872.7656250000,199077.6875000000,184462.3593750000,185810.0000000000,165323.0937500000,172227.2968750000,-7394.1806640625,,,
0.6199999989,4,199117.3750000000,192850.4843750000,199056.7031250000,184453.1718750000,185784.7031250000,165279.7343750000,172183.9531250000,-7416.4697265625,,,
0.6239999991,4,199113.2031250000,192837.2031250000,199046.7812500000,184483.7343750000,185784.5468750000,165269.5937500000,172167.4843750000,-7418.1059570313,,,
0.6279999991,4,199106.2812500000,192802.6093750000,199031.8125000000,184498.7968750000,185778.3750000000,165257.9687500000,172179.0156250000,-7426.7426757813,,,
0.6319999991,4,199098.0937500000,192788.3906250000,199030.2031250000,184455.1875000000,185775.1406250000,165260.5000000000,172175.6093750000,-7421.7270507813,,,
0.6359999990,4,199102.8125000000,192809.2500000000,199041.0781250000,184400.1562500000,185780.8437500000,165272.9375000000,172171.0156250000,-7406.7333984375,,,
0.6399999990,5,199101.0937500000,192814.6406250000,199031.5781250000,184442.2031250000,185765.7656250000,165259.0000000000,172138.1562500000,-7417.3281250000,,,
0.6439999989,5,199103.1093750000,192818.7812500000,199030.1562500000,184456.1093750000,185764.3281250000,165267.7656250000,172118.9531250000,-7414.7534179688,,,
0.6479999989,5,199099.5156250000,192798.7187500000,199035.7031250000,184441.5312500000,185776.0937500000,165274.2343750000,172119.5781250000,-7411.7758789063,,,
0.6519999988,5,199049.9531250000,192739.4375000000,198981.8281250000,184394.5156250000,185730.9062500000,165237.0312500000,172069.1718750000,-7447.0468750000,,,
0.6559999988,5,199053.1718750000,192758.8750000000,198975.2968750000,184434.4531250000,185716.2812500000,165228.8437500000,172047.0000000000,-7439.9394531250,,,
0.6599999988,5,199085.5468750000,192785.0937500000,199007.4062500000,184495.6093750000,185740.8750000000,165233.5156250000,172063.2968750000,-7415.7993164063,,,
0.6639999989,5,199115.5000000000,192804.8281250000,199046.2968750000,184481.7968750000,185780.7343750000,165263.1562500000,172093.1875000000,-7387.3413085938,,,
0.6679999989,5,199131.0000000000,192825.7187500000,199067.6562500000,184396.3437500000,185810.5312500000,165296.8593750000,172116.5468750000,-7360.6801757813,,,
0.6719999989,5,199139.7031250000,192836.6875000000,199075.1562500000,184393.1718750000,185823.8437500000,165293.8125000000,172126.9843750000,-7348.3686523438,,,
0.6759999988,5,199150.5625000000,192846.5312500000,199081.6875000000,184460.5625000000,185824.7031250000,165270.1562500000,172114.2187500000,-7343.0307617188,,,
0.6799999988,5,199161.5625000000,192871.4531250000,199088.5156250000,184483.1406250000,185825.8593750000,165279.2656250000,172103.6718750000,-7331.8193359375,,,
0.6839999990,5,199172.3125000000,192878.2656250000,199107.2656250000,184510.9531250000,185847.3437500000,165312.2968750000,172121.7500000000,-7324.2016601563,,,
0.6879999989,5,199172.0468750000,192873.8437500000,199113.8437500000,184498.6093750000,185860.3750000000,165308.0781250000,172127.6250000000,-7324.6040039063,,,
0.6919999989,5,199163.2187500000,192866.0937500000,199108.9531250000,184470.9375000000,185856.3750000000,165307.4687500000,172120.1875000000,-7326.5087890625,,,
0.6959999988,5,199145.1406250000,192861.0468750000,199087.4531250000,184461.1406250000,185831.6718750000,165311.8125000000,172094.2500000000,-7339.4370117188,,,
0.6999999988,5,199153.0312500000,192875.2343750000,199089.0781250000,184503.9062500000,185832.4843750000,165319.8750000000,172088.4375000000,-7334.8232421875,,,
0.7039999987,5,199191.2812500000,192908.8906250000,199122.6875000000,184568.4062500000,185872.1250000000,165343.4843750000,172105.8750000000,-7300.8666992188,,,
0.7079999989,5,199193.2343750000,192894.6562500000,199131.3281250000,184527.9375000000,185892.5937500000,165364.7187500000,172113.2187500000,-7289.0112304688,,,
0.7119999989,5,199167.7031250000,192872.2656250000,199111.0312500000,184488.4218750000,185880.6718750000,165376.8281250000,172105.0156250000,-7291.5058593750,,,
0.7159999989,5,199166.9531250000,192892.0781250000,199103.0625000000,184533.5625000000,185870.9687500000,165383.1875000000,172087.3593750000,-7274.7421875000,,,
0.7199999988,5,199157.3750000000,192892.8593750000,199092.9218750000,184502.9687500000,185860.9843750000,165373.7968750000,172061.3437500000,-7279.1674804688,,,
0.7239999988,5,199167.6718750000,192898.1093750000,199117.8125000000,184463.1875000000,185885.7968750000,165410.9218750000,172070.7812500000,-7263.2890625000,,,
0.7279999990,5,199176.3125000000,192893.9062500000,199135.2656250000,184469.0000000000,185907.0781250000,165438.3750000000,172059.0156250000,-7249.9316406250,,,
0.7319999989,5,199178.0468750000,192896.2187500000,199122.9531250000,184496.6875000000,185897.7031250000,165461.7187500000,172037.5000000000,-7234.7768554688,,,
0.7359999989,5,199193.7968750000,192922.5781250000,199136.3437500000,184510.4687500000,185901.2031250000,165479.7968750000,172046.3437500000,-7217.7988281250,,,
0.7399999988,5,199177.0000000000,192919.2031250000,199120.2812500000,184504.9218750000,185881.2968750000,165465.8750000000,172010.3281250000,-7238.9345703125,,,
0.7439999988,5,199194.8437500000,192940.6562500000,199142.5468750000,184520.0781250000,185902.4375000000,165492.0312500000,172036.7812500000,-7220.8027343750,,,
0.7479999987,5,199215.5781250000,192966.4375000000,199166.8125000000,184531.3437500000,185927.7031250000,165518.9531250000,172057.2343750000,-7191.6469726563,,,
0.7519999989,5,199221.1250000000,192977.9687500000,199169.2343750000,184514.9218750000,185931.2968750000,165534.6406250000,172046.8125000000,-7174.5078125000,,,
0.7559999989,5,199234.8125000000,192989.2812500000,199179.2343750000,184523.7968750000,185934.9375000000,165543.6562500000,172028.2187500000,-7163.2695312500,,,
0.7599999988,5,199211.7343750000,192976.8125000000,199146.9062500000,184519.6406250000,185904.0937500000,165526.0937500000,171974.6093750000,-7185.8535156250,,,
0.7639999988,5,199229.4687500000,192999.5312500000,199165.5781250000,184525.9531250000,185930.0625000000,165530.5156250000,171973.7968750000,-7173.4082031250,,,
0.7679999988,6,199219.3281250000,192979.5000000000,199148.4687500000,184492.7968750000,185921.7500000000,165520.4218750000,171949.0156250000,-7187.1411132813,,,
0.7719999987,6,199206.7187500000,192949.1250000000,199130.7968750000,184469.6718750000,185908.3906250000,165515.5468750000,171930.0312500000,-7198.9965820313,,,
0.7759999987,6,199214.4843750000,192946.4218750000,199127.7031250000,184478.4687500000,185901.4062500000,165509.5937500000,171935.1250000000,-7190.6547851563,,,
0.7799999986,6,199204.9531250000,192940.0937500000,199109.5000000000,184477.1562500000,185873.1406250000,165488.6406250000,171908.1093750000,-7204.9506835938,,,
0.7839999986,6,199236.2343750000,192967.2031250000,199142.0312500000,184534.2968750000,185905.4375000000,165517.6875000000,171910.1718750000,-7179.8989257813,,,
0.7879999985,6,199243.1718750000,192970.7187500000,199154.6406250000,184558.2968750000,185926.5781250000,165525.2031250000,171887.9062500000,-7176.1708984375,,,
0.7919999987,6,199211.4531250000,192949.9843750000,199123.3125000000,184491.3750000000,185896.6562500000,165506.9687500000,171862.6718750000,-7194.6513671875,,,
0.7959999987,6,199210.2968750000,192966.7812500000,199111.2343750000,184474.1562500000,185876.9687500000,165491.4062500000,171839.0937500000,-7189.6083984375,,,
0.7999999986,6,199222.2031250000,192970.6406250000,199119.0156250000,184492.7343750000,185877.7500000000,165471.8750000000,171827.6718750000,-7190.1181640625,,,
0.8039999986,6,199231.2968750000,192963.5937500000,199132.5312500000,184505.2656250000,185890.8750000000,165471.9843750000,171824.3125000000,-7191.1909179688,,,
0.8079999986,6,199243.6093750000,192978.6562500000,199142.7343750000,184513.9843750000,185904.7031250000,165482.2343750000,171808.5468750000,-7180.5693359375,,,
0.8119999988,6,199264.5000000000,193008.6562500000,199159.2968750000,184517.6250000000,185926.4843750000,165490.6093750000,171787.5781250000,-7159.4873046875,,,
0.8159999987,6,199242.2187500000,192973.3437500000,199135.0781250000,184520.4687500000,185902.4062500000,165444.2031250000,171756.8125000000,-7190.2255859375,,,
0.8199999987,6,199240.7656250000,192980.7343750000,199122.0000000000,184515.9687500000,185878.2031250000,165431.7031250000,171791.1875000000,-7196.9580078125,,,
0.8239999986,6,199285.0468750000,193018.8750000000,199170.4843750000,184567.6093750000,185919.5625000000,165465.5781250000,171831.8750000000,-7161.4184570313,,,
0.8279999986,6,199329.1875000000,193050.4062500000,199221.7656250000,184591.9531250000,185970.6875000000,165506.4062500000,171857.9843750000,-7116.5991210938,,,
0.8319999985,6,199299.6406250000,193021.2500000000,199190.2343750000,184580.5781250000,185944.5468750000,165487.3906250000,171820.2656250000,-7132.1289062500,,,
0.8359999987,6,199286.9843750000,193023.9375000000,199165.3906250000,184573.3750000000,185921.5312500000,165470.2656250000,171791.9375000000,-7134.4624023438,,,
0.8399999987,6,199273.8281250000,193004.8906250000,199158.7656250000,184578.4687500000,185908.7343750000,165444.7343750000,171778.6718750000,-7158.0659179688,,,
0.8439999986,6,199304.1093750000,193031.3125000000,199185.9843750000,184608.3125000000,185940.1718750000,165481.4062500000,171797.2343750000,-7132.6918945313,,,
0.8479999986,6,199320.5781250000,193044.1406250000,199210.1875000000,184622.4531250000,185965.8125000000,165491.3281250000,171806.2187500000,-7119.1201171875,,,
0.8519999986,6,199326.2187500000,193059.5000000000,199220.4062500000,184630.1718750000,185972.7031250000,165493.4218750000,171808.2812500000,-7106.1113281250,,,
0.8559999987,6,199340.5625000000,193091.0781250000,199227.7812500000,184634.5000000000,185972.2500000000,165494.9687500000,171801.1093750000,-7088.8647460938,,,
0.8599999987,6,199334.7812500000,193091.7500000000,199208.6562500000,184634.4687500000,185949.4687500000,165466.8125000000,171768.1718750000,-7103.4560546875,,,
0.8639999987,6,199330.7031250000,193062.1875000000,199204.3593750000,184664.5625000000,185947.0156250000,165445.0312500000,171761.9531250000,-7128.9101562500,,,
0.8679999986,6,199342.0937500000,193063.9843750000,199217.5937500000,184648.4375000000,185964.5312500000,165454.2812500000,171773.3281250000,-7121.8291015625,,,
0.8719999986,6,199352.4218750000,193061.9375000000,199233.9531250000,184659.3125000000,185978.7187500000,165450.0156250000,171767.6718750000,-7116.3842773438,,,
0.8759999985,6,199340.5937500000,193058.9375000000,199205.2187500000,184635.0312500000,185946.1562500000,165425.4843750000,171725.6093750000,-7129.7416992188,,,
0.8799999987,6,199335.1250000000,193051.7812500000,199192.1093750000,184568.2656250000,185930.8281250000,165412.2343750000,171723.9218750000,-7138.5395507813,,,
0.8839999987,6,199368.5937500000,193083.8281250000,199225.2343750000,184598.8437500000,185962.9375000000,165436.5625000000,171750.2656250000,-7112.7900390625,,,
0.8879999986,6,199355.3750000000,193046.6250000000,199220.0000000000,184626.0781250000,185961.6250000000,165418.4531250000,171733.5781250000,-7132.0483398438,,,
0.8919999986,6,199343.0312500000,193030.3750000000,199218.4531250000,184592.8125000000,185960.9218750000,165409.1406250000,171721.9375000000,-7136.3935546875,,,
0.8959999986,7,199320.5781250000,193016.6406250000,199197.0468750000,184535.8125000000,185937.4375000000,165386.9062500000,171695.4062500000,-7151.7089843750,,,
0.8999999985,7,199284.6406250000,192997.5156250000,199149.7343750000,184541.2656250000,185890.2031250000,165342.2500000000,171630.1250000000,-7189.5551757813,,,
0.9039999985,7,199291.8906250000,193001.3281250000,199163.1406250000,184572.0781250000,185903.1250000000,165333.8750000000,171621.2968750000,-7191.2446289063,,,
0.9079999984,7,199312.8281250000,193011.6562500000,199191.5937500000,184569.7187500000,185934.5312500000,165357.3437500000,171664.1875000000,-7169.8945312500,,,
0.9119999984,7,199297.2968750000,192998.0468750000,199175.1093750000,184543.3593750000,185917.3906250000,165347.1562500000,171658.9375000000,-7178.6381835938,,,
0.9159999983,7,199311.7343750000,193025.5000000000,199184.2500000000,184571.4687500000,185921.2343750000,165346.0312500000,171660.0312500000,-7162.3305664063,,,
0.9199999985,7,199330.8593750000,193052.1875000000,199204.1718750000,184602.2812500000,185931.4531250000,165332.5625000000,171664.5156250000,-7157.2880859375,,,
0.9239999985,7,199333.7031250000,193053.5781250000,199207.0156250000,184561.3593750000,185932.9218750000,165330.2031250000,171661.7031250000,-7162.0893554688,,,
0.9279999984,7,199309.6406250000,193029.7031250000,199182.5625000000,184589.4062500000,185919.3593750000,165323.7968750000,171634.0937500000,-7170.4306640625,,,
0.9319999984,7,199269.5625000000,192993.7343750000,199158.9218750000,184583.9843750000,185903.3437500000,165281.1250000000,171610.5156250000,-7194.5170898438,,,
0.9359999984,7,199229.2812500000,192969.6718750000,199118.2656250000,184517.9843750000,185859.2187500000,165244.2968750000,171587.6875000000,-7226.6499023438,,,
0.9399999985,7,199218.0468750000,192972.3593750000,199099.7812500000,184520.6875000000,185835.5625000000,165238.1875000000,171560.1718750000,-7235.4477539063,,,
0.9439999985,7,199232.4531250000,192990.2812500000,199115.6093750000,184555.4531250000,185852.8593750000,165253.7031250000,171563.5000000000,-7218.9790039063,,,
0.9479999985,7,199234.9687500000,192980.1093750000,199133.6875000000,184588.7187500000,185874.9375000000,165252.2031250000,171573.7187500000,-7214.0166015625,,,
0.9519999984,7,199216.7031250000,192954.3281250000,199133.3437500000,184557.9531250000,185877.1093750000,165240.1718750000,171563.9218750000,-7220.8833007813,,,
0.9559999984,7,199202.4531250000,192945.4843750000,199118.6718750000,184529.9375000000,185863.2500000000,165226.4062500000,171534.1875000000,-7227.2666015625,,,
0.9599999983,7,199200.4687500000,192955.7812500000,199104.7812500000,184537.1875000000,185843.6093750000,165208.2187500000,171522.5625000000,-7230.8608398438,,,
0.9639999985,7,199242.5625000000,192990.4375000000,199151.2031250000,184593.5156250000,185882.8750000000,165239.9531250000,171561.3750000000,-7199.0766601563,,,
0.9679999985,7,199255.3281250000,192993.3906250000,199174.3750000000,184615.3750000000,185913.2656250000,165250.6250000000,171575.3281250000,-7185.2368164063,,,
0.9719999984,7,199218.5000000000,192953.5312500000,199137.1718750000,184572.7812500000,185887.5156250000,165223.7187500000,171509.9843750000,-7211.6831054688,,,
0.9759999984,7,199220.3281250000,192964.6093750000,199136.0468750000,184546.4375000000,185882.4218750000,165223.5156250000,171506.5781250000,-7204.6557617188,,,
0.9799999984,7,199241.4843750000,192994.3281250000,199147.1875000000,184571.1093750000,185879.4218750000,165227.5312500000,171541.9375000000,-7191.5664062500,,,
0.9839999985,7,199284.2968750000,193030.6406250000,199192.2343750000,184625.7031250000,185919.2812500000,165251.5625000000,171572.5468750000,-7157.3955078125,,,
0.9879999985,7,199296.5781250000,193038.4531250000,199210.3125000000,184656.2812500000,185941.6406250000,165257.4687500000,171582.6718750000,-7142.9916992188,,,
0.9919999985,7,199309.3437500000,193051.5937500000,199229.0937500000,184665.6406250000,185961.6875000000,165271.4687500000,171587.5937500000,-7120.4345703125,,,
0.9959999984,7,199303.9531250000,193047.9218750000,199219.8437500000,184654.9843750000,185950.8437500000,165259.8593750000,171559.2656250000,-7124.0556640625,,,
0.9999999984,7,199283.1718750000,193030.6718750000,199190.9531250000,184653.2968750000,185918.4687500000,165234.5625000000,171534.1093750000,-7147.7929687500,,,
1.0039999983,7,199308.4375000000,193053.9843750000,199214.4843750000,184698.9218750000,185942.1875000000,165259.8750000000,171555.0000000000,-7123.7871093750,,,
1.0079999985,7,199296.5312500000,193032.5156250000,199208.7031250000,184664.9375000000,185942.7187500000,165255.7187500000,171549.7968750000,-7133.9794921875,,,
1.0119999985,7,199292.2031250000,193021.2500000000,199212.2500000000,184654.2343750000,185946.9218750000,165257.0625000000,171557.8906250000,-7131.4316406250,,,
1.0159999984,7,199296.6875000000,193038.1875000000,199216.0312500000,184645.2500000000,185943.5000000000,165261.4687500000,171554.8437500000,-7119.4956054688,,,
1.0199999984,7,199309.4062500000,193065.6718750000,199222.6562500000,184665.7187500000,185946.0468750000,165274.0156250000,171547.1093750000,-7105.3334960938,,,
1.0239999983,8,199346.7343750000,193102.9218750000,199256.5312500000,184731.0000000000,185982.9843750000,165304.7187500000,171574.6562500000,-7071.7792968750,,,
1.0279999983,8,199371.9531250000,193109.9062500000,199295.1093750000,184762.6718750000,186023.9375000000,165320.4687500000,171609.2656250000,-7048.0146484375,,,
1.0319999983,8,199350.2031250000,193088.9531250000,199276.4375000000,184710.9687500000,186010.3593750000,165308.9375000000,171588.0625000000,-7056.2758789063,,,
1.0359999982,8,199319.8281250000,193082.9687500000,199232.3437500000,184642.2187500000,185969.0625000000,165289.0625000000,171544.0312500000,-7071.7792968750,,,
1.0399999982,8,199327.6875000000,193098.4687500000,199236.8750000000,184703.4843750000,185969.8593750000,165269.4531250000,171521.4375000000,-7074.5688476563,,,
1.0439999981,8,199345.8593750000,193099.9843750000,199261.3593750000,184738.6718750000,185995.2343750000,165267.7343750000,171547.0000000000,-7069.7944335938,,,
1.0479999983,8,199340.8906250000,193084.1250000000,199266.5156250000,184650.7187500000,186007.0312500000,165269.2187500000,171579.6718750000,-7067.1391601563,,,
1.0519999983,8,199329.0937500000,193078.9218750000,199252.0000000000,184647.4531250000,185998.5625000000,165270.9062500000,171577.6875000000,-7061.1577148438,,,
1.0559999982,8,199330.3437500000,193086.4843750000,199246.1250000000,184650.8281250000,185985.6875000000,165266.6406250000,171563.2656250000,-7057.9926757813,,,
1.0599999982,8,199317.2812500000,193074.4218750000,199226.7031250000,184636.4843750000,185960.2656250000,165240.6250000000,171523.1562500000,-7079.8525390625,,,
1.0639999982,8,199336.7656250000,193085.3593750000,199248.0312500000,184644.4531250000,185983.2968750000,165255.7968750000,171534.3750000000,-7069.0166015625,,,
1.0679999983,8,199353.9218750000,193089.9687500000,199275.2031250000,184643.5312500000,186015.6718750000,165269.9375000000,171560.7968750000,-7052.0649414063,,,
1.0719999983,8,199350.5937500000,193078.0156250000,199281.3906250000,184673.0156250000,186024.0156250000,165267.3906250000,171572.5625000000,-7047.8540039063,,,
1.0759999983,8,199335.4687500000,193072.5156250000,199258.4375000000,184683.5312500000,185998.1875000000,165250.9531250000,171553.3906250000,-7058.1269531250,,,
1.0799999982,8,199345.9062500000,193083.4218750000,199267.8281250000,184695.1406250000,185998.2656250000,165246.3125000000,171550.2031250000,-7055.0151367188,,,
1.0839999982,8,199368.5937500000,193099.6562500000,199293.0625000000,184718.5000000000,186025.2500000000,165266.5000000000,171562.8593750000,-7038.2514648438,,,
1.0879999981,8,199356.9062500000,193079.7812500000,199282.1718750000,184721.0781250000,186022.0781250000,165266.9375000000,171557.1406250000,-7045.2519531250,,,
1.0919999983,8,199341.3125000000,193059.0000000000,199272.0625000000,184726.6250000000,186015.7343750000,165259.3125000000,171552.8750000000,-7050.7504882813,,,
1.0959999983,8,199355.6406250000,193080.8750000000,199285.7500000000,184762.8125000000,186023.0468750000,165251.8281250000,171543.5781250000,-7038.3051757813,,,
1.0999999982,8,199346.9843750000,193083.0468750000,199269.0937500000,184701.1718750000,186001.2187500000,165230.5937500000,171514.9843750000,-7051.3676757813,,,
1.1039999982,8,199350.4687500000,193089.8593750000,199269.4843750000,184679.5781250000,186004.4687500000,165243.4687500000,171513.7500000000,-7047.3710937500,,,
1.1079999981,8,199353.1406250000,193082.9687500000,199281.1875000000,184697.5625000000,186018.3593750000,165258.5312500000,171530.0781250000,-7040.3168945313,,,
1.1119999983,8,199349.5312500000,193082.2812500000,199288.0468750000,184690.7656250000,186023.0468750000,165257.8750000000,171531.4687500000,-7033.0478515625,,,
1.1159999983,8,199351.4375000000,193089.2812500000,199286.1718750000,184759.5156250000,186018.9687500000,165249.3437500000,171503.7656250000,-7029.1318359375,,,
1.1199999982,8,199363.0937500000,193108.8906250000,199284.0781250000,184771.4843750000,186014.7656250000,165239.7343750000,171496.3437500000,-7025.8867187500,,,
1.1239999982,8,199370.1250000000,193125.0312500000,199286.0312500000,184703.9687500000,186020.4218750000,165254.7812500000,171521.9531250000,-7015.3188476563,,,
1.1279999982,8,199374.5468750000,193126.6093750000,199296.5468750000,184695.2968750000,186037.8281250000,165269.9843750000,171537.3281250000,-7005.0727539063,,,
1.1319999981,8,199349.7187500000,193088.7343750000,199281.4843750000,184686.1250000000,186024.7968750000,165248.2968750000,171516.3125000000,-7024.7065429688,,,
1.1359999983,8,199323.9843750000,193070.9062500000,199249.2187500000,184633.8750000000,185987.3281250000,165227.8281250000,171484.8906250000,-7044.3403320313,,,
1.1399999983,8,199329.7031250000,193090.5156250000,199244.0625000000,184638.6875000000,185976.4375000000,165215.5468750000,171472.6562500000,-7042.8647460938,,,
1.1439999982,8,199371.8750000000,193134.9218750000,199284.2656250000,184701.3437500000,186016.9375000000,165243.5937500000,171502.8593750000,-7010.1958007813,,,
1.1479999982,8,199357.9218750000,193103.8750000000,199280.2968750000,184693.4843750000,186016.6718750000,165229.6718750000,171494.5156250000,-7028.9980468750,,,
1.1519999981,9,199321.2500000000,193057.7656250000,199253.3750000000,184646.7812500000,185994.4062500000,165207.9218750000,171472.5468750000,-7053.9960937500,,,
1.1559999981,9,199307.1250000000,193052.5781250000,199229.4218750000,184636.3437500000,185970.3750000000,165198.9375000000,171443.2812500000,-7055.7128906250,,,
1.1599999981,9,199317.1250000000,193073.9375000000,199235.5625000000,184650.4843750000,185970.1093750000,165190.1093750000,171437.8593750000,-7050.5361328125,,,
1.1639999980,9,199350.0312500000,193097.7187500000,199271.5468750000,184699.1718750000,186004.6718750000,165204.5937500000,171469.4375000000,-7028.4345703125,,,
1.1679999980,9,199360.6875000000,193090.4843750000,199291.2187500000,184710.6406250000,186026.8593750000,165214.0625000000,171486.5156250000,-7019.1274414063,,,
1.1719999979,9,199363.6093750000,193088.6093750000,199301.1718750000,184707.6406250000,186038.8750000000,165222.2500000000,171497.1093750000,-7006.0380859375,,,
1.1759999981,9,199358.7812500000,193089.9531250000,199287.1875000000,184706.1718750000,186023.6093750000,165214.9531250000,171474.7656250000,-7009.7666015625,,,
1.1799999981,9,199344.1093750000,193083.3750000000,199266.8593750000,184693.1562500000,185998.2343750000,165189.2343750000,171441.1406250000,-7033.4233398438,33029,1.1839893465,0.0000000000
1.1839999980,9,199364.7343750000,193103.7031250000,199289.7968750000,184747.5781250000,186020.6406250000,165199.7656250000,171456.8281250000,-7016.8208007813,,,
1.1879999980,9,199384.9375000000,193113.2812500000,199321.2031250000,184766.8437500000,186056.0156250000,165218.8906250000,171481.8750000000,-6991.8759765625,,,
1.1919999979,9,199388.3437500000,193119.2343750000,199335.6562500000,184696.3750000000,186077.2031250000,165234.6718750000,171482.5781250000,-6969.8818359375,,,
1.1959999981,9,199356.0781250000,193089.1718750000,199295.2187500000,184681.8593750000,186039.1406250000,165198.6718750000,171457.2656250000,-6996.6235351563,,,
1.1999999981,9,199357.3125000000,193098.6718750000,199281.4843750000,184701.9531250000,186021.4062500000,165193.2187500000,171454.5000000000,-6999.6811523438,,,
1.2039999980,9,199369.2187500000,193114.6250000000,199289.8750000000,184707.5625000000,186029.0000000000,165207.6562500000,171460.5312500000,-6992.4125976563,,,
1.2079999980,9,199358.5937500000,193090.8125000000,199291.4531250000,184727.7812500000,186034.6406250000,165201.5156250000,171456.6718750000,-7002.5512695313,,,
1.2119999980,9,199361.7343750000,193089.1093750000,199302.6875000000,184742.5156250000,186047.8906250000,165209.6406250000,171454.8437500000,-6985.3852539063,,,
1.2159999979,9,199352.7656250000,193091.9062500000,199287.2656250000,184712.2343750000,186029.8593750000,165203.0156250000,171429.1718750000,-6984.9829101563,,,
1.2199999981,9,199349.2812500000,193104.0000000000,199280.8281250000,184670.6250000000,186015.6718750000,165192.0000000000,171414.4531250000,-6992.4663085938,,,
1.2239999981,9,199337.6718750000,193091.4687500000,199267.0781250000,184625.2656250000,186003.0625000000,165182.0156250000,171396.3437500000,-7008.0229492188,,,
1.2279999980,9,199343.2500000000,193084.9062500000,199271.4218750000,184665.9843750000,186014.6562500000,165195.2031250000,171400.9062500000,-7000.1372070313,,,
1.2319999980,9,199339.8125000000,193077.4531250000,199270.7187500000,184690.0156250000,186015.2656250000,165198.8125000000,171399.3281250000,-6993.0561523438,,,
1.2359999979,9,199348.2968750000,193101.2187500000,199276.5937500000,184689.8593750000,186016.1562500000,165205.7500000000,171398.1406250000,-6975.4340820313,,,
1.2399999981,9,199348.6093750000,193106.5781250000,199273.4375000000,184683.0156250000,186007.5000000000,165195.2031250000,171385.5156250000,-6980.1010742188,,,
1.2439999981,9,199343.0937500000,193081.9531250000,199272.3906250000,184698.2031250000,186008.4531250000,165171.8281250000,171382.0781250000,-7001.3979492188,,,
1.2479999980,9,199342.5781250000,193071.3906250000,199272.0312500000,184701.7968750000,186013.6093750000,165173.5156250000,171379.1718750000,-7002.3637695313,,,
1.2519999980,9,199331.0937500000,193060.8125000000,199262.4843750000,184689.8281250000,186005.0781250000,165167.4843750000,171365.7656250000,-7004.5092773438,,,
1.2559999980,9,199327.9687500000,193069.6718750000,199256.7187500000,184692.6406250000,185995.8281250000,165161.0156250000,171355.6250000000,-7001.2636718750,,,
1.2599999979,9,199353.0468750000,193104.0781250000,199274.8281250000,184722.1718750000,186009.3906250000,165171.3593750000,171366.5156250000,-6980.3427734375,,,
1.2639999981,9,199379.7500000000,193136.6250000000,199298.3437500000,184734.1406250000,186033.5312500000,165191.0781250000,171377.1093750000,-6959.2871093750,,,
1.2679999981,9,199374.4687500000,193123.4531250000,199298.1093750000,184712.3906250000,186038.7656250000,165190.4687500000,171376.0937500000,-6960.1723632813,,,
1.2719999980,9,199348.3125000000,193086.9687500000,199280.8593750000,184697.0468750000,186026.6406250000,165170.8593750000,171362.0468750000,-6975.1660156250,,,
1.2759999980,9,199342.6875000000,193086.2656250000,199274.6875000000,184685.7500000000,186017.6875000000,165159.8906250000,171353.2343750000,-6978.7065429688,,,
1.2799999979,10,199345.0468750000,193098.9843750000,199270.0781250000,184679.7656250000,186008.2968750000,165149.5000000000,171340.8437500000,-6981.8984375000,,,
1.2839999979,10,199368.1406250000,193126.2968750000,199290.7812500000,184705.3593750000,186026.9375000000,165164.5312500000,171356.5468750000,-6965.5903320313,,,
1.2879999978,10,199372.8906250000,193121.6250000000,199300.0625000000,184741.9687500000,186042.1718750000,165175.3906250000,171366.8437500000,-6958.6166992188,,,
1.2919999978,10,199365.5156250000,193111.4062500000,199297.6250000000,184739.8281250000,186042.3125000000,165177.8906250000,171360.7500000000,-6954.7275390625,,,
1.2959999978,10,199359.6718750000,193109.2343750000,199289.4687500000,184726.9531250000,186031.6562500000,165167.3125000000,171348.5000000000,-6956.0151367188,,,
1.2999999977,10,199334.9843750000,193091.2812500000,199258.7343750000,184678.2187500000,185999.8437500000,165133.3281250000,171311.3437500000,-6983.3735351563,,,
1.3039999979,10,199347.3593750000,193101.0781250000,199270.2187500000,184701.7656250000,186012.5937500000,165134.5937500000,171314.7500000000,-6976.8559570313,,,
1.3079999979,10,199358.7187500000,193099.7031250000,199289.2031250000,184722.0468750000,186035.8750000000,165141.7031250000,171327.9687500000,-6966.3950195313,,,
1.3119999978,10,199353.1406250000,193090.1875000000,199288.0468750000,184713.5468750000,186036.0625000000,165144.6718750000,171326.8281250000,-6962.8007812500,,,
1.3159999978,10,199357.3906250000,193104.2968750000,199293.8125000000,184688.7031250000,186035.7031250000,165149.4843750000,171333.1562500000,-6950.7041015625,,,
1.3199999977,10,199354.2500000000,193107.8593750000,199281.7500000000,184705.4218750000,186018.3593750000,165129.5312500000,171314.4531250000,-6962.1035156250,,,
1.3239999979,10,199350.3593750000,193102.6875000000,199270.3750000000,184730.1718750000,186007.3125000000,165123.6562500000,171295.7812500000,-6968.9970703125,,,
1.3279999979,10,199368.9218750000,193114.3281250000,199292.5625000000,184734.1875000000,186034.6406250000,165148.7031250000,171317.2187500000,-6946.2788085938,,,
1.3319999978,10,199357.6562500000,193095.7656250000,199289.1718750000,184706.7500000000,186032.7031250000,165143.8437500000,171312.5312500000,-6950.5434570313,,,
1.3359999978,10,199353.0625000000,193100.8125000000,199283.9531250000,184681.2812500000,186024.6093750000,165136.5000000000,171303.2968750000,-6951.4550781250,,,
1.3399999978,10,199346.0937500000,193098.9062500000,199271.5312500000,184697.3125000000,186007.5000000000,165114.2812500000,171282.3750000000,-6965.7514648438,,,
1.3439999977,10,199368.1718750000,193118.3281250000,199294.5156250000,184715.0625000000,186028.9531250000,165122.8125000000,171299.8593750000,-6952.4477539063,,,
1.3479999979,10,199382.1718750000,193123.9062500000,199318.0312500000,184715.5000000000,186054.5156250000,165133.0312500000,171322.5781250000,-6938.7954101563,,,
1.3519999979,10,199376.2968750000,193112.5312500000,199322.4843750000,184701.5781250000,186060.3593750000,165135.2031250000,171323.1250000000,-6931.6069335938,,,
1.3559999978,10,199347.9218750000,193096.3593750000,199281.9687500000,184683.6406250000,186017.6093750000,165111.1250000000,171268.7812500000,-6951.9379882813,,,
1.3599999978,10,199334.4218750000,193093.5468750000,199260.9531250000,184684.7343750000,185993.5781250000,165093.9062500000,171249.0937500000,-6964.0078125000,,,
1.3639999977,10,199351.7031250000,193091.0937500000,199277.2968750000,184718.0781250000,186010.2500000000,165104.9531250000,171265.4531250000,-6949.3095703125,,,
1.3679999979,10,199359.4531250000,193084.3906250000,199293.3125000000,184718.6875000000,186031.8437500000,165117.6875000000,171267.3906250000,-6938.1245117188,,,
1.3719999979,10,199354.8906250000,193078.9218750000,199298.8281250000,184709.4375000000,186041.9531250000,165120.1875000000,171267.0937500000,-6935.3618164063,,,
1.3759999978,10,199376.4531250000,193119.4843750000,199316.5625000000,184712.0468750000,186053.8906250000,165138.5156250000,171296.5156250000,-6906.3134765625,,,
1.3799999978,10,199371.5156250000,193124.8437500000,199307.0468750000,184737.8750000000,186037.0000000000,165116.8593750000,171279.7031250000,-6922.0043945313,,,
1.3839999977,10,199353.3593750000,193109.9062500000,199280.5468750000,184722.3125000000,186015.4531250000,165102.8906250000,171254.8593750000,-6941.5312500000,,,
1.3879999977,10,199358.1093750000,193103.9531250000,199292.0156250000,184716.5781250000,186029.4843750000,165111.5468750000,171261.7031250000,-6935.1206054688,,,
1.3919999979,10,199346.8437500000,193083.7812500000,199291.5937500000,184705.7031250000,186027.9843750000,165102.5156250000,171258.4843750000,-6940.7265625000,,,
1.3959999979,10,199331.1562500000,193079.7343750000,199273.0312500000,184687.0156250000,186003.9531250000,165081.8593750000,171233.3750000000,-6951.1333007813,,,
1.3999999978,10,199328.5468750000,193092.3281250000,199261.3906250000,184678.4843750000,185985.9531250000,165075.4531250000,171210.3906250000,-6955.2373046875,,,
1.4039999978,10,199350.3281250000,193113.8750000000,199284.8125000000,184694.2031250000,186009.3125000000,165098.0000000000,171222.2968750000,-6938.2587890625,,,
1.4079999977,11,199380.6406250000,193132.3281250000,199318.2500000000,184744.5468750000,186047.7812500000,165124.2656250000,171257.4531250000,-6912.1074218750,,,
1.4119999977,11,199376.9375000000,193120.3125000000,199319.5468750000,184752.8281250000,186051.6093750000,165120.5312500000,171266.8281250000,-6909.8808593750,,,
1.4159999976,11,199376.6093750000,193128.2187500000,199315.9375000000,184712.9843750000,186046.2812500000,165116.4843750000,171246.1406250000,-6906.2065429688,,,
1.4199999976,11,199355.5937500000,193130.6875000000,199286.2187500000,184677.5937500000,186016.2656250000,165099.0312500000,171199.8437500000,-6921.9511718750,,,
1.4239999976,11,199362.7187500000,193126.5625000000,199293.2343750000,184710.3437500000,186023.2656250000,165097.3906250000,171218.6718750000,-6923.2651367188,,,
1.4279999975,11,199379.5156250000,193129.6093750000,199315.4843750000,184729.8281250000,186045.0468750000,165109.6406250000,171258.0468750000,-6910.3906250000,,,
1.4319999977,11,199370.8750000000,193120.5781250000,199310.6093750000,184713.1406250000,186044.6875000000,165113.4062500000,171252.5781250000,-6908.7543945313,,,
1.4359999977,11,199352.9062500000,193113.0625000000,199288.1562500000,184695.3593750000,186019.0781250000,165094.8906250000,171217.7656250000,-6918.4638671875,,,
1.4399999976,11,199362.4062500000,193123.0781250000,199295.7968750000,184719.8906250000,186020.7656250000,165083.7656250000,171214.2031250000,-6916.5058593750,,,
1.4439999976,11,199391.9843750000,193156.1406250000,199323.0468750000,184744.5000000000,186049.6250000000,165104.5000000000,171236.2968750000,-6893.1440429688,,,
1.4479999975,11,199385.0156250000,193143.3750000000,199318.3593750000,184732.9062500000,186054.5156250000,165101.7968750000,171235.6562500000,-6897.5698242188,,,
1.4519999977,11,199375.7031250000,193125.6250000000,199320.9375000000,184714.9375000000,186060.4062500000,165095.2968750000,171236.5156250000,-6901.7539062500,,,
1.4559999977,11,199376.8906250000,193133.6875000000,199315.1875000000,184726.5468750000,186055.2968750000,165100.1875000000,171225.9218750000,-6892.5805664063,,,
1.4599999976,11,199386.9375000000,193155.8281250000,199316.4062500000,184741.1093750000,186050.8906250000,165104.3437500000,171217.5000000000,-6884.5878906250,,,
1.4639999976,11,199399.4218750000,193163.9218750000,199326.9375000000,184754.9843750000,186058.9375000000,165110.3437500000,171221.6718750000,-6880.5107421875,,,
1.4679999975,11,199404.8906250000,193160.5156250000,199334.3437500000,184738.8281250000,186070.5781250000,165123.9687500000,171233.2656250000,-6872.0083007813,,,
1.4719999975,11,199393.3593750000,193140.9062500000,199332.8437500000,184672.2812500000,186070.0468750000,165122.3281250000,171237.9843750000,-6874.2612304688,,,
1.4759999977,11,199371.7812500000,193119.7500000000,199309.2343750000,184662.4218750000,186044.7187500000,165100.1250000000,171219.1875000000,-6892.4467773438,,,
1.4799999977,11,199378.9218750000,193134.2500000000,199307.8750000000,184691.2500000000,186038.9531250000,165097.8750000000,171213.9843750000,-6890.7568359375,,,
1.4839999976,11,199419.2968750000,193184.5000000000,199345.1250000000,184710.5312500000,186075.1406250000,165124.8906250000,171242.1406250000,-6856.2368164063,,,
1.4879999976,11,199419.5781250000,193180.1250000000,199354.9218750000,184724.8281250000,186090.3750000000,165137.7656250000,171252.4375000000,-6853.2060546875,,,
1.4919999975,11,199378.2031250000,193133.9687500000,199321.3437500000,184730.5468750000,186068.7343750000,165126.8906250000,171231.5156250000,-6876.1386718750,,,
1.4959999977,11,199368.5625000000,193132.7343750000,199307.5781250000,184711.9843750000,186055.1562500000,165123.8593750000,171220.7343750000,-6876.4604492188,,,
1.4999999977,11,199366.4218750000,193143.7187500000,199295.1875000000,184688.5937500000,186037.0312500000,165125.2812500000,171205.4843750000,-6879.7866210938,,,
1.5039999976,11,199388.6406250000,193163.8125000000,199316.1562500000,184715.4218750000,186056.5468750000,165144.9531250000,171218.6250000000,-6862.9960937500,,,
1.5079999976,11,199407.6250000000,193168.7500000000,199344.0000000000,184737.3125000000,186089.4687500000,165167.2656250000,171249.7343750000,-6843.7109375000,,,
1.5119999975,11,199414.7812500000,193177.1718750000,199361.7500000000,184728.4062500000,186112.1718750000,165193.8906250000,171275.1406250000,-6822.4409179688,,,
1.5159999975,11,199409.7656250000,193183.0000000000,199356.4687500000,184707.2187500000,186104.7187500000,165198.9687500000,171276.8750000000,-6817.3984375000,,,
1.5199999977,11,199398.9843750000,193179.3750000000,199340.9375000000,184714.6406250000,186083.8593750000,165175.6562500000,171260.1406250000,-6832.9013671875,,,
1.5239999976,11,199418.0625000000,193194.9843750000,199357.2812500000,184734.8437500000,186099.5781250000,165183.9687500000,171275.0000000000,-6821.1000976563,,,
1.5279999976,11,199435.7656250000,193200.2343750000,199379.3750000000,184760.6875000000,186127.9843750000,165212.4843750000,171304.8750000000,-6803.0219726563,,,
1.5319999976,11,199428.2500000000,193185.0312500000,199382.1093750000,184777.2187500000,186134.6093750000,165219.8906250000,171313.9531250000,-6802.6464843750,,,
1.5359999975,12,199428.5468750000,193198.7656250000,199378.6562500000,184784.7343750000,186129.0312500000,165220.9843750000,171307.6250000000,-6793.0170898438,,,
1.5399999975,12,199433.4218750000,193222.8437500000,199369.7812500000,184749.2187500000,186117.5468750000,165226.5468750000,171293.0000000000,-6785.9628906250,,,
1.5439999974,12,199434.5468750000,193230.1718750000,199367.3437500000,184722.6875000000,186117.4062500000,165226.2968750000,171278.7500000000,-6787.7866210938,,,
1.5479999974,12,199430.9375000000,193214.5312500000,199373.6718750000,184736.1562500000,186132.1406250000,165227.4218750000,171280.6406250000,-6791.9443359375,,,
1.5519999973,12,199411.1093750000,193177.6562500000,199360.6250000000,184721.9687500000,186121.8281250000,165209.2187500000,171283.8281250000,-6809.7539062500,,,
1.5559999973,12,199409.9531250000,193185.8906250000,199354.0312500000,184704.6093750000,186110.8593750000,165217.6406250000,171297.7187500000,-6802.0561523438,,,
1.5599999975,12,199394.2656250000,193179.5000000000,199332.4687500000,184688.7343750000,186079.7187500000,165185.1562500000,171269.1562500000,-6825.3916015625,,,
1.5639999975,12,199405.0781250000,193190.1875000000,199337.7812500000,184711.5000000000,186080.9375000000,165177.9062500000,171262.5000000000,-6822.5214843750,,,
1.5679999974,12,199429.4531250000,193197.4218750000,199369.8593750000,184737.2812500000,186118.9062500000,165205.2500000000,171288.6562500000,-6798.2207031250,,,
1.5719999974,12,199443.5625000000,193210.6718750000,199393.7031250000,184750.1875000000,186146.2968750000,165232.7656250000,171308.0000000000,-6770.8886718750,,,
1.5759999973,12,199435.4375000000,193212.5000000000,199383.4062500000,184724.5937500000,186135.4687500000,165221.2031250000,171294.5000000000,-6771.2377929688,,,
1.5799999975,12,199417.1718750000,193206.0625000000,199357.4687500000,184684.3281250000,186104.1875000000,165187.6250000000,171264.8125000000,-6791.5419921875,,,
1.5839999975,12,199438.8750000000,193233.1718750000,199373.6875000000,184714.0468750000,186117.2968750000,165202.0468750000,171272.0312500000,-6774.3491210938,,,
1.5879999974,12,199437.5781250000,193210.6250000000,199381.7656250000,184734.9687500000,186129.2187500000,165197.0312500000,171280.2656250000,-6783.6293945313,,,
1.5919999974,12,199430.0156250000,193191.0468750000,199378.6250000000,184738.0000000000,186131.8593750000,165192.9843750000,171280.6562500000,-6785.8823242188,,,
1.5959999973,12,199409.4687500000,193173.7656250000,199357.2812500000,184714.3125000000,186107.5937500000,165164.3593750000,171247.4531250000,-6803.8266601563,,,
1.5999999973,12,199413.7343750000,193190.9531250000,199355.4531250000,184708.8281250000,186100.8906250000,165150.0937500000,171222.8906250000,-6802.4584960938,,,
1.6039999975,12,199430.3906250000,193211.7656250000,199368.3750000000,184730.2812500000,186109.1250000000,165153.9375000000,171236.6250000000,-6794.0629882813,,,
1.6079999974,12,199442.2031250000,193212.8437500000,199381.8437500000,184760.4843750000,186124.2968750000,165158.5937500000,171260.7812500000,-6786.0166015625,,,
1.6119999974,12,199418.9687500000,193186.0781250000,199362.4218750000,184739.0000000000,186106.1718750000,165138.8593750000,171232.2968750000,-6800.3393554688,,,
1.6159999974,12,199401.5937500000,193169.0468750000,199348.1875000000,184715.3906250000,186089.3593750000,165115.4375000000,171195.6093750000,-6816.0039062500,,,
1.6199999973,12,199401.2343750000,193179.0000000000,199337.7031250000,184717.2968750000,186071.8593750000,165096.0781250000,171179.2187500000,-6823.1113281250,,,
1.6239999975,12,199425.0781250000,193200.9843750000,199358.4531250000,184758.2812500000,186086.8906250000,165102.9375000000,171197.2656250000,-6810.8271484375,,,
1.6279999975,12,199433.5312500000,193197.0156250000,199371.7812500000,184755.3906250000,186102.5781250000,165110.4843750000,171208.8906250000,-6805.6503906250,,,
1.6319999974,12,199392.2343750000,193150.6718750000,199337.4218750000,184726.7656250000,186077.6562500000,165089.8750000000,171178.8906250000,-6833.4111328125,,,
1.6359999974,12,199375.7656250000,193139.1718750000,199321.0937500000,184709.8906250000,186058.5625000000,165072.8750000000,171160.7656250000,-6841.5380859375,,,
1.6399999973,12,199386.0000000000,193161.0000000000,199321.5781250000,184713.7343750000,186054.0312500000,165066.3593750000,171150.5000000000,-6835.0473632813,,,
1.6439999973,12,199389.8906250000,193166.7656250000,199318.8437500000,184716.9531250000,186051.7500000000,165059.2500000000,171141.2187500000,-6837.4614257813,,,
1.6479999975,12,199398.1562500000,193168.1875000000,199332.5000000000,184740.0156250000,186071.7343750000,165069.5156250000,171154.4687500000,-6825.2573242188,,,
1.6519999974,12,199390.7031250000,193152.7656250000,199335.2500000000,184745.7812500000,186078.0937500000,165073.2500000000,171153.9843750000,-6821.5556640625,,,
1.6559999974,12,199395.6406250000,193158.1250000000,199338.5000000000,184735.7031250000,186076.5625000000,165071.4531250000,171145.9531250000,-6815.3867187500,,,
1.6599999974,12,199378.0312500000,193153.2187500000,199313.6406250000,184689.9375000000,186045.6093750000,165040.8750000000,171115.1406250000,-6838.9365234375,,,
1.6639999973,13,199384.0000000000,193162.9375000000,199319.9218750000,184650.3750000000,186051.9062500000,165038.2187500000,171118.5000000000,-6839.1245117188,,,
1.6679999973,13,199397.6250000000,193158.0000000000,199342.2343750000,184678.4531250000,186077.7187500000,165044.7656250000,171135.1250000000,-6831.3994140625,,,
1.6719999972,13,199392.1250000000,193142.4843750000,199344.4531250000,184685.3281250000,186083.1250000000,165043.8593750000,171128.2031250000,-6827.4028320313,,,
1.6759999972,13,199380.5000000000,193138.3593750000,199326.9375000000,184680.0468750000,186063.9062500000,165038.8906250000,171117.3906250000,-6829.2270507813,,,
1.6799999971,13,199390.3281250000,193162.1562500000,199326.3593750000,184692.5156250000,186056.0156250000,165039.3281250000,171112.6250000000,-6821.8242187500,,,
1.6839999971,13,199408.9062500000,193182.6250000000,199342.0156250000,184719.8437500000,186067.4375000000,165043.3437500000,171120.6875000000,-6814.1796875000,,,
1.6879999973,13,199408.1562500000,193168.9843750000,199351.2656250000,184733.5781250000,186078.8906250000,165039.0781250000,171121.9062500000,-6818.3642578125,,,
1.6919999972,13,199394.6718750000,193148.1250000000,199345.4531250000,184743.4531250000,186077.4218750000,165036.9531250000,171109.6093750000,-6821.3413085938,,,
1.6959999972,13,199391.3750000000,193144.8750000000,199341.9062500000,184736.3437500000,186069.6718750000,165024.3593750000,171110.2343750000,-6823.0581054688,,,
1.6999999972,13,199381.6093750000,193143.8281250000,199322.7656250000,184700.3750000000,186045.0781250000,165001.5625000000,171091.6718750000,-6838.8022460938,,,
1.7039999971,13,199392.0156250000,193155.6406250000,199330.7031250000,184713.8593750000,186051.2656250000,164999.8437500000,171087.7031250000,-6837.5952148438,,,
1.7079999973,13,199392.1250000000,193147.4843750000,199335.6093750000,184737.8750000000,186060.9531250000,164995.2031250000,171090.1406250000,-6842.7988281250,,,
1.7119999973,13,199396.0937500000,193153.2500000000,199344.3281250000,184734.7500000000,186073.3437500000,165010.0625000000,171105.5937500000,-6825.7670898438,,,
1.7159999972,13,199378.3593750000,193147.9375000000,199320.2656250000,184700.4062500000,186045.8437500000,165002.9843750000,171084.7500000000,-6831.5068359375,,,
1.7199999972,13,199357.6875000000,193133.1093750000,199294.2656250000,184706.4375000000,186013.0781250000,164965.6093750000,171052.0312500000,-6855.1103515625,,,
1.7239999971,13,199386.2187500000,193158.5781250000,199325.2812500000,184762.4843750000,186039.6718750000,164975.6406250000,171073.4843750000,-6836.1738281250,,,
1.7279999971,13,199399.2343750000,193160.5468750000,199341.8750000000,184759.7812500000,186060.2187500000,164994.3906250000,171092.3437500000,-6822.4946289063,,,
1.7319999973,13,199372.5156250000,193130.8750000000,199316.7031250000,184714.2656250000,186043.1093750000,164991.3906250000,171072.7656250000,-6835.9057617188,,,
1.7359999972,13,199354.6562500000,193118.4375000000,199299.7187500000,184683.5312500000,186024.7187500000,164977.9531250000,171055.3750000000,-6849.8530273438,,,
1.7399999972,13,199367.3125000000,193139.4375000000,199308.5156250000,184694.5000000000,186029.0312500000,164978.1093750000,171052.0781250000,-6843.4160156250,,,
1.7439999972,13,199389.9687500000,193161.5625000000,199327.6875000000,184719.7656250000,186045.4531250000,164992.3750000000,171070.1562500000,-6831.8554687500,,,
1.7479999971,13,199400.6250000000,193166.5312500000,199343.1406250000,184752.6718750000,186065.7031250000,165005.3906250000,171089.4531250000,-6820.1879882813,,,
1.7519999973,13,199405.0156250000,193165.4531250000,199356.4687500000,184772.1250000000,186084.9531250000,165017.1406250000,171100.6562500000,-6803.7998046875,,,
1.7559999973,13,199374.7187500000,193140.6875000000,199323.2343750000,184732.0000000000,186052.3437500000,164990.5312500000,171068.3125000000,-6826.2226562500,,,
1.7599999972,13,199364.0625000000,193144.9843750000,199305.4375000000,184706.5937500000,186028.7343750000,164972.1250000000,171044.7343750000,-6835.5034179688,,,
1.7639999972,13,199393.2500000000,193172.8750000000,199336.6562500000,184736.2812500000,186055.3437500000,164988.7656250000,171064.0156250000,-6815.1992187500,,,
1.7679999971,13,199405.0468750000,193172.7968750000,199352.4531250000,184766.6562500000,186076.8281250000,165000.9062500000,171073.7031250000,-6806.2402343750,,,
1.7719999971,13,199385.8125000000,193145.8437500000,199338.0000000000,184764.1875000000,186066.9843750000,164984.2031250000,171045.8125000000,-6821.2070312500,,,
1.7759999973,13,199369.8281250000,193143.1875000000,199320.1093750000,184719.2031250000,186047.1406250000,164976.9531250000,171033.1250000000,-6825.7939453125,,,
1.7799999972,13,199364.2812500000,193141.8281250000,199310.3906250000,184726.4375000000,186031.9062500000,164959.9218750000,171041.3593750000,-6834.7255859375,,,
1.7839999972,13,199389.4375000000,193164.9218750000,199329.8906250000,184749.2968750000,186047.3750000000,164971.2656250000,171058.4375000000,-6821.8510742188,,,
1.7879999971,13,199404.2656250000,193180.4218750000,199349.8281250000,184729.5468750000,186069.7812500000,164994.6875000000,171073.2656250000,-6805.8378906250,,,
1.7919999971,14,199400.8906250000,193156.8125000000,199363.3437500000,184729.1562500000,186083.4062500000,164996.6250000000,171086.4218750000,-6810.7197265625,,,
1.7959999971,14,199358.1406250000,193113.3125000000,199315.5468750000,184707.8593750000,186036.9218750000,164960.3906250000,171037.0625000000,-6850.1484375000,,,
1.7999999970,14,199359.8750000000,193128.5468750000,199307.5468750000,184696.5625000000,186023.0468750000,164958.1093750000,171007.9843750000,-6845.5078125000,,,
1.8039999970,14,199374.3437500000,193145.5156250000,199311.7343750000,184725.7187500000,186024.2500000000,164957.0625000000,171015.2812500000,-6836.2275390625,,,
1.8079999969,14,199384.9375000000,193136.5937500000,199326.0000000000,184750.2343750000,186042.1406250000,164961.0468750000,171038.9687500000,-6826.1157226563,,,
1.8119999969,14,199385.4687500000,193137.7500000000,199336.0937500000,184733.0625000000,186055.9843750000,164975.4375000000,171054.3593750000,-6811.2832031250,,,
1.8159999971,14,199378.2187500000,193138.3593750000,199329.4375000000,184725.6718750000,186045.8437500000,164970.0468750000,171042.9375000000,-6812.8920898438,,,
1.8199999970,14,199371.5156250000,193137.2343750000,199318.8437500000,184727.7500000000,186029.8593750000,164947.9375000000,171020.4375000000,-6827.5908203125,,,
1.8239999970,14,199389.6250000000,193159.0156250000,199335.3437500000,184732.1875000000,186046.8437500000,164960.6562500000,171033.6562500000,-6815.2792968750,,,
1.8279999970,14,199393.4062500000,193154.7968750000,199335.9843750000,184758.2812500000,186057.9218750000,164972.0000000000,171039.2656250000,-6810.4248046875,,,
1.8319999969,14,199385.5156250000,193136.8125000000,199337.4843750000,184761.9531250000,186063.5781250000,164972.7812500000,171041.4375000000,-6809.4858398438,,,
1.8359999971,14,199366.4218750000,193126.8281250000,199321.0156250000,184728.7500000000,186044.0312500000,164961.0468750000,171028.1562500000,-6818.9541015625,,,
1.8399999971,14,199370.0468750000,193145.5468750000,199322.1875000000,184714.5625000000,186035.8906250000,164958.2031250000,171026.5000000000,-6815.6816406250,,,
1.8439999970,14,199385.7656250000,193167.7812500000,199329.4062500000,184735.9843750000,186040.4843750000,164970.4218750000,171024.1875000000,-6805.1943359375,,,
1.8479999970,14,199405.4531250000,193176.7656250000,199348.5937500000,184769.3906250000,186066.8437500000,164995.5000000000,171045.4531250000,-6786.7675781250,,,
1.8519999969,14,199401.0000000000,193161.1406250000,199352.2031250000,184755.7812500000,186075.4531250000,164997.1562500000,171050.9062500000,-6786.1777343750,,,
1.8559999969,14,199385.0937500000,193150.5156250000,199334.9843750000,184745.5156250000,186056.1250000000,164982.3750000000,171032.3750000000,-6795.4848632813,,,
1.8599999971,14,199398.1250000000,193175.6093750000,199339.0156250000,184759.5468750000,186052.8750000000,164979.9062500000,171027.3281250000,-6786.5532226563,,,
1.8639999970,14,199404.8125000000,193186.3437500000,199343.3906250000,184758.5781250000,186054.0781250000,164976.0781250000,171024.6406250000,-6788.5380859375,,,
1.8679999970,14,199399.6093750000,193166.5312500000,199344.8593750000,184764.6406250000,186060.0156250000,164968.9687500000,171030.4375000000,-6796.7724609375,,,
1.8719999969,14,199397.5937500000,193142.0625000000,199354.7343750000,184772.6875000000,186073.6406250000,164968.7500000000,171046.0781250000,-6797.9790039063,,,
1.8759999969,14,199382.6562500000,193137.0937500000,199333.4531250000,184743.2031250000,186055.1093750000,164968.1875000000,171026.4218750000,-6801.6000976563,,,
1.8799999971,14,199374.9218750000,193138.6250000000,199321.1250000000,184743.3437500000,186038.6875000000,164954.7968750000,171005.9531250000,-6809.7006835938,,,
1.8839999971,14,199398.1562500000,193164.9687500000,199342.3906250000,184768.0937500000,186057.3750000000,164968.5156250000,171022.8750000000,-6793.7949218750,,,
1.8879999970,14,199401.1562500000,193162.6406250000,199350.8125000000,184772.8750000000,186069.7968750000,164967.5156250000,171030.8125000000,-6793.2319335938,,,
1.8919999970,14,199398.0781250000,193154.6718750000,199354.9218750000,184762.5937500000,186076.7968750000,164974.5156250000,171035.3750000000,-6784.2729492188,,,
1.8959999969,14,199402.8437500000,193163.1406250000,199359.3437500000,184771.3750000000,186078.1093750000,164977.3593750000,171035.5937500000,-6772.3642578125,,,
1.8999999969,14,199401.7187500000,193173.1562500000,199346.7031250000,184780.9687500000,186061.2187500000,164966.8437500000,171009.2500000000,-6778.8818359375,,,
1.9039999971,14,199394.4218750000,193165.5781250000,199337.2343750000,184777.8593750000,186048.4218750000,164951.4843750000,171000.6406250000,-6797.3354492188,,,
1.9079999970,14,199393.7812500000,193153.3750000000,199337.2187500000,184793.9843750000,186051.7187500000,164951.5625000000,171011.8750000000,-6799.9907226563,,,
1.9119999970,14,199405.5781250000,193156.2031250000,199358.9218750000,184791.0625000000,186078.2968750000,164970.7968750000,171028.6718750000,-6777.9433593750,,,
1.9159999969,14,199413.8437500000,193162.8281250000,199377.6875000000,184767.5000000000,186094.1875000000,164975.4375000000,171032.7656250000,-6764.1567382813,,,
1.9199999969,15,199398.8593750000,193164.0625000000,199347.0781250000,184721.3750000000,186063.3437500000,164961.1093750000,171005.3281250000,-6776.1191406250,,,
1.9239999969,15,199396.4843750000,193158.3906250000,199340.8906250000,184735.2656250000,186057.4687500000,164945.7187500000,170997.9843750000,-6790.9516601563,,,
1.9279999968,15,199412.7187500000,193159.8125000000,199359.7187500000,184778.9062500000,186077.5312500000,164956.6250000000,171019.3125000000,-6780.4106445313,,,
1.9319999968,15,199402.0468750000,193141.5468750000,199353.1718750000,184767.7812500000,186075.9375000000,164959.3437500000,171017.2343750000,-6781.3764648438,,,
1.9359999967,15,199402.3906250000,193152.4218750000,199353.0156250000,184761.8750000000,186071.6718750000,164961.5937500000,171017.2968750000,-6770.8623046875,,,
1.9399999967,15,199400.6562500000,193168.4062500000,199345.5781250000,184751.7343750000,186053.8125000000,164950.5937500000,171004.1562500000,-6775.9853515625,,,
1.9439999969,15,199396.7656250000,193165.5625000000,199340.8125000000,184739.1250000000,186042.1250000000,164936.1562500000,170992.9687500000,-6788.8330078125,,,
1.9479999968,15,199407.7343750000,193166.7968750000,199353.6562500000,184751.5468750000,186057.3281250000,164949.4375000000,171004.0468750000,-6778.9355468750,,,
1.9519999968,15,199405.0000000000,193155.6093750000,199352.8593750000,184754.2343750000,186061.6406250000,164961.8125000000,171007.1875000000,-6772.3911132813,,,
1.9559999967,15,199385.9531250000,193140.2343750000,199332.0156250000,184739.8750000000,186039.9531250000,164946.8593750000,170966.6875000000,-6785.6679687500,,,
1.9599999967,15,199375.5781250000,193140.1250000000,199319.1562500000,184744.6875000000,186020.7500000000,164922.4062500000,170949.2968750000,-6801.8686523438,,,
1.9639999969,15,199410.1250000000,193167.1093750000,199358.3437500000,184790.3281250000,186054.8906250000,164937.9062500000,170983.7187500000,-6778.5869140625,,,
1.9679999969,15,199406.7343750000,193157.8125000000,199353.6875000000,184789.6093750000,186055.1562500000,164939.6562500000,170992.4531250000,-6779.8476562500,,,
1.9719999968,15,199380.3125000000,193126.2656250000,199333.9218750000,184755.9218750000,186041.0468750000,164929.4062500000,170986.6718750000,-6792.9365234375,,,
1.9759999968,15,199358.4843750000,193109.7187500000,199317.6406250000,184718.3437500000,186024.2031250000,164918.4843750000,170966.7343750000,-6802.1098632813,,,
1.9799999967,15,199366.5312500000,193132.5937500000,199318.5000000000,184716.7343750000,186020.3906250000,164916.3906250000,170953.5625000000,-6795.2163085938,,,
1.9839999967,15,199393.9218750000,193160.2812500000,199336.5468750000,184752.8125000000,186037.3750000000,164929.8281250000,170971.4843750000,-6777.5942382813,,,
1.9879999969,15,199412.7656250000,193166.5000000000,199360.6562500000,184776.5468750000,186062.7500000000,164945.6562500000,170997.7343750000,-6763.8344726563,,,
1.9919999968,15,199381.5312500000,193123.5000000000,199338.3437500000,184752.7031250000,186044.2187500000,164925.6562500000,170978.7812500000,-6789.1010742188,,,
1.9959999968,15,199377.2031250000,193118.5468750000,199330.2656250000,184753.6406250000,186038.3906250000,164925.3281250000,170971.7031250000,-6787.7065429688,,,
1.9999999967,15,199386.1406250000,193142.4687500000,199327.7187500000,184737.9218750000,186030.1875000000,164921.3281250000,170956.4687500000,-6785.6411132813,,,
2.0039999967,15,199391.9531250000,193156.7031250000,199327.4218750000,184738.0000000000,186023.9375000000,164913.3125000000,170942.7031250000,-6790.9248046875,,,
2.0079999969,15,199396.5156250000,193144.7968750000,199337.8593750000,184755.0625000000,186036.1093750000,164911.7343750000,170947.6093750000,-6792.4003906250,,,
2.0119999968,15,199405.6406250000,193143.0312500000,199357.1406250000,184768.3593750000,186059.7968750000,164931.5781250000,170965.2812500000,-6771.3447265625,,,
2.0159999968,15,199403.8906250000,193157.5937500000,199356.7187500000,184751.4375000000,186057.0312500000,164937.7500000000,170971.1875000000,-6757.0488281250,,,
2.0199999968,15,199392.2500000000,193147.2656250000,199340.0625000000,184760.6718750000,186035.2031250000,164915.7500000000,170957.8281250000,-6771.4790039063,,,
2.0239999967,15,199410.1406250000,193167.5937500000,199353.7968750000,184761.4687500000,186045.5312500000,164917.2343750000,170963.7343750000,-6761.9570312500,,,
2.0279999967,15,199420.2031250000,193174.9687500000,199364.8437500000,184770.7500000000,186063.5468750000,164932.6718750000,170975.7812500000,-6750.2895507813,,,
2.0319999969,15,199393.8906250000,193135.6250000000,199351.2968750000,184768.9218750000,186056.2031250000,164923.1250000000,170972.1875000000,-6767.8579101563,,,
2.0359999968,15,199373.0156250000,193115.7812500000,199335.1718750000,184739.1562500000,186037.3125000000,164903.1718750000,170949.5156250000,-6783.4682617188,,,
2.0399999968,15,199383.0312500000,193141.4531250000,199332.7031250000,184746.1250000000,186030.7500000000,164909.0468750000,170936.7187500000,-6775.2607421875,,,
2.0439999967,15,199398.2343750000,193165.9531250000,199340.8437500000,184761.4218750000,186035.6250000000,164914.4687500000,170941.6093750000,-6768.4750976563,,,
2.0479999967,16,199414.7812500000,193170.4687500000,199361.6718750000,184791.0625000000,186058.1875000000,164919.8750000000,170958.5781250000,-6758.7919921875,,,
2.0519999966,16,199391.3906250000,193127.8750000000,199349.3125000000,184759.5468750000,186050.8906250000,164898.9062500000,170953.4062500000,-6779.3110351563,,,
2.0559999966,16,199385.4218750000,193125.5937500000,199342.8750000000,184736.2812500000,186044.6875000000,164897.9218750000,170946.4843750000,-6776.5214843750,,,
2.0599999966,16,199384.0000000000,193138.0625000000,199332.3906250000,184725.4843750000,186030.0156250000,164889.8750000000,170926.1875000000,-6779.3110351563,,,
2.0639999965,16,199386.7500000000,193150.9375000000,199329.7031250000,184728.5156250000,186026.4531250000,164893.3593750000,170920.4375000000,-6780.4106445313,,,
2.0679999965,16,199405.3125000000,193158.2031250000,199353.9218750000,184752.3281250000,186056.0937500000,164917.9843750000,170952.1718750000,-6765.2294921875,,,
2.0719999967,16,199401.5000000000,193141.2343750000,199356.6093750000,184755.7656250000,186065.1093750000,164923.8593750000,170961.2343750000,-6760.3208007813,,,
2.0759999966,16,199382.1093750000,193128.6718750000,199336.3281250000,184726.6562500000,186043.3281250000,164915.0781250000,170945.2968750000,-6767.6704101563,,,
2.0799999966,16,199380.7812500000,193145.0625000000,199328.8125000000,184713.7031250000,186027.9531250000,164910.4375000000,170932.7031250000,-6766.0341796875,,,
2.0839999965,16,199414.0625000000,193185.9218750000,199357.5156250000,184752.1093750000,186053.0156250000,164932.2812500000,170952.5781250000,-6738.0854492188,,,
2.0879999965,16,199438.7968750000,193199.4843750000,199383.1875000000,184789.3906250000,186080.9531250000,164952.2812500000,170977.7031250000,-6718.4516601563,,,
2.0919999967,16,199420.5468750000,193166.2812500000,199371.4062500000,184795.2343750000,186071.2968750000,164935.7031250000,170971.8281250000,-6735.1352539063,,,
2.0959999966,16,199399.6250000000,193151.0156250000,199352.6875000000,184761.5312500000,186049.7343750000,164918.5625000000,170952.9687500000,-6748.6801757813,,,
2.0999999966,16,199387.7500000000,193155.2343750000,199334.8593750000,184732.4531250000,186026.7812500000,164899.2343750000,170929.1875000000,-6760.1333007813,,,
2.1039999966,16,199404.5937500000,193176.6093750000,199345.7187500000,184758.2031250000,186037.5937500000,164905.2968750000,170927.3593750000,-6749.1362304688,,,
2.1079999965,16,199419.3906250000,193180.6093750000,199363.3593750000,184774.8906250000,186062.1093750000,164924.8437500000,170948.2343750000,-6734.0620117188,,,
2.1119999965,16,199394.2343750000,193145.5000000000,199346.8750000000,184747.5468750000,186052.1718750000,164909.5625000000,170943.4062500000,-6747.4194335938,,,
2.1159999967,16,199378.5781250000,193130.8437500000,199335.4687500000,184715.4218750000,186039.6718750000,164896.0156250000,170927.6562500000,-6754.6347656250,,,
2.1199999966,16,199374.6093750000,193140.9375000000,199331.2812500000,184700.3125000000,186025.7656250000,164884.5000000000,170917.0625000000,-6758.5507812500,,,
2.1239999966,16,199374.6093750000,193150.7500000000,199324.2343750000,184706.3750000000,186013.2656250000,164879.6718750000,170907.5156250000,-6762.4130859375,,,
2.1279999965,16,199390.2968750000,193162.2656250000,199339.6250000000,184733.6562500000,186032.3593750000,164898.3750000000,170918.5625000000,-6746.3198242188,,,
2.1319999965,16,199391.5781250000,193142.8125000000,199351.8125000000,184763.2656250000,186048.3125000000,164900.6562500000,170933.7187500000,-6746.0517578125,,,
2.1359999967,16,199383.1406250000,193132.9687500000,199344.9062500000,184760.4218750000,186040.1562500000,164898.8593750000,170921.7500000000,-6749.5385742188,,,
2.1399999966,16,199386.0781250000,193144.8281250000,199339.6875000000,184738.9218750000,186030.1093750000,164902.4687500000,170910.2812500000,-6747.0170898438,,,
2.1439999966,16,199402.3125000000,193162.9531250000,199343.8125000000,184761.0625000000,186031.5468750000,164906.2812500000,170917.6562500000,-6741.9208984375,,,
2.1479999966,16,199422.7500000000,193178.0625000000,199361.5937500000,184774.0468750000,186051.5000000000,164924.7656250000,170940.9375000000,-6723.9501953125,,,
2.1519999965,16,199420.3906250000,193177.0312500000,199362.9062500000,184755.9531250000,186056.2500000000,164936.6250000000,170947.2343750000,-6710.8876953125,,,
2.1559999965,16,199414.0625000000,193174.4375000000,199356.9531250000,184750.6406250000,186049.5156250000,164929.0625000000,170942.5156250000,-6709.5737304688,,,
2.1599999967,16,199413.1718750000,193180.2031250000,199350.4062500000,184758.3593750000,186036.9687500000,164918.4531250000,170930.1250000000,-6716.4399414063,,,
2.1639999966,16,199416.6093750000,193185.0000000000,199351.8281250000,184775.0937500000,186035.1250000000,164906.6093750000,170923.3593750000,-6725.2109375000,,,
2.1679999966,16,199428.0625000000,193191.9218750000,199369.4531250000,184773.8125000000,186058.6406250000,164921.9687500000,170940.7187500000,-6712.6313476563,,,
2.1719999965,16,199416.8437500000,193167.9687500000,199368.1093750000,184768.6875000000,186066.3437500000,164926.6875000000,170945.1406250000,-6713.0336914063,,,
2.1759999965,17,199406.7187500000,193152.4375000000,199360.2812500000,184793.9843750000,186057.1718750000,164915.3281250000,170934.7343750000,-6718.7197265625,,,
2.1799999964,17,199413.7656250000,193172.2968750000,199361.2187500000,184792.6093750000,186051.4062500000,164914.1718750000,170930.7656250000,-6714.9111328125,,,
2.1839999964,17,199404.0781250000,193168.0468750000,199350.7031250000,184737.7031250000,186037.9687500000,164902.9375000000,170920.7968750000,-6732.0771484375,,,
2.1879999964,17,199401.4218750000,193154.4531250000,199355.5000000000,184720.2500000000,186045.9843750000,164903.8437500000,170931.0156250000,-6737.0664062500,,,
2.1919999963,17,199402.0937500000,193151.6406250000,199361.8593750000,184742.8281250000,186054.5156250000,164914.4375000000,170935.7031250000,-6726.7666015625,,,
2.1959999963,17,199401.9687500000,193159.4687500000,199360.8437500000,184749.7500000000,186048.5312500000,164918.4062500000,170931.5468750000,-6718.2373046875,,,
2.1999999965,17,199408.7500000000,193181.5468750000,199360.4218750000,184748.8593750000,186038.0625000000,164917.2343750000,170925.4218750000,-6709.1445312500,,,
2.2039999964,17,199410.6562500000,193185.5156250000,199355.8593750000,184756.8906250000,186028.3281250000,164907.4843750000,170915.8593750000,-6711.5048828125,,,
2.2079999964,17,199413.8437500000,193181.9531250000,199358.7031250000,184759.2656250000,186032.1406250000,164907.8125000000,170918.6718750000,-6710.5927734375,,,
2.2119999963,17,199419.7968750000,193176.8281250000,199375.7031250000,184760.1093750000,186049.5781250000,164919.5937500000,170945.7343750000,-6696.2163085938,,,
2.2159999963,17,199404.4375000000,193163.2500000000,199359.0000000000,184753.0468750000,186035.0625000000,164911.5468750000,170934.0468750000,-6701.4199218750,,,
2.2199999965,17,199402.1718750000,193178.5625000000,199348.0000000000,184747.9062500000,186022.7812500000,164902.5312500000,170913.4375000000,-6703.2705078125,,,
2.2239999964,17,199437.1875000000,193211.5781250000,199382.2812500000,184787.1718750000,186054.8906250000,164918.2968750000,170934.2031250000,-6681.5712890625,,,
2.2279999964,17,199446.4375000000,193205.0625000000,199398.6406250000,184810.2812500000,186075.5156250000,164916.8437500000,170946.6718750000,-6682.9663085938,,,
2.2319999964,17,199416.1718750000,193167.5937500000,199380.2031250000,184768.0468750000,186063.2812500000,164902.1718750000,170932.5937500000,-6707.1865234375,,,
2.2359999963,17,199408.3437500000,193166.2343750000,199374.6093750000,184753.7500000000,186058.7968750000,164905.1250000000,170929.1875000000,-6704.5581054688,,,
2.2399999963,17,199412.4218750000,193181.8437500000,199371.2031250000,184756.1875000000,186048.9375000000,164898.9375000000,170917.2187500000,-6703.8334960938,,,
2.2439999965,17,199415.0000000000,193186.9375000000,199368.5468750000,184764.0156250000,186043.5625000000,164889.1093750000,170905.5781250000,-6711.2900390625,,,
2.2479999964,17,199421.2187500000,193178.5156250000,199379.6406250000,184783.5468750000,186057.8593750000,164891.3125000000,170920.6562500000,-6711.3974609375,,,
2.2519999964,17,199417.5781250000,193164.7500000000,199381.5781250000,184784.2968750000,186064.4687500000,164894.3750000000,170930.5781250000,-6705.3623046875,,,
2.2559999963,17,199417.3125000000,193170.2031250000,199376.5625000000,184760.3125000000,186059.6093750000,164901.6406250000,170925.0312500000,-6690.5566406250,,,
2.2599999963,17,199435.8437500000,193194.5312500000,199391.2343750000,184760.7812500000,186066.4218750000,164908.3281250000,170933.6875000000,-6674.9462890625,,,
2.2639999965,17,199448.8281250000,193214.3281250000,199397.2656250000,184780.4062500000,186069.5781250000,164908.4531250000,170930.2031250000,-6668.5625000000,,,
2.2679999964,17,199434.2343750000,193200.7031250000,199378.3593750000,184801.7031250000,186060.9687500000,164898.7187500000,170905.1718750000,-6682.6977539063,,,
2.2719999964,17,199429.2968750000,193186.7500000000,199380.0468750000,184803.5625000000,186062.2343750000,164899.3593750000,170918.4531250000,-6680.9545898438,,,
2.2759999963,17,199412.7968750000,193166.5781250000,199360.9531250000,184777.3437500000,186041.1250000000,164884.5781250000,170911.2968750000,-6692.3271484375,,,
2.2799999963,17,199413.2343750000,193179.9843750000,199356.1718750000,184778.2031250000,186030.2343750000,164878.8750000000,170893.2500000000,-6694.9555664063,,,
2.2839999963,17,199417.0625000000,193191.5000000000,199358.7187500000,184746.2656250000,186028.3281250000,164874.6875000000,170893.2500000000,-6696.7255859375,,,
2.2879999964,17,199453.7031250000,193212.3593750000,199404.7031250000,184792.5937500000,186073.0156250000,164902.4218750000,170941.5156250000,-6666.8730468750,,,
2.2919999964,17,199438.9843750000,193190.7968750000,199397.5156250000,184776.6875000000,186069.6093750000,164899.3125000000,170934.0937500000,-6675.8315429688,,,
2.2959999964,17,199391.3750000000,193146.5937500000,199350.9687500000,184743.3750000000,186025.1093750000,164865.4062500000,170884.9531250000,-6713.8383789063,,,
2.2999999963,17,199379.4375000000,193147.1093750000,199336.6718750000,184729.2812500000,186003.3593750000,164846.7656250000,170858.4843750000,-6727.4907226563,,,
2.3039999963,18,199405.0000000000,193186.0312500000,199357.2812500000,184749.8906250000,186019.7031250000,164860.8125000000,170870.3437500000,-6707.1059570313,,,
2.3079999962,18,199422.0000000000,193193.0000000000,199378.3593750000,184781.6093750000,186043.7031250000,164873.9687500000,170893.7187500000,-6693.2119140625,,,
2.3119999962,18,199417.6875000000,193166.3125000000,199386.2656250000,184762.5468750000,186056.8750000000,164874.2812500000,170910.1093750000,-6693.9096679688,,,
2.3159999961,18,199407.3281250000,193165.8593750000,199376.4843750000,184741.2968750000,186047.3750000000,164873.4531250000,170902.0156250000,-6690.5566406250,,,
2.3199999961,18,199410.5468750000,193181.9687500000,199370.4531250000,184740.9062500000,186035.5468750000,164871.7343750000,170891.3125000000,-6685.2460937500,,,
2.3239999961,18,199454.6718750000,193227.2031250000,199410.2187500000,184783.1250000000,186070.6562500000,164900.1875000000,170924.7812500000,-6651.7182617188,,,
2.3279999963,18,199460.5156250000,193218.4218750000,199414.8906250000,184801.0937500000,186081.0937500000,164900.8906250000,170927.5000000000,-6653.4619140625,,,
2.3319999962,18,199431.6250000000,193174.1406250000,199389.7812500000,184783.2500000000,186061.7500000000,164876.7187500000,170904.2343750000,-6678.8623046875,,,
2.3359999962,18,199409.7343750000,193160.8906250000,199366.4218750000,184756.0468750000,186040.1562500000,164865.7343750000,170886.8906250000,-6686.9355468750,,,
2.3399999961,18,199428.2500000000,193195.2812500000,199376.8906250000,184747.2031250000,186045.2656250000,164874.4218750000,170891.4218750000,-6668.2138671875,,,
2.3439999961,18,199440.5312500000,193207.0000000000,199384.2343750000,184768.5781250000,186047.4531250000,164864.2500000000,170891.0468750000,-6672.5590820313,,,
2.3479999963,18,199445.6250000000,193194.6562500000,199390.7812500000,184796.3906250000,186056.7656250000,164862.7031250000,170902.4218750000,-6675.8583984375,,,
2.3519999962,18,199434.2500000000,193172.9843750000,199380.2968750000,184778.4531250000,186051.4843750000,164861.5468750000,170906.2500000000,-6679.2915039063,,,
2.3559999962,18,199413.7187500000,193155.9218750000,199358.6718750000,184752.1406250000,186027.9375000000,164850.4375000000,170889.4062500000,-6690.0737304688,,,
2.3599999961,18,199411.6718750000,193166.7968750000,199352.0156250000,184751.6562500000,186014.0312500000,164844.8906250000,170870.9062500000,-6690.2885742188,,,
2.3639999961,18,199431.2812500000,193198.3593750000,199366.4531250000,184778.4531250000,186025.9218750000,164855.7968750000,170873.2812500000,-6676.3139648438,,,
2.3679999961,18,199437.4531250000,193202.4375000000,199380.0468750000,184784.4375000000,186045.3906250000,164863.6406250000,170888.5000000000,-6670.4399414063,,,
2.3719999962,18,199419.4218750000,193174.6718750000,199377.1250000000,184771.2343750000,186046.4062500000,164851.1093750000,170895.6562500000,-6681.4638671875,,,
2.3759999962,18,199405.2343750000,193156.7031250000,199364.3906250000,184781.7031250000,186033.1562500000,164838.4218750000,170877.5000000000,-6689.1621093750,,,
2.3799999962,18,199393.5937500000,193151.1250000000,199351.0781250000,184794.1406250000,186015.0625000000,164823.8593750000,170847.3750000000,-6701.2050781250,,,
2.3839999961,18,199398.9062500000,193169.8281250000,199345.6562500000,184744.3906250000,186007.9687500000,164831.6718750000,170859.0468750000,-6696.3500976563,,,
2.3879999961,18,199405.4218750000,193171.8593750000,199351.7812500000,184726.9843750000,186016.0156250000,164839.7343750000,170881.7656250000,-6691.3613281250,,,
2.3919999963,18,199419.9062500000,193177.2812500000,199374.7187500000,184736.7187500000,186039.9531250000,164862.9062500000,170898.9062500000,-6671.3520507813,,,
2.3959999962,18,199408.6718750000,193165.3906250000,199371.9687500000,184729.7656250000,186033.9687500000,164854.5937500000,170893.0000000000,-6676.5556640625,,,
2.3999999962,18,199390.9062500000,193152.0468750000,199349.5468750000,184715.7656250000,186006.3593750000,164828.7656250000,170865.5625000000,-6698.7910156250,,,
2.4039999961,18,199411.1406250000,193175.2968750000,199364.6875000000,184738.0781250000,186018.0312500000,164839.5781250000,170873.6875000000,-6686.8823242188,,,
2.4079999961,18,199442.5156250000,193198.4218750000,199399.1718750000,184760.9375000000,186053.8437500000,164865.5156250000,170906.0937500000,-6661.7768554688,,,
2.4119999961,18,199429.7812500000,193159.5000000000,199399.0937500000,184769.2031250000,186058.3437500000,164847.2968750000,170905.8750000000,-6678.7280273438,,,
2.4159999962,18,199409.6406250000,193150.8593750000,199378.6250000000,184745.5625000000,186038.7343750000,164841.9375000000,170884.3593750000,-6684.1196289063,,,
2.4199999962,18,199395.9218750000,193156.9531250000,199352.9531250000,184719.8906250000,186008.7812500000,164827.8281250000,170859.7343750000,-6694.3652343750,,,
2.4239999962,18,199413.3593750000,193179.3437500000,199365.8593750000,184729.5000000000,186018.1718750000,164830.5937500000,170867.7031250000,-6684.2802734375,,,
2.4279999961,18,199435.1093750000,193194.5781250000,199388.8281250000,184755.1093750000,186045.0937500000,164850.2187500000,170886.9062500000,-6666.4438476563,,,
2.4319999961,19,199433.7968750000,193187.4531250000,199394.5937500000,184731.7812500000,186056.4375000000,164859.4218750000,170890.4062500000,-6660.8378906250,,,
2.4359999960,19,199421.2968750000,193179.7812500000,199384.0000000000,184700.5000000000,186043.8593750000,164847.8125000000,170875.6250000000,-6665.5317382813,,,
2.4399999960,19,199412.4531250000,193174.8437500000,199376.8906250000,184704.5625000000,186029.2656250000,164822.8125000000,170859.9843750000,-6680.2568359375,,,
2.4439999959,19,199419.7968750000,193189.1406250000,199377.6406250000,184718.2343750000,186023.9843750000,164816.8906250000,170861.1093750000,-6681.8930664063,,,
2.4479999959,19,199433.0000000000,193195.8906250000,199386.4843750000,184755.6250000000,186038.1562500000,164832.2500000000,170879.7500000000,-6670.5742187500,,,
2.4519999959,19,199411.9687500000,193169.7968750000,199370.0937500000,184748.0937500000,186028.8906250000,164825.5000000000,170867.0937500000,-6683.2880859375,,,
2.4559999960,19,199397.0000000000,193150.5625000000,199361.8906250000,184736.9531250000,186019.7187500000,164812.0000000000,170854.5312500000,-6692.1928710938,,,
2.4599999960,19,199383.8906250000,193155.9218750000,199345.1250000000,184714.3750000000,185996.7656250000,164798.8125000000,170837.0781250000,-6701.2050781250,,,
2.4639999960,19,199398.5625000000,193185.2656250000,199354.0312500000,184724.1093750000,186002.0156250000,164813.9375000000,170839.9687500000,-6685.2998046875,,,
2.4679999959,19,199422.8593750000,193203.4843750000,199381.4687500000,184759.7500000000,186030.1093750000,164837.1406250000,170864.1718750000,-6660.7036132813,,,
2.4719999959,19,199414.0312500000,193179.9375000000,199381.3593750000,184748.1718750000,186034.8750000000,164839.9843750000,170872.6718750000,-6662.6884765625,,,
2.4759999961,19,199388.5312500000,193155.3437500000,199360.9531250000,184718.3437500000,186013.6562500000,164819.5156250000,170856.3281250000,-6679.4790039063,,,
2.4799999960,19,199385.4375000000,193155.3437500000,199352.2343750000,184724.5312500000,186000.2187500000,164808.1093750000,170841.4531250000,-6683.3686523438,,,
2.4839999960,19,199421.7031250000,193191.6562500000,199383.0000000000,184765.0468750000,186027.6562500000,164829.2500000000,170859.6875000000,-6656.7875976563,,,
2.4879999959,19,199450.1093750000,193214.2343750000,199416.2812500000,184785.6718750000,186061.7812500000,164853.1250000000,170887.0000000000,-6636.1616210938,,,
2.4919999959,19,199418.3593750000,193167.9218750000,199393.0625000000,184760.4062500000,186046.0156250000,164828.7656250000,170864.5937500000,-6665.6660156250,,,
2.4959999959,19,199411.3437500000,193159.4218750000,199385.0156250000,184762.4843750000,186041.6093750000,164830.1562500000,170858.2656250000,-6662.2055664063,,,
2.4999999960,19,199413.1718750000,193174.8593750000,199375.6250000000,184753.6093750000,186026.0312500000,164823.8125000000,170844.3125000000,-6660.9721679688,,,
2.5039999960,19,199417.8750000000,193183.7968750000,199371.2812500000,184747.3906250000,186018.0000000000,164817.1875000000,170843.0625000000,-6664.5659179688,,,
2.5079999960,19,199424.8437500000,193181.1718750000,199380.5312500000,184749.2968750000,186029.6406250000,164818.4687500000,170856.1406250000,-6663.7348632813,,,
2.5119999959,19,199418.8125000000,193168.3750000000,199381.4375000000,184737.8125000000,186034.1875000000,164817.5312500000,170858.7187500000,-6663.6005859375,,,
2.5159999959,19,199412.5312500000,193166.9062500000,199377.3750000000,184718.0781250000,186029.1093750000,164814.3593750000,170848.7187500000,-6661.5620117188,,,
2.5199999961,19,199391.0468750000,193154.6406250000,199349.8281250000,184696.5937500000,185998.2656250000,164784.1093750000,170815.5625000000,-6685.1118164063,,,
2.5239999960,19,199408.7500000000,193180.7187500000,199361.8593750000,184720.1718750000,186007.4062500000,164797.0937500000,170828.6093750000,-6671.2983398438,,,
2.5279999960,19,199424.6875000000,193187.1562500000,199381.5781250000,184742.6406250000,186028.8750000000,164812.6718750000,170849.4218750000,-6658.1020507813,,,
2.5319999959,19,199431.3281250000,193181.9218750000,199401.1875000000,184751.0625000000,186049.6562500000,164824.7500000000,170867.1406250000,-6646.1928710938,,,
2.5359999959,19,199421.4375000000,193177.2187500000,199388.3593750000,184749.9062500000,186038.3437500000,164823.3437500000,170854.5312500000,-6645.1469726563,,,
2.5399999958,19,199399.8125000000,193172.2031250000,199357.3125000000,184715.2812500000,186003.2812500000,164796.2343750000,170823.2968750000,-6668.4018554688,,,
2.5439999960,19,199397.8281250000,193173.5781250000,199348.8593750000,184717.9687500000,185991.1875000000,164780.9687500000,170809.8750000000,-6680.3642578125,,,
2.5479999960,19,199420.0468750000,193182.3437500000,199374.9062500000,184753.8750000000,186020.8281250000,164801.3593750000,170836.1718750000,-6660.9990234375,,,
2.5519999960,19,199419.0000000000,193170.2812500000,199384.8750000000,184754.1250000000,186034.6406250000,164812.8906250000,170850.6562500000,-6651.1821289063,,,
2.5559999959,19,199411.6718750000,193173.6250000000,199378.7031250000,184730.1250000000,186026.3750000000,164819.4375000000,170843.3750000000,-6643.4838867188,,,
2.5599999959,20,199405.6093750000,193183.2031250000,199364.1406250000,184725.1250000000,186006.5312500000,164810.6875000000,170823.9062500000,-6650.2700195313,,,
2.5639999958,20,199387.9375000000,193165.8281250000,199343.7031250000,184718.8750000000,185981.7500000000,164778.1250000000,170797.1406250000,-6682.0541992188,,,
2.5679999958,20,199379.8593750000,193149.0937500000,199344.0781250000,184738.3750000000,185987.2968750000,164777.4843750000,170797.6250000000,-6690.3154296875,,,
2.5719999957,20,199356.9218750000,193120.6562500000,199329.3593750000,184714.3437500000,185981.1250000000,164772.2812500000,170790.3281250000,-6701.1513671875,,,
2.5759999957,20,199337.7812500000,193099.6562500000,199307.0468750000,184694.8125000000,185961.0156250000,164758.1406250000,170777.6406250000,-6710.4853515625,,,
2.5799999957,20,199342.9531250000,193116.4687500000,199300.8437500000,184680.0625000000,185949.0781250000,164753.8281250000,170766.2343750000,-6704.9067382813,,,
2.5839999958,20,199364.8906250000,193147.2343750000,199316.5625000000,184693.5000000000,185960.6406250000,164761.5312500000,170773.9375000000,-6691.3613281250,,,
2.5879999958,20,199381.6093750000,193154.5312500000,199335.8437500000,184730.0625000000,185981.7968750000,164770.7812500000,170788.7187500000,-6681.8125000000,,,
2.5919999958,20,199373.4843750000,193142.2968750000,199334.1875000000,184714.8281250000,185984.6406250000,164774.6718750000,170791.7812500000,-6682.2148437500,,,
2.5959999957,20,199378.8125000000,193146.1406250000,199346.4375000000,184701.6093750000,185995.2812500000,164785.8750000000,170803.7343750000,-6668.7236328125,,,
2.5999999957,20,199365.1875000000,193132.5937500000,199330.1093750000,184697.0781250000,185973.2343750000,164756.9375000000,170781.8750000000,-6687.7939453125,,,
2.6039999959,20,199394.0781250000,193168.2656250000,199348.6406250000,184747.2343750000,185988.2812500000,164775.4375000000,170790.1093750000,-6667.9189453125,,,
2.6079999958,20,199420.0156250000,193188.8437500000,199370.1250000000,184811.6250000000,186013.7187500000,164797.5000000000,170812.7500000000,-6647.0244140625,,,
2.6119999958,20,199425.6250000000,193180.9062500000,199386.6250000000,184794.3906250000,186033.4531250000,164803.9062500000,170830.9687500000,-6638.5756835938,,,
2.6159999957,20,199397.1562500000,193150.2968750000,199366.2031250000,184720.4062500000,186014.6250000000,164787.9218750000,170814.6562500000,-6656.0366210938,,,
2.6199999957,20,199394.8281250000,193156.0625000000,199352.7968750000,184710.1875000000,185997.5937500000,164779.0156250000,170802.0468750000,-6657.4316406250,,,
2.6239999956,20,199398.7656250000,193170.8437500000,199346.3906250000,184699.8593750000,185985.5781250000,164762.5781250000,170791.4062500000,-6662.1254882813,,,
2.6279999958,20,199424.7656250000,193188.2968750000,199380.6875000000,184731.1562500000,186019.2187500000,164779.8125000000,170825.8125000000,-6639.8359375000,,,
2.6319999958,20,199434.8437500000,193193.2656250000,199400.6250000000,184731.4843750000,186043.2968750000,164800.7343750000,170850.2500000000,-6619.6391601563,,,
2.6359999957,20,199407.3281250000,193171.4062500000,199371.2187500000,184719.6875000000,186016.4843750000,164786.8437500000,170824.0156250000,-6633.2646484375,,,
2.6399999957,20,199408.6718750000,193177.6250000000,199363.1562500000,184734.5937500000,186004.6250000000,164782.5781250000,170813.1562500000,-6633.1308593750,,,
2.6439999957,20,199410.1406250000,193183.0156250000,199358.2187500000,184741.5781250000,185994.8125000000,164773.1875000000,170799.7656250000,-6642.2500000000,,,
2.6479999959,20,199428.8593750000,193199.7812500000,199380.7968750000,184757.0156250000,186017.5000000000,164796.0468750000,170818.8906250000,-6626.3178710938,,,
2.6519999958,20,199419.3906250000,193180.9218750000,199379.9375000000,184757.7187500000,186020.2656250000,164797.3906250000,170825.2500000000,-6630.9580078125,,,
2.6559999958,20,199401.5000000000,193162.1718750000,199366.6875000000,184738.8593750000,186009.0000000000,164787.8906250000,170816.2968750000,-6640.0776367188,,,
2.6599999957,20,199401.3125000000,193174.5937500000,199361.0312500000,184730.3125000000,186002.3437500000,164785.1562500000,170805.1562500000,-6638.3876953125,,,
2.6639999957,20,199410.3125000000,193192.7031250000,199366.4218750000,184738.3593750000,186004.5468750000,164788.3125000000,170803.2500000000,-6634.9008789063,,,
2.6679999956,20,199431.3281250000,193208.1562500000,199391.6406250000,184763.3437500000,186029.5468750000,164809.8906250000,170824.8437500000,-6617.8686523438,,,
2.6719999958,20,199441.3906250000,193208.5781250000,199407.7500000000,184786.5468750000,186051.8281250000,164828.0937500000,170834.5000000000,-6600.0859375000,,,
2.6759999958,20,199425.0781250000,193187.6093750000,199389.4843750000,184782.3906250000,186038.7656250000,164818.7343750000,170825.4843750000,-6607.3544921875,,,
2.6799999957,20,199398.4843750000,193169.0937500000,199350.0156250000,184734.4843750000,185993.4062500000,164791.0781250000,170805.5937500000,-6633.9086914063,,,
2.6839999957,20,199409.3906250000,193179.1093750000,199356.8437500000,184739.8281250000,185993.2187500000,164788.0468750000,170809.2343750000,-6634.3374023438,,,
2.6879999957,21,199424.7968750000,193189.7187500000,199374.6562500000,184765.1718750000,186011.8125000000,164800.8125000000,170819.4218750000,-6623.7426757813,,,
2.6919999956,21,199407.5156250000,193159.1718750000,199365.2968750000,184754.3125000000,186006.9062500000,164787.0312500000,170810.0468750000,-6637.9853515625,,,
2.6959999956,21,199400.0312500000,193142.0156250000,199362.4218750000,184761.2031250000,186004.3750000000,164780.0000000000,170806.4687500000,-6640.9360351563,,,
2.6999999955,21,199421.2812500000,193172.3750000000,199376.9062500000,184772.6875000000,186014.2812500000,164789.7343750000,170812.5625000000,-6620.4707031250,,,
2.7039999955,21,199427.9218750000,193192.5156250000,199375.7656250000,184737.8437500000,186009.2656250000,164786.1250000000,170804.3593750000,-6620.6850585938,,,
2.7079999954,21,199421.8437500000,193182.3437500000,199369.9375000000,184739.1250000000,186008.7031250000,164783.2187500000,170802.7187500000,-6629.0268554688,,,
2.7119999956,21,199414.4687500000,193164.4843750000,199369.7187500000,184747.1562500000,186015.4531250000,164785.4843750000,170806.9531250000,-6631.1459960938,,,
2.7159999956,21,199404.4375000000,193147.5312500000,199366.8593750000,184741.0937500000,186011.1718750000,164776.8437500000,170803.6093750000,-6635.9736328125,,,
2.7199999955,21,199392.5000000000,193148.3906250000,199353.1718750000,184724.3750000000,185990.7343750000,164757.6093750000,170786.0937500000,-6647.2924804688,,,
2.7239999955,21,199418.4062500000,193177.1250000000,199376.7187500000,184747.0468750000,186008.0312500000,164770.2343750000,170803.2812500000,-6631.2797851563,,,
2.7279999955,21,199434.5312500000,193182.4062500000,199393.0781250000,184778.9062500000,186027.6562500000,164780.7343750000,170819.8906250000,-6623.1528320313,,,
2.7319999957,21,199434.9843750000,193176.0000000000,199402.6406250000,184782.6562500000,186041.0937500000,164787.7812500000,170831.1562500000,-6615.4282226563,,,
2.7359999956,21,199424.5000000000,193164.9218750000,199399.5000000000,184761.2812500000,186036.4062500000,164784.2187500000,170827.4687500000,-6614.9721679688,,,
2.7399999956,21,199431.2031250000,193184.9531250000,199402.3437500000,184757.0468750000,186032.8437500000,164786.4687500000,170823.1875000000,-6602.6337890625,,,
2.7439999955,21,199458.8281250000,193220.5156250000,199426.7187500000,184772.6093750000,186052.4218750000,164806.8593750000,170840.0312500000,-6580.9082031250,,,
2.7479999955,21,199467.4687500000,193224.5625000000,199429.8593750000,184807.6093750000,186064.3281250000,164820.6718750000,170845.5468750000,-6575.7314453125,,,
2.7519999954,21,199446.2968750000,193194.0156250000,199412.2343750000,184808.8593750000,186056.4375000000,164811.5156250000,170830.0156250000,-6591.1806640625,,,
2.7559999956,21,199412.9062500000,193164.9218750000,199382.9687500000,184769.1406250000,186029.1406250000,164794.2187500000,170808.7031250000,-6612.9604492188,,,
2.7599999956,21,199399.5000000000,193168.5312500000,199362.7031250000,184735.0468750000,186003.9062500000,164777.5312500000,170794.7500000000,-6624.6816406250,,,
2.7639999955,21,199410.8437500000,193188.3281250000,199365.7343750000,184750.5312500000,186001.8125000000,164772.5000000000,170789.1250000000,-6623.8500976563,,,
2.7679999955,21,199439.1406250000,193208.8750000000,199397.9687500000,184787.4062500000,186034.6562500000,164796.2031250000,170814.5781250000,-6601.2392578125,,,
2.7719999955,21,199444.9531250000,193201.9062500000,199419.5312500000,184794.4375000000,186060.7812500000,164809.0000000000,170835.0312500000,-6586.1918945313,,,
2.7759999956,21,199443.5625000000,193209.4062500000,199418.3593750000,184786.1718750000,186061.2500000000,164816.7812500000,170838.7968750000,-6571.3325195313,,,
2.7799999956,21,199416.9843750000,193190.8750000000,199382.7031250000,184782.4531250000,186022.5937500000,164780.1718750000,170802.9843750000,-6599.7373046875,,,
2.7839999956,21,199413.5000000000,193193.7812500000,199369.9375000000,184765.9531250000,186008.4843750000,164767.4062500000,170790.5937500000,-6611.0830078125,,,
2.7879999955,21,199420.7343750000,193194.0468750000,199374.4687500000,184782.9375000000,186017.4687500000,164775.7343750000,170800.7031250000,-6607.7031250000,,,
2.7919999955,21,199420.6093750000,193180.7187500000,199385.4687500000,184782.6093750000,186030.2343750000,164780.6718750000,170814.0625000000,-6602.8217773438,,,
2.7959999954,21,199415.9062500000,193178.5156250000,199382.8593750000,184756.0312500000,186028.2812500000,164783.3593750000,170814.0937500000,-6596.3842773438,,,
2.7999999956,21,199414.4375000000,193192.3593750000,199373.7187500000,184742.9843750000,186018.9218750000,164782.9531250000,170802.5000000000,-6594.1582031250,,,
2.8039999956,21,199421.4375000000,193205.8437500000,199375.7812500000,184762.4843750000,186019.8906250000,164782.0468750000,170799.0468750000,-6594.0507812500,,,
2.8079999955,21,199445.2812500000,193216.9218750000,199405.4531250000,184798.1718750000,186046.7656250000,164793.2812500000,170822.4531250000,-6582.2221679688,,,
2.8119999955,21,199429.4062500000,193190.9531250000,199397.7031250000,184762.5937500000,186040.5625000000,164779.9531250000,170812.9375000000,-6596.8134765625,,,
2.8159999955,22,199406.9218750000,193165.0468750000,199381.7968750000,184719.4218750000,186024.3906250000,164764.0781250000,170796.5781250000,-6610.1440429688,,,
2.8199999954,22,199423.4218750000,193192.3281250000,199390.9687500000,184733.8437500000,186027.0156250000,164773.6406250000,170800.9531250000,-6590.6176757813,,,
2.8239999954,22,199443.2968750000,193218.5000000000,199404.4531250000,184750.2031250000,186035.0156250000,164777.8593750000,170808.7031250000,-6579.4863281250,,,
2.8279999953,22,199446.1718750000,193215.3906250000,199407.7812500000,184760.1093750000,186042.8437500000,164775.3125000000,170809.2343750000,-6583.6708984375,,,
2.8319999953,22,199430.5312500000,193184.1406250000,199400.9218750000,184760.7968750000,186040.2656250000,164765.1250000000,170803.7968750000,-6597.1352539063,,,
2.8359999952,22,199437.1562500000,193188.5156250000,199414.4687500000,184757.1250000000,186053.5468750000,164777.7031250000,170825.5156250000,-6580.6396484375,,,
2.8399999954,22,199434.9843750000,193204.7187500000,199403.1093750000,184744.6250000000,186039.1406250000,164776.5937500000,170813.0468750000,-6578.5209960938,,,
2.8439999954,22,199442.0156250000,193221.4843750000,199404.7187500000,184767.2343750000,186039.2500000000,164777.4531250000,170808.8593750000,-6578.3061523438,,,
2.8479999953,22,199450.3437500000,193214.7812500000,199418.1093750000,184793.7187500000,186056.3906250000,164779.4375000000,170826.3437500000,-6579.1376953125,,,
2.8519999953,22,199449.7031250000,193207.9687500000,199422.6718750000,184796.5312500000,186067.3125000000,164786.3125000000,170833.6250000000,-6573.8002929688,,,
2.8559999953,22,199437.1875000000,193202.4375000000,199413.6093750000,184771.2656250000,186059.5312500000,164784.0781250000,170826.0468750000,-6572.0566406250,,,
2.8599999954,22,199432.1718750000,193211.9531250000,199404.3437500000,184745.7031250000,186045.3593750000,164777.7187500000,170811.4843750000,-6574.4169921875,,,
2.8639999954,22,199439.7031250000,193234.5781250000,199397.2187500000,184758.7031250000,186036.7343750000,164779.8906250000,170795.0156250000,-6573.9877929688,,,
2.8679999954,22,199443.7187500000,193232.2343750000,199397.2656250000,184781.1093750000,186039.0156250000,164782.2812500000,170802.1875000000,-6575.0073242188,,,
2.8719999953,22,199438.3125000000,193213.5156250000,199399.1250000000,184788.1406250000,186043.2656250000,164784.3750000000,170817.6093750000,-6577.9038085938,,,
2.8759999953,22,199406.6093750000,193179.0000000000,199372.4843750000,184753.5000000000,186018.0000000000,164762.9531250000,170793.5468750000,-6600.2734375000,,,
2.8799999952,22,199402.5781250000,193182.7031250000,199363.2812500000,184748.4843750000,186004.3281250000,164752.9218750000,170778.9218750000,-6601.3999023438,,,
2.8839999954,22,199417.4062500000,193202.8750000000,199371.5937500000,184764.2812500000,186006.7343750000,164753.8593750000,170780.0000000000,-6593.1655273438,,,
2.8879999954,22,199438.2500000000,193215.9062500000,199397.1562500000,184790.7343750000,186032.5468750000,164772.7656250000,170805.2656250000,-6576.5361328125,,,
2.8919999953,22,199431.3593750000,193197.7656250000,199399.2500000000,184776.9531250000,186040.8125000000,164778.8750000000,170813.0781250000,-6578.0380859375,,,
2.8959999953,22,199421.0312500000,193190.2343750000,199392.2031250000,184743.5000000000,186037.6093750000,164778.0781250000,170809.2343750000,-6575.2753906250,,,
2.8999999953,22,199409.3593750000,193192.1406250000,199376.3437500000,184713.2500000000,186017.9062500000,164763.9843750000,170790.0625000000,-6581.7929687500,,,
2.9039999954,22,199434.8437500000,193234.2500000000,199392.9531250000,184738.6718750000,186028.2812500000,164784.1093750000,170791.8750000000,-6558.6455078125,,,
2.9079999954,22,199448.6875000000,193242.6718750000,199409.6406250000,184779.0468750000,186043.9687500000,164791.0781250000,170804.3593750000,-6553.3081054688,,,
2.9119999954,22,199434.7187500000,193195.6250000000,199409.9531250000,184787.6562500000,186048.3125000000,164779.0625000000,170819.2656250000,-6574.1489257813,,,
2.9159999953,22,199421.4843750000,193177.1718750000,199398.1562500000,184766.3750000000,186036.4843750000,164774.5937500000,170810.4687500000,-6582.1416015625,,,
2.9199999953,22,199415.7187500000,193186.7812500000,199384.2031250000,184754.3125000000,186018.2812500000,164766.6250000000,170788.2343750000,-6584.5288085938,,,
2.9239999952,22,199417.5781250000,193198.7031250000,199381.3125000000,184748.3281250000,186010.5468750000,164759.4375000000,170777.9375000000,-6588.1499023438,,,
2.9279999954,22,199435.2812500000,193213.8125000000,199401.0468750000,184761.3125000000,186030.4218750000,164770.6718750000,170798.0468750000,-6575.4897460938,,,
2.9319999954,22,199445.6250000000,193215.5312500000,199415.2343750000,184782.4531250000,186050.8125000000,164781.7812500000,170815.6406250000,-6560.9257812500,,,
2.9359999953,22,199425.1718750000,193195.0625000000,199397.9375000000,184756.0000000000,186036.5156250000,164767.4218750000,170801.7500000000,-6571.0913085938,,,
2.9399999953,22,199419.3437500000,193208.2656250000,199385.7656250000,184726.5468750000,186020.2812500000,164758.3593750000,170783.7343750000,-6569.2402343750,,,
2.9439999952,23,199436.3281250000,193229.7968750000,199395.1562500000,184738.8593750000,186026.1562500000,164761.2343750000,170787.5937500000,-6560.0136718750,,,
2.9479999952,23,199452.6562500000,193241.0937500000,199406.0625000000,184774.3750000000,186040.0000000000,164770.6406250000,170794.4375000000,-6549.9819335938,,,
2.9519999952,23,199435.4375000000,193204.4218750000,199397.9687500000,184782.7187500000,186037.6875000000,164755.7500000000,170792.5781250000,-6566.0219726563,,,
2.9559999951,23,199413.9062500000,193185.2656250000,199381.6093750000,184754.2500000000,186024.2500000000,164750.1250000000,170780.3750000000,-6575.9995117188,,,
2.9599999951,23,199408.5625000000,193193.2187500000,199370.5312500000,184726.6875000000,186009.3125000000,164748.5156250000,170766.7968750000,-6577.8232421875,,,
