Time:250Hz,Epoch,Channel 1,Channel 2,Channel 3,Channel 4,Channel 5,Channel 6,Channel 7,Channel 8,Event Id,Event Date,Event Duration
0.0000000000,0,150217.0000000000,200665.0156250000,176039.4062500000,151414.9375000000,116279.9218750000,150780.6093750000,131248.7656250000,143001.9375000000,,,
0.0040000000,0,150211.9062500000,200462.1406250000,176192.0781250000,151445.2968750000,116276.6484375000,150782.2031250000,131241.5312500000,143011.7031250000,,,
0.0079999999,0,149879.5312500000,200505.0000000000,175271.5937500000,150956.8906250000,115967.4453125000,150488.4218750000,130947.7421875000,142733.7187500000,,,
0.0119999999,0,149669.5937500000,200715.1250000000,174602.8750000000,150640.5312500000,115770.2734375000,150291.2656250000,130755.6406250000,142541.5156250000,,,
0.0159999998,0,149854.9375000000,200847.8906250000,175077.6562500000,150915.2812500000,115940.0546875000,150447.4375000000,130916.8437500000,142684.8281250000,,,
0.0199999998,0,150206.3750000000,200643.5625000000,176012.9062500000,151427.7187500000,116273.5390625000,150763.2343750000,131236.1562500000,142987.7187500000,,,
0.0240000000,0,150254.8437500000,200495.1250000000,176199.4062500000,151479.4687500000,116317.6328125000,150818.6562500000,131281.2500000000,143048.6406250000,,,
0.0279999999,0,149943.5781250000,200532.5156250000,175318.0781250000,150989.7500000000,116032.6718750000,150539.8281250000,131001.3359375000,142789.9375000000,,,
0.0319999999,0,149694.7968750000,200698.8906250000,174610.8593750000,150673.1406250000,115797.1484375000,150315.2187500000,130764.2265625000,142568.7968750000,,,
0.0359999998,0,149864.9843750000,200825.6875000000,175063.1875000000,150934.2031250000,115952.8203125000,150459.6406250000,130921.1640625000,142697.5625000000,,,
0.0399999998,0,150201.9218750000,200666.1093750000,175985.5781250000,151426.1718750000,116265.5390625000,150769.2187500000,131231.9531250000,142991.0781250000,,,
0.0440000000,0,150240.8281250000,200547.6406250000,176189.3125000000,151471.4218750000,116308.5937500000,150804.0625000000,131247.1562500000,143046.3281250000,,,
0.0480000000,0,149919.2187500000,200561.6093750000,175289.9218750000,150991.5468750000,116013.7656250000,150510.1093750000,130979.0703125000,142772.5625000000,,,
0.0519999999,0,149704.3750000000,200677.7812500000,174579.0000000000,150669.4375000000,115811.0390625000,150306.7968750000,130802.6640625000,142574.0156250000,,,
0.0559999999,0,149887.8750000000,200798.6093750000,175018.4531250000,150935.7812500000,115972.6718750000,150468.8281250000,130957.9609375000,142719.2812500000,,,
0.0599999998,0,150225.6875000000,200685.8906250000,175945.8593750000,151421.2812500000,116289.4375000000,150774.3437500000,131266.9531250000,143009.6093750000,,,
0.0639999998,0,150255.2968750000,200609.6093750000,176149.7812500000,151470.8593750000,116319.0781250000,150800.0000000000,131295.0625000000,143053.7656250000,,,
0.0680000000,0,149939.2812500000,200606.6250000000,175266.5000000000,150991.5937500000,116032.4296875000,150522.6875000000,131006.3203125000,142786.9843750000,,,
0.0719999999,0,149740.9687500000,200682.3125000000,174595.9062500000,150672.5156250000,115850.0390625000,150344.0312500000,130821.0859375000,142607.2031250000,,,
0.0759999999,0,149895.6718750000,200793.1718750000,175049.0312500000,150933.3593750000,115985.3359375000,150477.1250000000,130956.8359375000,142725.9687500000,,,
0.0799999998,0,150199.7812500000,200723.0625000000,175973.7187500000,151408.0312500000,116264.4687500000,150755.0312500000,131233.2343750000,142989.0625000000,,,
0.0839999998,0,150238.1406250000,200686.6406250000,176188.5468750000,151464.9218750000,116300.8906250000,150800.0625000000,131267.1406250000,143041.0156250000,,,
0.0880000000,0,149927.9687500000,200677.7812500000,175318.7500000000,150983.4218750000,116019.6640625000,150528.5156250000,130982.3671875000,142780.9843750000,,,
0.0919999999,0,149714.3593750000,200714.0156250000,174643.0000000000,150662.1093750000,115824.6171875000,150330.7031250000,130789.0625000000,142585.0468750000,,,
0.0959999999,0,149890.9843750000,200820.0781250000,175108.6562500000,150927.8125000000,115988.0703125000,150481.2343750000,130945.4375000000,142723.8750000000,,,
0.0999999999,0,150221.4843750000,200782.5000000000,176043.8593750000,151414.7187500000,116293.4609375000,150779.5625000000,131231.4687500000,143013.7968750000,,,
0.1039999998,0,150253.2656250000,200769.2500000000,176245.4062500000,151468.6093750000,116320.5546875000,150807.4687500000,131267.2812500000,143061.3750000000,,,
0.1079999998,0,149927.4531250000,200730.0625000000,175353.5468750000,150985.6406250000,116025.1093750000,150522.2968750000,131000.9609375000,142786.7656250000,,,
0.1120000000,0,149699.8750000000,200708.2500000000,174646.9375000000,150656.1562500000,115815.6015625000,150314.9062500000,130800.4375000000,142575.8437500000,,,
0.1159999999,0,149877.8437500000,200806.8281250000,175100.3437500000,150910.2500000000,115978.6562500000,150459.1562500000,130959.2500000000,142713.0156250000,,,
0.1199999999,0,150196.9375000000,200805.8593750000,176040.7187500000,151394.9218750000,116278.2812500000,150748.1875000000,131259.3906250000,142990.6718750000,,,
0.1239999998,0,150231.0000000000,200813.7656250000,176245.1406250000,151466.9062500000,116307.6796875000,150777.7968750000,131296.2187500000,143036.6718750000,,,
0.1279999998,1,149943.9531250000,200759.1562500000,175368.9843750000,151006.3281250000,116047.6640625000,150509.5468750000,131040.4921875000,142791.4687500000,,,
0.1319999998,1,149741.2812500000,200701.3593750000,174662.6093750000,150674.2656250000,115865.3828125000,150311.1406250000,130856.2265625000,142602.0156250000,,,
0.1359999997,1,149891.0000000000,200781.3750000000,175091.9687500000,150928.9375000000,116002.2031250000,150423.6875000000,130990.7656250000,142714.2187500000,,,
0.1399999997,1,150248.2031250000,200811.5937500000,176061.1093750000,151428.9062500000,116334.4218750000,150757.8906250000,131328.4062500000,143032.6562500000,,,
0.1439999996,1,150291.7343750000,200870.6875000000,176295.5625000000,151503.1562500000,116372.0781250000,150802.2812500000,131358.3593750000,143094.4218750000,,,
0.1479999996,1,149961.9531250000,200807.0625000000,175378.8593750000,151025.9531250000,116070.6796875000,150488.9531250000,131056.8046875000,142804.4218750000,,,
0.1519999998,1,149739.4375000000,200702.2968750000,174629.3437500000,150684.2187500000,115863.8046875000,150276.7031250000,130864.8906250000,142592.1718750000,,,
0.1559999997,1,149883.4687500000,200777.3750000000,175044.1562500000,150919.7187500000,115992.7890625000,150400.0156250000,130995.2421875000,142702.2812500000,,,
0.1599999997,1,150208.0937500000,200851.3750000000,175995.8750000000,151399.4531250000,116289.5781250000,150697.9531250000,131288.7812500000,142988.2656250000,,,
0.1639999996,1,150288.2343750000,200938.6875000000,176269.8125000000,151490.6718750000,116367.4140625000,150778.2031250000,131365.2812500000,143078.1093750000,,,
0.1679999996,1,150006.1562500000,200881.5468750000,175419.1718750000,151037.3281250000,116117.3515625000,150524.3593750000,131110.7968750000,142836.2031250000,,,
0.1719999998,1,149757.7031250000,200756.7500000000,174668.6875000000,150699.6875000000,115888.3203125000,150304.0937500000,130859.2812500000,142612.7031250000,,,
0.1759999997,1,149871.8750000000,200817.2656250000,175049.2656250000,150913.3906250000,115989.5468750000,150396.5468750000,130968.7421875000,142693.8593750000,,,
0.1799999997,1,150198.3125000000,200898.2656250000,175979.1406250000,151388.8906250000,116286.8125000000,150695.3437500000,131295.2031250000,142979.8125000000,,,
0.1839999997,1,150273.1406250000,201003.3281250000,176244.8750000000,151483.1093750000,116352.3125000000,150773.1093750000,131365.4375000000,143069.1875000000,,,
0.1879999996,1,149983.7343750000,200922.3750000000,175377.9218750000,151023.6250000000,116091.6015625000,150518.0000000000,131101.1093750000,142822.3593750000,,,
0.1919999996,1,149744.5000000000,200742.2968750000,174615.8750000000,150670.9687500000,115872.8671875000,150296.6093750000,130877.6328125000,142600.9531250000,,,
0.1959999998,1,149906.8125000000,200790.4375000000,175046.1875000000,150912.1718750000,116022.9375000000,150432.2500000000,131021.6640625000,142729.0781250000,,,
0.1999999997,1,150211.6093750000,200896.5156250000,175979.9531250000,151396.8593750000,116295.9843750000,150716.5312500000,131294.3593750000,143004.7031250000,,,
0.2039999997,1,150260.4843750000,201004.6718750000,176229.8125000000,151482.5000000000,116339.4375000000,150769.2968750000,131341.1718750000,143066.3437500000,,,
0.2079999996,1,149979.3125000000,200898.5000000000,175387.6093750000,151024.3750000000,116087.3906250000,150520.8437500000,131083.7500000000,142824.3281250000,,,
0.2119999996,1,149747.7968750000,200676.7031250000,174642.1406250000,150675.5468750000,115870.6640625000,150309.3437500000,130878.4843750000,142608.5468750000,,,
0.2159999998,1,149901.5156250000,200712.0937500000,175044.5468750000,150912.2031250000,116006.0156250000,150436.7812500000,131013.6953125000,142730.9218750000,,,
0.2199999997,1,150224.8593750000,200866.0468750000,175985.6875000000,151396.6718750000,116306.0468750000,150727.7968750000,131307.3125000000,143016.6875000000,,,
0.2239999997,1,150275.9375000000,201012.9218750000,176244.3593750000,151491.9062500000,116358.8828125000,150778.5781250000,131357.9531250000,143071.7500000000,,,
0.2279999997,1,149995.7500000000,200896.6562500000,175384.2812500000,151049.7968750000,116102.2734375000,150527.1406250000,131094.1406250000,142825.6718750000,,,
0.2319999996,1,149764.0781250000,200644.3125000000,174615.2968750000,150697.7031250000,115883.3515625000,150309.1093750000,130874.9765625000,142606.2812500000,,,
0.2359999996,1,149904.1718750000,200669.3281250000,175001.1875000000,150922.2343750000,116005.0703125000,150428.0625000000,131001.3359375000,142717.8125000000,,,
0.2399999998,1,150196.7812500000,200844.3281250000,175931.8750000000,151399.4218750000,116279.2187500000,150701.1718750000,131279.6093750000,142980.5625000000,,,
0.2439999997,1,150229.6562500000,201024.1875000000,176201.5156250000,151486.5937500000,116314.0078125000,150731.9531250000,131319.3125000000,143023.9531250000,,,
0.2479999997,1,149942.3750000000,200896.4062500000,175349.5781250000,151033.8437500000,116054.5859375000,150479.5312500000,131062.3828125000,142775.7031250000,,,
0.2519999996,1,149732.2812500000,200616.3281250000,174595.2500000000,150687.0937500000,115858.6484375000,150290.7968750000,130866.7968750000,142581.3750000000,,,
0.2559999996,2,149903.9062500000,200647.6093750000,175018.1875000000,150916.8125000000,116014.1093750000,150436.0000000000,131023.7265625000,142721.4062500000,,,
0.2599999995,2,150211.6875000000,200859.0781250000,175962.5312500000,151395.9375000000,116294.6171875000,150720.3125000000,131303.8281250000,143002.4531250000,,,
0.2639999995,2,150221.4531250000,201058.7968750000,176211.2656250000,151470.4218750000,116303.4453125000,150731.1562500000,131307.2656250000,143019.8593750000,,,
0.2679999995,2,149960.7656250000,200935.2968750000,175384.8750000000,151034.7812500000,116069.1484375000,150507.1093750000,131071.4218750000,142794.3125000000,,,
0.2719999994,2,149751.9843750000,200647.6093750000,174631.8125000000,150701.2500000000,115876.5703125000,150312.6250000000,130888.3046875000,142598.7812500000,,,
0.2759999994,2,149864.2656250000,200682.6718750000,174995.4062500000,150895.7968750000,115977.5781250000,150400.8906250000,130986.4765625000,142683.2968750000,,,
0.2799999996,2,150178.7343750000,200893.3750000000,175936.8125000000,151365.2812500000,116274.2031250000,150682.5468750000,131261.3125000000,142960.9531250000,,,
0.2839999995,2,150259.0312500000,201111.8125000000,176257.0468750000,151473.8593750000,116352.2343750000,150761.0625000000,131334.8906250000,143053.5468750000,,,
0.2879999995,2,149990.4687500000,201005.0156250000,175427.1093750000,151037.6250000000,116102.0625000000,150522.9062500000,131111.7031250000,142824.3281250000,,,
0.2919999994,2,149754.0781250000,200719.9531250000,174656.7812500000,150689.5000000000,115886.7578125000,150305.5937500000,130898.8984375000,142603.1718750000,,,
0.2959999994,2,149864.0781250000,200746.7187500000,175028.0000000000,150894.7656250000,115975.8125000000,150403.3593750000,130995.7812500000,142691.2343750000,,,
0.2999999996,2,150171.5937500000,200948.7187500000,175974.3593750000,151362.8437500000,116253.6093750000,150685.0781250000,131273.5468750000,142964.6562500000,,,
0.3039999995,2,150264.3750000000,201157.2031250000,176308.1875000000,151480.9687500000,116340.4062500000,150775.1093750000,131355.2187500000,143063.7968750000,,,
0.3079999995,2,149986.2187500000,201034.3593750000,175478.2656250000,151052.3437500000,116091.3593750000,150532.6718750000,131105.5312500000,142823.7031250000,,,
0.3119999995,2,149766.2500000000,200739.7968750000,174702.5625000000,150698.2968750000,115888.3203125000,150338.1875000000,130900.0781250000,142620.9531250000,,,
0.3159999994,2,149878.5000000000,200769.2968750000,175050.1875000000,150888.2187500000,115979.4296875000,150426.7187500000,130980.9453125000,142704.2968750000,,,
0.3199999994,2,150190.4687500000,200978.0312500000,175984.7500000000,151367.2343750000,116261.7343750000,150691.2968750000,131261.0000000000,142969.0312500000,,,
0.3239999996,2,150284.7812500000,201205.9687500000,176311.4375000000,151484.0312500000,116357.3515625000,150777.9531250000,131370.8593750000,143065.5312500000,,,
0.3279999995,2,150024.6562500000,201123.4375000000,175483.3906250000,151096.7343750000,116124.0546875000,150565.2343750000,131139.8750000000,142849.1093750000,,,
0.3319999995,2,149789.9375000000,200849.6093750000,174677.4843750000,150771.5156250000,115905.6953125000,150330.8125000000,130915.7187500000,142626.1406250000,,,
0.3359999994,2,149896.9375000000,200875.6562500000,175012.1250000000,150958.1250000000,115999.7343750000,150406.8437500000,131014.6093750000,142702.2343750000,,,
0.3399999994,2,150204.6875000000,201085.1875000000,175945.7187500000,151402.5937500000,116285.6875000000,150693.7187500000,131303.8125000000,142979.5625000000,,,
0.3439999996,2,150283.1718750000,201279.9062500000,176276.5156250000,151491.3750000000,116363.4453125000,150788.1718750000,131384.1718750000,143076.6875000000,,,
0.3479999995,2,150014.0156250000,201170.0781250000,175470.0781250000,151065.8750000000,116129.3671875000,150558.0781250000,131142.7656250000,142847.2500000000,,,
0.3519999995,2,149763.5468750000,200905.6875000000,174655.4218750000,150704.0312500000,115895.0781250000,150315.3906250000,130911.3437500000,142612.2343750000,,,
0.3559999994,2,149868.4218750000,200936.5625000000,174964.8125000000,150863.1718750000,115982.7812500000,150404.2968750000,131009.5390625000,142694.3125000000,,,
0.3599999994,2,150235.8906250000,201130.5937500000,175946.9843750000,151383.4687500000,116322.9687500000,150741.0781250000,131342.3750000000,143019.7500000000,,,
0.3639999994,2,150279.2031250000,201312.2812500000,176275.4375000000,151495.6875000000,116366.9062500000,150781.7187500000,131390.6875000000,143068.3281250000,,,
0.3679999996,2,149974.8281250000,201209.0000000000,175426.3125000000,151043.4218750000,116088.5468750000,150518.8125000000,131115.5937500000,142806.9375000000,,,
0.3719999995,2,149759.9218750000,200985.7031250000,174636.2968750000,150695.5625000000,115891.7734375000,150323.7500000000,130908.9296875000,142612.3281250000,,,
0.3759999995,2,149894.0937500000,201053.0312500000,174973.2031250000,150890.3437500000,116007.0859375000,150433.9062500000,131018.9296875000,142722.0781250000,,,
0.3799999994,2,150204.7656250000,201218.4687500000,175907.5468750000,151371.4062500000,116289.7109375000,150721.6562500000,131308.0156250000,142993.6250000000,,,
0.3839999994,3,150294.6718750000,201365.2031250000,176255.4687500000,151503.8750000000,116376.4218750000,150797.0625000000,131400.9843750000,143089.7343750000,,,
0.3879999993,3,150052.6562500000,201298.4218750000,175487.4375000000,151086.2812500000,116164.5546875000,150565.2812500000,131189.8906250000,142883.5000000000,,,
0.3919999993,3,149782.4843750000,201106.0000000000,174666.7031250000,150696.2031250000,115913.7421875000,150330.2656250000,130939.5625000000,142631.1562500000,,,
0.3959999993,3,149872.2812500000,201158.2812500000,174956.0937500000,150875.1093750000,115989.0078125000,150407.9531250000,131010.9375000000,142691.4531250000,,,
0.3999999992,3,150182.8906250000,201283.7968750000,175881.6093750000,151337.8125000000,116275.7656250000,150685.6406250000,131291.0156250000,142964.5468750000,,,
0.4039999992,3,150295.8281250000,201398.8906250000,176263.3281250000,151474.1875000000,116385.9453125000,150800.8125000000,131400.4687500000,143087.2812500000,,,
0.4079999994,3,150017.3906250000,201325.1875000000,175472.9218750000,151054.3125000000,116134.7812500000,150551.4531250000,131153.7031250000,142851.0625000000,,,
0.4119999993,3,149771.1093750000,201167.0156250000,174658.8750000000,150687.1875000000,115911.6250000000,150320.9687500000,130931.0078125000,142624.9843750000,,,
0.4159999993,3,149888.1406250000,201255.2343750000,174971.6250000000,150874.5156250000,116009.6875000000,150418.5468750000,131024.9375000000,142712.3437500000,,,
0.4199999992,3,150194.3437500000,201346.6250000000,175894.2500000000,151350.7656250000,116284.5625000000,150694.6250000000,131299.4843750000,142977.2031250000,,,
0.4239999992,3,150288.9687500000,201403.7500000000,176272.1406250000,151494.1875000000,116374.7109375000,150786.1093750000,131392.3125000000,143075.6718750000,,,
0.4279999994,3,150018.3906250000,201325.4062500000,175505.2500000000,151066.8906250000,116130.4375000000,150543.4062500000,131139.5468750000,142844.7656250000,,,
0.4319999993,3,149768.9687500000,201202.1875000000,174691.0312500000,150687.7343750000,115899.3906250000,150315.1250000000,130897.5312500000,142616.7968750000,,,
0.4359999993,3,149902.5937500000,201278.2968750000,174997.2187500000,150886.4218750000,116014.5703125000,150431.1562500000,131022.2031250000,142724.4687500000,,,
0.4399999992,3,150226.8125000000,201314.3281250000,175918.1250000000,151379.0625000000,116311.0078125000,150723.4375000000,131327.0625000000,143003.8125000000,,,
0.4439999992,3,150330.0781250000,201311.3750000000,176290.2968750000,151525.0156250000,116411.6171875000,150820.6406250000,131432.1718750000,143111.2187500000,,,
0.4479999992,3,150077.6406250000,201238.9531250000,175550.3593750000,151118.3593750000,116189.2343750000,150593.8281250000,131202.5781250000,142899.7968750000,,,
0.4519999993,3,149789.5312500000,201142.8593750000,174699.8906250000,150715.9218750000,115918.6796875000,150331.8593750000,130914.1875000000,142640.5937500000,,,
0.4559999993,3,149879.5468750000,201222.7500000000,174952.9218750000,150880.8750000000,115989.9687500000,150405.9375000000,130998.7578125000,142706.6093750000,,,
0.4599999993,3,150212.4375000000,201220.3906250000,175875.7187500000,151370.8281250000,116294.3515625000,150715.1093750000,131323.7656250000,142997.4531250000,,,
0.4639999992,3,150317.9375000000,201189.8125000000,176255.8593750000,151521.2812500000,116397.9375000000,150820.9218750000,131430.1093750000,143110.0312500000,,,
0.4679999992,3,150051.8593750000,201145.1250000000,175486.5312500000,151104.3906250000,116160.3203125000,150589.9375000000,131187.2343750000,142892.9687500000,,,
0.4719999994,3,149808.6093750000,201117.5625000000,174678.1562500000,150722.7031250000,115942.4687500000,150361.9687500000,130967.0000000000,142670.5000000000,,,
0.4759999993,3,149898.5156250000,201242.3281250000,174970.7968750000,150882.2656250000,116024.3828125000,150427.1562500000,131049.6953125000,142728.9218750000,,,
0.4799999993,3,150177.3906250000,201202.7500000000,175852.1718750000,151355.8437500000,116280.1093750000,150685.2343750000,131307.5312500000,142964.7968750000,,,
0.4839999992,3,150300.6406250000,201139.3906250000,176249.9687500000,151518.6562500000,116392.4609375000,150806.0937500000,131419.4687500000,143090.3437500000,,,
0.4879999992,3,150030.7968750000,201118.6562500000,175499.3437500000,151098.0312500000,116146.7187500000,150562.2343750000,131169.5312500000,142864.6093750000,,,
0.4919999992,3,149767.1406250000,201150.7968750000,174674.6250000000,150695.0781250000,115909.4531250000,150320.1562500000,130921.0546875000,142623.2968750000,,,
0.4959999993,3,149887.1406250000,201318.1562500000,174954.4062500000,150876.9531250000,116012.1015625000,150431.4218750000,131025.2578125000,142716.3593750000,,,
0.4999999993,3,150208.8750000000,201272.1562500000,175862.2968750000,151363.7500000000,116308.1875000000,150716.5312500000,131329.5781250000,142985.8750000000,,,
0.5039999993,3,150303.0156250000,201176.9687500000,176259.4843750000,151516.8281250000,116396.0078125000,150796.8125000000,131421.1562500000,143077.8125000000,,,
0.5079999992,3,150026.3750000000,201202.1093750000,175516.2187500000,151097.9531250000,116142.0000000000,150548.6093750000,131165.4843750000,142849.6718750000,,,
0.5119999992,4,149749.1406250000,201351.5000000000,174670.5156250000,150689.2656250000,115881.3671875000,150306.0000000000,130902.9765625000,142605.1406250000,,,
0.5159999991,4,149886.0937500000,201573.7187500000,174956.4687500000,150865.3750000000,116004.6406250000,150425.6718750000,131026.7578125000,142710.1093750000,,,
0.5199999991,4,150230.8906250000,201475.2343750000,175894.9687500000,151374.8906250000,116322.3281250000,150734.0312500000,131344.2187500000,143004.7812500000,,,
0.5239999990,4,150318.2812500000,201296.5156250000,176274.1875000000,151530.1875000000,116401.7968750000,150815.3750000000,131425.2812500000,143097.4531250000,,,
0.5279999990,4,150037.7187500000,201331.3281250000,175533.5156250000,151111.3906250000,116146.5859375000,150564.7812500000,131170.6406250000,142871.2031250000,,,
0.5319999990,4,149754.0781250000,201557.8125000000,174675.7812500000,150702.9062500000,115885.3359375000,150312.9687500000,130909.4140625000,142620.0468750000,,,
0.5359999991,4,149857.0156250000,201783.3593750000,174917.6250000000,150864.5468750000,115982.6796875000,150391.1562500000,131010.2109375000,142684.8437500000,,,
0.5399999991,4,150208.9218750000,201577.6406250000,175853.2343750000,151374.1562500000,116312.9140625000,150700.5468750000,131336.7187500000,142977.9375000000,,,
0.5439999991,4,150314.1718750000,201283.6875000000,176266.3750000000,151533.9687500000,116406.5703125000,150799.5468750000,131430.6406250000,143085.9687500000,,,
0.5479999990,4,150033.2968750000,201306.6875000000,175529.9531250000,151122.0312500000,116146.5859375000,150557.8906250000,131173.0156250000,142860.9375000000,,,
0.5519999990,4,149751.6875000000,201601.1875000000,174685.3437500000,150706.4531250000,115884.4843750000,150298.8906250000,130909.4921875000,142610.8125000000,,,
0.5559999992,4,149866.4062500000,201856.4531250000,174923.5625000000,150867.8750000000,115985.6015625000,150393.4843750000,131006.6406250000,142694.9687500000,,,
0.5599999991,4,150220.5937500000,201594.1875000000,175832.1875000000,151374.6718750000,116311.8125000000,150721.0156250000,131327.8906250000,142998.4843750000,,,
0.5639999991,4,150327.7500000000,201223.4531250000,176247.5468750000,151541.5625000000,116412.2031250000,150823.0781250000,131431.7500000000,143108.6875000000,,,
0.5679999990,4,150041.6093750000,201246.1718750000,175544.7812500000,151115.9375000000,116151.3906250000,150565.3906250000,131175.0000000000,142875.6875000000,,,
0.5719999990,4,149741.6875000000,201604.1093750000,174689.7812500000,150680.9218750000,115875.0156250000,150283.1406250000,130900.0234375000,142603.2343750000,,,
0.5759999990,4,149854.9062500000,201912.6406250000,174911.9375000000,150851.9843750000,115979.1093750000,150382.6093750000,131000.4453125000,142682.5468750000,,,
0.5799999991,4,150229.2343750000,201631.7656250000,175845.3593750000,151372.0625000000,116330.2109375000,150732.9531250000,131345.4062500000,143004.2500000000,,,
0.5839999991,4,150354.6562500000,201221.1250000000,176299.4843750000,151557.5781250000,116449.0312500000,150854.4375000000,131466.2187500000,143133.9375000000,,,
0.5879999991,4,150041.7968750000,201279.0312500000,175568.9843750000,151121.8750000000,116156.8046875000,150566.4687500000,131177.7343750000,142879.5781250000,,,
0.5919999990,4,149728.7656250000,201737.7656250000,174691.1718750000,150668.9843750000,115868.0937500000,150277.0312500000,130889.5078125000,142601.4375000000,,,
0.5959999990,4,149841.7656250000,202108.0156250000,174931.1250000000,150831.9843750000,115972.1328125000,150378.0468750000,130987.1406250000,142679.8593750000,,,
0.5999999992,4,150211.3437500000,201790.3125000000,175867.0468750000,151352.0625000000,116313.1796875000,150722.3281250000,131321.5625000000,142992.2343750000,,,
0.6039999991,4,150338.1562500000,201306.5468750000,176307.5000000000,151549.3593750000,116429.9609375000,150844.2031250000,131444.0312500000,143117.8125000000,,,
0.6079999991,4,150050.0625000000,201373.9218750000,175595.3750000000,151128.5781250000,116164.4531250000,150588.5625000000,131184.3593750000,142887.8906250000,,,
0.6119999990,4,149759.7187500000,201974.1718750000,174729.5468750000,150706.1875000000,115893.4140625000,150325.3437500000,130915.9843750000,142636.4687500000,,,
0.6159999990,4,149855.8906250000,202446.9218750000,174939.7343750000,150856.4218750000,115979.4843750000,150401.3437500000,130997.9765625000,142698.4687500000,,,
0.6199999989,4,150222.6093750000,202072.3750000000,175847.9531250000,151372.6250000000,116328.4921875000,150730.5937500000,131341.9218750000,143000.1406250000,,,
0.6239999991,4,150344.2187500000,201483.8750000000,176291.8593750000,151570.7187500000,116444.1796875000,150836.0781250000,131457.5156250000,143117.7343750000,,,
0.6279999991,4,150044.4218750000,201572.0312500000,175591.0468750000,151148.6406250000,116168.6875000000,150566.9843750000,131188.9218750000,142879.5781250000,,,
0.6319999991,4,149730.5625000000,202311.8125000000,174715.8750000000,150695.9062500000,115873.6953125000,150282.9062500000,130899.4062500000,142607.0312500000,,,
0.6359999990,4,149828.7812500000,202917.9843750000,174906.8437500000,150814.9531250000,115961.0078125000,150373.4218750000,130981.2734375000,142672.6406250000,,,
0.6399999990,5,150203.7500000000,202559.9687500000,175817.0625000000,151328.1406250000,116311.0859375000,150718.2500000000,131325.1093750000,142982.2812500000,,,
0.6439999989,5,150337.5937500000,201898.7031250000,176278.9375000000,151552.2343750000,116438.4375000000,150840.7031250000,131456.5312500000,143112.6562500000,,,
0.6479999989,5,150032.5000000000,202039.9218750000,175583.0625000000,151133.7031250000,116153.1015625000,150578.7187500000,131177.9843750000,142875.0781250000,,,
0.6519999988,5,149702.4687500000,203057.4375000000,174688.6250000000,150652.7500000000,115844.6250000000,150272.0156250000,130872.9609375000,142585.1562500000,,,
0.6559999988,5,149778.6562500000,203875.2968750000,174855.2968750000,150764.9531250000,115914.2031250000,150326.2500000000,130936.1796875000,142622.2968750000,,,
0.6599999988,5,150161.3437500000,203367.7968750000,175773.6250000000,151307.9375000000,116270.9375000000,150671.0156250000,131284.3593750000,142932.6875000000,,,
0.6639999989,5,150316.8906250000,202402.3906250000,176257.9375000000,151537.9375000000,116412.6093750000,150818.1406250000,131430.5937500000,143085.9687500000,,,
0.6679999989,5,150029.5468750000,202310.4375000000,175599.5312500000,151133.9687500000,116146.3437500000,150558.5625000000,131176.0312500000,142863.0000000000,,,
0.6719999989,5,149713.6250000000,203143.6406250000,174725.8593750000,150676.7031250000,115851.8359375000,150267.1406250000,130884.8750000000,142589.8125000000,,,
0.6759999988,5,149815.2656250000,203785.0937500000,174909.1250000000,150800.5468750000,115948.7968750000,150356.7656250000,130974.9375000000,142657.5156250000,,,
0.6799999988,5,150217.5156250000,203192.4843750000,175852.2500000000,151349.8906250000,116330.0781250000,150729.7656250000,131346.6093750000,142992.9531250000,,,
0.6839999990,5,150346.3125000000,202157.1093750000,176326.4375000000,151566.8281250000,116451.3359375000,150848.2031250000,131471.5468750000,143118.0312500000,,,
0.6879999989,5,150035.3437500000,202055.7656250000,175641.3437500000,151136.8437500000,116161.6093750000,150571.0312500000,131181.3281250000,142872.0156250000,,,
0.6919999989,5,149710.7031250000,202939.7187500000,174753.9375000000,150672.1406250000,115857.6015625000,150273.6718750000,130887.4218750000,142590.8906250000,,,
0.6959999988,5,149814.4843750000,203642.9687500000,174925.9218750000,150808.7187500000,115949.4453125000,150367.9062500000,130979.2031250000,142661.2500000000,,,
0.6999999988,5,150209.3125000000,203039.8125000000,175851.9843750000,151342.2500000000,116319.9375000000,150726.7812500000,131343.4531250000,142985.6562500000,,,
0.7039999987,5,150360.8437500000,201958.6250000000,176345.7187500000,151563.5781250000,116464.9140625000,150865.9375000000,131488.8281250000,143135.5468750000,,,
0.7079999989,5,150054.2187500000,201855.2500000000,175669.6875000000,151151.7812500000,116177.9921875000,150598.1250000000,131207.8437500000,142904.4375000000,,,
0.7119999989,5,149700.8906250000,202779.3281250000,174747.6250000000,150669.4687500000,115843.3125000000,150274.7500000000,130874.7031250000,142599.4687500000,,,
0.7159999989,5,149789.7031250000,203495.9062500000,174894.5625000000,150793.5781250000,115922.4375000000,150350.7656250000,130945.5937500000,142653.1718750000,,,
0.7199999988,5,150193.0000000000,202844.1250000000,175812.3125000000,151335.2187500000,116305.1328125000,150717.0937500000,131313.4062500000,142982.3281250000,,,
0.7239999988,5,150381.2343750000,201702.0312500000,176340.8125000000,151584.3437500000,116484.7031250000,150888.3281250000,131497.5625000000,143162.2031250000,,,
0.7279999990,5,150082.7812500000,201582.7656250000,175690.2968750000,151147.8437500000,116204.9218750000,150617.6406250000,131230.0781250000,142933.1718750000,,,
0.7319999989,5,149707.3906250000,202555.2968750000,174753.8281250000,150668.9843750000,115855.4296875000,150270.8906250000,130887.0156250000,142604.4375000000,,,
0.7359999989,5,149779.7500000000,203314.6406250000,174876.8125000000,150776.0625000000,115922.4062500000,150330.9687500000,130945.0078125000,142636.8125000000,,,
0.7399999988,5,150192.4062500000,202665.5937500000,175789.8906250000,151326.2031250000,116310.4687500000,150713.2968750000,131323.3593750000,142974.2812500000,,,
0.7439999988,5,150365.7343750000,201495.0468750000,176308.4843750000,151579.0625000000,116471.5078125000,150874.0937500000,131483.5468750000,143139.4531250000,,,
0.7479999987,5,150054.9375000000,201387.3906250000,175656.1250000000,151160.6250000000,116174.6171875000,150593.2031250000,131190.3750000000,142898.2968750000,,,
0.7519999989,5,149701.7031250000,202423.6093750000,174738.1562500000,150669.7343750000,115839.9531250000,150261.0156250000,130861.0000000000,142592.6406250000,,,
0.7559999989,5,149773.0468750000,203238.7500000000,174857.3906250000,150770.4218750000,115907.9531250000,150321.3750000000,130933.7968750000,142627.8593750000,,,
0.7599999988,5,150183.7187500000,202576.6250000000,175772.0937500000,151314.5312500000,116298.8281250000,150704.5781250000,131320.3281250000,142962.3437500000,,,
0.7639999988,5,150371.6562500000,201362.2500000000,176315.7812500000,151569.0468750000,116476.7656250000,150876.0156250000,131497.3281250000,143142.7031250000,,,
0.7679999988,6,150069.5156250000,201247.9375000000,175689.4843750000,151161.4843750000,116189.9062500000,150593.1250000000,131214.3750000000,142909.2968750000,,,
0.7719999987,6,149718.0000000000,202335.1718750000,174783.0312500000,150666.2656250000,115856.5078125000,150267.7031250000,130882.8593750000,142610.0156250000,,,
0.7759999987,6,149792.0312500000,203224.5156250000,174910.3906250000,150768.4843750000,115927.7421875000,150334.7031250000,130941.4687500000,142650.4375000000,,,
0.7799999986,6,150211.9843750000,202583.3593750000,175823.0156250000,151337.3125000000,116331.3125000000,150724.9843750000,131331.1875000000,142992.3593750000,,,
0.7839999986,6,150379.0937500000,201336.5625000000,176335.3437500000,151583.2968750000,116491.2734375000,150875.7187500000,131490.7812500000,143150.4843750000,,,
0.7879999985,6,150074.5781250000,201204.4062500000,175712.5312500000,151166.1093750000,116206.0234375000,150597.9531250000,131209.5000000000,142917.6718750000,,,
0.7919999987,6,149709.6562500000,202288.3750000000,174801.9531250000,150662.4062500000,115858.3828125000,150267.7812500000,130884.2578125000,142610.4375000000,,,
0.7959999987,6,149760.5781250000,203132.0625000000,174899.7656250000,150759.3750000000,115909.2890625000,150304.6562500000,130932.6718750000,142622.0000000000,,,
0.7999999986,6,150187.4375000000,202401.5000000000,175808.0468750000,151313.4843750000,116316.6406250000,150701.1718750000,131323.4062500000,142970.1875000000,,,
0.8039999986,6,150386.2812500000,201072.0468750000,176337.6718750000,151589.6250000000,116498.3828125000,150888.8906250000,131513.7343750000,143160.4843750000,,,
0.8079999986,6,150064.3593750000,200912.3750000000,175681.3281250000,151165.1406250000,116191.6484375000,150594.5312500000,131213.4375000000,142911.6875000000,,,
0.8119999988,6,149696.2187500000,202025.1406250000,174737.5937500000,150654.9843750000,115839.6875000000,150251.0937500000,130872.8515625000,142596.8437500000,,,
0.8159999987,6,149765.9375000000,202915.8125000000,174829.1718750000,150757.9843750000,115899.5546875000,150310.1093750000,130931.5937500000,142630.0000000000,,,
0.8199999987,6,150178.2187500000,202210.2656250000,175736.2656250000,151317.5937500000,116294.3750000000,150690.2187500000,131315.2343750000,142958.7031250000,,,
0.8239999986,6,150382.6562500000,200899.3125000000,176296.0781250000,151593.5156250000,116491.4687500000,150877.2812500000,131510.0937500000,143151.6406250000,,,
0.8279999986,6,150068.4687500000,200774.2031250000,175673.5781250000,151175.0000000000,116198.2421875000,150596.2187500000,131223.4218750000,142915.2812500000,,,
0.8319999985,6,149670.3125000000,201932.7031250000,174723.8437500000,150648.3281250000,115828.4218750000,150226.4687500000,130845.8437500000,142573.4843750000,,,
0.8359999987,6,149745.4687500000,202862.3593750000,174810.0000000000,150731.9531250000,115900.1171875000,150292.1562500000,130903.2968750000,142613.7656250000,,,
0.8399999987,6,150165.7187500000,202170.9687500000,175705.0156250000,151287.3593750000,116298.1015625000,150675.4531250000,131306.0312500000,142949.9843750000,,,
0.8439999986,6,150353.4218750000,200842.0625000000,176255.8906250000,151555.5312500000,116474.8593750000,150851.9687500000,131485.3593750000,143125.8593750000,,,
0.8479999986,6,150051.4531250000,200710.4843750000,175657.3281250000,151160.0937500000,116180.8359375000,150577.3281250000,131204.0781250000,142896.7968750000,,,
0.8519999986,6,149666.1562500000,201876.4843750000,174717.8281250000,150644.0937500000,115812.6015625000,150213.5468750000,130852.5000000000,142563.7500000000,,,
0.8559999987,6,149743.4375000000,202833.1875000000,174808.8437500000,150736.4062500000,115880.8906250000,150278.1250000000,130912.0937500000,142600.5156250000,,,
0.8599999987,6,150190.2031250000,202174.8281250000,175734.7187500000,151305.6875000000,116303.5781250000,150696.8750000000,131316.8906250000,142963.6406250000,,,
0.8639999987,6,150383.9375000000,200869.2968750000,176306.6718750000,151585.3125000000,116487.2578125000,150869.8593750000,131498.6875000000,143139.6250000000,,,
0.8679999986,6,150076.2187500000,200770.9062500000,175719.1562500000,151184.4218750000,116195.2968750000,150586.3125000000,131212.7656250000,142904.4218750000,,,
0.8719999986,6,149691.2031250000,201998.2656250000,174768.6406250000,150665.2031250000,115831.5625000000,150228.2343750000,130852.7421875000,142580.0000000000,,,
0.8759999985,6,149742.8437500000,202983.0625000000,174814.7656250000,150742.6406250000,115883.7265625000,150261.6406250000,130896.0312500000,142594.3750000000,,,
0.8799999987,6,150180.8437500000,202316.8593750000,175729.3125000000,151309.6250000000,116303.0390625000,150674.4843750000,131303.2500000000,142949.1875000000,,,
0.8839999987,6,150381.6093750000,200977.6562500000,176298.8125000000,151588.6562500000,116495.3515625000,150862.4218750000,131491.2343750000,143136.1562500000,,,
0.8879999986,6,150063.1562500000,200832.9531250000,175701.4218750000,151178.1406250000,116191.0546875000,150571.4062500000,131198.9531250000,142893.8750000000,,,
0.8919999986,6,149663.6406250000,202023.6406250000,174754.6875000000,150643.4218750000,115812.5156250000,150206.1718750000,130831.3593750000,142555.0312500000,,,
0.8959999986,7,149733.6093750000,203008.1093750000,174834.7500000000,150733.8125000000,115876.4609375000,150267.1875000000,130886.0234375000,142588.2343750000,,,
0.8999999985,7,150167.6250000000,202330.2187500000,175745.5000000000,151298.3125000000,116294.1640625000,150661.0625000000,131300.2187500000,142929.8750000000,,,
0.9039999985,7,150365.6718750000,200966.5468750000,176309.5937500000,151585.2812500000,116480.1484375000,150854.0312500000,131488.8437500000,143113.2031250000,,,
0.9079999984,7,150051.2187500000,200800.6875000000,175699.3593750000,151177.1562500000,116173.5937500000,150577.3593750000,131200.8281250000,142879.3906250000,,,
0.9119999984,7,149670.9531250000,201974.8125000000,174735.0312500000,150650.9062500000,115810.5078125000,150231.8593750000,130846.0078125000,142564.6562500000,,,
0.9159999983,7,149735.7656250000,202956.5937500000,174800.0156250000,150724.8281250000,115870.2109375000,150281.4062500000,130896.7031250000,142597.1406250000,,,
0.9199999985,7,150180.5468750000,202283.7343750000,175724.7343750000,151308.7968750000,116296.8984375000,150688.7968750000,131309.8906250000,142951.6718750000,,,
0.9239999985,7,150390.3750000000,200917.1718750000,176334.7968750000,151603.4687500000,116501.0703125000,150880.4218750000,131507.8125000000,143144.7656250000,,,
0.9279999984,7,150069.4218750000,200742.7500000000,175758.4218750000,151187.6406250000,116198.4375000000,150587.8750000000,131214.0781250000,142902.5156250000,,,
0.9319999984,7,149671.7343750000,201926.4062500000,174792.2968750000,150641.1406250000,115820.9140625000,150232.2031250000,130850.4062500000,142572.8593750000,,,
0.9359999984,7,149726.1875000000,202920.3593750000,174815.6250000000,150707.5312500000,115870.1328125000,150276.0625000000,130894.9062500000,142594.5312500000,,,
0.9399999985,7,150147.0312500000,202255.5468750000,175699.7656250000,151276.3125000000,116272.5468750000,150664.2031250000,131283.6093750000,142923.1093750000,,,
0.9439999985,7,150360.0781250000,200883.5156250000,176292.6093750000,151587.7187500000,116474.3828125000,150865.2656250000,131468.8906250000,143116.7656250000,,,
0.9479999985,7,150052.0000000000,200689.6093750000,175719.5000000000,151188.0625000000,116184.7578125000,150580.6562500000,131166.9062500000,142880.5937500000,,,
0.9519999984,7,149655.4218750000,201862.0937500000,174751.3906250000,150647.4687500000,115807.2578125000,150209.2031250000,130825.2421875000,142546.1718750000,,,
0.9559999984,7,149710.9218750000,202860.0312500000,174791.2968750000,150714.1718750000,115853.6093750000,150257.3437500000,130885.1406250000,142572.0312500000,,,
0.9599999983,7,150156.1406250000,202223.5937500000,175711.5312500000,151284.6093750000,116271.3593750000,150673.0000000000,131298.7968750000,142930.4062500000,,,
0.9639999985,7,150403.8437500000,200872.2500000000,176351.5156250000,151602.9218750000,116503.1093750000,150913.0156250000,131528.0156250000,143164.4843750000,,,
0.9679999985,7,150085.9531250000,200677.4843750000,175792.8281250000,151205.2031250000,116207.1250000000,150613.9218750000,131241.8125000000,142919.8906250000,,,
0.9719999984,7,149673.0000000000,201835.8281250000,174814.0937500000,150676.4062500000,115816.2734375000,150227.4375000000,130852.0703125000,142570.1562500000,,,
0.9759999984,7,149719.3125000000,202835.4062500000,174836.5000000000,150721.6875000000,115861.8984375000,150262.0937500000,130885.5703125000,142583.0937500000,,,
0.9799999984,7,150164.2500000000,202209.5937500000,175748.8750000000,151297.0156250000,116288.0156250000,150675.7187500000,131286.4843750000,142941.0468750000,,,
0.9839999985,7,150379.8437500000,200845.3125000000,176363.2812500000,151601.1250000000,116490.8515625000,150879.8593750000,131489.5156250000,143142.4375000000,,,
0.9879999985,7,150071.8906250000,200625.4062500000,175811.8750000000,151198.5781250000,116200.3906250000,150605.0312500000,131217.7812500000,142909.5625000000,,,
0.9919999985,7,149670.8750000000,201766.9531250000,174828.4218750000,150656.2187500000,115825.7421875000,150229.5781250000,130851.3984375000,142567.1562500000,,,
0.9959999984,7,149714.6718750000,202771.0625000000,174820.5937500000,150712.1718750000,115865.5703125000,150261.1562500000,130887.1796875000,142576.8437500000,,,
0.9999999984,7,150143.3281250000,202163.0000000000,175697.6093750000,151268.8281250000,116272.4609375000,150659.0781250000,131283.1718750000,142920.2187500000,,,
1.0039999983,7,150366.9687500000,200796.6093750000,176307.7968750000,151583.8906250000,116484.5468750000,150871.7500000000,131493.7812500000,143127.2187500000,,,
1.0079999985,7,150060.0468750000,200565.6875000000,175755.0625000000,151204.8281250000,116190.4140625000,150591.3281250000,131212.1562500000,142895.8281250000,,,
1.0119999985,7,149652.4843750000,201718.8593750000,174773.2500000000,150652.4843750000,115801.5468750000,150209.0937500000,130832.7812500000,142551.7343750000,,,
1.0159999984,7,149688.9843750000,202740.7031250000,174767.5937500000,150693.4375000000,115829.2812500000,150235.8593750000,130852.8984375000,142555.7500000000,,,
1.0199999984,7,150129.5937500000,202141.2968750000,175674.2812500000,151262.2812500000,116242.7734375000,150644.7812500000,131257.2187500000,142908.4687500000,,,
1.0239999983,8,150399.0781250000,200771.8437500000,176352.4218750000,151609.0156250000,116497.1015625000,150900.4843750000,131510.4687500000,143159.7812500000,,,
1.0279999983,8,150100.1406250000,200549.3906250000,175832.5000000000,151226.5625000000,116215.5703125000,150624.7812500000,131238.8125000000,142937.3281250000,,,
1.0319999983,8,149657.8906250000,201712.3906250000,174819.6562500000,150667.3750000000,115801.2812500000,150213.4062500000,130828.9453125000,142560.3906250000,,,
1.0359999982,8,149689.1406250000,202759.6562500000,174786.9218750000,150707.2812500000,115833.3046875000,150239.2968750000,130855.0468750000,142560.3125000000,,,
1.0399999982,8,150130.8437500000,202159.1718750000,175674.6093750000,151265.0781250000,116259.9921875000,150658.9218750000,131276.6406250000,142916.2656250000,,,
1.0439999981,8,150388.6093750000,200762.6562500000,176322.0937500000,151613.2031250000,116508.5781250000,150898.0468750000,131521.1718750000,143151.6406250000,,,
1.0479999983,8,150091.5625000000,200521.6562500000,175799.9687500000,151234.9062500000,116224.5546875000,150620.5937500000,131250.5625000000,142926.5156250000,,,
1.0519999983,8,149656.3125000000,201703.3281250000,174803.7187500000,150658.5781250000,115814.5312500000,150217.9375000000,130852.3125000000,142555.2656250000,,,
1.0559999982,8,149690.4531250000,202765.2968750000,174781.4531250000,150691.1875000000,115848.3515625000,150238.8906250000,130876.9062500000,142556.1562500000,,,
1.0599999982,8,150140.5000000000,202160.3750000000,175673.1562500000,151257.4062500000,116281.5312500000,150650.9375000000,131288.4843750000,142915.7812500000,,,
1.0639999982,8,150386.0156250000,200714.2656250000,176302.4062500000,151596.7656250000,116512.3359375000,150887.4531250000,131514.4375000000,143141.8437500000,,,
1.0679999983,8,150076.5156250000,200444.9687500000,175770.8437500000,151219.1875000000,116213.9375000000,150611.9375000000,131239.8125000000,142914.3906250000,,,
1.0719999983,8,149662.2656250000,201655.5781250000,174789.0156250000,150662.4062500000,115819.3046875000,150230.1718750000,130862.4453125000,142570.4843750000,,,
1.0759999983,8,149693.6718750000,202755.7968750000,174774.9687500000,150698.3750000000,115844.3046875000,150249.8906250000,130879.5625000000,142569.7500000000,,,
1.0799999982,8,150124.5781250000,202151.3906250000,175661.4531250000,151254.7968750000,116252.8828125000,150651.5468750000,131269.9062500000,142911.6875000000,,,
1.0839999982,8,150377.2968750000,200693.3906250000,176308.9218750000,151606.3281250000,116491.0625000000,150887.3437500000,131507.5468750000,143142.4375000000,,,
1.0879999981,8,150088.5468750000,200413.5000000000,175810.0468750000,151238.4687500000,116216.1328125000,150616.8437500000,131245.8906250000,142926.7031250000,,,
1.0919999983,8,149671.9843750000,201654.2187500000,174829.9218750000,150677.4843750000,115820.5937500000,150232.5000000000,130852.0937500000,142579.2968750000,,,
1.0959999983,8,149693.3750000000,202813.9531250000,174787.1875000000,150695.8281250000,115840.1718750000,150244.8125000000,130862.4218750000,142569.5468750000,,,
1.0999999982,8,150127.9218750000,202206.6718750000,175655.2968750000,151252.5000000000,116257.9765625000,150638.7500000000,131265.2343750000,142904.3125000000,,,
1.1039999982,8,150403.9531250000,200686.0937500000,176342.4531250000,151609.7343750000,116521.9375000000,150891.7187500000,131530.6406250000,143151.8281250000,,,
1.1079999981,8,150108.0468750000,200388.9062500000,175861.9531250000,151247.7812500000,116243.7656250000,150613.5937500000,131265.0156250000,142931.6718750000,,,
1.1119999983,8,149671.1250000000,201674.2812500000,174854.6562500000,150661.6250000000,115830.9687500000,150215.3906250000,130854.5078125000,142572.8593750000,,,
1.1159999983,8,149677.9375000000,202869.6562500000,174785.0156250000,150673.5937500000,115835.7421875000,150213.7500000000,130853.1640625000,142551.0000000000,,,
1.1199999982,8,150138.5000000000,202258.1875000000,175673.0781250000,151261.0781250000,116276.3515625000,150647.6875000000,131280.4375000000,142917.6093750000,,,
1.1239999982,8,150427.3750000000,200684.4062500000,176358.3750000000,151633.1093750000,116551.6796875000,150925.7500000000,131558.7968750000,143181.7343750000,,,
1.1279999982,8,150138.5000000000,200376.8437500000,175888.8593750000,151270.3593750000,116273.9375000000,150659.4531250000,131295.2031250000,142972.3750000000,,,
1.1319999981,8,149678.3593750000,201708.8281250000,174887.5312500000,150681.2343750000,115832.6328125000,150232.6406250000,130862.8515625000,142588.6406250000,,,
1.1359999983,8,149670.3906250000,202955.6250000000,174800.0468750000,150681.4531250000,115819.0078125000,150216.0312500000,130842.7578125000,142550.8125000000,,,
1.1399999983,8,150123.0937500000,202322.7031250000,175665.1093750000,151250.7031250000,116250.1718750000,150635.5312500000,131261.8593750000,142905.3593750000,,,
1.1439999982,8,150404.1875000000,200693.7968750000,176336.3281250000,151618.9062500000,116515.2578125000,150900.2656250000,131526.2343750000,143158.1718750000,,,
1.1479999982,8,150120.0625000000,200358.7656250000,175864.5000000000,151259.5000000000,116244.9140625000,150642.0000000000,131268.1093750000,142954.9531250000,,,
1.1519999981,9,149659.1875000000,201721.3437500000,174864.8437500000,150661.5781250000,115808.3046875000,150212.3906250000,130840.3203125000,142570.0000000000,33029,1.1528326008,0.0000000000
1.1559999981,9,149675.6562500000,203006.1562500000,174798.0781250000,150670.9687500000,115825.6875000000,150226.9531250000,130849.1953125000,142557.5312500000,,,
1.1599999981,9,150131.7656250000,202361.1406250000,175656.2343750000,151248.2656250000,116268.7890625000,150646.2343750000,131281.1406250000,142908.6250000000,,,
1.1639999980,9,150412.7500000000,200673.9531250000,176325.4687500000,151625.7500000000,116538.7500000000,150905.0156250000,131547.5156250000,143158.1718750000,,,
1.1679999980,9,150125.0625000000,200315.7968750000,175859.8437500000,151271.9687500000,116262.1875000000,150642.9375000000,131279.6718750000,142953.2031250000,,,
1.1719999979,9,149650.7343750000,201713.3906250000,174852.5000000000,150666.2968750000,115813.2421875000,150203.5625000000,130845.1484375000,142559.7031250000,,,
1.1759999981,9,149652.1093750000,203037.1093750000,174761.8437500000,150664.2656250000,115812.3593750000,150189.4843750000,130831.6562500000,142532.4218750000,,,
1.1799999981,9,150131.6250000000,202398.2812500000,175642.3125000000,151252.4687500000,116272.6796875000,150635.0468750000,131276.3906250000,142911.6093750000,,,
1.1839999980,9,150420.9843750000,200680.4687500000,176350.2031250000,151640.4843750000,116546.1015625000,150910.6562500000,131548.0156250000,143168.5625000000,,,
1.1879999980,9,150122.2968750000,200290.2812500000,175899.3125000000,151269.4531250000,116257.5781250000,150636.0781250000,131271.5625000000,142952.0781250000,,,
1.1919999979,9,149651.7031250000,201710.3750000000,174885.2343750000,150665.0937500000,115810.2109375000,150201.7343750000,130835.2734375000,142563.4062500000,,,
1.1959999981,9,149661.5468750000,203082.6718750000,174803.4531250000,150664.2031250000,115819.5703125000,150206.7031250000,130840.0000000000,142547.3125000000,,,
1.1999999981,9,150126.3125000000,202432.8906250000,175673.0000000000,151244.6718750000,116265.0312500000,150632.5000000000,131265.8750000000,142908.8906250000,,,
1.2039999980,9,150413.0468750000,200650.0156250000,176364.2812500000,151624.0312500000,116537.4375000000,150904.0312500000,131527.6093750000,143162.8125000000,,,
1.2079999980,9,150132.6250000000,200220.7343750000,175932.1718750000,151278.1875000000,116268.3359375000,150650.0781250000,131273.1250000000,142964.9062500000,,,
1.2119999980,9,149665.5937500000,201647.3750000000,174923.5312500000,150671.5000000000,115825.0468750000,150212.0156250000,130846.6484375000,142579.3906250000,,,
1.2159999979,9,149656.1250000000,203050.1406250000,174800.0937500000,150654.3125000000,115811.9296875000,150195.0937500000,130827.7421875000,142542.6718750000,,,
1.2199999981,9,150124.5468750000,202405.0937500000,175648.0156250000,151237.8281250000,116260.4765625000,150629.8750000000,131260.0625000000,142907.4218750000,,,
1.2239999981,9,150419.9375000000,200593.2656250000,176348.4062500000,151627.7343750000,116542.8828125000,150902.8125000000,131540.4531250000,143168.2343750000,,,
1.2279999980,9,150150.9062500000,200150.3593750000,175924.9531250000,151283.9062500000,116287.4843750000,150655.8437500000,131295.8906250000,142980.3437500000,,,
1.2319999980,9,149682.2031250000,201639.2812500000,174922.5156250000,150690.5000000000,115840.6015625000,150219.7656250000,130856.7578125000,142599.6406250000,,,
1.2359999979,9,149645.6875000000,203102.9062500000,174773.0625000000,150655.0937500000,115803.3671875000,150186.9843750000,130803.4140625000,142540.9531250000,,,
1.2399999981,9,150112.3437500000,202469.2656250000,175610.5000000000,151230.6562500000,116251.1093750000,150622.2343750000,131233.3437500000,142902.9062500000,,,
1.2439999981,9,150425.5781250000,200621.0781250000,176325.5000000000,151637.1250000000,116545.1875000000,150918.4843750000,131540.6718750000,143180.4687500000,,,
1.2479999980,9,150155.4218750000,200157.8906250000,175913.9375000000,151305.7343750000,116283.7265625000,150672.2343750000,131297.5781250000,142992.5468750000,,,
1.2519999980,9,149669.6406250000,201663.5000000000,174880.6718750000,150681.7812500000,115821.6640625000,150222.3906250000,130842.3046875000,142594.2500000000,,,
1.2559999980,9,149634.5000000000,203162.1562500000,174726.1406250000,150634.5625000000,115789.9296875000,150180.8437500000,130806.4687500000,142531.9062500000,,,
1.2599999979,9,150093.1093750000,202545.1875000000,175562.7031250000,151201.1875000000,116231.3437500000,150601.5781250000,131232.2968750000,142880.7500000000,,,
1.2639999981,9,150414.1250000000,200668.0937500000,176275.2343750000,151622.1250000000,116537.1406250000,150905.3437500000,131534.3750000000,143163.8125000000,,,
1.2679999981,9,150136.4062500000,200167.3281250000,175866.0312500000,151290.6718750000,116267.9531250000,150649.4531250000,131279.3750000000,142970.8750000000,,,
1.2719999980,9,149627.5625000000,201681.0312500000,174835.2343750000,150645.9687500000,115779.2812500000,150174.6250000000,130806.0390625000,142551.4843750000,,,
1.2759999980,9,149638.3906250000,203215.5000000000,174719.5781250000,150643.4218750000,115788.6484375000,150184.3593750000,130815.7812500000,142536.8125000000,,,
1.2799999979,10,150093.1406250000,202616.9687500000,175552.6718750000,151214.2187500000,116224.9062500000,150607.4218750000,131240.8593750000,142884.4531250000,,,
1.2839999979,10,150409.0156250000,200719.3281250000,176267.4531250000,151614.3281250000,116522.9531250000,150906.9687500000,131533.1093750000,143162.4687500000,,,
1.2879999978,10,150138.4062500000,200189.1406250000,175867.8593750000,151294.0781250000,116258.7812500000,150659.1406250000,131277.5000000000,142975.4062500000,,,
1.2919999978,10,149652.8281250000,201687.9062500000,174844.2968750000,150676.7031250000,115794.2265625000,150206.3750000000,130821.7890625000,142577.9843750000,,,
1.2959999978,10,149639.4375000000,203194.5312500000,174695.2812500000,150639.6093750000,115783.4687500000,150186.9062500000,130803.2812500000,142538.1875000000,,,
1.2999999977,10,150105.9843750000,202582.4687500000,175531.2968750000,151213.5312500000,116231.9609375000,150617.1562500000,131230.6562500000,142897.5000000000,,,
1.3039999979,10,150415.1093750000,200677.4843750000,176256.7500000000,151625.3750000000,116530.3046875000,150901.8281250000,131523.9062500000,143165.3906250000,,,
1.3079999979,10,150139.1406250000,200131.8750000000,175872.9843750000,151301.2031250000,116266.9609375000,150647.5312500000,131264.4531250000,142970.5625000000,,,
1.3119999978,10,149653.3125000000,201626.4531250000,174852.7812500000,150675.3593750000,115804.7656250000,150196.1562500000,130815.5390625000,142572.9687500000,,,
1.3159999978,10,149616.8906250000,203149.2187500000,174669.2031250000,150628.2343750000,115768.7421875000,150152.8750000000,130786.2187500000,142509.4843750000,,,
1.3199999977,10,150081.9062500000,202542.2187500000,175504.6093750000,151201.6093750000,116215.3281250000,150587.2500000000,131223.4218750000,142866.7343750000,,,
1.3239999979,10,150423.1093750000,200603.2656250000,176263.0312500000,151635.9218750000,116540.5781250000,150915.5625000000,131545.0937500000,143171.3437500000,,,
1.3279999979,10,150141.5781250000,200026.3281250000,175883.2812500000,151307.7187500000,116271.5234375000,150655.7343750000,131282.5625000000,142971.7656250000,,,
1.3319999978,10,149638.2343750000,201516.5312500000,174849.0937500000,150665.7343750000,115791.7265625000,150181.9218750000,130813.7109375000,142558.3906250000,,,
1.3359999978,10,149596.7187500000,203068.1718750000,174667.1875000000,150603.7187500000,115753.2656250000,150132.4531250000,130773.6953125000,142494.8906250000,,,
1.3399999978,10,150060.7031250000,202467.4375000000,175505.1718750000,151178.9531250000,116202.3515625000,150569.2031250000,131205.2656250000,142852.5625000000,,,
1.3439999977,10,150405.7968750000,200498.3906250000,176263.5312500000,151624.4687500000,116534.4609375000,150893.7031250000,131529.0312500000,143155.8437500000,,,
1.3479999979,10,150148.0937500000,199894.0156250000,175899.3750000000,151320.7656250000,116283.2421875000,150643.9843750000,131286.2656250000,142977.7500000000,,,
1.3519999979,10,149660.0937500000,201404.5000000000,174881.4531250000,150692.0000000000,115814.3984375000,150194.5781250000,130826.7500000000,142582.8906250000,,,
1.3559999978,10,149639.3906250000,202999.3750000000,174718.7968750000,150647.2031250000,115796.5546875000,150188.1406250000,130808.8593750000,142544.6250000000,,,
1.3599999978,10,150085.4062500000,202416.5312500000,175524.4843750000,151208.9843750000,116226.5468750000,150604.5625000000,131223.9843750000,142882.0781250000,,,
1.3639999977,10,150411.7343750000,200407.4687500000,176252.3750000000,151633.3125000000,116537.0859375000,150911.2968750000,131524.6875000000,143165.3906250000,,,
1.3679999979,10,150145.7343750000,199765.8906250000,175890.7812500000,151317.9375000000,116280.1875000000,150665.1718750000,131278.7343750000,142984.5625000000,,,
1.3719999979,10,149647.1875000000,201270.9218750000,174875.3906250000,150687.4375000000,115805.7343750000,150197.4218750000,130817.9531250000,142580.0312500000,,,
1.3759999978,10,149616.4062500000,202886.2812500000,174710.7812500000,150626.2812500000,115778.1875000000,150160.1093750000,130789.0625000000,142528.1875000000,,,
1.3799999978,10,150079.1406250000,202318.6562500000,175541.5156250000,151187.5312500000,116224.8515625000,150593.3437500000,131219.8750000000,142883.1250000000,,,
1.3839999977,10,150421.2187500000,200304.9218750000,176296.0156250000,151630.3437500000,116552.6484375000,150918.4843750000,131540.7500000000,143178.6406250000,,,
1.3879999977,10,150161.4531250000,199636.9218750000,175947.6718750000,151325.5625000000,116300.5468750000,150675.0937500000,131300.7500000000,142999.8750000000,,,
1.3919999979,10,149654.4375000000,201154.1718750000,174915.8125000000,150681.2656250000,115815.5781250000,150203.3750000000,130831.5468750000,142589.2343750000,,,
1.3959999979,10,149607.0156250000,202804.7500000000,174703.0468750000,150611.2812500000,115770.1953125000,150156.6875000000,130780.2109375000,142523.2656250000,,,
1.3999999978,10,150071.8750000000,202246.4531250000,175501.9687500000,151174.5312500000,116217.5546875000,150589.7187500000,131209.3437500000,142879.3906250000,,,
1.4039999978,10,150416.3125000000,200210.4843750000,176258.5156250000,151619.2031250000,116547.8437500000,150917.0937500000,131535.8437500000,143177.2031250000,,,
1.4079999977,11,150156.1718750000,199527.4843750000,175925.9062500000,151310.8281250000,116294.6953125000,150676.4062500000,131295.1093750000,142996.3125000000,,,
1.4119999977,11,149661.1875000000,201045.6718750000,174927.7343750000,150673.8125000000,115822.6562500000,150211.7500000000,130835.3281250000,142596.2031250000,,,
1.4159999976,11,149639.9062500000,202725.0312500000,174755.1406250000,150621.7812500000,115803.0234375000,150184.7656250000,130810.7656250000,142556.2343750000,,,
1.4199999976,11,150082.2500000000,202186.6562500000,175545.7500000000,151182.8125000000,116224.9843750000,150599.7812500000,131214.4843750000,142891.0625000000,,,
1.4239999976,11,150414.5000000000,200113.4531250000,176291.3437500000,151631.0625000000,116544.0625000000,150912.7343750000,131527.8437500000,143172.0156250000,,,
1.4279999975,11,150171.1093750000,199380.7187500000,175969.2500000000,151344.6093750000,116309.0781250000,150690.5781250000,131305.3906250000,143009.7656250000,,,
1.4319999977,11,149672.1875000000,200886.1718750000,174954.2187500000,150710.4531250000,115833.8671875000,150224.9375000000,130844.0234375000,142607.5937500000,,,
1.4359999977,11,149609.9687500000,202555.2031250000,174735.1250000000,150621.8281250000,115774.0781250000,150160.1406250000,130778.6562500000,142526.0937500000,,,
1.4399999976,11,150069.1562500000,202023.9531250000,175533.2031250000,151184.8437500000,116216.7031250000,150584.7656250000,131201.8281250000,142871.6093750000,,,
1.4439999976,11,150410.6250000000,199964.1562500000,176293.6875000000,151625.1562500000,116542.6953125000,150906.8125000000,131517.0937500000,143162.0937500000,,,
1.4479999975,11,150164.8281250000,199231.9843750000,175977.1875000000,151332.6406250000,116303.5468750000,150677.1562500000,131289.0000000000,142995.0000000000,,,
1.4519999977,11,149667.1718750000,200752.2656250000,174954.3281250000,150697.8750000000,115822.7890625000,150211.2031250000,130822.2109375000,142593.7031250000,,,
1.4559999977,11,149608.5156250000,202472.4218750000,174726.7968750000,150603.0468750000,115762.1171875000,150150.4062500000,130759.9375000000,142517.6406250000,,,
1.4599999976,11,150052.9531250000,201972.8906250000,175509.0000000000,151153.0156250000,116186.5546875000,150562.0156250000,131165.3750000000,142851.9531250000,,,
1.4639999976,11,150419.2656250000,199918.3750000000,176273.1406250000,151623.3125000000,116534.0859375000,150906.2031250000,131506.7656250000,143167.4531250000,,,
1.4679999975,11,150200.8750000000,199189.7812500000,175996.7031250000,151359.1718750000,116321.0078125000,150712.4531250000,131312.5468750000,143031.0625000000,,,
1.4719999975,11,149690.4843750000,200734.0625000000,174998.5468750000,150719.1875000000,115834.6171875000,150233.8437500000,130844.2890625000,142619.7187500000,,,
1.4759999977,11,149617.0937500000,202493.3125000000,174753.2031250000,150621.2968750000,115764.2890625000,150158.4531250000,130769.8593750000,142531.7968750000,,,
1.4799999977,11,150070.2343750000,202034.2500000000,175530.7343750000,151175.3593750000,116203.2578125000,150581.1875000000,131187.3906250000,142875.6093750000,,,
1.4839999976,11,150442.9843750000,199980.5937500000,176305.5312500000,151639.4375000000,116565.2812500000,150934.1406250000,131542.2031250000,143196.1562500000,,,
1.4879999976,11,150217.4843750000,199223.8906250000,176021.8125000000,151371.9843750000,116350.9687500000,150723.6718750000,131341.6718750000,143047.9062500000,,,
1.4919999975,11,149687.3437500000,200759.4062500000,174979.9062500000,150712.5156250000,115843.9531250000,150224.8906250000,130847.9375000000,142618.4375000000,,,
1.4959999977,11,149613.6093750000,202547.1562500000,174712.9843750000,150611.5312500000,115772.5000000000,150152.2031250000,130771.6562500000,142531.4062500000,,,
1.4999999977,11,150079.0781250000,202110.4843750000,175503.5312500000,151168.4062500000,116223.1093750000,150592.5625000000,131203.0937500000,142889.0156250000,,,
1.5039999976,11,150457.9687500000,200032.8750000000,176297.4375000000,151647.8593750000,116587.1640625000,150949.1406250000,131555.5000000000,143215.9062500000,,,
1.5079999976,11,150211.4843750000,199233.2812500000,176009.7656250000,151370.0312500000,116351.9921875000,150711.9531250000,131330.7343750000,143042.0156250000,,,
1.5119999975,11,149688.3906250000,200764.5000000000,174978.1406250000,150729.7812500000,115849.3671875000,150228.3281250000,130851.8828125000,142618.0156250000,,,
1.5159999975,11,149608.1406250000,202580.8125000000,174703.6406250000,150620.5468750000,115768.6093750000,150157.2968750000,130776.8281250000,142529.8750000000,,,
1.5199999977,11,150058.4531250000,202166.7812500000,175462.2500000000,151158.4375000000,116201.3281250000,150576.1250000000,131190.4531250000,142869.9218750000,,,
1.5239999976,11,150437.8750000000,200078.2500000000,176242.9687500000,151631.5156250000,116562.9218750000,150935.1875000000,131547.6718750000,143192.0625000000,,,
1.5279999976,11,150232.6093750000,199267.8593750000,175982.0156250000,151385.0468750000,116359.6093750000,150749.2812500000,131358.1406250000,143067.0312500000,,,
1.5319999976,11,149687.6406250000,200802.8593750000,174946.7812500000,150725.3593750000,115841.6484375000,150231.1875000000,130857.5156250000,142619.5156250000,,,
1.5359999975,12,149595.8281250000,202663.0468750000,174682.4843750000,150594.7968750000,115753.8281250000,150141.7343750000,130764.7890625000,142514.7187500000,,,
1.5399999975,12,150042.9531250000,202274.0156250000,175463.3281250000,151140.9687500000,116186.2265625000,150561.6406250000,131175.4375000000,142854.4218750000,,,
1.5439999974,12,150422.1875000000,200156.1718750000,176255.3750000000,151617.8125000000,116552.8359375000,150915.0937500000,131532.4062500000,143175.8281250000,,,
1.5479999974,12,150207.5000000000,199299.4531250000,175999.6406250000,151363.2187500000,116345.3671875000,150717.2031250000,131338.6250000000,143037.5937500000,,,
1.5519999973,12,149704.1875000000,200855.6718750000,174992.6562500000,150716.5625000000,115864.8984375000,150250.2343750000,130871.8593750000,142636.6562500000,,,
1.5559999973,12,149609.9687500000,202765.0781250000,174719.0312500000,150593.5000000000,115773.1171875000,150155.1250000000,130775.8906250000,142534.0781250000,,,
1.5599999975,12,150051.8593750000,202394.5312500000,175487.3281250000,151140.5156250000,116196.0468750000,150568.3437500000,131179.8281250000,142867.2968750000,,,
1.5639999975,12,150431.2343750000,200211.5937500000,176268.0468750000,151626.5312500000,116559.8046875000,150929.0781250000,131536.1875000000,143187.8906250000,,,
1.5679999974,12,150216.3906250000,199307.2500000000,176014.6562500000,151377.3593750000,116351.2421875000,150741.2343750000,131341.5781250000,143052.7187500000,,,
1.5719999974,12,149688.6406250000,200875.1875000000,175000.6406250000,150717.7187500000,115843.2578125000,150252.0781250000,130852.9531250000,142632.7812500000,,,
1.5759999973,12,149600.7187500000,202839.5156250000,174733.8750000000,150597.6875000000,115758.4687500000,150163.7812500000,130767.6015625000,142536.3906250000,,,
1.5799999975,12,150049.6250000000,202503.4218750000,175509.8281250000,151138.9062500000,116192.7500000000,150576.8437500000,131181.3281250000,142871.6718750000,,,
1.5839999975,12,150437.4531250000,200312.7031250000,176310.3437500000,151635.3281250000,116566.2968750000,150939.2187500000,131548.2031250000,143195.7031250000,,,
1.5879999974,12,150216.4687500000,199358.6718750000,176066.2343750000,151385.0468750000,116352.8750000000,150735.3593750000,131352.3750000000,143048.3437500000,,,
1.5919999974,12,149684.0781250000,200901.4843750000,175042.8906250000,150725.9843750000,115842.4531250000,150236.3906250000,130857.4609375000,142622.2968750000,,,
1.5959999973,12,149576.2812500000,202894.7656250000,174738.5625000000,150587.1718750000,115739.1875000000,150130.9531250000,130751.0546875000,142508.7656250000,,,
1.5999999973,12,150030.4531250000,202564.6093750000,175497.5781250000,151131.5312500000,116181.4843750000,150556.7812500000,131176.2656250000,142850.0156250000,,,
1.6039999975,12,150431.6875000000,200317.3281250000,176305.3281250000,151634.1718750000,116567.4765625000,150935.5468750000,131552.4687500000,143188.3593750000,,,
1.6079999974,12,150219.3125000000,199291.1406250000,176068.2187500000,151399.3750000000,116360.7109375000,150739.9218750000,131356.8125000000,143050.6250000000,,,
1.6119999974,12,149684.4843750000,200840.2500000000,175037.1250000000,150737.7031250000,115847.2812500000,150240.1250000000,130863.1953125000,142624.5000000000,,,
1.6159999974,12,149567.2968750000,202880.5000000000,174714.0000000000,150578.0781250000,115733.0937500000,150127.0937500000,130751.0312500000,142501.9687500000,,,
1.6199999973,12,150025.6875000000,202552.2656250000,175454.4687500000,151108.5156250000,116176.8125000000,150564.3750000000,131178.4687500000,142848.1406250000,,,
1.6239999975,12,150433.7500000000,200248.6875000000,176254.2812500000,151623.5781250000,116564.8203125000,150950.7187500000,131559.0156250000,143191.0312500000,,,
1.6279999975,12,150229.1250000000,199190.3906250000,176022.5625000000,151390.2500000000,116366.2031250000,150766.9843750000,131377.1562500000,143064.3750000000,,,
1.6319999974,12,149697.2968750000,200775.7343750000,174994.8281250000,150730.4062500000,115855.8593750000,150274.0781250000,130886.6171875000,142646.5156250000,,,
1.6359999974,12,149571.1250000000,202886.9843750000,174676.0156250000,150567.7812500000,115737.0390625000,150154.2187500000,130766.3750000000,142519.0937500000,,,
1.6399999973,12,150024.5781250000,202611.0156250000,175428.2656250000,151102.2968750000,116185.2109375000,150584.9531250000,131195.1718750000,142858.4687500000,,,
1.6439999973,12,150454.6250000000,200291.0156250000,176262.0937500000,151628.0625000000,116602.9921875000,150995.7343750000,131598.8281250000,143221.0781250000,,,
1.6479999975,12,150250.9375000000,199200.4687500000,176058.4218750000,151398.4062500000,116404.2109375000,150809.7500000000,131413.2187500000,143091.2031250000,,,
1.6519999974,12,149694.0781250000,200808.0625000000,175033.5312500000,150721.4687500000,115869.0312500000,150288.6406250000,130906.8906250000,142647.5156250000,,,
1.6559999974,12,149566.8593750000,202981.2343750000,174699.7031250000,150564.5937500000,115742.9687500000,150157.3437500000,130782.4921875000,142514.5781250000,,,
1.6599999974,12,150021.1718750000,202720.5000000000,175430.9531250000,151101.8906250000,116181.6718750000,150586.3125000000,131199.7656250000,142851.4687500000,,,
1.6639999973,13,150454.1875000000,200350.3125000000,176253.9062500000,151621.1406250000,116601.3828125000,151011.3437500000,131612.5468750000,143219.4687500000,,,
1.6679999973,13,150275.2343750000,199195.9687500000,176076.0781250000,151413.0468750000,116423.5546875000,150852.6250000000,131447.9531250000,143116.8437500000,,,
1.6719999972,13,149698.6875000000,200795.1093750000,175046.8906250000,150723.9687500000,115865.8906250000,150312.2187500000,130913.9453125000,142654.7343750000,,,
1.6759999972,13,149570.8906250000,203006.7968750000,174699.7343750000,150565.5000000000,115736.7968750000,150192.6406250000,130792.5781250000,142529.0625000000,,,
1.6799999971,13,150026.3281250000,202765.6093750000,175426.2343750000,151108.7343750000,116179.3593750000,150626.8750000000,131215.5625000000,142869.8437500000,,,
1.6839999971,13,150457.4843750000,200335.4531250000,176253.6406250000,151637.1718750000,116599.3671875000,151047.5468750000,131623.2031250000,143230.8125000000,,,
1.6879999973,13,150265.7968750000,199127.6562500000,176072.2656250000,151424.6406250000,116415.5078125000,150872.2968750000,131445.6093750000,143111.0000000000,,,
1.6919999972,13,149716.1875000000,200760.3437500000,175061.0468750000,150747.0937500000,115890.3046875000,150351.4062500000,130938.2500000000,142675.0000000000,,,
1.6959999972,13,149565.7812500000,203054.8593750000,174704.2656250000,150543.4218750000,115747.3671875000,150200.4062500000,130800.7031250000,142525.4531250000,,,
1.6999999972,13,150024.1562500000,202855.2031250000,175420.3593750000,151083.3593750000,116192.7734375000,150626.4687500000,131225.0312500000,142863.3437500000,,,
1.7039999971,13,150460.5000000000,200390.1718750000,176244.1406250000,151619.6562500000,116613.5859375000,151042.4843750000,131631.8593750000,143226.4375000000,,,
1.7079999973,13,150273.4375000000,199134.6562500000,176070.9062500000,151413.3750000000,116425.9921875000,150870.4687500000,131454.5468750000,143113.6562500000,,,
1.7119999973,13,149710.3281250000,200781.0468750000,175050.7187500000,150732.2343750000,115880.1328125000,150338.3750000000,130925.7187500000,142669.8593750000,,,
1.7159999972,13,149564.9843750000,203151.8281250000,174687.2500000000,150544.7656250000,115739.5625000000,150194.9843750000,130782.2500000000,142528.0156250000,,,
1.7199999972,13,150028.7656250000,202986.8906250000,175402.8437500000,151088.4062500000,116189.4453125000,150625.4687500000,131208.2656250000,142870.1875000000,,,
1.7239999971,13,150475.9687500000,200475.1093750000,176231.4531250000,151629.2968750000,116621.2265625000,151049.0000000000,131626.5000000000,143240.6093750000,,,
1.7279999971,13,150296.5000000000,199149.5468750000,176068.8281250000,151431.2187500000,116443.3437500000,150882.4062500000,131464.7656250000,143135.5937500000,,,
1.7319999973,13,149733.6093750000,200791.7968750000,175067.3437500000,150749.1875000000,115899.0156250000,150351.9375000000,130943.6640625000,142694.8281250000,,,
1.7359999972,13,149576.7031250000,203203.8125000000,174709.8437500000,150547.5781250000,115748.6796875000,150196.6406250000,130792.7656250000,142541.7500000000,,,
1.7399999972,13,150021.5000000000,203050.5156250000,175417.0625000000,151075.8125000000,116182.3671875000,150609.9218750000,131202.3125000000,142866.5625000000,,,
1.7439999972,13,150464.1093750000,200501.6406250000,176257.3437500000,151625.7500000000,116612.0312500000,151027.0625000000,131614.3593750000,143228.7187500000,,,
1.7479999971,13,150275.3750000000,199135.9375000000,176117.1406250000,151425.3125000000,116430.2265625000,150853.4687500000,131448.3750000000,143110.3593750000,,,
1.7519999973,13,149706.8750000000,200765.3593750000,175108.2812500000,150741.4843750000,115880.9921875000,150314.6093750000,130923.0156250000,142662.5937500000,,,
1.7559999973,13,149539.0468750000,203192.5468750000,174710.1562500000,150536.3750000000,115718.1875000000,150145.7968750000,130758.8359375000,142500.0937500000,,,
1.7599999972,13,149975.5468750000,203062.5156250000,175384.3906250000,151058.5468750000,116147.0156250000,150557.2968750000,131168.5625000000,142819.5781250000,,,
1.7639999972,13,150441.0937500000,200490.7500000000,176212.8750000000,151626.5000000000,116600.6328125000,150999.5625000000,131612.5000000000,143203.3750000000,,,
1.7679999971,13,150268.9531250000,199078.8437500000,176061.8281250000,151444.0000000000,116429.6640625000,150839.2187500000,131456.6093750000,143101.5781250000,,,
1.7719999971,13,149695.9531250000,200692.7187500000,175057.0468750000,150756.2343750000,115871.0156250000,150297.6875000000,130916.6796875000,142650.8593750000,,,
1.7759999973,13,149527.4843750000,203158.1562500000,174685.4062500000,150539.3437500000,115705.7109375000,150127.0625000000,130751.4843750000,142486.9062500000,,,
1.7799999972,13,149980.8593750000,203066.9062500000,175382.2343750000,151058.0625000000,116145.8593750000,150551.9843750000,131166.5000000000,142821.4218750000,,,
1.7839999972,13,150432.9687500000,200487.7500000000,176209.9218750000,151609.8437500000,116586.8203125000,150982.3750000000,131592.2968750000,143191.2812500000,,,
1.7879999971,13,150275.2812500000,199049.2500000000,176091.0156250000,151438.9843750000,116434.8203125000,150840.7812500000,131451.2656250000,143106.2968750000,,,
1.7919999971,14,149705.7500000000,200658.6093750000,175091.4843750000,150753.8750000000,115883.8906250000,150308.5781250000,130917.5390625000,142666.6875000000,,,
1.7959999971,14,149541.9218750000,203128.3906250000,174702.1718750000,150540.5625000000,115726.5000000000,150142.8593750000,130759.7187500000,142511.1250000000,,,
1.7999999970,14,149985.3906250000,203060.0625000000,175388.8125000000,151053.7500000000,116160.1328125000,150551.3125000000,131170.1718750000,142832.2968750000,,,
1.8039999970,14,150447.0312500000,200507.0312500000,176223.9218750000,151619.0468750000,116604.8671875000,150983.0468750000,131592.8906250000,143209.7500000000,,,
1.8079999969,14,150290.7968750000,199047.1406250000,176092.7656250000,151451.0937500000,116446.8906250000,150836.4531250000,131444.1406250000,143119.6093750000,,,
1.8119999969,14,149724.2500000000,200629.9062500000,175077.6718750000,150766.0312500000,115897.7031250000,150302.5312500000,130915.8515625000,142676.1562500000,,,
1.8159999971,14,149543.9531250000,203123.9843750000,174663.2500000000,150536.5625000000,115723.8437500000,150124.9687500000,130744.4609375000,142503.9843750000,,,
1.8199999970,14,149994.3593750000,203091.3750000000,175353.1406250000,151061.3125000000,116160.4531250000,150544.4687500000,131159.5781250000,142833.4375000000,,,
1.8239999970,14,150454.5937500000,200526.0312500000,176194.2500000000,151617.2968750000,116602.7734375000,150976.3593750000,131584.7187500000,143207.8281250000,,,
1.8279999970,14,150291.7812500000,199015.6718750000,176071.9218750000,151448.9375000000,116442.3281250000,150818.0000000000,131433.9218750000,143107.4843750000,,,
1.8319999969,14,149716.7656250000,200584.9531250000,175068.6406250000,150761.7812500000,115884.5312500000,150275.7656250000,130894.7968750000,142655.4843750000,,,
1.8359999971,14,149535.2187500000,203119.2343750000,174659.4062500000,150531.9218750000,115709.5234375000,150101.0000000000,130720.8515625000,142489.8593750000,,,
1.8399999971,14,149966.0312500000,203128.7031250000,175336.0312500000,151047.5000000000,116130.2812500000,150504.6406250000,131122.0625000000,142805.9531250000,,,
1.8439999970,14,150420.5000000000,200539.5156250000,176179.6093750000,151612.4687500000,116572.3906250000,150942.7812500000,131553.0937500000,143176.5781250000,,,
1.8479999970,14,150273.0000000000,198979.3281250000,176080.1250000000,151457.0937500000,116427.0390625000,150809.7500000000,131421.2812500000,143091.4218750000,,,
1.8519999969,14,149705.3750000000,200536.6406250000,175092.8593750000,150768.8906250000,115877.3750000000,150272.2812500000,130891.2265625000,142647.7812500000,,,
1.8559999969,14,149522.3437500000,203112.6875000000,174672.8750000000,150534.2031250000,115701.0468750000,150092.5156250000,130715.8671875000,142477.7343750000,,,
1.8599999971,14,149963.4531250000,203164.9218750000,175342.4062500000,151051.6718750000,116129.8203125000,150498.8437500000,131123.7812500000,142797.0468750000,,,
1.8639999970,14,150421.6875000000,200553.9531250000,176186.6406250000,151612.1250000000,116574.9062500000,150927.3906250000,131553.9687500000,143164.2968750000,,,
1.8679999970,14,150278.4218750000,198941.9843750000,176088.5468750000,151457.3593750000,116430.8203125000,150794.0468750000,131419.3281250000,143088.8906250000,,,
1.8719999969,14,149710.0312500000,200499.6875000000,175104.1718750000,150772.0625000000,115876.5703125000,150259.6250000000,130886.5312500000,142651.7187500000,,,
1.8759999969,14,149511.4687500000,203125.6718750000,174686.0937500000,150523.5312500000,115682.5625000000,150067.2343750000,130696.6093750000,142474.0312500000,,,
1.8799999971,14,149955.5937500000,203208.8437500000,175349.5468750000,151032.3437500000,116115.4453125000,150482.6250000000,131106.0937500000,142799.5156250000,,,
1.8839999971,14,150443.7500000000,200564.8125000000,176203.7968750000,151615.5312500000,116589.7109375000,150946.6406250000,131562.3906250000,143194.7656250000,,,
1.8879999970,14,150306.7500000000,198895.8281250000,176127.3906250000,151476.5625000000,116452.2265625000,150825.1093750000,131436.1718750000,143121.1562500000,,,
1.8919999970,14,149728.3906250000,200445.1562500000,175147.4218750000,150786.2187500000,115891.9375000000,150278.4218750000,130891.7109375000,142669.9375000000,,,
1.8959999969,14,149525.4218750000,203125.8281250000,174723.9218750000,150537.6093750000,115694.8515625000,150079.6250000000,130695.1875000000,142481.0625000000,,,
1.8999999969,14,149951.8593750000,203244.5312500000,175372.8750000000,151037.2187500000,116106.8359375000,150477.5781250000,131091.6093750000,142783.4687500000,,,
1.9039999971,14,150440.2500000000,200570.5468750000,176223.0625000000,151615.0781250000,116577.7812500000,150941.8125000000,131550.1093750000,143175.9843750000,,,
1.9079999970,14,150311.3593750000,198847.0156250000,176158.5781250000,151494.3750000000,116446.5390625000,150823.0937500000,131429.9218750000,143112.3906250000,,,
1.9119999970,14,149719.5000000000,200392.8281250000,175174.3750000000,150790.5625000000,115873.1328125000,150269.6562500000,130879.4296875000,142659.6875000000,,,
1.9159999969,14,149502.8125000000,203118.1093750000,174727.7812500000,150522.5625000000,115664.5937500000,150063.1562500000,130674.0468750000,142470.5625000000,,,
1.9199999969,15,149933.7031250000,203266.3906250000,175369.5625000000,151021.4843750000,116085.5156250000,150470.6250000000,131075.4687500000,142785.7343750000,,,
1.9239999969,15,150419.4218750000,200559.5468750000,176216.2500000000,151611.1406250000,116560.3437500000,150927.5156250000,131534.2656250000,143174.6406250000,,,
1.9279999968,15,150301.7031250000,198775.7500000000,176161.6875000000,151487.2656250000,116447.3984375000,150824.9531250000,131431.6875000000,143117.0625000000,,,
1.9319999968,15,149726.3125000000,200323.7812500000,175196.3906250000,150805.7187500000,115892.2031250000,150286.1562500000,130897.2109375000,142674.9843750000,,,
1.9359999967,15,149502.3281250000,203107.8593750000,174745.4531250000,150529.2968750000,115677.7890625000,150066.6718750000,130685.6093750000,142473.0312500000,,,
1.9399999967,15,149932.3593750000,203302.5156250000,175377.7031250000,151024.4062500000,116099.5156250000,150464.7343750000,131082.9843750000,142777.0937500000,,,
1.9439999969,15,150424.6250000000,200561.6406250000,176218.6406250000,151620.9218750000,116580.9140625000,150929.0156250000,131548.3125000000,143162.3593750000,,,
1.9479999968,15,150299.0781250000,198703.0625000000,176152.4375000000,151500.8906250000,116457.2656250000,150810.1406250000,131437.0000000000,143093.8593750000,,,
1.9519999968,15,149711.3750000000,200157.6718750000,175168.7968750000,150803.1718750000,115884.0234375000,150256.7812500000,130888.9453125000,142641.3750000000,,,
1.9559999967,15,149476.7656250000,202951.7031250000,174708.3437500000,150521.0000000000,115655.5000000000,150034.1093750000,130666.4062500000,142441.5156250000,,,
1.9599999967,15,149906.9687500000,203210.8281250000,175332.4375000000,151015.0468750000,116074.3281250000,150444.8906250000,131065.1718750000,142759.0312500000,,,
1.9639999969,15,150419.1406250000,200472.2968750000,176181.7500000000,151615.4843750000,116572.6250000000,150938.7656250000,131548.6875000000,143176.2343750000,,,
1.9679999969,15,150328.2656250000,198598.7968750000,176149.7031250000,151515.1718750000,116480.7343750000,150857.8593750000,131467.6406250000,143146.0000000000,,,
1.9719999968,15,149748.3593750000,200143.0625000000,175179.1406250000,150823.0781250000,115914.5468750000,150303.0468750000,130922.2343750000,142701.4843750000,,,
1.9759999968,15,149503.9375000000,203029.7812500000,174694.4218750000,150523.7343750000,115670.6015625000,150061.4062500000,130675.4687500000,142480.5156250000,,,
1.9799999967,15,149921.8750000000,203315.5000000000,175298.3906250000,151010.6875000000,116070.4140625000,150456.1250000000,131050.8203125000,142778.1093750000,,,
1.9839999967,15,150428.3281250000,200557.9375000000,176142.2968750000,151613.4375000000,116558.2500000000,150936.3437500000,131523.6718750000,143178.6718750000,,,
1.9879999969,15,150327.1875000000,198630.0468750000,176105.0937500000,151506.6093750000,116453.0546875000,150846.8125000000,131430.7812500000,143132.1093750000,,,
1.9919999968,15,149745.3593750000,200146.8906250000,175145.4375000000,150816.7187500000,115890.0312500000,150300.8437500000,130894.7187500000,142687.2968750000,,,
1.9959999968,15,149497.5312500000,203067.5000000000,174666.6093750000,150522.8750000000,115658.5859375000,150055.9687500000,130674.1328125000,142466.3593750000,,,
1.9999999967,15,149910.7187500000,203384.6406250000,175271.4687500000,150994.1406250000,116071.1640625000,150435.8437500000,131066.9140625000,142754.6093750000,,,
2.0039999967,15,150429.5937500000,200593.5312500000,176142.7031250000,151602.1718750000,116580.0312500000,150929.4843750000,131553.3593750000,143168.2031250000,,,
2.0079999969,15,150333.3281250000,198594.0312500000,176129.3437500000,151511.1406250000,116487.1484375000,150854.1875000000,131456.9375000000,143130.2812500000,,,
2.0119999968,15,149758.8593750000,200100.7656250000,175190.2187500000,150827.4531250000,115933.1328125000,150318.4218750000,130923.7109375000,142694.7656250000,,,
2.0159999968,15,149492.3750000000,203080.9062500000,174691.5937500000,150518.1875000000,115670.2812500000,150057.6250000000,130682.0156250000,142459.7031250000,,,
2.0199999968,15,149900.7968750000,203450.2031250000,175282.1406250000,150990.9843750000,116064.5078125000,150439.0312500000,131056.9375000000,142751.7500000000,,,
2.0239999967,15,150424.1718750000,200645.9218750000,176145.4375000000,151615.4062500000,116574.1328125000,150937.5312500000,131546.2187500000,143170.1875000000,,,
2.0279999967,15,150334.4062500000,198600.7343750000,176143.4218750000,151529.7031250000,116483.2343750000,150854.3281250000,131465.2500000000,143134.6875000000,,,
2.0319999969,15,149735.0312500000,200094.4218750000,175191.1406250000,150826.6093750000,115899.3437500000,150290.8906250000,130905.2265625000,142675.0000000000,,,
2.0359999968,15,149467.8593750000,203123.1250000000,174693.3906250000,150506.4687500000,115641.0703125000,150038.2031250000,130653.8828125000,142445.2500000000,,,
2.0399999968,15,149885.4062500000,203545.2187500000,175282.4687500000,150984.7656250000,116049.4609375000,150428.8125000000,131040.2500000000,142742.9218750000,,,
2.0439999967,15,150427.4218750000,200724.8281250000,176148.6250000000,151608.6093750000,116578.8515625000,150944.1250000000,131550.7031250000,143175.0468750000,,,
2.0479999967,16,150348.1562500000,198627.5000000000,176165.3437500000,151530.4218750000,116497.9296875000,150871.9687500000,131480.3750000000,143148.8125000000,,,
2.0519999966,16,149744.2968750000,200105.8593750000,175232.6093750000,150837.0781250000,115910.6328125000,150294.0156250000,130916.1171875000,142680.3437500000,,,
2.0559999966,16,149475.4062500000,203179.4843750000,174741.7343750000,150520.0312500000,115647.8593750000,150033.0312500000,130657.7656250000,142446.0000000000,,,
2.0599999966,16,149890.5468750000,203657.4218750000,175328.5781250000,150993.6562500000,116053.1953125000,150423.2031250000,131041.1093750000,142742.5156250000,,,
2.0639999965,16,150441.7500000000,200835.0625000000,176186.9375000000,151627.4687500000,116591.5078125000,150951.5000000000,131561.1875000000,143184.7343750000,,,
2.0679999965,16,150355.7812500000,198689.0625000000,176195.8906250000,151541.3750000000,116506.0859375000,150873.7187500000,131485.5468750000,143155.5156250000,,,
2.0719999967,16,149738.6562500000,200165.5312500000,175236.4687500000,150835.8750000000,115905.6718750000,150289.7656250000,130911.1015625000,142682.9375000000,,,
2.0759999966,16,149475.9375000000,203292.7812500000,174718.2812500000,150513.1406250000,115646.3515625000,150037.9375000000,130663.6953125000,142456.7812500000,,,
2.0799999966,16,149898.0000000000,203810.7187500000,175290.6406250000,150982.1250000000,116054.3437500000,150430.6875000000,131054.1484375000,142757.1875000000,,,
2.0839999965,16,150442.7968750000,200939.8906250000,176153.8281250000,151613.7343750000,116589.2890625000,150949.7031250000,131569.6718750000,143189.2343750000,,,
2.0879999965,16,150351.8125000000,198702.9218750000,176160.3750000000,151540.6406250000,116499.9687500000,150867.5468750000,131480.4062500000,143150.0781250000,,,
2.0919999967,16,149749.2031250000,200134.1562500000,175222.0625000000,150845.3906250000,115912.0000000000,150301.0625000000,130916.0625000000,142690.2968750000,,,
2.0959999966,16,149462.7968750000,203280.7031250000,174715.9843750000,150509.4375000000,115633.7734375000,150020.5000000000,130650.5781250000,142439.5625000000,,,
2.0999999966,16,149874.6406250000,203801.8593750000,175294.3125000000,150974.0625000000,116038.8671875000,150405.2656250000,131033.5468750000,142730.3906250000,,,
2.1039999966,16,150426.4218750000,200872.8906250000,176155.9531250000,151617.0156250000,116579.7656250000,150930.8750000000,131550.2812500000,143166.5937500000,,,
2.1079999965,16,150360.7500000000,198552.1875000000,176191.8125000000,151559.8750000000,116513.3750000000,150867.5937500000,131493.7656250000,143150.2656250000,,,
2.1119999965,16,149753.2187500000,199953.9687500000,175260.9062500000,150853.1093750000,115921.9218750000,150293.8750000000,130930.3046875000,142692.5781250000,,,
2.1159999967,16,149459.3125000000,203137.4843750000,174733.7031250000,150507.9218750000,115637.8515625000,150014.2031250000,130647.3046875000,142445.3281250000,,,
2.1199999966,16,149868.6718750000,203717.7500000000,175292.4218750000,150967.5312500000,116040.6406250000,150405.5625000000,131027.7500000000,142737.3593750000,,,
2.1239999966,16,150422.5468750000,200795.4531250000,176152.6250000000,151611.0468750000,116579.2031250000,150934.7031250000,131552.2343750000,143173.7656250000,,,
2.1279999965,16,150353.7656250000,198434.5781250000,176199.3750000000,151549.6562500000,116508.7109375000,150867.3281250000,131466.0000000000,143152.5156250000,,,
2.1319999965,16,149759.0156250000,199840.5312500000,175279.4531250000,150854.9375000000,115928.4140625000,150307.6093750000,130900.1562500000,142706.8125000000,,,
2.1359999967,16,149448.4218750000,203107.7500000000,174724.1875000000,150492.8906250000,115618.3281250000,150013.2656250000,130632.6640625000,142444.7656250000,,,
2.1399999966,16,149846.9375000000,203766.0000000000,175276.7968750000,150945.3593750000,116015.6953125000,150386.5937500000,131012.0625000000,142725.4062500000,,,
2.1439999966,16,150408.0625000000,200824.6093750000,176154.5781250000,151585.9531250000,116571.9609375000,150925.7500000000,131542.3593750000,143167.2187500000,,,
2.1479999966,16,150365.1093750000,198398.8906250000,176214.6718750000,151552.6562500000,116527.7265625000,150893.4843750000,131511.3750000000,143169.8437500000,,,
2.1519999965,16,149762.5000000000,199808.1250000000,175288.5000000000,150857.3593750000,115938.9843750000,150324.3125000000,130941.6796875000,142714.7500000000,,,
2.1559999965,16,149445.0312500000,203163.7031250000,174735.3437500000,150484.9062500000,115627.7421875000,150014.3593750000,130628.2656250000,142442.1093750000,,,
2.1599999967,16,149844.7968750000,203892.9531250000,175280.4218750000,150932.5937500000,116018.1640625000,150385.8750000000,130995.9140625000,142719.6406250000,,,
2.1639999966,16,150424.5468750000,200926.1562500000,176153.0625000000,151590.0468750000,116586.6328125000,150932.5937500000,131533.5625000000,143172.9531250000,,,
2.1679999966,16,150387.8125000000,198430.5937500000,176218.9843750000,151563.0625000000,116543.0156250000,150896.7500000000,131529.5468750000,143179.7187500000,,,
2.1719999965,16,149785.5468750000,199830.9218750000,175307.4687500000,150870.0937500000,115948.9843750000,150330.4375000000,130974.0546875000,142729.6718750000,,,
2.1759999965,17,149462.1250000000,203266.1093750000,174745.9687500000,150496.3750000000,115632.9453125000,150016.4531250000,130661.8203125000,142454.6562500000,,,
2.1799999964,17,149860.1406250000,204056.6406250000,175284.6875000000,150930.8750000000,116038.0390625000,150388.6093750000,130995.0859375000,142729.2968750000,,,
2.1839999964,17,150454.1875000000,201041.8593750000,176169.6093750000,151608.9687500000,116625.2031250000,150955.8437500000,131534.2031250000,143198.7656250000,,,
2.1879999964,17,150408.3281250000,198450.4531250000,176234.4843750000,151590.3281250000,116562.8359375000,150917.4062500000,131554.8281250000,143195.2812500000,,,
2.1919999963,17,149780.0156250000,199835.9375000000,175306.8125000000,150879.7968750000,115946.6015625000,150330.3281250000,130982.6875000000,142719.9843750000,,,
2.1959999963,17,149445.4062500000,203356.5625000000,174742.9843750000,150489.4687500000,115623.4218750000,150012.6406250000,130662.2187500000,142440.1718750000,,,
2.1999999965,17,149838.3593750000,204207.3906250000,175271.1718750000,150921.9687500000,116010.3593750000,150379.3906250000,131020.4296875000,142710.7343750000,,,
2.2039999964,17,150427.0468750000,201130.4531250000,176139.4375000000,151588.0625000000,116588.0781250000,150934.7812500000,131565.3437500000,143167.6406250000,,,
2.2079999964,17,150403.0156250000,198414.2343750000,176217.8281250000,151574.5781250000,116562.3281250000,150912.5781250000,131541.3437500000,143184.0312500000,,,
2.2119999963,17,149784.4687500000,199758.1093750000,175318.4375000000,150869.0781250000,115956.5546875000,150327.1406250000,130960.9375000000,142722.3750000000,,,
2.2159999963,17,149436.8281250000,203358.5937500000,174752.9218750000,150472.4531250000,115615.5390625000,149987.6406250000,130628.7968750000,142431.9687500000,,,
2.2199999965,17,149834.2187500000,204277.0156250000,175266.7187500000,150911.3437500000,116007.0546875000,150364.0937500000,130995.5625000000,142709.5312500000,,,
2.2239999964,17,150440.2656250000,201147.2812500000,176127.0625000000,151591.1562500000,116601.7578125000,150954.0937500000,131565.0781250000,143185.7812500000,,,
2.2279999964,17,150410.3125000000,198328.5468750000,176199.1093750000,151583.6093750000,116568.3906250000,150926.6562500000,131541.2031250000,143192.4843750000,,,
2.2319999964,17,149778.2812500000,199673.4843750000,175289.0625000000,150878.7812500000,115949.2031250000,150329.3593750000,130953.8593750000,142718.0625000000,,,
2.2359999963,17,149423.8437500000,203366.1406250000,174717.5937500000,150473.2343750000,115603.0390625000,149987.0000000000,130622.2265625000,142424.8593750000,,,
2.2399999963,17,149816.4375000000,204350.1250000000,175215.4843750000,150907.2187500000,115989.7343750000,150351.8593750000,130985.3437500000,142695.8437500000,,,
2.2439999965,17,150420.3125000000,201174.5312500000,176073.7500000000,151587.3750000000,116582.7421875000,150931.0312500000,131550.3750000000,143164.2187500000,,,
2.2479999964,17,150413.0781250000,198255.7812500000,176183.2343750000,151591.4531250000,116572.1171875000,150927.5156250000,131546.2968750000,143195.3593750000,,,
2.2519999964,17,149781.8750000000,199583.8125000000,175282.2187500000,150882.3437500000,115949.2578125000,150324.1250000000,130949.9921875000,142724.5156250000,,,
2.2559999963,17,149420.0625000000,203364.1718750000,174689.0468750000,150466.2656250000,115592.4687500000,149976.4843750000,130608.2578125000,142425.0000000000,,,
2.2599999963,17,149815.9531250000,204409.0625000000,175175.9062500000,150900.9687500000,115982.3828125000,150350.2343750000,130975.0468750000,142697.6718750000,,,
2.2639999965,17,150429.8906250000,201182.5000000000,176036.2187500000,151590.0000000000,116589.0156250000,150933.9843750000,131556.4375000000,143167.6406250000,,,
2.2679999964,17,150426.2968750000,198177.1250000000,176160.0625000000,151607.1718750000,116585.9296875000,150933.3593750000,131561.1875000000,143200.8593750000,,,
2.2719999964,17,149787.4218750000,199490.4687500000,175276.0312500000,150892.8125000000,115963.1796875000,150329.6875000000,130968.8515625000,142725.7031250000,,,
2.2759999963,17,149411.6406250000,203340.2500000000,174692.5312500000,150457.8437500000,115594.9375000000,149966.7187500000,130611.3359375000,142418.4843750000,,,
2.2799999963,17,149788.0312500000,204448.7031250000,175186.5156250000,150870.9062500000,115966.6875000000,150315.5000000000,130957.8828125000,142673.1250000000,,,
2.2839999963,17,150404.7343750000,201195.3125000000,176064.1406250000,151575.2500000000,116575.0937500000,150901.5312500000,131538.4375000000,143143.9687500000,,,
2.2879999964,17,150408.2968750000,198117.9375000000,176197.3593750000,151602.7187500000,116573.8125000000,150906.2187500000,131543.1406250000,143181.8281250000,,,
2.2919999964,17,149786.1250000000,199421.2812500000,175327.2812500000,150906.0937500000,115959.6640625000,150316.4375000000,130958.1484375000,142724.5468750000,,,
2.2959999964,17,149408.1093750000,203341.2187500000,174737.1093750000,150479.2968750000,115586.4062500000,149958.5156250000,130599.8359375000,142414.8906250000,,,
2.2999999963,17,149797.1093750000,204509.5937500000,175208.9218750000,150900.7812500000,115970.7109375000,150324.6718750000,130965.8203125000,142677.6875000000,,,
2.3039999963,18,150433.7500000000,201234.9375000000,176076.4843750000,151608.4843750000,116597.9453125000,150934.4687500000,131567.6250000000,143161.8750000000,,,
2.3079999962,18,150443.3281250000,198083.1718750000,176205.2187500000,151638.1406250000,116601.3515625000,150950.5937500000,131578.2968750000,143203.7812500000,,,
2.3119999962,18,149801.6406250000,199358.9218750000,175332.2968750000,150918.8593750000,115971.3281250000,150347.9687500000,130980.8906250000,142735.1093750000,,,
2.3159999961,18,149408.0156250000,203331.9687500000,174733.0468750000,150473.4531250000,115585.9218750000,149970.4531250000,130605.8437500000,142418.5625000000,,,
2.3199999961,18,149791.8750000000,204555.9843750000,175206.4218750000,150892.3281250000,115968.7812500000,150332.1562500000,130964.0234375000,142683.4843750000,,,
2.3239999961,18,150428.7343750000,201262.4218750000,176074.0625000000,151591.8437500000,116600.6328125000,150943.2968750000,131568.6250000000,143172.9062500000,,,
2.3279999963,18,150443.1875000000,198039.2968750000,176209.7812500000,151622.5312500000,116612.8046875000,150958.7968750000,131587.9531250000,143218.9531250000,,,
2.3319999962,18,149806.3906250000,199282.3437500000,175355.3593750000,150914.9062500000,115986.8359375000,150351.7343750000,130995.7812500000,142749.4062500000,,,
2.3359999962,18,149410.6718750000,203299.6718750000,174764.3906250000,150470.6875000000,115599.2265625000,149972.3281250000,130623.5703125000,142424.8906250000,,,
2.3399999961,18,149781.5781250000,204576.9843750000,175228.2343750000,150876.0468750000,115968.9687500000,150326.1093750000,130971.3203125000,142671.4375000000,,,
2.3439999961,18,150420.3906250000,201266.3906250000,176088.6875000000,151583.8906250000,116599.4218750000,150937.0625000000,131571.7656250000,143158.7187500000,,,
2.3479999963,18,150447.7031250000,197978.9375000000,176226.8125000000,151630.0781250000,116617.1250000000,150966.5781250000,131596.6562500000,143218.6093750000,,,
2.3519999962,18,149802.0156250000,199195.1875000000,175357.0312500000,150915.0156250000,115977.9296875000,150355.6406250000,130990.6328125000,142744.6406250000,,,
2.3559999962,18,149399.2187500000,203246.9062500000,174759.8281250000,150455.8750000000,115581.8750000000,149968.4687500000,130607.9609375000,142418.7187500000,,,
2.3599999961,18,149785.5156250000,204589.5781250000,175233.2656250000,150866.3906250000,115964.7578125000,150330.7500000000,130962.7109375000,142684.9218750000,,,
2.3639999961,18,150421.8750000000,201281.6250000000,176098.6093750000,151577.3593750000,116597.5468750000,150934.5781250000,131566.2812500000,143166.7343750000,,,
2.3679999961,18,150439.1093750000,197939.0625000000,176246.1250000000,151635.9375000000,116611.8437500000,150952.3593750000,131589.0000000000,143211.7656250000,,,
2.3719999962,18,149803.0781250000,199122.6875000000,175399.3593750000,150929.1093750000,115987.2109375000,150351.5625000000,130998.1406250000,142744.5000000000,,,
2.3759999962,18,149386.7500000000,203208.7656250000,174766.1406250000,150452.1718750000,115577.9843750000,149956.1093750000,130602.3515625000,142404.0000000000,,,
2.3799999962,18,149760.9218750000,204592.8437500000,175193.6875000000,150856.6093750000,115946.7890625000,150306.2656250000,130946.1875000000,142652.6093750000,,,
2.3839999961,18,150416.5312500000,201294.7500000000,176039.4062500000,151582.6718750000,116593.0390625000,150935.0625000000,131564.4687500000,143153.1406250000,,,
2.3879999961,18,150451.1250000000,197902.4218750000,176195.6562500000,151636.1093750000,116618.4687500000,150972.8750000000,131602.0625000000,143213.9375000000,,,
2.3919999963,18,149815.3750000000,199054.5625000000,175345.6250000000,150927.2812500000,115987.4765625000,150369.0625000000,131004.4453125000,142747.8593750000,,,
2.3959999962,18,149400.3281250000,203161.3750000000,174717.1562500000,150454.4375000000,115577.9296875000,149968.4218750000,130607.2109375000,142412.6093750000,,,
2.3999999962,18,149769.4687500000,204605.3437500000,175164.0781250000,150851.5000000000,115944.3984375000,150314.2343750000,130948.3828125000,142663.0625000000,,,
2.4039999961,18,150425.2187500000,201310.5156250000,176044.5312500000,151574.0468750000,116596.4765625000,150942.4531250000,131567.4062500000,143163.2187500000,,,
2.4079999961,18,150470.2812500000,197872.2500000000,176238.9375000000,151643.6093750000,116641.5078125000,150987.1718750000,131617.6718750000,143231.6718750000,,,
2.4119999961,18,149828.5156250000,198987.0468750000,175391.8750000000,150940.8281250000,116009.6093750000,150378.3593750000,131018.6328125000,142763.3281250000,,,
2.4159999962,18,149397.2187500000,203107.4375000000,174741.0000000000,150463.9218750000,115585.3593750000,149966.6406250000,130613.1640625000,142416.5468750000,,,
2.4199999962,18,149749.5156250000,204583.3281250000,175152.3437500000,150845.0937500000,115933.2421875000,150296.1250000000,130938.5156250000,142645.6875000000,,,
2.4239999962,18,150401.6406250000,201294.9531250000,176000.8906250000,151565.8593750000,116576.4921875000,150921.3750000000,131551.0000000000,143137.6875000000,,,
2.4279999961,18,150450.4687500000,197803.6093750000,176184.3593750000,151640.2656250000,116621.3906250000,150973.2187500000,131601.0781250000,143208.8437500000,,,
2.4319999961,19,149806.0000000000,198872.9531250000,175345.4218750000,150930.0937500000,115984.2031250000,150361.6875000000,130996.6093750000,142736.5312500000,,,
2.4359999960,19,149369.1250000000,203025.3906250000,174708.1718750000,150440.0000000000,115549.2578125000,149939.3593750000,130577.2187500000,142384.9531250000,,,
2.4399999960,19,149728.1718750000,204572.8593750000,175143.7343750000,150822.6250000000,115900.0937500000,150275.3750000000,130903.6718750000,142627.4218750000,,,
2.4439999959,19,150403.4687500000,201292.7031250000,176010.3906250000,151551.8281250000,116568.8437500000,150926.1250000000,131541.6406250000,143144.5781250000,,,
2.4479999959,19,150473.7656250000,197760.3750000000,176200.5312500000,151641.6093750000,116636.1171875000,150998.9531250000,131610.7343750000,143237.9531250000,,,
2.4519999959,19,149832.6093750000,198805.1718750000,175364.6718750000,150943.1250000000,116003.1171875000,150385.1250000000,131004.3671875000,142768.7968750000,,,
2.4559999960,19,149383.1250000000,203010.2343750000,174706.1875000000,150444.0000000000,115562.9921875000,149946.7656250000,130580.2500000000,142401.7343750000,,,
2.4599999960,19,149732.2968750000,204628.6718750000,175107.3906250000,150818.1093750000,115910.4453125000,150279.3593750000,130902.7890625000,142633.6718750000,,,
2.4639999960,19,150397.8125000000,201357.3437500000,175970.3750000000,151550.7031250000,116568.9296875000,150914.6250000000,131530.4218750000,143135.8281250000,,,
2.4679999959,19,150464.4843750000,197755.7812500000,176181.7500000000,151644.9843750000,116631.7421875000,150979.6875000000,131599.2187500000,143219.5156250000,,,
2.4719999959,19,149826.9062500000,198765.5000000000,175360.2968750000,150943.7187500000,116005.7968750000,150373.8593750000,131006.5937500000,142751.9062500000,,,
2.4759999961,19,149374.3906250000,203017.7187500000,174708.2031250000,150437.0312500000,115562.4531250000,149938.1875000000,130578.1093750000,142389.0312500000,,,
2.4799999960,19,149727.3125000000,204705.5781250000,175122.2812500000,150811.3593750000,115911.3828125000,150270.3281250000,130905.3359375000,142625.7343750000,,,
2.4839999960,19,150397.8906250000,201411.8281250000,175973.1406250000,151550.6250000000,116576.0312500000,150911.7187500000,131537.6093750000,143128.6250000000,,,
2.4879999959,19,150464.7812500000,197723.0312500000,176160.0000000000,151648.4687500000,116635.7421875000,150978.3437500000,131599.5781250000,143211.2812500000,,,
2.4919999959,19,149824.2968750000,198703.5937500000,175325.4843750000,150944.9062500000,115999.7890625000,150373.0000000000,131004.5234375000,142750.7812500000,,,
2.4959999959,19,149363.9531250000,203026.9218750000,174659.4375000000,150437.6875000000,115541.0546875000,149933.5468750000,130567.7500000000,142385.9218750000,,,
2.4999999960,19,149708.0781250000,204792.5625000000,175063.2500000000,150795.6562500000,115879.7031250000,150260.2656250000,130881.7578125000,142615.0625000000,,,
2.5039999960,19,150402.5625000000,201479.6250000000,175946.2500000000,151541.6718750000,116569.6484375000,150923.6093750000,131535.7656250000,143138.8125000000,,,
2.5079999960,19,150527.1718750000,197696.4218750000,176216.9531250000,151672.0000000000,116697.5390625000,151038.4531250000,131664.7031250000,143268.5781250000,,,
2.5119999959,19,149872.0156250000,198648.0000000000,175408.1718750000,150972.4531250000,116049.0859375000,150408.9218750000,131048.2187500000,142787.5000000000,,,
2.5159999959,19,149363.3593750000,203046.1718750000,174705.3906250000,150448.4531250000,115545.5312500000,149925.7968750000,130567.0546875000,142377.2031250000,,,
2.5199999961,19,149703.2500000000,204886.0937500000,175098.9218750000,150806.5000000000,115882.3906250000,150250.2656250000,130879.1015625000,142601.2187500000,,,
2.5239999960,19,150391.2187500000,201529.0625000000,175951.0312500000,151551.6406250000,116563.6953125000,150914.5312500000,131523.5625000000,143122.5781250000,,,
2.5279999960,19,150489.2968750000,197635.4062500000,176179.7500000000,151675.5312500000,116656.3671875000,151011.7656250000,131622.2656250000,143234.0312500000,,,
2.5319999959,19,149846.3437500000,198542.9375000000,175386.4218750000,150976.2500000000,116022.8046875000,150399.3593750000,131025.8515625000,142770.7343750000,,,
2.5359999959,19,149372.7500000000,203032.4687500000,174718.9375000000,150445.3437500000,115557.5703125000,149945.0468750000,130579.4453125000,142399.4843750000,,,
2.5399999958,19,149706.0468750000,204971.1093750000,175078.6718750000,150791.8281250000,115887.9687500000,150262.8437500000,130879.9609375000,142620.2031250000,,,
2.5439999960,19,150391.1875000000,201599.1250000000,175905.2500000000,151543.2500000000,116570.1328125000,150917.5468750000,131525.1093750000,143130.0937500000,,,
2.5479999960,19,150501.7968750000,197609.4375000000,176140.1875000000,151684.4687500000,116677.1796875000,151026.8437500000,131640.5000000000,143248.3593750000,,,
2.5519999960,19,149852.5937500000,198481.1406250000,175348.0156250000,150984.8125000000,116036.0781250000,150406.2812500000,131040.8437500000,142776.7656250000,,,
2.5559999959,19,149360.2500000000,203044.4843750000,174666.0625000000,150443.1875000000,115548.5078125000,149934.4062500000,130577.1171875000,142384.5781250000,,,
2.5599999959,20,149704.1875000000,205067.5468750000,175035.9218750000,150787.0000000000,115887.2187500000,150260.2187500000,130884.4921875000,142612.5625000000,,,
2.5639999958,20,150407.3125000000,201678.5625000000,175893.2343750000,151536.8437500000,116589.1250000000,150936.9843750000,131520.4687500000,143140.2812500000,,,
2.5679999958,20,150522.4062500000,197589.4843750000,176153.5625000000,151688.1718750000,116701.1640625000,151048.0625000000,131632.4062500000,143264.3750000000,,,
2.5719999957,20,149874.5625000000,198411.2968750000,175365.1093750000,150991.4062500000,116052.0390625000,150434.1250000000,131053.8515625000,142803.4062500000,,,
2.5759999957,20,149366.0781250000,203035.4531250000,174668.5937500000,150441.5625000000,115546.0390625000,149947.4375000000,130581.5703125000,142406.1406250000,,,
2.5799999957,20,149684.4531250000,205135.7812500000,175020.5781250000,150776.7187500000,115863.7734375000,150245.7343750000,130868.8281250000,142610.5000000000,,,
2.5839999958,20,150399.8750000000,201733.4531250000,175881.4218750000,151541.0468750000,116581.1328125000,150932.9062500000,131526.4531250000,143143.2656250000,,,
2.5879999958,20,150527.7343750000,197569.7656250000,176156.7500000000,151699.0312500000,116706.3671875000,151058.7812500000,131670.0312500000,143274.5937500000,,,
2.5919999958,20,149869.6250000000,198372.4843750000,175380.3437500000,150996.5937500000,116054.8515625000,150428.6875000000,131055.5156250000,142797.5000000000,,,
2.5959999957,20,149357.1718750000,203058.0312500000,174687.5156250000,150439.4687500000,115553.6328125000,149930.8593750000,130566.8984375000,142392.8593750000,,,
2.5999999957,20,149680.8750000000,205229.3125000000,175043.1875000000,150783.7812500000,115870.2421875000,150239.4531250000,130883.9296875000,142599.3437500000,,,
2.6039999959,20,150396.2500000000,201818.2343750000,175899.4218750000,151555.7500000000,116574.2656250000,150932.4218750000,131554.3281250000,143130.0156250000,,,
2.6079999958,20,150519.6406250000,197572.2968750000,176181.1093750000,151704.7187500000,116691.5546875000,151057.5781250000,131669.3593750000,143257.1562500000,,,
2.6119999958,20,149868.5781250000,198333.6875000000,175422.7187500000,150995.8125000000,116047.9375000000,150436.6562500000,131060.1796875000,142793.3437500000,,,
2.6159999957,20,149344.9062500000,203079.2968750000,174723.5937500000,150425.7031250000,115531.3984375000,149926.5468750000,130563.1953125000,142381.6562500000,,,
2.6199999957,20,149665.8906250000,205334.1250000000,175061.6875000000,150763.4218750000,115849.2890625000,150230.5156250000,130855.2343750000,142589.8750000000,,,
2.6239999956,20,150396.2500000000,201913.6718750000,175902.8281250000,151545.0781250000,116573.3828125000,150932.6406250000,131540.0000000000,143134.4218750000,,,
2.6279999958,20,150537.2343750000,197594.5781250000,176175.3125000000,151717.1093750000,116713.2265625000,151068.8125000000,131676.4375000000,143276.8906250000,,,
2.6319999958,20,149878.8593750000,198328.6250000000,175413.7812500000,151021.7187500000,116059.9531250000,150442.9531250000,131058.2187500000,142807.5312500000,,,
2.6359999957,20,149337.9062500000,203146.9375000000,174705.9531250000,150438.6406250000,115525.2500000000,149924.5937500000,130552.0625000000,142384.5781250000,,,
2.6399999957,20,149648.5625000000,205477.9531250000,175029.3125000000,150758.4843750000,115834.1875000000,150214.2968750000,130847.2656250000,142581.4531250000,,,
2.6439999957,20,150401.2656250000,202038.7968750000,175886.0625000000,151543.3281250000,116582.5546875000,150934.3281250000,131558.3750000000,143142.0312500000,,,
2.6479999959,20,150570.4375000000,197608.2343750000,176176.6562500000,151735.7500000000,116746.9687500000,151099.0781250000,131719.8125000000,143306.9843750000,,,
2.6519999958,20,149905.0937500000,198285.8437500000,175421.2187500000,151037.4375000000,116086.2656250000,150461.7343750000,131094.0000000000,142832.2343750000,,,
2.6559999958,20,149353.9531250000,203167.0000000000,174717.0468750000,150436.1093750000,115539.3593750000,149927.7031250000,130566.4140625000,142402.7656250000,,,
2.6599999957,20,149668.5937500000,205575.2031250000,175037.8750000000,150757.9531250000,115852.6406250000,150220.5156250000,130850.3515625000,142601.5937500000,,,
2.6639999957,20,150426.8593750000,202089.7812500000,175900.4375000000,151552.8437500000,116609.0781250000,150950.7968750000,131565.9843750000,143165.5781250000,,,
2.6679999956,20,150582.3750000000,197523.5625000000,176197.4687500000,151739.6718750000,116763.5468750000,151103.6562500000,131718.7187500000,143315.7812500000,,,
2.6719999958,20,149911.7968750000,198137.4843750000,175449.3281250000,151030.0000000000,116097.3437500000,150462.0000000000,131087.2500000000,142837.9531250000,,,
2.6759999958,20,149345.6093750000,203082.7031250000,174741.6718750000,150425.2500000000,115533.3828125000,149912.2187500000,130547.5546875000,142394.3593750000,,,
2.6799999957,20,149653.4375000000,205580.2187500000,175063.5468750000,150743.3906250000,115841.5625000000,150201.2031250000,130836.9921875000,142586.8125000000,,,
2.6839999957,20,150417.7968750000,202077.0156250000,175918.4687500000,151550.5468750000,116605.2421875000,150933.3906250000,131558.3750000000,143151.2031250000,,,
2.6879999957,21,150593.5781250000,197415.8437500000,176221.3906250000,151755.0156250000,116773.0937500000,151111.4687500000,131724.0468750000,143322.2187500000,,,
2.6919999956,21,149916.3750000000,198000.6718750000,175464.3906250000,151044.4062500000,116096.5625000000,150474.3281250000,131095.7968750000,142844.8906250000,,,
2.6959999956,21,149336.8906250000,203044.4531250000,174732.0468750000,150422.1875000000,115520.5859375000,149916.1875000000,130543.2343750000,142392.7031250000,,,
2.6999999955,21,149649.4218750000,205640.6562500000,175040.9531250000,150734.1250000000,115832.7421875000,150210.5156250000,130829.6406250000,142589.4218750000,,,
2.7039999955,21,150430.9375000000,202118.4218750000,175883.0312500000,151554.7031250000,116610.4218750000,150962.5000000000,131566.2031250000,143167.6406250000,,,
2.7079999954,21,150618.0156250000,197367.8593750000,176188.9375000000,151770.2968750000,116794.9296875000,151140.7812500000,131750.1718750000,143344.1875000000,,,
2.7119999956,21,149944.5156250000,197939.3593750000,175460.1562500000,151067.8281250000,116127.4062500000,150492.7031250000,131120.9375000000,142868.6562500000,,,
2.7159999956,21,149334.1250000000,203111.7500000000,174717.9375000000,150427.9843750000,115523.6953125000,149906.0000000000,130543.9062500000,142391.3906250000,,,
2.7199999955,21,149618.9843750000,205867.7031250000,175000.6406250000,150721.0468750000,115811.1250000000,150174.8437500000,130810.2265625000,142561.7343750000,,,
2.7239999955,21,150406.3125000000,202353.0625000000,175865.6562500000,151539.1718750000,116597.6015625000,150935.7812500000,131555.0156250000,143142.3750000000,,,
2.7279999955,21,150611.0937500000,197474.0937500000,176213.8906250000,151775.2031250000,116796.2968750000,151135.4218750000,131752.7812500000,143335.2031250000,,,
2.7319999957,21,149930.2500000000,197975.0625000000,175493.2812500000,151067.5000000000,116114.6718750000,150480.9531250000,131112.9375000000,142853.3125000000,,,
2.7359999956,21,149320.7656250000,203202.3906250000,174747.6562500000,150418.1406250000,115509.9375000000,149892.0781250000,130535.2187500000,142379.2968750000,,,
2.7399999956,21,149621.5312500000,206014.4687500000,175021.8281250000,150715.6562500000,115809.1093750000,150178.9375000000,130811.3281250000,142567.0781250000,,,
2.7439999955,21,150434.3125000000,202475.6875000000,175886.2343750000,151554.2968750000,116618.8125000000,150958.1562500000,131572.5937500000,143168.5625000000,,,
2.7479999955,21,150633.2500000000,197504.7031250000,176216.1718750000,151788.4218750000,116814.5390625000,151149.6875000000,131766.6718750000,143350.9531250000,,,
2.7519999954,21,149933.7031250000,197936.0312500000,175471.0156250000,151070.8281250000,116117.4843750000,150480.6093750000,131111.7656250000,142851.2812500000,,,
2.7559999956,21,149310.9531250000,203198.7656250000,174718.4218750000,150406.7187500000,115498.1328125000,149879.9531250000,130517.8671875000,142366.1562500000,,,
2.7599999956,21,149602.5312500000,206096.3593750000,175002.9843750000,150700.2343750000,115789.2656250000,150153.2656250000,130791.4218750000,142545.1093750000,,,
2.7639999955,21,150415.3750000000,202559.6250000000,175869.5781250000,151546.2500000000,116602.9921875000,150940.8750000000,131563.1406250000,143148.6562500000,,,
2.7679999955,21,150638.1875000000,197508.7500000000,176218.1562500000,151796.2656250000,116823.1718750000,151162.1562500000,131777.5937500000,143357.7031250000,,,
2.7719999955,21,149953.1562500000,197883.1406250000,175508.5468750000,151090.1406250000,116141.3593750000,150506.8125000000,131132.8906250000,142874.0781250000,,,
2.7759999956,21,149316.1562500000,203163.9218750000,174750.8437500000,150418.6250000000,115506.8515625000,149889.5781250000,130528.8046875000,142375.2968750000,,,
2.7799999956,21,149596.0468750000,206109.5000000000,175004.7812500000,150695.7500000000,115784.6484375000,150146.5468750000,130781.9531250000,142539.7968750000,,,
2.7839999956,21,150418.5468750000,202581.3281250000,175863.0625000000,151546.0625000000,116604.4375000000,150936.9843750000,131554.9375000000,143144.9062500000,,,
2.7879999955,21,150644.5000000000,197467.4531250000,176217.0781250000,151809.9375000000,116823.0937500000,151161.5625000000,131771.0781250000,143354.1718750000,,,
2.7919999955,21,149953.7187500000,197786.3281250000,175508.3593750000,151098.4062500000,116133.7656250000,150497.4062500000,131124.6875000000,142866.4843750000,,,
2.7959999954,21,149308.4843750000,203085.9843750000,174757.8437500000,150417.3437500000,115495.9062500000,149873.0937500000,130512.7656250000,142366.3125000000,,,
2.7999999956,21,149594.8125000000,206097.7812500000,175029.6875000000,150701.8906250000,115786.2578125000,150143.9375000000,130781.1250000000,142542.4218750000,,,
2.8039999956,21,150407.4687500000,202604.7031250000,175883.6250000000,151537.8906250000,116597.7343750000,150932.5937500000,131552.0781250000,143143.3125000000,,,
2.8079999955,21,150655.3593750000,197461.2500000000,176262.0312500000,151816.0781250000,116836.8828125000,151173.9375000000,131795.0000000000,143368.9531250000,,,
2.8119999955,21,149976.2187500000,197737.1718750000,175571.2500000000,151115.3593750000,116160.4296875000,150520.8750000000,131160.0156250000,142890.4375000000,,,
2.8159999955,22,149314.8437500000,203043.8906250000,174785.4843750000,150420.9531250000,115506.6953125000,149882.5781250000,130536.0000000000,142378.1406250000,,,
2.8199999954,22,149578.3750000000,206120.5468750000,175018.3437500000,150679.2343750000,115768.4218750000,150135.9531250000,130775.3593750000,142537.0000000000,,,
2.8239999954,22,150402.7968750000,202661.8906250000,175869.2812500000,151527.1562500000,116588.7500000000,150931.8593750000,131547.0781250000,143144.1718750000,,,
2.8279999953,22,150661.4687500000,197474.5312500000,176258.8750000000,151813.1250000000,116840.6875000000,151183.7812500000,131793.1406250000,143376.0000000000,,,
2.8319999953,22,149976.7343750000,197689.7187500000,175572.2187500000,151101.8906250000,116159.3281250000,150526.1562500000,131152.1875000000,142888.6718750000,,,
2.8359999952,22,149310.6250000000,202994.8593750000,174792.5781250000,150402.5625000000,115500.4687500000,149881.3437500000,130522.0468750000,142370.0625000000,,,
2.8399999954,22,149565.7031250000,206123.7968750000,175021.0625000000,150655.3593750000,115758.1250000000,150121.0312500000,130757.9218750000,142516.4531250000,,,
2.8439999954,22,150399.2343750000,202693.8593750000,175876.8750000000,151510.5000000000,116592.6640625000,150923.9531250000,131548.2656250000,143129.1562500000,,,
2.8479999953,22,150648.9531250000,197470.3750000000,176245.6250000000,151795.1562500000,116834.1171875000,151168.2812500000,131783.8125000000,143352.0156250000,,,
2.8519999953,22,149967.3125000000,197629.1250000000,175548.5625000000,151097.1406250000,116152.7031250000,150513.1250000000,131144.9687500000,142869.4375000000,,,
2.8559999953,22,149314.0156250000,202931.9062500000,174776.9531250000,150408.4062500000,115502.5625000000,149879.2031250000,130523.4687500000,142365.5312500000,,,
2.8599999954,22,149574.6875000000,206121.3281250000,175012.0468750000,150664.7187500000,115762.1484375000,150123.2812500000,130757.1406250000,142524.6875000000,,,
2.8639999954,22,150396.2500000000,202746.1093750000,175861.5781250000,151508.6406250000,116581.5859375000,150917.2812500000,131522.9687500000,143132.0312500000,,,
2.8679999954,22,150656.1562500000,197501.6250000000,176242.9843750000,151804.1406250000,116833.9296875000,151171.5000000000,131769.4375000000,143363.6406250000,,,
2.8719999953,22,149982.7968750000,197596.2500000000,175554.6875000000,151113.7968750000,116160.6171875000,150529.1875000000,131139.9687500000,142891.5468750000,,,
2.8759999953,22,149303.4687500000,202888.1875000000,174747.3593750000,150400.9687500000,115486.7343750000,149874.8125000000,130499.0625000000,142363.9531250000,,,
2.8799999952,22,149555.8593750000,206119.3125000000,174969.0468750000,150650.2656250000,115739.6406250000,150113.1406250000,130730.8281250000,142512.8593750000,,,
2.8839999954,22,150393.8125000000,202792.7031250000,175843.2343750000,151518.9687500000,116576.9765625000,150924.7343750000,131524.5781250000,143132.5625000000,,,
2.8879999954,22,150680.2500000000,197542.0625000000,176257.0781250000,151837.4531250000,116858.2031250000,151204.6406250000,131800.0468750000,143388.4218750000,,,
2.8919999953,22,149995.2968750000,197584.5468750000,175571.0156250000,151138.3750000000,116175.1250000000,150546.7500000000,131156.3906250000,142902.3281250000,,,
2.8959999953,22,149304.0625000000,202852.3281250000,174761.5312500000,150411.2500000000,115488.0000000000,149877.6718750000,130506.8671875000,142364.6250000000,,,
2.8999999953,22,149544.7812500000,206135.9687500000,174957.7343750000,150642.7812500000,115730.6562500000,150104.6406250000,130727.5078125000,142505.7812500000,,,
2.9039999954,22,150380.2343750000,202865.3125000000,175819.0625000000,151496.5000000000,116567.4218750000,150906.8906250000,131516.1875000000,143120.3125000000,,,
2.9079999954,22,150674.4062500000,197598.7187500000,176244.0625000000,151821.7187500000,116857.3750000000,151188.3125000000,131798.8281250000,143378.4687500000,,,
2.9119999954,22,150006.6562500000,197586.8906250000,175582.7343750000,151132.1406250000,116190.7109375000,150549.9375000000,131173.0000000000,142909.4062500000,,,
2.9159999953,22,149323.7187500000,202834.1250000000,174782.0468750000,150413.9843750000,115513.3984375000,149893.6093750000,130525.6953125000,142383.1562500000,,,
2.9199999953,22,149556.9375000000,206161.6718750000,174985.4375000000,150635.7812500000,115744.3359375000,150120.5312500000,130736.1406250000,142520.7187500000,,,
2.9239999952,22,150378.7968750000,202938.4375000000,175841.3281250000,151483.8125000000,116563.8828125000,150920.5468750000,131514.1718750000,143127.5000000000,,,
2.9279999954,22,150671.7500000000,197654.3125000000,176257.8281250000,151816.2968750000,116851.0703125000,151202.6093750000,131797.8906250000,143381.4687500000,,,
2.9319999954,22,150009.1562500000,197572.6406250000,175574.0468750000,151146.5781250000,116189.5859375000,150564.5156250000,131178.3906250000,142910.5312500000,,,
2.9359999953,22,149310.5156250000,202779.5312500000,174730.0156250000,150418.3593750000,115501.7031250000,149885.6093750000,130519.0156250000,142364.4531250000,,,
2.9399999953,22,149537.5781250000,206145.8437500000,174921.5937500000,150637.2500000000,115731.9453125000,150098.9531250000,130725.7343750000,142494.5937500000,,,
2.9439999952,23,150364.2500000000,202967.1875000000,175785.2500000000,151489.6093750000,116559.1875000000,150901.4687500000,131507.3593750000,143104.6875000000,,,
