Time:250Hz,Epoch,Channel 1,Channel 2,Channel 3,Channel 4,Channel 5,Channel 6,Channel 7,Channel 8,Event Id,Event Date,Event Duration
0.0000000000,0,144563.1718750000,123302.6406250000,157802.2031250000,131597.7968750000,117508.2890625000,123828.5390625000,114968.0234375000,133057.4531250000,,,
0.0040000000,0,144561.9062500000,123308.8671875000,157801.3750000000,131587.5625000000,117505.4765625000,123841.0390625000,114968.5625000000,133063.2343750000,,,
0.0079999999,0,144568.2656250000,123316.4531250000,157804.8906250000,131582.4843750000,117513.6250000000,123848.5546875000,114975.6171875000,133070.9531250000,,,
0.0119999999,0,144566.8281250000,123314.5000000000,157802.2968750000,131588.4218750000,117514.7265625000,123842.4921875000,114973.7343750000,133069.7187500000,,,
0.0159999998,0,144556.9531250000,123307.2812500000,157792.3125000000,131585.0625000000,117505.9296875000,123833.7734375000,114962.9531250000,133062.8281250000,,,
0.0199999998,0,144551.6718750000,123302.8046875000,157789.1718750000,131592.5781250000,117501.2343750000,123831.0390625000,114958.3671875000,133058.1875000000,,,
0.0240000000,0,144556.7968750000,123308.7812500000,157795.5625000000,131599.9218750000,117505.0468750000,123841.7890625000,114966.0937500000,133064.2500000000,,,
0.0279999999,0,144567.6718750000,123323.0546875000,157809.6875000000,131604.1562500000,117515.1328125000,123853.1093750000,114977.2500000000,133079.5625000000,,,
0.0319999999,0,144562.0156250000,123319.0859375000,157806.6875000000,131597.9687500000,117511.9687500000,123846.5937500000,114971.8359375000,133074.9531250000,,,
0.0359999998,0,144548.6875000000,123303.1250000000,157793.2500000000,131581.6250000000,117499.4687500000,123828.2968750000,114959.3046875000,133058.3750000000,,,
0.0399999998,0,144545.6875000000,123296.4453125000,157788.3906250000,131578.4062500000,117494.4531250000,123821.1093750000,114955.7109375000,133051.6406250000,,,
0.0440000000,0,144553.0625000000,123301.6484375000,157794.0781250000,131578.6250000000,117499.0625000000,123829.9921875000,114959.8437500000,133056.6250000000,,,
0.0480000000,0,144570.1406250000,123314.7343750000,157810.5781250000,131597.1562500000,117515.7187500000,123843.5312500000,114970.7890625000,133069.8593750000,,,
0.0519999999,0,144569.9843750000,123316.0546875000,157811.9687500000,131604.3437500000,117512.6093750000,123838.6562500000,114970.3046875000,133072.1250000000,,,
0.0559999999,0,144562.3906250000,123308.7578125000,157805.6718750000,131598.9218750000,117508.1015625000,123823.4687500000,114966.3593750000,133065.2968750000,,,
0.0599999998,0,144561.5937500000,123310.1250000000,157804.7812500000,131597.6718750000,117509.2265625000,123822.9375000000,114965.1562500000,133066.3125000000,,,
0.0639999998,0,144563.2500000000,123315.2734375000,157807.0625000000,131604.8593750000,117510.7812500000,123829.5625000000,114963.4375000000,133071.4062500000,,,
0.0680000000,0,144573.9218750000,123327.1796875000,157817.6406250000,131615.1250000000,117522.7187500000,123842.5156250000,114974.2187500000,133083.5312500000,,,
0.0719999999,0,144577.0156250000,123328.4140625000,157820.2031250000,131610.4843750000,117527.4140625000,123842.3281250000,114978.7812500000,133084.7343750000,,,
0.0759999999,0,144556.1406250000,123305.0781250000,157799.2812500000,131586.0312500000,117504.1562500000,123822.6171875000,114958.7421875000,133060.4062500000,,,
0.0799999998,0,144551.7812500000,123302.2109375000,157796.9531250000,131578.0312500000,117499.0625000000,123821.6250000000,114953.2734375000,133057.5468750000,,,
0.0839999998,0,144557.4843750000,123303.9531250000,157800.2187500000,131576.3437500000,117503.4609375000,123826.4531250000,114958.7968750000,133058.8593750000,,,
0.0880000000,0,144569.7187500000,123311.7890625000,157809.6093750000,131576.6093750000,117514.5937500000,123830.9296875000,114969.4453125000,133066.5468750000,,,
0.0919999999,0,144567.4687500000,123310.8750000000,157809.4218750000,131576.1093750000,117511.8046875000,123822.8828125000,114965.9062500000,133066.0468750000,,,
0.0959999999,0,144561.3281250000,123302.6171875000,157804.8125000000,131576.2031250000,117506.2812500000,123812.2031250000,114960.0078125000,133058.1250000000,,,
0.0999999999,0,144552.4218750000,123292.6875000000,157797.6562500000,131571.0312500000,117495.9765625000,123807.3515625000,114952.3046875000,133047.8593750000,,,
0.1039999998,0,144566.7656250000,123309.2656250000,157814.3593750000,131587.0937500000,117509.7890625000,123827.7656250000,114966.6328125000,133064.2500000000,,,
0.1079999998,0,144579.6093750000,123324.1796875000,157826.2187500000,131603.6562500000,117522.3437500000,123846.2187500000,114979.3671875000,133079.0468750000,,,
0.1120000000,0,144581.7343750000,123325.0390625000,157826.1093750000,131595.7343750000,117525.3515625000,123843.8046875000,114983.9296875000,133079.8281250000,,,
0.1159999999,0,144571.9218750000,123312.1640625000,157814.8906250000,131583.0000000000,117516.9531250000,123827.6015625000,114974.1640625000,133067.4687500000,,,
0.1199999999,0,144563.0156250000,123303.7109375000,157806.1250000000,131581.2500000000,117508.2343750000,123819.8515625000,114964.3515625000,133059.1718750000,,,
0.1239999998,0,144563.8750000000,123307.7890625000,157808.3593750000,131588.1718750000,117508.9609375000,123826.5546875000,114963.9453125000,133063.4375000000,,,
0.1279999998,1,144570.9843750000,123317.0156250000,157814.5156250000,131589.4062500000,117513.7890625000,123837.5546875000,114971.1093750000,133073.1250000000,,,
0.1319999998,1,144578.4062500000,123324.1250000000,157820.9843750000,131589.2968750000,117522.6406250000,123840.8828125000,114979.5546875000,133079.7187500000,,,
0.1359999997,1,144564.1406250000,123310.4218750000,157807.9531250000,131587.4218750000,117509.1250000000,123825.9140625000,114967.0859375000,133066.6406250000,,,
0.1399999997,1,144557.8906250000,123305.1328125000,157803.3125000000,131585.5156250000,117503.2734375000,123818.5937500000,114957.9921875000,133061.2656250000,,,
0.1439999996,1,144557.4843750000,123301.8125000000,157801.0781250000,131579.3750000000,117500.7031250000,123819.6640625000,114953.8906250000,133057.9687500000,,,
0.1479999996,1,144571.2968750000,123313.2656250000,157813.0781250000,131592.5781250000,117513.9765625000,123830.6640625000,114964.3750000000,133069.3906250000,,,
0.1519999998,1,144578.6250000000,123316.6953125000,157818.8437500000,131603.9687500000,117523.6562500000,123829.8593750000,114972.3437500000,133072.4062500000,,,
0.1559999997,1,144568.0312500000,123303.7968750000,157807.5468750000,131593.5156250000,117515.1875000000,123815.6406250000,114966.9531250000,133059.5781250000,,,
0.1599999997,1,144570.1718750000,123308.3828125000,157810.0468750000,131591.5000000000,117517.9218750000,123820.4375000000,114971.4062500000,133063.6875000000,,,
0.1639999996,1,144579.2343750000,123318.4140625000,157816.4531250000,131593.1875000000,117522.9921875000,123837.3125000000,114978.6953125000,133073.2812500000,,,
0.1679999996,1,144576.2031250000,123314.7656250000,157812.2968750000,131595.2812500000,117516.9843750000,123838.3593750000,114977.0625000000,133069.9531250000,,,
0.1719999998,1,144571.7031250000,123309.0781250000,157807.0156250000,131589.3593750000,117512.9296875000,123828.4062500000,114973.9218750000,133064.4687500000,,,
0.1759999997,1,144553.7031250000,123288.8828125000,157787.8906250000,131570.1250000000,117496.0312500000,123808.4765625000,114957.7812500000,133044.2656250000,,,
0.1799999997,1,144545.4218750000,123280.7031250000,157779.8750000000,131568.8593750000,117488.8437500000,123802.3593750000,114949.0312500000,133036.0625000000,,,
0.1839999997,1,144555.3437500000,123290.1171875000,157789.6250000000,131580.3437500000,117498.4765625000,123819.9609375000,114957.2656250000,133046.2812500000,,,
0.1879999996,1,144565.0468750000,123302.3984375000,157799.6406250000,131585.1406250000,117509.3671875000,123832.5390625000,114964.9921875000,133059.0625000000,,,
0.1919999996,1,144559.8437500000,123300.9765625000,157795.1562500000,131580.2656250000,117505.4453125000,123825.2968750000,114959.0625000000,133057.5156250000,,,
0.1959999998,1,144550.7343750000,123296.5234375000,157788.8750000000,131566.3437500000,117498.3125000000,123811.5390625000,114951.9609375000,133052.8281250000,,,
0.1999999997,1,144555.3125000000,123306.5000000000,157797.2812500000,131565.2343750000,117504.3203125000,123815.0000000000,114957.1093750000,133063.4375000000,,,
0.2039999997,1,144571.3281250000,123320.6406250000,157813.0000000000,131575.4531250000,117520.6250000000,123834.3359375000,114973.7343750000,133077.3906250000,,,
0.2079999996,1,144580.5000000000,123329.8125000000,157822.6562500000,131596.4375000000,117529.4765625000,123845.1953125000,114982.9375000000,133086.1093750000,,,
0.2119999996,1,144581.7031250000,123331.2031250000,157825.7031250000,131613.4687500000,117530.0937500000,123840.1796875000,114982.6171875000,133087.8281250000,,,
0.2159999998,1,144565.7812500000,123312.0000000000,157807.9531250000,131603.0937500000,117511.5859375000,123820.5234375000,114968.2890625000,133068.1406250000,,,
0.2199999997,1,144563.2812500000,123309.9062500000,157804.5937500000,131586.4531250000,117507.0000000000,123822.0781250000,114966.2500000000,133065.9843750000,,,
0.2239999997,1,144571.5937500000,123321.1250000000,157813.0156250000,131590.3750000000,117513.9218750000,123838.2265625000,114976.2812500000,133076.6875000000,,,
0.2279999997,1,144578.7500000000,123332.5468750000,157823.6093750000,131598.8750000000,117522.6953125000,123848.5000000000,114978.1093750000,133087.5781250000,,,
0.2319999996,1,144581.3906250000,123334.6640625000,157829.0625000000,131601.6718750000,117528.9687500000,123844.2031250000,114976.8515625000,133090.5937500000,,,
0.2359999996,1,144568.6406250000,123318.2812500000,157815.7343750000,131589.2656250000,117518.6406250000,123830.7109375000,114966.5781250000,133074.7812500000,,,
0.2399999998,1,144561.7812500000,123309.2890625000,157806.1250000000,131592.1718750000,117512.4765625000,123823.6328125000,114961.0781250000,133065.5937500000,,,
0.2439999997,1,144562.7500000000,123305.7265625000,157804.3281250000,131586.9062500000,117511.9687500000,123824.8125000000,114965.2890625000,133061.4531250000,,,
0.2479999997,1,144576.2656250000,123315.5703125000,157816.6718750000,131597.4062500000,117524.1953125000,123832.0000000000,114978.1093750000,133071.5156250000,,,
0.2519999996,1,144582.9375000000,123318.6796875000,157819.9687500000,131595.2031250000,117529.4296875000,123832.3515625000,114982.8593750000,133074.7812500000,,,
0.2559999996,2,144576.5625000000,123311.2500000000,157809.9843750000,131581.2187500000,117523.5000000000,123824.3046875000,114977.9765625000,133067.2500000000,,,
0.2599999995,2,144574.3281250000,123309.4765625000,157804.8437500000,131575.0312500000,117518.9687500000,123823.4687500000,114977.6015625000,133064.5625000000,,,
0.2639999995,2,144572.9687500000,123312.2734375000,157805.0468750000,131581.2812500000,117514.3828125000,123830.2578125000,114972.6640625000,133067.2031250000,,,
0.2679999995,2,144583.5312500000,123327.6093750000,157819.8906250000,131598.3437500000,117525.6484375000,123846.1406250000,114980.8437500000,133083.6718750000,,,
0.2719999994,2,144584.3125000000,123329.8906250000,157823.8281250000,131606.7343750000,117528.3281250000,123845.0625000000,114983.3671875000,133086.0468750000,,,
0.2759999994,2,144567.1406250000,123314.0390625000,157807.0625000000,131590.7500000000,117512.2578125000,123830.3359375000,114969.6562500000,133070.0625000000,,,
0.2799999996,2,144556.1406250000,123301.9140625000,157795.7968750000,131581.5000000000,117499.5234375000,123823.7421875000,114960.1953125000,133057.3750000000,,,
0.2839999995,2,144563.5781250000,123300.9218750000,157799.0156250000,131586.1875000000,117505.6328125000,123828.5937500000,114966.7343750000,133056.3281250000,,,
0.2879999995,2,144578.4843750000,123313.5859375000,157812.0000000000,131594.7187500000,117519.8203125000,123837.3671875000,114980.6328125000,133069.0781250000,,,
0.2919999994,2,144576.6718750000,123314.3359375000,157810.3906250000,131585.0156250000,117518.4296875000,123833.0781250000,114980.9765625000,133070.0156250000,,,
0.2959999994,2,144578.4375000000,123315.4062500000,157809.9687500000,131579.5937500000,117521.8359375000,123826.7187500000,114986.5546875000,133071.2812500000,,,
0.2999999996,2,144571.2500000000,123308.5937500000,157802.6718750000,131577.9062500000,117514.6484375000,123826.4531250000,114977.2500000000,133064.1718750000,,,
0.3039999995,2,144573.0156250000,123320.4531250000,157809.0468750000,131593.8593750000,117513.7343750000,123844.5000000000,114977.0078125000,133075.8906250000,,,
0.3079999995,2,144578.0625000000,123327.6640625000,157817.3906250000,131602.7656250000,117519.2890625000,123853.3750000000,114982.4843750000,133083.3125000000,,,
0.3119999995,2,144579.8281250000,123333.5937500000,157823.4218750000,131598.4687500000,117521.5156250000,123850.2968750000,114983.4765625000,133089.4375000000,,,
0.3159999994,2,144570.7031250000,123326.9687500000,157818.4843750000,131596.8125000000,117514.3281250000,123835.0312500000,114974.0078125000,133082.9375000000,,,
0.3199999994,2,144567.4375000000,123319.2421875000,157812.3750000000,131597.6718750000,117510.7812500000,123830.3671875000,114972.1250000000,133074.8906250000,,,
0.3239999996,2,144575.4843750000,123318.9453125000,157815.7031250000,131604.5937500000,117518.1640625000,123838.2500000000,114978.4843750000,133074.3906250000,,,
0.3279999995,2,144584.3437500000,123323.1093750000,157822.1406250000,131592.2500000000,117527.2812500000,123845.6796875000,114985.9921875000,133078.9687500000,,,
0.3319999995,2,144588.6562500000,123324.3906250000,157825.8437500000,131590.7812500000,117532.3750000000,123842.3281250000,114991.8984375000,133080.9062500000,,,
0.3359999994,2,144572.4218750000,123306.5546875000,157808.7031250000,131583.5312500000,117516.3906250000,123826.5000000000,114980.1484375000,133062.0781250000,,,
0.3399999994,2,144552.1250000000,123294.8906250000,157791.1093750000,131579.4062500000,117491.8984375000,123821.1406250000,114963.1406250000,133050.1406250000,,,
0.3439999996,2,144553.9687500000,123299.7734375000,157791.3437500000,131574.0625000000,117490.9609375000,123833.0781250000,114962.8984375000,133054.9062500000,,,
0.3479999995,2,144566.0625000000,123311.3046875000,157802.5312500000,131592.0312500000,117503.3046875000,123843.8046875000,114971.8593750000,133066.4531250000,,,
0.3519999995,2,144565.9375000000,123307.8984375000,157800.3125000000,131594.3125000000,117506.6250000000,123836.0234375000,114975.0781250000,133063.5468750000,,,
0.3559999994,2,144556.6093750000,123299.2578125000,157790.3750000000,131573.8281250000,117499.5234375000,123821.8906250000,114967.7578125000,133055.4531250000,,,
0.3599999994,2,144551.1250000000,123295.1562500000,157784.7500000000,131567.1718750000,117494.3125000000,123821.3281250000,114957.9140625000,133051.0000000000,,,
0.3639999994,2,144557.8125000000,123302.9921875000,157789.4375000000,131571.2500000000,117499.0078125000,123837.5781250000,114960.5703125000,133058.1875000000,,,
0.3679999996,2,144574.5468750000,123317.3671875000,157805.0781250000,131582.5468750000,117518.9140625000,123850.6406250000,114975.4531250000,133072.9062500000,,,
0.3719999995,2,144576.2656250000,123317.2343750000,157808.6406250000,131580.9062500000,117522.8828125000,123847.7968750000,114979.0468750000,133073.1250000000,,,
0.3759999995,2,144554.5312500000,123292.3671875000,157787.6718750000,131574.5781250000,117498.6640625000,123824.2265625000,114963.0625000000,133047.9062500000,,,
0.3799999994,2,144552.4218750000,123289.1796875000,157786.9687500000,131575.1875000000,117495.3359375000,123820.7109375000,114960.6718750000,133044.8593750000,,,
0.3839999994,3,144563.2500000000,123303.5234375000,157799.5000000000,131588.8125000000,117503.2500000000,123843.1875000000,114969.5234375000,133058.9375000000,,,
0.3879999993,3,144572.7187500000,123321.3125000000,157812.6406250000,131600.4375000000,117511.7812500000,123862.6328125000,114976.7968750000,133077.0156250000,,,
0.3919999993,3,144572.4218750000,123327.4218750000,157816.4843750000,131603.9218750000,117513.8125000000,123856.1406250000,114972.1250000000,133083.2656250000,,,
0.3959999993,3,144568.0312500000,123324.1250000000,157813.2812500000,131593.2500000000,117512.3671875000,123841.4687500000,114970.8671875000,133080.7968750000,33029,0.3992309039,0.0000000000
0.3999999992,3,144561.0468750000,123317.6328125000,157805.3281250000,131581.3125000000,117505.2578125000,123836.0234375000,114966.8203125000,133074.0937500000,,,
0.4039999992,3,144565.0468750000,123321.5000000000,157806.5625000000,131580.5625000000,117508.0234375000,123849.2187500000,114970.3828125000,133078.0625000000,,,
0.4079999994,3,144565.5000000000,123315.8125000000,157804.4062500000,131579.0781250000,117508.0234375000,123848.3593750000,114969.2578125000,133072.5156250000,,,
0.4119999993,3,144564.0625000000,123309.6718750000,157802.9843750000,131577.3593750000,117508.3437500000,123836.7500000000,114967.2968750000,133066.5781250000,,,
0.4159999993,3,144554.6718750000,123294.2187500000,157792.9375000000,131563.9843750000,117501.9375000000,123821.5703125000,114959.2031250000,133051.2187500000,,,
0.4199999992,3,144551.7187500000,123283.6796875000,157785.6406250000,131558.3750000000,117496.7578125000,123817.9765625000,114958.6640625000,133039.9687500000,,,
0.4239999992,3,144564.4531250000,123294.5703125000,157796.3593750000,131574.5468750000,117504.9921875000,123833.8281250000,114971.2968750000,133049.4218750000,,,
0.4279999994,3,144573.2812500000,123306.3437500000,157804.5781250000,131588.2343750000,117511.2656250000,123849.1640625000,114980.6015625000,133060.5937500000,,,
0.4319999993,3,144570.2500000000,123308.6250000000,157804.6250000000,131584.2500000000,117510.3828125000,123845.4140625000,114980.0937500000,133063.4375000000,,,
0.4359999993,3,144567.7656250000,123311.8671875000,157806.3437500000,131587.4687500000,117512.2343750000,123839.0312500000,114978.1875000000,133067.4062500000,,,
0.4399999992,3,144569.7500000000,123313.1250000000,157809.1093750000,131585.5937500000,117516.9296875000,123835.7812500000,114976.1250000000,133068.1875000000,,,
0.4439999992,3,144579.5625000000,123323.4531250000,157817.1718750000,131595.3281250000,117525.1093750000,123850.8281250000,114980.6562500000,133077.9062500000,,,
0.4479999992,3,144570.5156250000,123321.3125000000,157809.4218750000,131597.6093750000,117511.1875000000,123857.6718750000,114972.1796875000,133075.5312500000,,,
0.4519999993,3,144559.1250000000,123310.8984375000,157797.7656250000,131584.8437500000,117501.7734375000,123842.3828125000,114962.3359375000,133066.6562500000,,,
0.4559999993,3,144546.6562500000,123296.1796875000,157782.5781250000,131565.1093750000,117492.9765625000,123823.4687500000,114957.7265625000,133052.5781250000,,,
0.4599999993,3,144533.1875000000,123280.6171875000,157766.9687500000,131546.8906250000,117479.5625000000,123817.4375000000,114950.5625000000,133036.5937500000,,,
0.4639999992,3,144540.0000000000,123284.8281250000,157773.3437500000,131553.4687500000,117484.2343750000,123832.3750000000,114954.8828125000,133040.8281250000,,,
0.4679999992,3,144555.2656250000,123292.7734375000,157788.0000000000,131572.9843750000,117497.9609375000,123843.6718750000,114970.8125000000,133049.0937500000,,,
0.4719999994,3,144565.9375000000,123300.4921875000,157798.6406250000,131582.0625000000,117508.4765625000,123845.4687500000,114983.7109375000,133056.2343750000,,,
0.4759999993,3,144570.6875000000,123306.8750000000,157803.8125000000,131582.2500000000,117513.6015625000,123841.6875000000,114985.4843750000,133062.8750000000,,,
0.4799999993,3,144572.7812500000,123311.0390625000,157805.5937500000,131594.6093750000,117514.9453125000,123843.8828125000,114985.7265625000,133066.3437500000,,,
0.4839999992,3,144570.3593750000,123315.6796875000,157804.5156250000,131595.1250000000,117507.9140625000,123854.5859375000,114977.4140625000,133069.9531250000,,,
0.4879999992,3,144567.4375000000,123318.5703125000,157802.9375000000,131585.0156250000,117503.1640625000,123857.0234375000,114976.9296875000,133072.3750000000,,,
0.4919999992,3,144560.6718750000,123314.0390625000,157797.9531250000,131576.4843750000,117499.1718750000,123843.3203125000,114977.8906250000,133068.5156250000,,,
0.4959999993,3,144546.2187500000,123302.1875000000,157784.7500000000,131561.9687500000,117485.8437500000,123828.7031250000,114965.4218750000,133056.8750000000,,,
0.4999999993,3,144536.2500000000,123291.7500000000,157771.9218750000,131553.2031250000,117476.8515625000,123822.3750000000,114957.0781250000,133046.3281250000,,,
0.5039999993,3,144544.1562500000,123301.7812500000,157777.3750000000,131569.8593750000,117486.8828125000,123840.2343750000,114964.5937500000,133056.3593750000,,,
0.5079999992,3,144554.6250000000,123311.4687500000,157787.2968750000,131597.2656250000,117497.7265625000,123858.5546875000,114976.0468750000,133065.8593750000,,,
0.5119999992,4,144553.4687500000,123304.3046875000,157787.5156250000,131597.3437500000,117498.4453125000,123849.7578125000,114980.9218750000,133058.8593750000,,,
0.5159999991,4,144545.9062500000,123289.9296875000,157780.4375000000,131580.3750000000,117492.8984375000,123830.7109375000,114976.2031250000,133044.6406250000,,,
0.5199999991,4,144559.4687500000,123297.6250000000,157793.2187500000,131577.5781250000,117506.3046875000,123833.6093750000,114982.9609375000,133052.7187500000,,,
0.5239999990,4,144566.6406250000,123303.2812500000,157799.8281250000,131588.9218750000,117508.1328125000,123845.4921875000,114983.1484375000,133057.4062500000,,,
0.5279999990,4,144566.5000000000,123301.7265625000,157798.3437500000,131590.2343750000,117505.5546875000,123845.8671875000,114980.2578125000,133055.5625000000,,,
0.5319999990,4,144562.3125000000,123300.7109375000,157794.9687500000,131579.9062500000,117501.8515625000,123837.9062500000,114977.4921875000,133054.1562500000,,,
0.5359999991,4,144557.5468750000,123301.3281250000,157793.2500000000,131581.7968750000,117500.1640625000,123830.2031250000,114973.9218750000,133055.1250000000,,,
0.5399999991,4,144557.3281250000,123308.1953125000,157794.9375000000,131586.8125000000,117501.7187500000,123836.0000000000,114972.4531250000,133062.2031250000,,,
0.5439999991,4,144565.8281250000,123321.4687500000,157805.0468750000,131600.8281250000,117510.8359375000,123854.9375000000,114978.1093750000,133075.2968750000,,,
0.5479999990,4,144572.9062500000,123331.2890625000,157814.2031250000,131620.9218750000,117518.3750000000,123868.4531250000,114985.8593750000,133085.8593750000,,,
0.5519999990,4,144568.8281250000,123332.1171875000,157811.5781250000,131605.5312500000,117515.5625000000,123867.5937500000,114988.1953125000,133087.1562500000,,,
0.5559999992,4,144553.2968750000,123316.2656250000,157797.2812500000,131585.9687500000,117501.0234375000,123851.8515625000,114975.5859375000,133071.0625000000,,,
0.5599999991,4,144530.9375000000,123289.0703125000,157774.3906250000,131569.5000000000,117476.9921875000,123830.6640625000,114950.7500000000,133043.4375000000,,,
0.5639999991,4,144530.0000000000,123285.1015625000,157771.8750000000,131566.0937500000,117472.4296875000,123833.3125000000,114945.1718750000,133039.5156250000,,,
0.5679999990,4,144531.8437500000,123284.8828125000,157773.6250000000,131565.7031250000,117473.5000000000,123834.3906250000,114942.1640625000,133039.8906250000,,,
0.5719999990,4,144535.5781250000,123288.3437500000,157778.5312500000,131571.9687500000,117477.3125000000,123828.8359375000,114940.9609375000,133042.9843750000,,,
0.5759999990,4,144547.9687500000,123301.7265625000,157792.7968750000,131591.8437500000,117491.9843750000,123833.4765625000,114951.4453125000,133055.7968750000,,,
0.5799999991,4,144557.0781250000,123309.7734375000,157802.3750000000,131605.2812500000,117501.9062500000,123834.6015625000,114956.3593750000,133063.5781250000,,,
0.5839999991,4,144562.6093750000,123315.1953125000,157804.1406250000,131597.8281250000,117506.0078125000,123844.1484375000,114963.6796875000,133068.5156250000,,,
0.5879999991,4,144559.8281250000,123309.2421875000,157800.6875000000,131597.6093750000,117503.3281250000,123848.4140625000,114963.8906250000,133062.6875000000,,,
0.5919999990,4,144550.5625000000,123298.1640625000,157792.1250000000,131573.3437500000,117494.3984375000,123838.3828125000,114957.2109375000,133052.0937500000,,,
0.5959999990,4,144543.0625000000,123287.2421875000,157784.2968750000,131569.8593750000,117489.1953125000,123821.5390625000,114949.2734375000,133041.0937500000,,,
0.5999999992,4,144542.3125000000,123285.5312500000,157783.5625000000,131579.0781250000,117488.3906250000,123819.4453125000,114945.4921875000,133039.1718750000,,,
0.6039999991,4,144555.3750000000,123299.7734375000,157792.2656250000,131584.3906250000,117500.1406250000,123842.1171875000,114960.6484375000,133053.1718750000,,,
0.6079999991,4,144567.7656250000,123316.2656250000,157805.3281250000,131588.8125000000,117512.6640625000,123865.0703125000,114975.7734375000,133070.0468750000,,,
0.6119999990,4,144564.4062500000,123316.3437500000,157808.2500000000,131604.1562500000,117510.3828125000,123856.4921875000,114969.9296875000,133070.6250000000,,,
0.6159999990,4,144565.8281250000,123314.2578125000,157810.8125000000,131606.0625000000,117512.1796875000,123843.5312500000,114971.2421875000,133068.5312500000,,,
0.6199999989,4,144567.4687500000,123312.4062500000,157809.1250000000,131579.8906250000,117511.6953125000,123847.5546875000,114972.3125000000,133065.9062500000,,,
0.6239999991,4,144579.1250000000,123321.6562500000,157817.6562500000,131571.4687500000,117520.2265625000,123871.2421875000,114977.8125000000,133074.7343750000,,,
0.6279999991,4,144583.0781250000,123324.2578125000,157819.1093750000,131579.2343750000,117521.0546875000,123877.3828125000,114978.2968750000,133077.7968750000,,,
0.6319999991,4,144578.9687500000,123322.4609375000,157816.0781250000,131576.6875000000,117518.3515625000,123868.2343750000,114974.3281250000,133076.5000000000,,,
0.6359999990,4,144569.7968750000,123320.6093750000,157810.5468750000,131575.0781250000,117510.3046875000,123856.2187500000,114964.6718750000,133074.3593750000,,,
0.6399999990,5,144562.2031250000,123316.4296875000,157804.7343750000,131563.6250000000,117502.8437500000,123850.5859375000,114957.4531250000,133070.1406250000,,,
0.6439999989,5,144565.8593750000,123318.8984375000,157809.6093750000,131570.2500000000,117506.6250000000,123855.9296875000,114961.2890625000,133073.1562500000,,,
0.6479999989,5,144575.7500000000,123332.1718750000,157821.5781250000,131585.8125000000,117516.7968750000,123869.5000000000,114970.6250000000,133086.4531250000,,,
0.6519999988,5,144578.0000000000,123338.6640625000,157825.8125000000,131596.4843750000,117521.6250000000,123871.0781250000,114976.6328125000,133093.5625000000,,,
0.6559999988,5,144560.7031250000,123321.1250000000,157807.0625000000,131578.6718750000,117505.8750000000,123852.7109375000,114960.8906250000,133075.3437500000,,,
0.6599999988,5,144546.0625000000,123306.8750000000,157790.5468750000,131557.5156250000,117491.3359375000,123848.0156250000,114947.0468750000,133061.0000000000,,,
0.6639999989,5,144553.1718750000,123310.9531250000,157793.3125000000,131558.7812500000,117496.4375000000,123861.8281250000,114953.6171875000,133064.7812500000,,,
0.6679999989,5,144568.6406250000,123319.2187500000,157804.7343750000,131573.7656250000,117510.3281250000,123870.0859375000,114963.9218750000,133072.6093750000,,,
0.6719999989,5,144575.7812500000,123318.2500000000,157809.1562500000,131589.6718750000,117516.7968750000,123860.8046875000,114971.1328125000,133071.2812500000,,,
0.6759999988,5,144574.6562500000,123312.3203125000,157809.4218750000,131601.6406250000,117517.5703125000,123845.4687500000,114968.9375000000,133065.4531250000,,,
0.6799999988,5,144561.6718750000,123300.4921875000,157798.2343750000,131600.6718750000,117505.9296875000,123833.9609375000,114957.9140625000,133053.6250000000,,,
0.6839999990,5,144555.0156250000,123295.5625000000,157789.9062500000,131574.8750000000,117497.6953125000,123838.8984375000,114954.5078125000,133048.5625000000,,,
0.6879999989,5,144559.9843750000,123300.8203125000,157793.6562500000,131570.5781250000,117502.7109375000,123851.6875000000,114961.1562500000,133053.7343750000,,,
0.6919999989,5,144561.7812500000,123305.6171875000,157798.2343750000,131571.5781250000,117508.3203125000,123849.7812500000,114964.9921875000,133058.5625000000,,,
0.6959999988,5,144555.0781250000,123301.3281250000,157793.2187500000,131570.1562500000,117504.3984375000,123838.2265625000,114959.7656250000,133054.1875000000,,,
0.6999999988,5,144557.2187500000,123302.8828125000,157794.7343750000,131572.1875000000,117507.8906250000,123842.2734375000,114962.7968750000,133055.7968750000,,,
0.7039999987,5,144554.1562500000,123296.4218750000,157789.2031250000,131578.9531250000,117503.4609375000,123843.5859375000,114954.5078125000,133048.6093750000,,,
0.7079999989,5,144562.0000000000,123299.5312500000,157793.2500000000,131589.9375000000,117507.8046875000,123851.4218750000,114961.8828125000,133052.2343750000,,,
0.7119999989,5,144562.3906250000,123295.8828125000,157792.3125000000,131575.1406250000,117506.1953125000,123843.4531250000,114963.4140625000,133048.3125000000,,,
0.7159999989,5,144552.4687500000,123282.5546875000,157782.4687500000,131555.5625000000,117498.1484375000,123821.6250000000,114954.8828125000,133034.9843750000,,,
0.7199999988,5,144550.0781250000,123283.9687500000,157782.2500000000,131554.2968750000,117497.9140625000,123820.4375000000,114950.9921875000,133037.0156250000,,,
0.7239999988,5,144547.9375000000,123286.7656250000,157781.9375000000,131560.3125000000,117495.1484375000,123831.4140625000,114949.4375000000,133039.7031250000,,,
0.7279999990,5,144544.6875000000,123290.1406250000,157783.3281250000,131563.6093750000,117490.9375000000,123839.7812500000,114944.2031250000,133043.1718750000,,,
0.7319999989,5,144550.1093750000,123299.9296875000,157793.0156250000,131576.0468750000,117497.9609375000,123843.1328125000,114949.9218750000,133053.7031250000,,,
0.7359999989,5,144540.2187500000,123292.8203125000,157785.1562500000,131568.6406250000,117491.1250000000,123831.5468750000,114943.5625000000,133047.0781250000,,,
0.7399999988,5,144537.3437500000,123292.2031250000,157784.4062500000,131565.0000000000,117489.8906250000,123829.4296875000,114936.8593750000,133046.7656250000,,,
0.7439999988,5,144548.1250000000,123300.0390625000,157792.5781250000,131578.7343750000,117500.8593750000,123841.6562500000,114944.7187500000,133053.8437500000,,,
0.7479999987,5,144549.5781250000,123299.4453125000,157790.7812500000,131581.2187500000,117497.3437500000,123844.6640625000,114949.0078125000,133052.7187500000,,,
0.7519999989,5,144547.6093750000,123296.3906250000,157788.6718750000,131585.0156250000,117494.1015625000,123835.9453125000,114946.9140625000,133049.1406250000,,,
0.7559999989,5,144538.7187500000,123289.5000000000,157782.2031250000,131567.2812500000,117486.0000000000,123825.7500000000,114940.7187500000,133043.1093750000,,,
0.7599999988,5,144533.4218750000,123285.0156250000,157777.6093750000,131570.7968750000,117481.4687500000,123821.8906250000,114935.9687500000,133038.1718750000,,,
0.7639999988,5,144558.6093750000,123309.7734375000,157802.2343750000,131596.3593750000,117507.3515625000,123849.1406250000,114956.9453125000,133062.2343750000,,,
0.7679999988,6,144567.1406250000,123314.6562500000,157808.4375000000,131594.0468750000,117513.6562500000,123858.6093750000,114965.9609375000,133066.3906250000,,,
0.7719999987,6,144557.1875000000,123300.6562500000,157797.6250000000,131581.9843750000,117504.0000000000,123837.9062500000,114957.4296875000,133053.0937500000,,,
0.7759999987,6,144547.2343750000,123296.1484375000,157789.5468750000,131576.0156250000,117494.2109375000,123825.7812500000,114949.4062500000,133048.6093750000,,,
0.7799999986,6,144537.3750000000,123287.5937500000,157778.3125000000,131553.7656250000,117483.4765625000,123822.4765625000,114939.9921875000,133039.3750000000,,,
0.7839999986,6,144538.3125000000,123288.6406250000,157778.0468750000,131554.7812500000,117481.4453125000,123830.8515625000,114935.6250000000,133040.7500000000,,,
0.7879999985,6,144545.8750000000,123294.3515625000,157785.6406250000,131565.9375000000,117487.2109375000,123843.6718750000,114941.8750000000,133046.7343750000,,,
0.7919999987,6,144552.2812500000,123298.9921875000,157792.9062500000,131575.3281250000,117495.7890625000,123844.2578125000,114951.2031250000,133052.5468750000,,,
0.7959999987,6,144544.3906250000,123291.3750000000,157786.9531250000,131575.5468750000,117490.2421875000,123826.3125000000,114945.3593750000,133045.9062500000,,,
0.7999999986,6,144541.3437500000,123293.8984375000,157785.7343750000,131568.8906250000,117488.2265625000,123824.1718750000,114939.6718750000,133047.3281250000,,,
0.8039999986,6,144543.8906250000,123297.8359375000,157788.0000000000,131551.7500000000,117488.4921875000,123831.6015625000,114937.2578125000,133051.4218750000,,,
0.8079999986,6,144549.3906250000,123301.6250000000,157794.0781250000,131560.2031250000,117493.6484375000,123837.3359375000,114941.2812500000,133055.2343750000,,,
0.8119999988,6,144548.2656250000,123304.3046875000,157795.8281250000,131563.4375000000,117494.7734375000,123834.6328125000,114942.5703125000,133058.3437500000,,,
0.8159999987,6,144535.8750000000,123294.1093750000,157785.3437500000,131554.4843750000,117484.5546875000,123817.9765625000,114931.3828125000,133047.8125000000,,,
0.8199999987,6,144529.6718750000,123287.1093750000,157779.5781250000,131552.8750000000,117478.0078125000,123807.8046875000,114922.5078125000,133041.0468750000,,,
0.8239999986,6,144533.3750000000,123289.0703125000,157780.7500000000,131556.4687500000,117479.6171875000,123814.6484375000,114926.5546875000,133042.5000000000,,,
0.8279999986,6,144544.3437500000,123298.9687500000,157787.7812500000,131560.8750000000,117490.3203125000,123829.0781250000,114942.2500000000,133052.7968750000,,,
0.8319999985,6,144553.2812500000,123307.3906250000,157796.2500000000,131573.9375000000,117498.9531250000,123836.7734375000,114960.0312500000,133061.0000000000,,,
0.8359999987,6,144542.5937500000,123301.2187500000,157791.5312500000,131571.0312500000,117490.3984375000,123824.1718750000,114947.9375000000,133054.8281250000,,,
0.8399999987,6,144532.4843750000,123293.4375000000,157784.4218750000,131568.1562500000,117482.5390625000,123809.9296875000,114934.5000000000,133047.3437500000,,,
0.8439999986,6,144540.2343750000,123301.5937500000,157788.1875000000,131571.4687500000,117488.4921875000,123827.0625000000,114947.3984375000,133055.2343750000,,,
0.8479999986,6,144560.8437500000,123321.9296875000,157805.0781250000,131586.7187500000,117507.0000000000,123859.8671875000,114968.3437500000,133075.3437500000,,,
0.8519999986,6,144566.9531250000,123326.9921875000,157809.3750000000,131584.9218750000,117512.7187500000,123867.5390625000,114978.4609375000,133080.4687500000,,,
0.8559999987,6,144558.3750000000,123316.1562500000,157796.0625000000,131578.2500000000,117503.5468750000,123858.8203125000,114977.9453125000,133070.2031250000,,,
0.8599999987,6,144555.5625000000,123309.6953125000,157789.2343750000,131576.6406250000,117499.8125000000,123862.2265625000,114976.6093750000,133062.3750000000,,,
0.8639999987,6,144572.0781250000,123321.7109375000,157802.4531250000,131583.7187500000,117514.2421875000,123884.0937500000,114998.3359375000,133074.3125000000,,,
0.8679999986,6,144593.8906250000,123340.8125000000,157822.0312500000,131589.8125000000,117533.4765625000,123911.8203125000,115022.4453125000,133092.9531250000,,,
0.8719999986,6,144599.2500000000,123340.3515625000,157827.0468750000,131590.6093750000,117536.9921875000,123913.1953125000,115033.4140625000,133092.4062500000,,,
0.8759999985,6,144591.7656250000,123331.5546875000,157821.1250000000,131584.8437500000,117531.0078125000,123906.7265625000,115032.8515625000,133083.7656250000,,,
0.8799999987,6,144580.8437500000,123326.9140625000,157810.9531250000,131575.0000000000,117518.8828125000,123916.6796875000,115022.2578125000,133078.7343750000,,,
0.8839999987,6,144586.1406250000,123337.5625000000,157815.5468750000,131585.4687500000,117520.4140625000,123942.4531250000,115027.4375000000,133088.8906250000,,,
0.8879999986,6,144607.5156250000,123363.1484375000,157836.5156250000,131598.7968750000,117539.4843750000,123970.5625000000,115044.4687500000,133114.5312500000,,,
0.8919999986,6,144617.8437500000,123371.0078125000,157842.8125000000,131589.8906250000,117548.1484375000,123978.9296875000,115050.6640625000,133122.2968750000,,,
0.8959999986,7,144613.8125000000,123362.6718750000,157835.6562500000,131573.4531250000,117545.6250000000,123971.9609375000,115061.6328125000,133113.9531250000,,,
0.8999999985,7,144610.4843750000,123361.2187500000,157832.8750000000,131570.5312500000,117541.4453125000,123967.9062500000,115061.3906250000,133113.0625000000,,,
0.9039999985,7,144615.9375000000,123369.1328125000,157839.1250000000,131579.4062500000,117545.2265625000,123981.6718750000,115069.0078125000,133120.7656250000,,,
0.9079999984,7,144627.0312500000,123378.6250000000,157849.7968750000,131604.6718750000,117556.4375000000,124003.1562500000,115082.7187500000,133130.2343750000,,,
0.9119999984,7,144627.2500000000,123378.3359375000,157852.3437500000,131609.9531250000,117558.2578125000,124003.8515625000,115077.0000000000,133130.1562500000,,,
0.9159999983,7,144624.1718750000,123376.1093750000,157852.5000000000,131588.9531250000,117557.6406250000,123993.5234375000,115067.9921875000,133128.3750000000,,,
0.9199999985,7,144609.6562500000,123367.3125000000,157841.3437500000,131583.2656250000,117540.9296875000,123985.6953125000,115051.8671875000,133119.0781250000,,,
0.9239999985,7,144617.9687500000,123379.1640625000,157851.0468750000,131585.5468750000,117546.7265625000,124000.5234375000,115058.6250000000,133130.6875000000,,,
0.9279999984,7,144634.5937500000,123394.6953125000,157866.6562500000,131604.7031250000,117562.9296875000,124016.3203125000,115072.7890625000,133146.0468750000,,,
0.9319999984,7,144630.0625000000,123387.2890625000,157861.6718750000,131601.2656250000,117560.0000000000,124001.2187500000,115058.8203125000,133138.6718750000,,,
0.9359999984,7,144623.7656250000,123378.4687500000,157854.7031250000,131591.3125000000,117555.0156250000,123981.3437500000,115046.9375000000,133130.0625000000,,,
0.9399999985,7,144616.6250000000,123363.9843750000,157843.4843750000,131588.3593750000,117546.6171875000,123962.4921875000,115045.6171875000,133115.2343750000,,,
0.9439999985,7,144618.9687500000,123366.5078125000,157845.7187500000,131591.7343750000,117547.3203125000,123967.3203125000,115046.6953125000,133117.1406250000,,,
0.9479999985,7,144633.6093750000,123378.1484375000,157858.9375000000,131605.1718750000,117562.6015625000,123978.6406250000,115053.0781250000,133129.7656250000,,,
0.9519999984,7,144637.1562500000,123378.3828125000,157861.3281250000,131605.9218750000,117568.6953125000,123969.9218750000,115052.7265625000,133131.1406250000,,,
0.9559999984,7,144620.2812500000,123364.0078125000,157847.7343750000,131586.5156250000,117555.5546875000,123945.5156250000,115040.8984375000,133117.1875000000,,,
0.9599999983,7,144597.5312500000,123347.9687500000,157831.2812500000,131583.4531250000,117534.3046875000,123922.1484375000,115019.6796875000,133101.0468750000,,,
0.9639999985,7,144594.5000000000,123349.6562500000,157831.5468750000,131591.5312500000,117529.7500000000,123921.8046875000,115017.4062500000,133101.8437500000,,,
0.9679999985,7,144608.9375000000,123358.9687500000,157845.6875000000,131611.5312500000,117545.3593750000,123925.0781250000,115027.8359375000,133111.9062500000,,,
0.9719999984,7,144608.5781250000,123358.8359375000,157846.3125000000,131606.0312500000,117544.2031250000,123913.5390625000,115023.9765625000,133112.2031250000,,,
0.9759999984,7,144596.9218750000,123347.8593750000,157836.4062500000,131584.1562500000,117534.8437500000,123895.1640625000,115013.3515625000,133101.3125000000,,,
0.9799999984,7,144592.0625000000,123346.3359375000,157832.8437500000,131579.9062500000,117531.4921875000,123893.1015625000,115005.4375000000,133099.3593750000,,,
0.9839999985,7,144595.6875000000,123347.5703125000,157833.6406250000,131589.0781250000,117534.5234375000,123902.3281250000,115006.5390625000,133100.2187500000,,,
0.9879999985,7,144600.9062500000,123354.7578125000,157838.3437500000,131603.1718750000,117539.6718750000,123908.0390625000,115010.9921875000,133108.3125000000,,,
0.9919999985,7,144593.4218750000,123346.5234375000,157829.8125000000,131597.9843750000,117532.5078125000,123897.2031250000,115005.7343750000,133100.3281250000,,,
0.9959999984,7,144574.7812500000,123327.7968750000,157812.9062500000,131582.8593750000,117515.1875000000,123871.9687500000,114988.4921875000,133081.5468750000,,,
0.9999999984,7,144566.5468750000,123317.2031250000,157805.3281250000,131570.2343750000,117508.0781250000,123857.9687500000,114982.4843750000,133070.3281250000,,,
1.0039999983,7,144570.8750000000,123318.2812500000,157808.9375000000,131577.0937500000,117512.6093750000,123860.7031250000,114979.9062500000,133071.8593750000,,,
1.0079999985,7,144581.4375000000,123326.1406250000,157819.4062500000,131595.4687500000,117523.5546875000,123869.0937500000,114986.1250000000,133080.0468750000,,,
1.0119999985,7,144590.6093750000,123333.6484375000,157828.5468750000,131599.2031250000,117534.2265625000,123871.9140625000,114995.3281250000,133088.0156250000,,,
1.0159999984,7,144582.4062500000,123323.7500000000,157820.3750000000,131589.9375000000,117527.7109375000,123853.9921875000,114987.7656250000,133078.0937500000,,,
1.0199999984,7,144576.7500000000,123315.7265625000,157812.9062500000,131587.0000000000,117524.0625000000,123839.7031250000,114983.1796875000,133070.3125000000,,,
1.0239999983,8,144576.6875000000,123317.9843750000,157811.9531250000,131590.3437500000,117519.8750000000,123844.3906250000,114980.0937500000,133072.0312500000,,,
1.0279999983,8,144585.1406250000,123327.7187500000,157818.7656250000,131588.9843750000,117525.2187500000,123862.7109375000,114987.9531250000,133081.5937500000,,,
1.0319999983,8,144576.6875000000,123324.1250000000,157812.4531250000,131581.0156250000,117515.5859375000,123858.6328125000,114979.7187500000,133077.3125000000,,,
1.0359999982,8,144561.7812500000,123309.9609375000,157799.2343750000,131562.9062500000,117502.1250000000,123836.1562500000,114962.7968750000,133063.8906250000,,,
1.0399999982,8,144558.2343750000,123307.1718750000,157796.6562500000,131556.4687500000,117499.4921875000,123828.2734375000,114954.6093750000,133061.0625000000,,,
1.0439999981,8,144579.4062500000,123330.4531250000,157817.5000000000,131570.9218750000,117519.9062500000,123850.1640625000,114970.2734375000,133084.5468750000,,,
1.0479999983,8,144601.2812500000,123350.0625000000,157839.3281250000,131589.1875000000,117541.4140625000,123867.5703125000,114987.5468750000,133104.0312500000,,,
1.0519999983,8,144593.4062500000,123342.5546875000,157833.9062500000,131586.4531250000,117532.6484375000,123857.9140625000,114977.7343750000,133097.0781250000,,,
1.0559999982,8,144586.1562500000,123337.1875000000,157829.1093750000,131580.2343750000,117527.2500000000,123846.1406250000,114973.2578125000,133091.6562500000,,,
1.0599999982,8,144577.2343750000,123324.3125000000,157817.7187500000,131585.3593750000,117517.9453125000,123832.1640625000,114963.0078125000,133078.3750000000,,,
1.0639999982,8,144574.1406250000,123316.9609375000,157808.8125000000,131583.3750000000,117513.5234375000,123831.4375000000,114956.8671875000,133070.3906250000,,,
1.0679999983,8,144578.0312500000,123322.3281250000,157811.5937500000,131584.2031250000,117517.2734375000,123839.5937500000,114961.2656250000,133076.1093750000,,,
1.0719999983,8,144577.9218750000,123325.1406250000,157811.6562500000,131583.5937500000,117519.4765625000,123839.6171875000,114965.9843750000,133079.8906250000,,,
1.0759999983,8,144575.2500000000,123325.4921875000,157810.4375000000,131581.7031250000,117520.0156250000,123832.0000000000,114966.7656250000,133080.1718750000,,,
1.0799999982,8,144570.0468750000,123321.0156250000,157805.4843750000,131586.2656250000,117514.9140625000,123824.0078125000,114960.8593750000,133074.6562500000,,,
1.0839999982,8,144579.4218750000,123329.4062500000,157812.8593750000,131590.6093750000,117521.3515625000,123834.3593750000,114969.4453125000,133083.2343750000,,,
1.0879999981,8,144579.6406250000,123331.7734375000,157812.7031250000,131587.6875000000,117517.1718750000,123844.6093750000,114972.2109375000,133085.1406250000,,,
1.0919999983,8,144575.5312500000,123330.1640625000,157811.1406250000,131575.9375000000,117512.8203125000,123843.6406250000,114970.3281250000,133083.3437500000,,,
1.0959999983,8,144571.2187500000,123331.5000000000,157811.0937500000,131572.7031250000,117509.6875000000,123840.9062500000,114961.9375000000,133085.0000000000,,,
1.0999999982,8,144565.5937500000,123326.5937500000,157805.4843750000,131570.3906250000,117505.3125000000,123834.9218750000,114955.5234375000,133079.7187500000,,,
1.1039999982,8,144560.1718750000,123316.3437500000,157796.0625000000,131562.2343750000,117498.5000000000,123831.7890625000,114955.7656250000,133069.5312500000,,,
1.1079999981,8,144570.9843750000,123322.7031250000,157804.4687500000,131578.0312500000,117510.3593750000,123841.7343750000,114961.4765625000,133077.0156250000,,,
1.1119999983,8,144577.4687500000,123324.3906250000,157808.6718750000,131589.8125000000,117518.6953125000,123837.7968750000,114965.3671875000,133078.5156250000,,,
1.1159999983,8,144568.2500000000,123313.2890625000,157798.7031250000,131579.2343750000,117510.3828125000,123820.1718750000,114964.6953125000,133067.8750000000,,,
1.1199999982,8,144552.3906250000,123299.5312500000,157783.8593750000,131565.0312500000,117495.8750000000,123809.0703125000,114954.0781250000,133053.8437500000,,,
1.1239999982,8,144554.9687500000,123301.8593750000,157786.5781250000,131561.4062500000,117498.8515625000,123815.4765625000,114953.9140625000,133055.7187500000,,,
1.1279999982,8,144572.6406250000,123321.5234375000,157806.9531250000,131578.1406250000,117515.3437500000,123838.6796875000,114972.4531250000,133075.7031250000,,,
1.1319999981,8,144570.5000000000,123324.6640625000,157810.6250000000,131583.6093750000,117510.8906250000,123838.6015625000,114970.7031250000,133079.5312500000,,,
1.1359999983,8,144560.7812500000,123317.3359375000,157805.0468750000,131578.0000000000,117502.7421875000,123825.6171875000,114961.0781250000,133072.4843750000,,,
1.1399999983,8,144560.0156250000,123317.4453125000,157805.5156250000,131581.0312500000,117504.1328125000,123823.7968750000,114960.2734375000,133072.2187500000,,,
1.1439999982,8,144571.5625000000,123324.3125000000,157815.3281250000,131591.6562500000,117516.6093750000,123828.8671875000,114966.6796875000,133079.0468750000,,,
1.1479999982,8,144583.2656250000,123337.0781250000,157826.8906250000,131600.9375000000,117526.4765625000,123842.4375000000,114969.8984375000,133091.8437500000,,,
1.1519999981,9,144580.2812500000,123331.5546875000,157822.9218750000,131597.5937500000,117520.9765625000,123835.6796875000,114967.0078125000,133086.2187500000,,,
1.1559999981,9,144570.5156250000,123318.2265625000,157810.5312500000,131583.5937500000,117513.5468750000,123814.2187500000,114962.2812500000,133073.0468750000,,,
1.1599999981,9,144567.8125000000,123315.6250000000,157808.0625000000,131588.1406250000,117513.0937500000,123809.9531250000,114963.3281250000,133070.2812500000,,,
1.1639999980,9,144576.1562500000,123322.5703125000,157815.6250000000,131594.0468750000,117521.8359375000,123827.3906250000,114970.7578125000,133077.2500000000,,,
1.1679999980,9,144586.3437500000,123330.9375000000,157824.3906250000,131597.6718750000,117531.2500000000,123843.4531250000,114977.6796875000,133086.1093750000,,,
1.1719999979,9,144595.3593750000,123342.0703125000,157835.0625000000,131614.6250000000,117541.0156250000,123851.0703125000,114987.0703125000,133097.6406250000,,,
1.1759999981,9,144589.1093750000,123339.9531250000,157832.2812500000,131609.8750000000,117536.2656250000,123840.0781250000,114984.6562500000,133095.5468750000,,,
1.1799999981,9,144574.7031250000,123335.1250000000,157821.3125000000,131582.1093750000,117521.0859375000,123833.7968750000,114973.8671875000,133089.9687500000,,,
1.1839999980,9,144567.0312500000,123333.4296875000,157815.2500000000,131555.4218750000,117511.5078125000,123836.8828125000,114964.1093750000,133087.7656250000,,,
1.1879999980,9,144578.2968750000,123342.3359375000,157823.8593750000,131550.8593750000,117519.9062500000,123846.6718750000,114969.3906250000,133096.8593750000,,,
1.1919999979,9,144590.0781250000,123348.1328125000,157832.8906250000,131558.7031250000,117528.8359375000,123845.7578125000,114979.8281250000,133103.0000000000,,,
1.1959999981,9,144588.6875000000,123340.9687500000,157829.0625000000,131561.8593750000,117529.6640625000,123833.1015625000,114979.8828125000,133095.4687500000,,,
1.1999999981,9,144582.1562500000,123328.5000000000,157821.1718750000,131564.2500000000,117526.5546875000,123822.6171875000,114973.8437500000,133082.3593750000,,,
1.2039999980,9,144570.3906250000,123323.6718750000,157812.1875000000,131567.4062500000,117510.3828125000,123829.3984375000,114963.3828125000,133078.1718750000,,,
1.2079999980,9,144573.6562500000,123328.7656250000,157815.8593750000,131575.2656250000,117511.6406250000,123843.0781250000,114966.6328125000,133083.5312500000,,,
1.2119999980,9,144573.0781250000,123324.7421875000,157815.8593750000,131587.0781250000,117512.9296875000,123837.2890625000,114969.2343750000,133079.5312500000,,,
1.2159999979,9,144568.2187500000,123319.4843750000,157813.3750000000,131594.9843750000,117512.2578125000,123824.8125000000,114967.4375000000,133075.2968750000,,,
1.2199999981,9,144565.8750000000,123318.2265625000,157811.8125000000,131591.5000000000,117512.5859375000,123822.0234375000,114965.5312500000,133073.9531250000,,,
1.2239999981,9,144569.4531250000,123320.1015625000,157812.9062500000,131582.4843750000,117516.7421875000,123830.7421875000,114972.4218750000,133074.7656250000,,,
1.2279999980,9,144569.1562500000,123318.8437500000,157812.7500000000,131586.7500000000,117516.4140625000,123833.9296875000,114971.6484375000,133073.4218750000,,,
1.2319999980,9,144569.3125000000,123322.2500000000,157813.1250000000,131588.0156250000,117516.0937500000,123832.8593750000,114968.3984375000,133076.6406250000,,,
1.2359999979,9,144564.8125000000,123318.1953125000,157805.8906250000,131580.5312500000,117510.3828125000,123824.6562500000,114963.3593750000,133072.4218750000,,,
1.2399999981,9,144565.9062500000,123317.7421875000,157803.0468750000,131578.3906250000,117509.5234375000,123822.6171875000,114961.6953125000,133071.3593750000,,,
1.2439999981,9,144575.5937500000,123324.9296875000,157810.9843750000,131580.9375000000,117517.1406250000,123833.1562500000,114964.5625000000,133078.6250000000,,,
1.2479999980,9,144594.4218750000,123343.3593750000,157831.4218750000,131592.4375000000,117537.0156250000,123849.1953125000,114974.5703125000,133097.6875000000,,,
1.2519999980,9,144599.8906250000,123349.4218750000,157838.1718750000,131590.8281250000,117543.1093750000,123849.3593750000,114979.5000000000,133103.5468750000,,,
1.2559999980,9,144580.9531250000,123326.4609375000,157819.0312500000,131592.3593750000,117525.5390625000,123829.8593750000,114974.8906250000,133080.9375000000,,,
1.2599999979,9,144568.3437500000,123309.5625000000,157804.1093750000,131571.6562500000,117513.3359375000,123818.7265625000,114974.5937500000,133064.2812500000,,,
1.2639999981,9,144569.7968750000,123315.4921875000,157808.1093750000,131565.1093750000,117512.9062500000,123825.2421875000,114973.4687500000,133070.2500000000,,,
1.2679999981,9,144571.2968750000,123324.0703125000,157812.3437500000,131567.8125000000,117514.1093750000,123837.0703125000,114968.8515625000,133079.3281250000,,,
1.2719999980,9,144569.4218750000,123326.5390625000,157811.5937500000,131563.6875000000,117514.0546875000,123838.6250000000,114968.6406250000,133081.4687500000,,,
1.2759999980,9,144560.9218750000,123320.3437500000,157804.4062500000,131549.4687500000,117506.9531250000,123827.3593750000,114960.8359375000,133075.4843750000,,,
1.2799999979,10,144561.8906250000,123320.6093750000,157804.5468750000,131543.9687500000,117506.6562500000,123824.3593750000,114959.9218750000,133075.2968750000,,,
1.2839999979,10,144578.7500000000,123338.6328125000,157819.2187500000,131558.6406250000,117520.6796875000,123843.1875000000,114971.7265625000,133092.8125000000,,,
1.2879999978,10,144592.7031250000,123349.9296875000,157832.4062500000,131588.1406250000,117534.2578125000,123855.2812500000,114982.9375000000,133104.2343750000,,,
1.2919999978,10,144599.4687500000,123351.1640625000,157841.1875000000,131590.5625000000,117545.7578125000,123855.5234375000,114989.9375000000,133105.8281250000,,,
1.2959999978,10,144579.3750000000,123328.6562500000,157824.0937500000,131583.6718750000,117527.6015625000,123831.7890625000,114972.6875000000,133083.6875000000,,,
1.2999999977,10,144565.5937500000,123315.5937500000,157810.3437500000,131579.8906250000,117516.5546875000,123816.5234375000,114961.2656250000,133070.2500000000,,,
1.3039999979,10,144564.0000000000,123314.5781250000,157806.0781250000,131572.3281250000,117514.1953125000,123822.8046875000,114960.2968750000,133069.4531250000,,,
1.3079999979,10,144573.8437500000,123319.7265625000,157812.7031250000,131583.1250000000,117522.3203125000,123833.9296875000,114970.0625000000,133074.4062500000,,,
1.3119999978,10,144578.2187500000,123324.7421875000,157818.1406250000,131595.2031250000,117523.8203125000,123837.5781250000,114973.7343750000,133080.2656250000,,,
1.3159999978,10,144575.8125000000,123318.1953125000,157814.7031250000,131599.4687500000,117520.4375000000,123828.3515625000,114972.7421875000,133073.5000000000,,,
1.3199999977,10,144564.8125000000,123305.4843750000,157802.1093750000,131576.3750000000,117509.1718750000,123815.5625000000,114963.4921875000,133060.5468750000,,,
1.3239999979,10,144565.4843750000,123308.9140625000,157802.6406250000,131569.6875000000,117509.0390625000,123822.7187500000,114964.9687500000,133063.5156250000,,,
1.3279999979,10,144584.5312500000,123332.1718750000,157820.9375000000,131569.6093750000,117529.4296875000,123847.8515625000,114984.6562500000,133086.7812500000,,,
1.3319999978,10,144590.6093750000,123342.6328125000,157829.7031250000,131581.5156250000,117535.4609375000,123853.0546875000,114989.2968750000,133096.4062500000,,,
1.3359999978,10,144567.3281250000,123321.6562500000,157809.2656250000,131577.3593750000,117510.9765625000,123830.6640625000,114967.7031250000,133075.3437500000,,,
1.3399999978,10,144553.4687500000,123309.0234375000,157796.3125000000,131563.6875000000,117497.9375000000,123816.9843750000,114954.1562500000,133063.0468750000,,,
1.3439999977,10,144554.2656250000,123311.3593750000,157799.4218750000,131562.4531250000,117497.5859375000,123825.2656250000,114958.2578125000,133065.3750000000,,,
1.3479999979,10,144560.9531250000,123319.1328125000,157809.2656250000,131563.3906250000,117505.1562500000,123838.1171875000,114968.5078125000,133073.2812500000,,,
1.3519999979,10,144568.1093750000,123325.7343750000,157820.5000000000,131573.6406250000,117514.7031250000,123843.4843750000,114978.6484375000,133079.8906250000,,,
1.3559999978,10,144561.1875000000,123318.2812500000,157816.2343750000,131563.5781250000,117510.3046875000,123828.1406250000,114972.6093750000,133073.0937500000,,,
1.3599999978,10,144562.2812500000,123318.7109375000,157816.4843750000,131563.5781250000,117510.6250000000,123823.0468750000,114966.4921875000,133074.6875000000,,,
1.3639999977,10,144575.2656250000,123328.0703125000,157824.7656250000,131574.7968750000,117521.3281250000,123832.2187500000,114971.1093750000,133083.6718750000,,,
1.3679999979,10,144587.8281250000,123338.1562500000,157831.6875000000,131576.6718750000,117532.2421875000,123845.2265625000,114981.9140625000,133093.0468750000,,,
1.3719999979,10,144593.2343750000,123344.5625000000,157835.0937500000,131568.9687500000,117536.4531250000,123853.6484375000,114987.1718750000,133099.3906250000,,,
1.3759999978,10,144579.7968750000,123333.0546875000,157822.1875000000,131553.4687500000,117522.0781250000,123843.2421875000,114978.7265625000,133088.0312500000,,,
1.3799999978,10,144566.9531250000,123321.4140625000,157810.2343750000,131555.2968750000,117510.2500000000,123830.8515625000,114965.6640625000,133076.7187500000,,,
1.3839999977,10,144554.9375000000,123308.9140625000,157797.6250000000,131558.7968750000,117497.3437500000,123823.6562500000,114948.3906250000,133063.9531250000,,,
1.3879999977,10,144559.5312500000,123312.4062500000,157799.9531250000,131556.8125000000,117503.1171875000,123831.2812500000,114950.1093750000,133067.8750000000,,,
1.3919999979,10,144571.1093750000,123323.6406250000,157811.3593750000,131569.7656250000,117514.8593750000,123836.5625000000,114958.7968750000,133078.8437500000,,,
1.3959999979,10,144564.0781250000,123312.6484375000,157803.8125000000,131574.9218750000,117506.8671875000,123817.0625000000,114950.5859375000,133067.5156250000,,,
1.3999999978,10,144562.1562500000,123309.9921875000,157801.2500000000,131567.7656250000,117504.0781250000,123809.1250000000,114947.5859375000,133064.8906250000,,,
1.4039999978,10,144564.0625000000,123311.1718750000,157799.9531250000,131552.3906250000,117503.7031250000,123816.4453125000,114949.9453125000,133065.6875000000,,,
1.4079999977,11,144575.1093750000,123320.2343750000,157808.3750000000,131554.4375000000,117515.2343750000,123832.0859375000,114962.6875000000,133074.4375000000,,,
1.4119999977,11,144582.0625000000,123323.1875000000,157814.1718750000,131567.9531250000,117523.7109375000,123836.7734375000,114974.2734375000,133077.5781250000,,,
1.4159999976,11,144573.1718750000,123319.2187500000,157809.7187500000,131568.0312500000,117514.5937500000,123828.4609375000,114968.0000000000,133073.9531250000,,,
1.4199999976,11,144562.7500000000,123311.3046875000,157803.0468750000,131562.3906250000,117505.0156250000,123819.2578125000,114960.2734375000,133066.6406250000,,,
1.4239999976,11,144557.8125000000,123300.6015625000,157795.7656250000,131555.7656250000,117498.9062500000,123814.4609375000,114956.0859375000,133055.0468750000,,,
1.4279999975,11,144564.5937500000,123309.7187500000,157801.7500000000,131551.0000000000,117503.3828125000,123828.0078125000,114961.5078125000,133064.2187500000,,,
1.4319999977,11,144579.0312500000,123326.9687500000,157819.0781250000,131558.5937500000,117521.2421875000,123841.8437500000,114978.0859375000,133081.5000000000,,,
1.4359999977,11,144574.6562500000,123327.7968750000,157819.1406250000,131554.8125000000,117519.2343750000,123834.7656250000,114972.7421875000,133082.6250000000,,,
1.4399999976,11,144564.8125000000,123319.8906250000,157810.7968750000,131555.3750000000,117509.1484375000,123820.1171875000,114963.6484375000,133075.5156250000,,,
1.4439999976,11,144565.8750000000,123318.9218750000,157808.4375000000,131554.9687500000,117509.0156250000,123821.6718750000,114962.7421875000,133073.9531250000,,,
1.4479999975,11,144576.5625000000,123331.1796875000,157819.5312500000,131565.7968750000,117518.2109375000,123839.2187500000,114969.4218750000,133086.2187500000,,,
1.4519999977,11,144583.3125000000,123337.7500000000,157828.5156250000,131571.7656250000,117526.0468750000,123841.9765625000,114974.9453125000,133092.9218750000,,,
1.4559999977,11,144579.7968750000,123334.3984375000,157829.1718750000,131566.8281250000,117528.2187500000,123828.5937500000,114971.7812500000,133089.9687500000,,,
1.4599999976,11,144567.1718750000,123324.2031250000,157816.7187500000,131560.5781250000,117517.1953125000,123815.7187500000,114959.2265625000,133079.4218750000,,,
1.4639999976,11,144563.9218750000,123320.3203125000,157810.0156250000,131563.7343750000,117513.0625000000,123819.7421875000,114956.7031250000,133075.6406250000,,,
1.4679999975,11,144567.4843750000,123317.9531250000,157808.1718750000,131563.2343750000,117515.0468750000,123831.3281250000,114962.2578125000,133073.9218750000,,,
1.4719999975,11,144566.2656250000,123310.8750000000,157805.7031250000,131559.5312500000,117513.3046875000,123828.8671875000,114962.4687500000,133067.2187500000,,,
1.4759999977,11,144563.9843750000,123309.3750000000,157806.5000000000,131552.4218750000,117511.5625000000,123823.0156250000,114961.7734375000,133065.6875000000,,,
1.4799999977,11,144564.0625000000,123317.3125000000,157812.7500000000,131556.0468750000,117511.1640625000,123826.1250000000,114962.8750000000,133073.2812500000,,,
1.4839999976,11,144571.7031250000,123332.5234375000,157826.5937500000,131574.0937500000,117517.3593750000,123839.9140625000,114968.9062500000,133088.4375000000,,,
1.4879999976,11,144574.4687500000,123342.8203125000,157834.7187500000,131596.6718750000,117519.2343750000,123846.3750000000,114969.9296875000,133098.4687500000,,,
1.4919999975,11,144578.7812500000,123346.8203125000,157836.3281250000,131600.9375000000,117522.8046875000,123849.9687500000,114976.0703125000,133101.6562500000,,,
1.4959999977,11,144568.2187500000,123332.9218750000,157818.8437500000,131561.1093750000,117512.0468750000,123835.6484375000,114966.4921875000,133087.8281250000,,,
1.4999999977,11,144555.8281250000,123317.3359375000,157801.0312500000,131533.5937500000,117499.3593750000,123823.4687500000,114952.9531250000,133072.1562500000,,,
1.5039999976,11,144556.4218750000,123313.5546875000,157795.5625000000,131524.6562500000,117498.6640625000,123828.7812500000,114949.4609375000,133067.6250000000,,,
1.5079999976,11,144569.4531250000,123320.2109375000,157805.2656250000,131543.1406250000,117510.3593750000,123843.4531250000,114959.7343750000,133073.9531250000,,,
1.5119999975,11,144579.1093750000,123322.4609375000,157815.5468750000,131556.8750000000,117522.2890625000,123842.2187500000,114967.4375000000,133076.9375000000,,,
1.5159999975,11,144569.8593750000,123308.7265625000,157807.5468750000,131549.8437500000,117517.2187500000,123823.3671875000,114961.1328125000,133063.0625000000,,,
1.5199999977,11,144563.4375000000,123298.0312500000,157800.7656250000,131547.1406250000,117512.1796875000,123811.5078125000,114956.1171875000,133052.8281250000,,,
1.5239999976,11,144569.6875000000,123302.2109375000,157806.9531250000,131555.9531250000,117516.9296875000,123822.3984375000,114961.0468750000,133057.1718750000,,,
1.5279999976,11,144581.7031250000,123317.6875000000,157820.9062500000,131567.1718750000,117528.2968750000,123841.8437500000,114972.7968750000,133072.6406250000,,,
1.5319999976,11,144592.8437500000,123334.1796875000,157833.9687500000,131568.2187500000,117543.0546875000,123851.5000000000,114983.1484375000,133088.5156250000,,,
1.5359999975,12,144585.3593750000,123331.0156250000,157831.3593750000,131568.7031250000,117539.9921875000,123835.1406250000,114970.8125000000,133085.3593750000,,,
1.5399999975,12,144570.1718750000,123328.4687500000,157822.7500000000,131564.1406250000,117522.4296875000,123829.1328125000,114954.2890625000,133083.2656250000,,,
1.5439999974,12,144562.3750000000,123328.9765625000,157816.7500000000,131554.0000000000,117511.1328125000,123837.6640625000,114948.8984375000,133083.8750000000,,,
1.5479999974,12,144564.9687500000,123332.8671875000,157818.5468750000,131561.9375000000,117511.2968750000,123849.0078125000,114955.1250000000,133087.7500000000,,,
1.5519999973,12,144571.7343750000,123340.0078125000,157825.9531250000,131581.8437500000,117517.6015625000,123853.0546875000,114967.4062500000,133095.3281250000,,,
1.5559999973,12,144570.3125000000,123337.2421875000,157824.3906250000,131581.2187500000,117517.0859375000,123841.3125000000,114969.0937500000,133092.3593750000,,,
1.5599999975,12,144555.0937500000,123316.7500000000,157805.6406250000,131548.9062500000,117502.3125000000,123823.4453125000,114953.8359375000,133071.9687500000,,,
1.5639999975,12,144554.4062500000,123310.3359375000,157800.6250000000,131530.1250000000,117499.2265625000,123825.6484375000,114946.3281250000,133065.3750000000,,,
1.5679999974,12,144569.9062500000,123322.9218750000,157814.2500000000,131545.4687500000,117511.7812500000,123843.2656250000,114958.0468750000,133078.1093750000,,,
1.5719999974,12,144575.8125000000,123325.0078125000,157818.4375000000,131560.7031250000,117517.9453125000,123843.6406250000,114965.7421875000,133080.9375000000,,,
1.5759999973,12,144562.6406250000,123307.0937500000,157803.7968750000,131562.7968750000,117507.2968750000,123823.0937500000,114956.7890625000,133062.8593750000,,,
1.5799999975,12,144559.7968750000,123300.7656250000,157796.1562500000,131543.1718750000,117505.6875000000,123815.6953125000,114952.4375000000,133055.2812500000,,,
1.5839999975,12,144567.3593750000,123310.3359375000,157802.6093750000,131542.5468750000,117513.1171875000,123830.6640625000,114957.3203125000,133064.7031250000,,,
1.5879999974,12,144571.1093750000,123318.0937500000,157808.3593750000,131552.6093750000,117515.7187500000,123842.5937500000,114959.9218750000,133073.1250000000,,,
1.5919999974,12,144570.6093750000,123322.0312500000,157810.7968750000,131551.2187500000,117516.2031250000,123843.6171875000,114960.7265625000,133077.2812500000,,,
1.5959999973,12,144562.7500000000,123316.8046875000,157809.1093750000,131551.9062500000,117511.6953125000,123831.0625000000,114954.6640625000,133071.3281250000,,,
1.5999999973,12,144553.6718750000,123312.0000000000,157805.7187500000,131539.8437500000,117503.8906250000,123824.9218750000,114945.1171875000,133067.0937500000,,,
1.6039999975,12,144556.8125000000,123314.7890625000,157810.9218750000,131534.7656250000,117506.8984375000,123831.6796875000,114944.9843750000,133069.5312500000,,,
1.6079999974,12,144572.8593750000,123323.9921875000,157822.9687500000,131546.2500000000,117522.9609375000,123844.7968750000,114960.4296875000,133078.4375000000,,,
1.6119999974,12,144571.2500000000,123322.1953125000,157819.8281250000,131553.7031250000,117520.1718750000,123840.7968750000,114957.0234375000,133076.5625000000,,,
1.6159999974,12,144562.2343750000,123318.7109375000,157810.7968750000,131546.5781250000,117508.9375000000,123828.3281250000,114949.5468750000,133073.6406250000,,,
1.6199999973,12,144559.0156250000,123317.4218750000,157805.6718750000,131536.6718750000,117504.5859375000,123823.4687500000,114945.6562500000,133072.1562500000,,,
1.6239999975,12,144568.2968750000,123328.9531250000,157814.1250000000,131545.2812500000,117512.1015625000,123838.2265625000,114948.7890625000,133084.1562500000,,,
1.6279999975,12,144581.8906250000,123343.6015625000,157827.5625000000,131557.8593750000,117524.8125000000,123855.6875000000,114957.7265625000,133099.0937500000,,,
1.6319999974,12,144589.0625000000,123350.6250000000,157836.5468750000,131570.1250000000,117534.3046875000,123860.3515625000,114966.2031250000,133106.3906250000,,,
1.6359999974,12,144578.5468750000,123336.5703125000,157826.5625000000,131567.9531250000,117526.9609375000,123840.4765625000,114958.2031250000,133092.3906250000,,,
1.6399999973,12,144565.2656250000,123322.1171875000,157811.9687500000,131556.2500000000,117515.1562500000,123825.2421875000,114949.0078125000,133076.8281250000,,,
1.6439999973,12,144565.8750000000,123323.3437500000,157807.6875000000,131550.6562500000,117513.0078125000,123835.8359375000,114953.5390625000,133077.5312500000,,,
1.6479999975,12,144580.4531250000,123332.5468750000,157817.5468750000,131566.4687500000,117524.2500000000,123849.0078125000,114965.8281250000,133086.7500000000,,,
1.6519999974,12,144592.7343750000,123336.6484375000,157829.2500000000,131573.9531250000,117538.0625000000,123848.0937500000,114974.2734375000,133091.6562500000,,,
1.6559999974,12,144589.2500000000,123332.4687500000,157828.2343750000,131564.0000000000,117535.0312500000,123836.9609375000,114970.7890625000,133087.2812500000,,,
1.6599999974,12,144578.5156250000,123322.1953125000,157818.3281250000,131545.0156250000,117523.1250000000,123822.2421875000,114963.1953125000,133076.9375000000,,,
1.6639999973,13,144578.6718750000,123322.5703125000,157817.9218750000,131551.9062500000,117522.4531250000,123828.4062500000,114961.6640625000,133076.8281250000,,,
1.6679999973,13,144584.9843750000,123330.0234375000,157824.2656250000,131559.6406250000,117529.2890625000,123838.8984375000,114967.6250000000,133084.5000000000,,,
1.6719999972,13,144589.3281250000,123331.2343750000,157826.8281250000,131560.9218750000,117533.6406250000,123834.6015625000,114973.3593750000,133085.4687500000,,,
1.6759999972,13,144586.8593750000,123327.3203125000,157823.0468750000,131546.2187500000,117531.2734375000,123831.6015625000,114974.0078125000,133081.8125000000,,,
1.6799999971,13,144580.4218750000,123321.3906250000,157817.3593750000,131538.4375000000,117524.9453125000,123826.7187500000,114967.4609375000,133076.3750000000,,,
1.6839999971,13,144586.5937500000,123328.2031250000,157825.6718750000,131553.2031250000,117531.8671875000,123831.4375000000,114968.9609375000,133083.3125000000,,,
1.6879999973,13,144599.9218750000,123340.0312500000,157838.7968750000,131573.8437500000,117546.9375000000,123847.2343750000,114982.7187500000,133095.6093750000,,,
1.6919999972,13,144600.6093750000,123340.6171875000,157840.4843750000,131559.6406250000,117548.6328125000,123849.3828125000,114988.4921875000,133096.2968750000,,,
1.6959999972,13,144588.3593750000,123327.1015625000,157830.0312500000,131544.9687500000,117537.8984375000,123829.7187500000,114980.4921875000,133082.1875000000,,,
1.6999999972,13,144573.8437500000,123317.3906250000,157816.2343750000,131532.4687500000,117521.6484375000,123816.7968750000,114969.5234375000,133072.7500000000,,,
1.7039999971,13,144570.0937500000,123317.5000000000,157813.0781250000,131539.2968750000,117515.8046875000,123819.4453125000,114965.4218750000,133072.9687500000,,,
1.7079999973,13,144580.6875000000,123330.3750000000,157825.2031250000,131558.2968750000,117524.8671875000,123835.3828125000,114973.2578125000,133086.0312500000,,,
1.7119999973,13,144589.2968750000,123342.1796875000,157836.0625000000,131565.1562500000,117533.5546875000,123841.9765625000,114982.1015625000,133098.1250000000,,,
1.7159999972,13,144582.1562500000,123335.2265625000,157828.7343750000,131557.2812500000,117527.1718750000,123830.7109375000,114973.9765625000,133091.0625000000,,,
1.7199999972,13,144578.3593750000,123329.8906250000,157823.6093750000,131547.6406250000,117524.5703125000,123824.5468750000,114967.8593750000,133085.7343750000,,,
1.7239999971,13,144582.5937500000,123331.9843750000,157824.9218750000,131557.8593750000,117527.4687500000,123835.4921875000,114973.0937500000,133087.3437500000,,,
1.7279999971,13,144582.1875000000,123333.1406250000,157824.7187500000,131561.6406250000,117526.3125000000,123844.3359375000,114974.9687500000,133088.5781250000,,,
1.7319999973,13,144582.0000000000,123333.3515625000,157825.5468750000,131560.0625000000,117526.3437500000,123844.2890625000,114980.0156250000,133088.5468750000,,,
1.7359999972,13,144587.4531250000,123339.4140625000,157832.2187500000,131565.4531250000,117533.8281250000,123840.7968750000,114986.4765625000,133095.2812500000,,,
1.7399999972,13,144586.0000000000,123335.3671875000,157830.2656250000,131560.9687500000,117533.3671875000,123834.3046875000,114982.5312500000,133090.7968750000,,,
1.7439999972,13,144575.7812500000,123321.2265625000,157818.0625000000,131561.4843750000,117522.1562500000,123824.6250000000,114968.5078125000,133076.1562500000,,,
1.7479999971,13,144585.8437500000,123330.5625000000,157827.5312500000,131563.5468750000,117530.7656250000,123836.7500000000,114975.4296875000,133085.3593750000,,,
1.7519999973,13,144595.0156250000,123341.2343750000,157836.9687500000,131570.5312500000,117538.9218750000,123850.3203125000,114980.2265625000,133096.2187500000,,,
1.7559999973,13,144596.7500000000,123343.4921875000,157838.8281250000,131559.5312500000,117541.3359375000,123846.4609375000,114986.0234375000,133098.4687500000,,,
1.7599999972,13,144588.3593750000,123338.4765625000,157831.4531250000,131548.5000000000,117532.5390625000,123836.6718750000,114980.3593750000,133093.0468750000,,,
1.7639999972,13,144582.2968750000,123333.4609375000,157825.3281250000,131543.1718750000,117526.0703125000,123834.2812500000,114974.2187500000,133087.2031250000,,,
1.7679999971,13,144584.4375000000,123335.5000000000,157828.1250000000,131554.4531250000,117529.6406250000,123843.7500000000,114977.4375000000,133089.8125000000,,,
1.7719999971,13,144591.0156250000,123342.9531250000,157836.9218750000,131570.7187500000,117538.7578125000,123847.7187500000,114982.6953125000,133097.7968750000,,,
1.7759999973,13,144584.7656250000,123340.4062500000,157832.2187500000,131560.9531250000,117534.1171875000,123835.3828125000,114974.3515625000,133095.3281250000,,,
1.7799999972,13,144573.0468750000,123327.8281250000,157817.6875000000,131533.4531250000,117521.5390625000,123825.1640625000,114965.6875000000,133083.0000000000,,,
1.7839999972,13,144572.4218750000,123320.4765625000,157813.2343750000,131520.6875000000,117519.9062500000,123825.9375000000,114968.9062500000,133075.2968750000,,,
1.7879999971,13,144579.4843750000,123319.7812500000,157817.5312500000,131541.3750000000,117523.6562500000,123832.1875000000,114975.0000000000,133074.8125000000,,,
1.7919999971,14,144583.5625000000,123320.9609375000,157821.5468750000,131553.8125000000,117527.6796875000,123831.5703125000,114978.6484375000,133076.5000000000,,,
1.7959999971,14,144580.9062500000,123317.7656250000,157819.8125000000,131551.4062500000,117527.0390625000,123821.7265625000,114974.4609375000,133073.4218750000,,,
1.7999999970,14,144572.3125000000,123312.9921875000,157811.8437500000,131544.5937500000,117516.6875000000,123812.4218750000,114959.9218750000,133068.6406250000,,,
1.8039999970,14,144567.7031250000,123312.1875000000,157808.7500000000,131550.8125000000,117510.2187500000,123815.3203125000,114954.1015625000,133067.2812500000,,,
1.8079999969,14,144574.3906250000,123319.9140625000,157816.6093750000,131562.3906250000,117516.2031250000,123828.0625000000,114962.6875000000,133075.0781250000,,,
1.8119999969,14,144580.9375000000,123331.2343750000,157826.6406250000,131573.8750000000,117524.5156250000,123836.3437500000,114970.6015625000,133086.8593750000,,,
1.8159999971,14,144581.1718750000,123335.6015625000,157827.8593750000,131578.7656250000,117528.7265625000,123836.0781250000,114973.6562500000,133091.5312500000,,,
1.8199999970,14,144576.6718750000,123329.3046875000,157820.0937500000,131572.9843750000,117525.6953125000,123830.3671875000,114972.0234375000,133085.0000000000,,,
1.8239999970,14,144570.1250000000,123320.2343750000,157811.4062500000,131576.6093750000,117517.2500000000,123827.1171875000,114966.1484375000,133075.5625000000,,,
1.8279999970,14,144579.9375000000,123324.2578125000,157817.5468750000,131568.2968750000,117524.3593750000,123840.4531250000,114975.6953125000,133080.1562500000,,,
1.8319999969,14,144584.3906250000,123321.6328125000,157821.0156250000,131570.5000000000,117527.4921875000,123837.7656250000,114974.8125000000,133077.0156250000,,,
1.8359999971,14,144577.6093750000,123313.2109375000,157814.5156250000,131565.9062500000,117519.9062500000,123819.6093750000,114967.9140625000,133069.0000000000,,,
1.8399999971,14,144571.2187500000,123307.9765625000,157807.3281250000,131561.9375000000,117513.1171875000,123806.6250000000,114965.3671875000,133064.1718750000,,,
1.8439999970,14,144570.4218750000,123309.9921875000,157808.1875000000,131558.8906250000,117511.7265625000,123810.7578125000,114961.9921875000,133065.5000000000,,,
1.8479999970,14,144579.8281250000,123326.5390625000,157821.1718750000,131570.8437500000,117520.0156250000,123835.4375000000,114970.8437500000,133081.4062500000,,,
1.8519999969,14,144584.0625000000,123334.8828125000,157825.9687500000,131566.6406250000,117523.0156250000,123844.3359375000,114977.1953125000,133089.5156250000,,,
1.8559999969,14,144574.2968750000,123322.0312500000,157815.2500000000,131546.9531250000,117515.1328125000,123828.2968750000,114968.8828125000,133076.3437500000,,,
1.8599999971,14,144573.8281250000,123317.3125000000,157811.1718750000,131536.6250000000,117517.0312500000,123821.5156250000,114972.4765625000,133071.7812500000,,,
1.8639999970,14,144579.3750000000,123319.2187500000,157813.5000000000,131542.2812500000,117522.9609375000,123828.0625000000,114977.7578125000,133074.0937500000,,,
1.8679999970,14,144580.8750000000,123320.5546875000,157814.9218750000,131541.6875000000,117521.7031250000,123834.2031250000,114976.2343750000,133075.8281250000,,,
1.8719999969,14,144580.9062500000,123318.1718750000,157816.1875000000,131539.3593750000,117520.8437500000,123828.4375000000,114978.4843750000,133074.2031250000,,,
1.8759999969,14,144575.0000000000,123309.8281250000,157811.2500000000,131539.8593750000,117516.0156250000,123812.1015625000,114975.5078125000,133065.9843750000,,,
1.8799999971,14,144566.3906250000,123301.5390625000,157803.8437500000,131542.3281250000,117509.2812500000,123803.1953125000,114964.7500000000,133057.1875000000,,,
1.8839999971,14,144574.0156250000,123307.9218750000,157809.1250000000,131548.1250000000,117519.0468750000,123818.1328125000,114969.2343750000,133063.5156250000,,,
1.8879999970,14,144585.4687500000,123318.3281250000,157819.0781250000,131566.4531250000,117531.5703125000,123835.2968750000,114980.7343750000,133073.8750000000,,,
1.8919999970,14,144574.6875000000,123313.9296875000,157812.2187500000,131558.7031250000,117519.2890625000,123828.3515625000,114970.0390625000,133069.0781250000,,,
1.8959999969,14,144562.4531250000,123310.5000000000,157805.5156250000,131552.6406250000,117509.0156250000,123815.6171875000,114957.5625000000,133066.0781250000,,,
1.8999999969,14,144559.9062500000,123314.7890625000,157803.3125000000,131551.9843750000,117506.5234375000,123814.4062500000,114958.2343750000,133069.9843750000,,,
1.9039999971,14,144561.5156250000,123315.4062500000,157801.0781250000,131551.0000000000,117506.4921875000,123819.9609375000,114958.8515625000,133070.0156250000,,,
1.9079999970,14,144566.9062500000,123319.5625000000,157806.5781250000,131557.7812500000,117509.6328125000,123829.9375000000,114960.9453125000,133074.3125000000,,,
1.9119999970,14,144572.5312500000,123323.0234375000,157811.8906250000,131567.1718750000,117514.5937500000,123835.1640625000,114966.0390625000,133078.3750000000,,,
1.9159999969,14,144571.7031250000,123320.1015625000,157811.1093750000,131570.1718750000,117514.3515625000,123827.6562500000,114965.5546875000,133075.3437500000,,,
1.9199999969,15,144564.2656250000,123309.2890625000,157804.0625000000,131560.5937500000,117507.6171875000,123812.6093750000,114960.1953125000,133064.7500000000,,,
1.9239999969,15,144569.9843750000,123311.3281250000,157807.8750000000,131562.1250000000,117512.6328125000,123816.8437500000,114964.9921875000,133066.8281250000,,,
1.9279999968,15,144576.2031250000,123316.2968750000,157811.5781250000,131565.0312500000,117517.6250000000,123828.1640625000,114967.7578125000,133070.8125000000,,,
1.9319999968,15,144575.9687500000,123316.9375000000,157811.2500000000,131565.6718750000,117517.2187500000,123829.3984375000,114965.6093750000,133071.3281250000,,,
1.9359999967,15,144576.1562500000,123318.5156250000,157813.7968750000,131565.6718750000,117520.7109375000,123820.2031250000,114966.6796875000,133073.2031250000,,,
1.9399999967,15,144579.5312500000,123325.3593750000,157821.4375000000,131566.8281250000,117529.8281250000,123819.1796875000,114971.2968750000,133079.4531250000,,,
1.9439999969,15,144573.2031250000,123323.8281250000,157818.3593750000,131560.4687500000,117522.6953125000,123825.7265625000,114969.1484375000,133076.9375000000,,,
1.9479999968,15,144574.2968750000,123330.1640625000,157824.9531250000,131573.7500000000,117521.7265625000,123836.9062500000,114972.5312500000,133084.0937500000,,,
1.9519999968,15,144569.8750000000,123332.7890625000,157827.1875000000,131573.2656250000,117515.3984375000,123842.4921875000,114968.4296875000,133087.5781250000,,,
1.9559999967,15,144568.4062500000,123324.8750000000,157824.8750000000,131559.8281250000,117513.8437500000,123831.9218750000,114969.5000000000,133079.9687500000,,,
1.9599999967,15,144564.1718750000,123310.0468750000,157813.3437500000,131542.2031250000,117509.2031250000,123815.5078125000,114966.1484375000,133065.3437500000,,,
1.9639999969,15,144564.4843750000,123303.5546875000,157804.5156250000,131530.2968750000,117506.7343750000,123812.7968750000,114963.0625000000,133058.0312500000,,,
1.9679999969,15,144570.7031250000,123305.9140625000,157806.3906250000,131542.9218750000,117511.2421875000,123821.8359375000,114965.6093750000,133060.5781250000,,,
1.9719999968,15,144586.6093750000,123322.8125000000,157822.6250000000,131560.7343750000,117527.6562500000,123834.1171875000,114980.1171875000,133077.7968750000,,,
1.9759999968,15,144589.0781250000,123324.0703125000,157826.0000000000,131560.5781250000,117532.8593750000,123824.3046875000,114977.0859375000,133079.3281250000,,,
1.9799999967,15,144579.3437500000,123315.2187500000,157816.4218750000,131550.2500000000,117524.3828125000,123807.8906250000,114964.0781250000,133070.4687500000,,,
1.9839999967,15,144579.5625000000,123315.9687500000,157814.0156250000,131561.1562500000,117524.8671875000,123814.1640625000,114966.2265625000,133071.0937500000,,,
1.9879999969,15,144586.1406250000,123324.6093750000,157819.4843750000,131576.2343750000,117528.8906250000,123831.2812500000,114973.4140625000,133079.0000000000,,,
1.9919999968,15,144588.4687500000,123328.8750000000,157822.7031250000,131571.9218750000,117528.6250000000,123838.6796875000,114977.1718750000,133083.6093750000,,,
1.9959999968,15,144581.6562500000,123320.5546875000,157815.9218750000,131559.1562500000,117520.7343750000,123828.8125000000,114974.4609375000,133075.6406250000,,,
1.9999999967,15,144569.9375000000,123307.8984375000,157806.2812500000,131540.0468750000,117509.7656250000,123814.9140625000,114967.0312500000,133063.2343750000,,,
2.0039999967,15,144570.7968750000,123308.9140625000,157809.0000000000,131550.5937500000,117510.8125000000,123818.6406250000,114970.0390625000,133064.4375000000,,,
2.0079999969,15,144574.1093750000,123315.4062500000,157813.5312500000,131568.7812500000,117513.6015625000,123831.7890625000,114973.7890625000,133070.8750000000,,,
2.0119999968,15,144573.5468750000,123318.1171875000,157816.0781250000,131569.2968750000,117512.2343750000,123836.1562500000,114972.7734375000,133073.0781250000,,,
2.0159999968,15,144572.7187500000,123317.6093750000,157816.6718750000,131566.4218750000,117511.1640625000,123831.0078125000,114971.1640625000,133072.0000000000,,,
2.0199999968,15,144570.4375000000,123315.1953125000,157812.9687500000,131569.0156250000,117509.8984375000,123824.8906250000,114968.9062500000,133069.6406250000,,,
2.0239999967,15,144569.2812500000,123314.1171875000,157808.8593750000,131567.0156250000,117509.7656250000,123820.4687500000,114964.6953125000,133068.7812500000,,,
2.0279999967,15,144573.7968750000,123315.8125000000,157811.6718750000,131568.7500000000,117515.2656250000,123822.4765625000,114962.0703125000,133070.5468750000,,,
2.0319999969,15,144583.3125000000,123323.2109375000,157820.2031250000,131567.8437500000,117523.7656250000,123832.8046875000,114969.8750000000,133077.9062500000,,,
2.0359999968,15,144587.0468750000,123323.6953125000,157821.2031250000,131558.1562500000,117526.5859375000,123829.6953125000,114976.6875000000,133078.2500000000,,,
2.0399999968,15,144586.6093750000,123320.9843750000,157819.9062500000,131561.3281250000,117526.5312500000,123819.5312500000,114975.5625000000,133076.2968750000,,,
2.0439999967,15,144594.9375000000,123327.0234375000,157825.3906250000,131552.9218750000,117533.5000000000,123829.6406250000,114979.5859375000,133082.2656250000,,,
2.0479999967,16,144599.8906250000,123330.2968750000,157827.8593750000,131548.0000000000,117535.9687500000,123843.5859375000,114982.9609375000,133084.5781250000,,,
2.0519999966,16,144597.9375000000,123331.3671875000,157829.0000000000,131554.8906250000,117534.4453125000,123846.1640625000,114984.2265625000,133084.4687500000,,,
2.0559999966,16,144592.0937500000,123329.7031250000,157829.5156250000,131565.9687500000,117532.6953125000,123835.8125000000,114979.0234375000,133084.0937500000,,,
2.0599999966,16,144576.8593750000,123320.6953125000,157819.8906250000,131549.2031250000,117519.6640625000,123821.2187500000,114961.5859375000,133075.3750000000,,,
2.0639999965,16,144566.8750000000,123315.2734375000,157811.3906250000,131526.6093750000,117509.7109375000,123819.2109375000,114952.0078125000,133070.4687500000,,,
2.0679999965,16,144577.1406250000,123328.2578125000,157823.3437500000,131538.2500000000,117518.5390625000,123831.8671875000,114961.3203125000,133083.5625000000,,,
2.0719999967,16,144591.4375000000,123343.7890625000,157840.2968750000,131559.4687500000,117532.8359375000,123838.0937500000,114972.1796875000,133099.3593750000,,,
2.0759999966,16,144589.0781250000,123344.1640625000,157840.4531250000,131569.8281250000,117530.3359375000,123832.0546875000,114973.7890625000,133099.8437500000,,,
2.0799999966,16,144581.6250000000,123336.5156250000,157832.0156250000,131557.3281250000,117521.1640625000,123819.3437500000,114968.3203125000,133092.1718750000,,,
2.0839999965,16,144587.8750000000,123338.8750000000,157834.9843750000,131562.9062500000,117526.1250000000,123823.8203125000,114970.4609375000,133094.1875000000,,,
2.0879999965,16,144599.2031250000,123345.3671875000,157842.5781250000,131567.8906250000,117535.5937500000,123839.9921875000,114977.4375000000,133100.2968750000,,,
2.0919999967,16,144607.5937500000,123351.9375000000,157850.7343750000,131572.6406250000,117545.2265625000,123848.2265625000,114983.7109375000,133107.0000000000,,,
2.0959999966,16,144599.8906250000,123346.2812500000,157843.7500000000,131571.0625000000,117540.4765625000,123836.8046875000,114977.6796875000,133101.2812500000,,,
2.0999999966,16,144585.0625000000,123332.9765625000,157827.0937500000,131560.2187500000,117525.4843750000,123820.2265625000,114964.0781250000,133088.5156250000,,,
2.1039999966,16,144581.7656250000,123325.8984375000,157819.9687500000,131550.0781250000,117520.0625000000,123819.4765625000,114965.8281250000,133081.0625000000,,,
2.1079999965,16,144589.6250000000,123332.9218750000,157828.6875000000,131561.5937500000,117527.5234375000,123831.3281250000,114972.2578125000,133087.5781250000,,,
2.1119999965,16,144596.1718750000,123341.2656250000,157839.2500000000,131565.1875000000,117535.1406250000,123841.6562500000,114974.0625000000,133095.8750000000,,,
2.1159999967,16,144591.9218750000,123340.1953125000,157837.5312500000,131552.2656250000,117532.2968750000,123837.7656250000,114973.7890625000,133095.2812500000,,,
2.1199999966,16,144586.2187500000,123338.4453125000,157833.8281250000,131545.8750000000,117528.2500000000,123824.6250000000,114966.1718750000,133093.2968750000,,,
2.1239999966,16,144588.7656250000,123342.5000000000,157835.6093750000,131551.6093750000,117528.6250000000,123827.5468750000,114963.0625000000,133097.4843750000,,,
2.1279999965,16,144599.3593750000,123348.4296875000,157842.0937500000,131552.9218750000,117537.0468750000,123838.9453125000,114973.5468750000,133103.3593750000,,,
2.1319999965,16,144611.8750000000,123357.2812500000,157852.0156250000,131557.7500000000,117549.1171875000,123850.4296875000,114986.1562500000,133112.0781250000,,,
2.1359999967,16,144612.7656250000,123356.3125000000,157854.3281250000,131570.4375000000,117552.2812500000,123847.1015625000,114989.2109375000,133111.1875000000,,,
2.1399999966,16,144593.0781250000,123335.6562500000,157837.6718750000,131550.7343750000,117535.7031250000,123823.4687500000,114972.3125000000,133090.4843750000,,,
2.1439999966,16,144588.2812500000,123330.4843750000,157833.6250000000,131538.7343750000,117531.8125000000,123817.5468750000,114963.0078125000,133084.9062500000,,,
2.1479999966,16,144607.5937500000,123345.9843750000,157850.0312500000,131547.3750000000,117551.2578125000,123836.0234375000,114980.2265625000,133100.8125000000,,,
2.1519999965,16,144617.1718750000,123352.2109375000,157856.9843750000,131572.1093750000,117558.3671875000,123846.1875000000,114995.8671875000,133107.0781250000,,,
2.1559999965,16,144612.2812500000,123346.6562500000,157853.4062500000,131574.4062500000,117552.7343750000,123834.3593750000,114990.2031250000,133102.0468750000,,,
2.1599999967,16,144601.6875000000,123337.3984375000,157845.3437500000,131560.9531250000,117542.2187500000,123818.5078125000,114973.1484375000,133093.4531250000,,,
2.1639999966,16,144594.1875000000,123327.4531250000,157833.2187500000,131544.2187500000,117531.6796875000,123818.6718750000,114967.5156250000,133082.5156250000,,,
2.1679999966,16,144599.0937500000,123333.2421875000,157836.7343750000,131550.7812500000,117534.4140625000,123829.4531250000,114974.0859375000,133087.6875000000,,,
2.1719999965,16,144602.8125000000,123336.3281250000,157838.6093750000,131555.9375000000,117538.4375000000,123832.2187500000,114977.6015625000,133090.6093750000,,,
2.1759999965,17,144599.3906250000,123333.8046875000,157837.4062500000,131559.9843750000,117539.2734375000,123828.5937500000,114970.3828125000,133088.5000000000,,,
2.1799999964,17,144583.2031250000,123321.9296875000,157824.3125000000,131548.9531250000,117525.3515625000,123813.8984375000,114953.9453125000,133076.3906250000,,,
2.1839999964,17,144570.6562500000,123309.1562500000,157814.1406250000,131561.8906250000,117515.5312500000,123802.7656250000,114945.1171875000,133063.8906250000,,,
2.1879999964,17,144578.6250000000,123321.8984375000,157825.7031250000,131567.7656250000,117525.7500000000,123816.5781250000,114955.7109375000,133076.9062500000,,,
2.1919999963,17,144592.6562500000,123340.6171875000,157841.3125000000,131578.9687500000,117539.5390625000,123833.7421875000,114968.6953125000,133096.3281250000,,,
2.1959999963,17,144589.8281250000,123337.5937500000,157838.2343750000,131577.8750000000,117537.0156250000,123826.3125000000,114969.0468750000,133093.6718750000,,,
2.1999999965,17,144559.8281250000,123305.5078125000,157804.7031250000,131530.2656250000,117504.3984375000,123798.9531250000,114942.2734375000,133060.8437500000,,,
2.2039999964,17,144557.1718750000,123303.0156250000,157799.0937500000,131523.8593750000,117497.5625000000,123803.6484375000,114938.4140625000,133057.6718750000,,,
2.2079999964,17,144578.9687500000,123322.2500000000,157818.5468750000,131540.8906250000,117516.9843750000,123825.8046875000,114960.9687500000,133076.2343750000,,,
2.2119999963,17,144597.9687500000,123336.3593750000,157835.1250000000,131556.5000000000,117534.6796875000,123837.2890625000,114978.7500000000,133091.0937500000,,,
2.2159999963,17,144598.2031250000,123337.9140625000,157837.4531250000,131554.0312500000,117536.5078125000,123833.2109375000,114977.0390625000,133093.0000000000,,,
2.2199999965,17,144591.2812500000,123333.1406250000,157831.1250000000,131540.4843750000,117531.8671875000,123822.0468750000,114968.3203125000,133087.2812500000,,,
2.2239999964,17,144583.2031250000,123322.9453125000,157822.7343750000,131540.3281250000,117522.5312500000,123815.6640625000,114960.2421875000,133077.4218750000,,,
2.2279999964,17,144590.2031250000,123329.0859375000,157830.8281250000,131545.2343750000,117529.5312500000,123833.5000000000,114966.6328125000,133084.4218750000,,,
2.2319999964,17,144598.4687500000,123340.8906250000,157842.6093750000,131555.2656250000,117539.3750000000,123847.7734375000,114980.9531250000,133096.1406250000,,,
2.2359999963,17,144592.5781250000,123339.2812500000,157840.4062500000,131553.8906250000,117534.2812500000,123840.2109375000,114980.7343750000,133094.5312500000,,,
2.2399999963,17,144584.0156250000,123328.8750000000,157830.2656250000,131550.1875000000,117524.0625000000,123827.9218750000,114972.3437500000,133084.3125000000,,,
2.2439999965,17,144583.4218750000,123328.4687500000,157827.9843750000,131548.8750000000,117520.8203125000,123832.1640625000,114969.9296875000,133083.0468750000,,,
2.2479999964,17,144593.0312500000,123336.8906250000,157833.4375000000,131557.0312500000,117527.7890625000,123842.6250000000,114975.9609375000,133090.6093750000,,,
2.2519999964,17,144599.0625000000,123339.3046875000,157835.9218750000,131563.1406250000,117533.4531250000,123844.7656250000,114976.4765625000,133093.6093750000,,,
2.2559999963,17,144600.2187500000,123337.1640625000,157835.9218750000,131565.4531250000,117536.1328125000,123838.5156250000,114979.5312500000,133092.1406250000,,,
2.2599999963,17,144598.4218750000,123335.0390625000,157835.1718750000,131565.6406250000,117535.9453125000,123830.5234375000,114978.5390625000,133089.6406250000,,,
2.2639999965,17,144590.5625000000,123332.5234375000,157828.9531250000,131557.7031250000,117527.0937500000,123829.8046875000,114969.7109375000,133086.9843750000,,,
2.2679999964,17,144597.0468750000,123335.5000000000,157835.6093750000,131563.8125000000,117535.2734375000,123838.6250000000,114971.2968750000,133089.7812500000,,,
2.2719999964,17,144598.5468750000,123333.4609375000,157837.9062500000,131568.2656250000,117538.0390625000,123839.1875000000,114973.2031250000,133087.9843750000,,,
2.2759999963,17,144594.4531250000,123327.2890625000,157835.6250000000,131560.8906250000,117536.7500000000,123830.5781250000,114974.1093750000,133082.5625000000,,,
2.2799999963,17,144583.6406250000,123314.6562500000,157825.2031250000,131557.2187500000,117526.7421875000,123820.6796875000,114966.3046875000,133069.8281250000,,,
2.2839999963,17,144584.1250000000,123315.7578125000,157825.2031250000,131555.6093750000,117525.6484375000,123822.9609375000,114965.7734375000,133070.3125000000,,,
2.2879999964,17,144591.0937500000,123323.2968750000,157831.6875000000,131554.2968750000,117530.7109375000,123835.2734375000,114972.6640625000,133077.5000000000,,,
2.2919999964,17,144597.8593750000,123326.8906250000,157836.4062500000,131548.4218750000,117537.1250000000,123841.6015625000,114981.7812500000,133081.3281250000,,,
2.2959999964,17,144597.9062500000,123327.6093750000,157835.7968750000,131544.5937500000,117537.0468750000,123838.2265625000,114982.7500000000,133082.1875000000,,,
2.2999999963,17,144587.5625000000,123325.4140625000,157828.6093750000,131537.2656250000,117525.5078125000,123831.4140625000,114966.8671875000,133079.6718750000,,,
2.3039999963,18,144583.1562500000,123326.5937500000,157827.0937500000,131534.7656250000,117520.3046875000,123830.4765625000,114956.2500000000,133080.8750000000,,,
2.3079999962,18,144591.5468750000,123335.6015625000,157836.4687500000,131548.2656250000,117528.9453125000,123836.7500000000,114964.6718750000,133089.8281250000,,,
2.3119999962,18,144604.2187500000,123346.4687500000,157847.5156250000,131558.7500000000,117540.9843750000,123844.5312500000,114981.4609375000,133101.1250000000,,,
2.3159999961,18,144599.5781250000,123339.0078125000,157839.7812500000,131547.0312500000,117536.6406250000,123837.4218750000,114983.1015625000,133093.8906250000,,,
2.3199999961,18,144581.9218750000,123323.3203125000,157822.8437500000,131529.5937500000,117519.7421875000,123822.2656250000,114969.2578125000,133077.9062500000,,,
2.3239999961,18,144583.9531250000,123332.1718750000,157829.3281250000,131539.8125000000,117522.5312500000,123829.3750000000,114973.2812500000,133087.5625000000,,,
2.3279999963,18,144595.9218750000,123347.7812500000,157844.9843750000,131552.5468750000,117535.5703125000,123843.8828125000,114986.0781250000,133102.7343750000,,,
2.3319999962,18,144598.6093750000,123346.9765625000,157849.9218750000,131560.7343750000,117540.2656250000,123844.6328125000,114988.4375000000,133102.0625000000,,,
2.3359999962,18,144594.5000000000,123337.6718750000,157846.7812500000,131570.7968750000,117539.2187500000,123833.0234375000,114987.6015625000,133093.5625000000,,,
2.3399999961,18,144579.3281250000,123324.2578125000,157831.9843750000,131562.8750000000,117522.7734375000,123825.6171875000,114974.6250000000,133079.8593750000,,,
2.3439999961,18,144574.8125000000,123314.7343750000,157822.8437500000,131552.5468750000,117518.5390625000,123823.0703125000,114965.9062500000,133069.7968750000,,,
2.3479999963,18,144585.6718750000,123321.6015625000,157830.9687500000,131553.4375000000,117529.1328125000,123829.1875000000,114970.5156250000,133076.2031250000,,,
2.3519999962,18,144590.2343750000,123326.3515625000,157834.5000000000,131553.7656250000,117532.8828125000,123832.5937500000,114975.3203125000,133081.8906250000,,,
2.3559999962,18,144589.5156250000,123328.7109375000,157835.0625000000,131563.9218750000,117531.6250000000,123828.2968750000,114975.9609375000,133084.4687500000,,,
2.3599999961,18,144583.6406250000,123324.2578125000,157829.5937500000,131548.6718750000,117524.8437500000,123815.4531250000,114969.5234375000,133080.0781250000,,,
2.3639999961,18,144583.4531250000,123322.8671875000,157825.5937500000,131534.2812500000,117521.8359375000,123814.5703125000,114969.5234375000,133077.7343750000,,,
2.3679999961,18,144592.5781250000,123329.9687500000,157832.3593750000,131545.6406250000,117529.2109375000,123827.7343750000,114975.5859375000,133084.7656250000,,,
2.3719999962,18,144598.8125000000,123338.4765625000,157839.2500000000,131556.8125000000,117536.1328125000,123838.7890625000,114979.7968750000,133092.7812500000,,,
2.3759999962,18,144600.0000000000,123338.2343750000,157839.8125000000,131558.7968750000,117540.3437500000,123835.2187500000,114984.8671875000,133092.7812500000,,,
2.3799999962,18,144594.1562500000,123328.0156250000,157835.0937500000,131553.7656250000,117535.4062500000,123824.8125000000,114978.9687500000,133083.2656250000,,,
2.3839999961,18,144592.2968750000,123323.0546875000,157835.7343750000,131547.8906250000,117533.4765625000,123824.0390625000,114972.1796875000,133078.5156250000,,,
2.3879999961,18,144590.8593750000,123319.7031250000,157834.3750000000,131531.6562500000,117528.8359375000,123824.0859375000,114970.9765625000,133074.5468750000,,,
2.3919999963,18,144589.8906250000,123318.8984375000,157832.9687500000,131530.5625000000,117525.7812500000,123823.8515625000,114974.4609375000,133073.5781250000,,,
2.3959999962,18,144586.9062500000,123319.5625000000,157832.4687500000,131541.4687500000,117523.1250000000,123820.8671875000,114972.0703125000,133074.8125000000,,,
2.3999999962,18,144578.1406250000,123315.6796875000,157825.7031250000,131542.1250000000,117513.7343750000,123812.6328125000,114963.5703125000,133071.2500000000,,,
2.4039999961,18,144576.9062500000,123316.7500000000,157824.5781250000,131535.8125000000,117511.3203125000,123809.8750000000,114959.9218750000,133072.2968750000,,,
2.4079999961,18,144582.0312500000,123325.5703125000,157832.8437500000,131540.1562500000,117516.8984375000,123817.0078125000,114960.7812500000,133081.0625000000,,,
2.4119999961,18,144591.6250000000,123334.7734375000,157842.2343750000,131548.1562500000,117527.2031250000,123822.2656250000,114968.1015625000,133089.9687500000,,,
2.4159999962,18,144589.1718750000,123333.0312500000,157841.4218750000,131555.2343750000,117528.9140625000,123816.0390625000,114966.2500000000,133088.5156250000,,,
2.4199999962,18,144583.7500000000,123331.6640625000,157839.5156250000,131555.7500000000,117527.6328125000,123812.0156250000,114961.1328125000,133087.9531250000,,,
2.4239999962,18,144579.2187500000,123326.9687500000,157834.1875000000,131539.7812500000,117524.4375000000,123809.3359375000,114957.0234375000,133083.6093750000,,,
2.4279999961,18,144586.9843750000,123333.5703125000,157840.2500000000,131548.5625000000,117531.1171875000,123823.6875000000,114968.1875000000,133089.6406250000,,,
2.4319999961,19,144580.4531250000,123327.6640625000,157834.3437500000,131568.1406250000,117520.1484375000,123827.3593750000,114962.2812500000,133083.4218750000,,,
2.4359999960,19,144566.8281250000,123314.7656250000,157821.9843750000,131553.5937500000,117506.6015625000,123813.7656250000,114949.0625000000,133071.0937500000,,,
2.4399999960,19,144555.4531250000,123301.3828125000,157809.1093750000,131532.6718750000,117497.3437500000,123797.6171875000,114942.7578125000,133057.0312500000,,,
2.4439999959,19,144552.9218750000,123296.2265625000,157803.9218750000,131526.5937500000,117494.6093750000,123791.8515625000,114941.2812500000,133051.2187500000,,,
2.4479999959,19,144565.6718750000,123307.8984375000,157817.2500000000,131541.3906250000,117506.8125000000,123802.8203125000,114949.3281250000,133063.1250000000,,,
2.4519999959,19,144578.8906250000,123318.2265625000,157831.3437500000,131551.5000000000,117522.0234375000,123808.7968750000,114961.1562500000,133073.9843750000,,,
2.4559999960,19,144576.7500000000,123315.4609375000,157832.1718750000,131553.5000000000,117522.7500000000,123797.8046875000,114961.3750000000,133070.9531250000,,,
2.4599999960,19,144571.4375000000,123311.5156250000,157830.3750000000,131547.7031250000,117519.1562500000,123792.2265625000,114960.2421875000,133066.5000000000,,,
2.4639999960,19,144575.7031250000,123315.1093750000,157831.8281250000,131544.7812500000,117521.7031250000,123801.7734375000,114965.5859375000,133069.9843750000,,,
2.4679999959,19,144581.0156250000,123321.2578125000,157834.2968750000,131547.7187500000,117524.3828125000,123815.5625000000,114970.4375000000,133076.3125000000,,,
2.4719999959,19,144591.4218750000,123335.2812500000,157845.8281250000,131550.0781250000,117534.8984375000,123828.9687500000,114984.4687500000,133090.3437500000,,,
2.4759999961,19,144590.6406250000,123334.5625000000,157846.4062500000,131549.5156250000,117535.4843750000,123825.5625000000,114985.0312500000,133090.3906250000,,,
2.4799999960,19,144585.4062500000,123326.1406250000,157840.9375000000,131548.3125000000,117530.0937500000,123815.4765625000,114976.7968750000,133082.0625000000,,,
2.4839999960,19,144589.8906250000,123326.1875000000,157843.2187500000,131554.8125000000,117532.7812500000,123815.6953125000,114978.0312500000,133082.4062500000,,,
2.4879999959,19,144601.3437500000,123337.1875000000,157852.4218750000,131564.8906250000,117541.6328125000,123824.7578125000,114986.6406250000,133093.9375000000,,,
2.4919999959,19,144605.7968750000,123343.8359375000,157855.9843750000,131566.7968750000,117545.3593750000,123829.9921875000,114992.0312500000,133100.6406250000,,,
2.4959999959,19,144597.4843750000,123337.4843750000,157848.0156250000,131561.7812500000,117539.4609375000,123817.3281250000,114986.0468750000,133094.5312500000,,,
2.4999999960,19,144589.8906250000,123329.6796875000,157839.8125000000,131554.3437500000,117534.2031250000,123804.3750000000,114978.7500000000,133086.1562500000,,,
2.5039999960,19,144590.7968750000,123333.7031250000,157839.9218750000,131540.0312500000,117533.1796875000,123812.2343750000,114979.1562500000,133089.4843750000,,,
2.5079999960,19,144594.2812500000,123337.6406250000,157843.8437500000,131541.8281250000,117535.2500000000,123824.6562500000,114981.9140625000,133093.0000000000,,,
2.5119999959,19,144599.2187500000,123340.3515625000,157850.2812500000,131551.2968750000,117540.4765625000,123827.8437500000,114988.6796875000,133095.8437500000,,,
2.5159999959,19,144600.1562500000,123339.8984375000,157852.8750000000,131563.5312500000,117543.6718750000,123821.5390625000,114991.7890625000,133095.2187500000,,,
2.5199999961,19,144594.5312500000,123333.2421875000,157848.5312500000,131560.3125000000,117539.9921875000,123811.6171875000,114986.0781250000,133089.4375000000,,,
2.5239999960,19,144590.4531250000,123329.7812500000,157842.8125000000,131554.8906250000,117535.1093750000,123809.4687500000,114980.1484375000,133085.1875000000,,,
2.5279999960,19,144591.5468750000,123332.6562500000,157843.9531250000,131558.9375000000,117534.3593750000,123818.8593750000,114977.2812500000,133087.6406250000,,,
2.5319999959,19,144594.0937500000,123337.5078125000,157847.8906250000,131563.0156250000,117536.8593750000,123827.7656250000,114977.7343750000,133093.3437500000,,,
2.5359999959,19,144589.3281250000,123332.7890625000,157844.6093750000,131560.8750000000,117533.2343750000,123819.6093750000,114978.1328125000,133088.8906250000,,,
2.5399999958,19,144583.3750000000,123322.5703125000,157836.6250000000,131557.2500000000,117530.2343750000,123808.7187500000,114982.1875000000,133078.7031250000,,,
2.5439999960,19,144587.3437500000,123325.2812500000,157838.8750000000,131553.8437500000,117534.2578125000,123816.1250000000,114988.0312500000,133081.2500000000,,,
2.5479999960,19,144586.6406250000,123320.1796875000,157837.6718750000,131554.5625000000,117530.8984375000,123826.1562500000,114983.9531250000,133075.3750000000,,,
2.5519999960,19,144585.8125000000,123320.1562500000,157838.7968750000,131559.5000000000,117526.7421875000,123833.8515625000,114979.8281250000,133075.5937500000,,,
2.5559999959,19,144578.9218750000,123311.6562500000,157832.7031250000,131553.3593750000,117518.8281250000,123821.1953125000,114972.3984375000,133067.3906250000,,,
2.5599999959,20,144575.2656250000,123306.3125000000,157827.9062500000,131547.2187500000,117515.2343750000,123808.1328125000,114969.3359375000,133061.9687500000,,,
2.5639999958,20,144574.3281250000,123306.7734375000,157825.2968750000,131544.0781250000,117514.4843750000,123809.1250000000,114967.1093750000,133061.9687500000,,,
2.5679999958,20,144577.0156250000,123309.4296875000,157825.2968750000,131552.7187500000,117517.9765625000,123817.2734375000,114969.9296875000,133065.1562500000,,,
2.5719999957,20,144585.5156250000,123317.8750000000,157832.7812500000,131558.4531250000,117526.8515625000,123823.2031250000,114981.6796875000,133074.2187500000,,,
2.5759999957,20,144589.0000000000,123319.0859375000,157835.2343750000,131560.2187500000,117529.5625000000,123818.8046875000,114988.0859375000,133076.2656250000,,,
2.5799999957,20,144579.6093750000,123309.8281250000,157826.0625000000,131557.1718750000,117520.3046875000,123807.9453125000,114980.4140625000,133067.3906250000,,,
2.5839999958,20,144570.1250000000,123302.9921875000,157817.7968750000,131547.8593750000,117513.0390625000,123802.5546875000,114970.9218750000,133059.7343750000,,,
2.5879999958,20,144582.7812500000,123313.6093750000,157828.6093750000,131558.1093750000,117525.0781250000,123817.0859375000,114979.1015625000,133069.7187500000,,,
2.5919999958,20,144604.2968750000,123333.4843750000,157849.7343750000,131585.1718750000,117545.5703125000,123829.7187500000,114991.6796875000,133089.6250000000,,,
2.5959999957,20,144609.4218750000,123336.9218750000,157854.8281250000,131577.6875000000,117550.5390625000,123821.8125000000,114992.8359375000,133093.2968750000,,,
2.5999999957,20,144598.3906250000,123329.9687500000,157847.3750000000,131555.2343750000,117539.5625000000,123807.8359375000,114985.3515625000,133085.5156250000,,,
2.6039999959,20,144601.0937500000,123336.2500000000,157852.0781250000,131546.9531250000,117541.5468750000,123814.8906250000,114987.8750000000,133091.0468750000,,,
2.6079999958,20,144606.0156250000,123345.3671875000,157858.4218750000,131557.2968750000,117544.4218750000,123832.1875000000,114989.7500000000,133100.4375000000,,,
2.6119999958,20,144607.4062500000,123346.8984375000,157858.1406250000,131559.8281250000,117545.3046875000,123838.9218750000,114992.0859375000,133102.2812500000,,,
2.6159999957,20,144609.6562500000,123347.2968750000,157858.4062500000,131560.4375000000,117548.9296875000,123834.4687500000,114997.2890625000,133102.9843750000,,,
2.6199999957,20,144608.1250000000,123343.4375000000,157854.6250000000,131555.3906250000,117548.7890625000,123822.2109375000,115000.1015625000,133098.6093750000,,,
2.6239999956,20,144606.2031250000,123336.2734375000,157848.9843750000,131543.1406250000,117545.5703125000,123819.7421875000,114998.6796875000,133091.5312500000,,,
2.6279999958,20,144613.2500000000,123343.6484375000,157854.1093750000,131540.7187500000,117548.8203125000,123834.5468750000,115002.4921875000,133098.3593750000,,,
2.6319999958,20,144619.1562500000,123352.8750000000,157861.7343750000,131552.2812500000,117553.1093750000,123843.9375000000,115005.8437500000,133107.8125000000,,,
2.6359999957,20,144610.4843750000,123338.5312500000,157851.9687500000,131541.1250000000,117545.7109375000,123827.3906250000,114996.2968750000,133092.8437500000,,,
2.6399999957,20,144604.6093750000,123331.2890625000,157845.9531250000,131532.4375000000,117540.5546875000,123817.3046875000,114990.5781250000,133085.5937500000,,,
2.6439999957,20,144601.4687500000,123332.5703125000,157846.0937500000,131542.0468750000,117537.6093750000,123821.7578125000,114984.0625000000,133087.3437500000,,,
2.6479999959,20,144604.5312500000,123337.6718750000,157852.3437500000,131549.7031250000,117540.3671875000,123831.6562500000,114987.8437500000,133092.4062500000,,,
2.6519999958,20,144605.7968750000,123337.2109375000,157855.0000000000,131552.2031250000,117541.9531250000,123835.6250000000,114992.1875000000,133092.9218750000,,,
2.6559999958,20,144598.6093750000,123331.1562500000,157849.0937500000,131558.1250000000,117537.2031250000,123828.2187500000,114991.9453125000,133087.1718750000,,,
2.6599999957,20,144581.8437500000,123315.1406250000,157830.2187500000,131556.0937500000,117522.0468750000,123807.8593750000,114980.2578125000,133070.6875000000,,,
2.6639999957,20,144584.3437500000,123314.0156250000,157828.7656250000,131558.7968750000,117526.1250000000,123810.4921875000,114983.1015625000,133069.8750000000,,,
2.6679999956,20,144592.7031250000,123322.5156250000,157835.7968750000,131556.9843750000,117533.5000000000,123827.8984375000,114988.9687500000,133078.8593750000,,,
2.6719999958,20,144592.3750000000,123325.8125000000,157836.5468750000,131573.6562500000,117532.2187500000,123833.0234375000,114988.1406250000,133081.6875000000,,,
2.6759999958,20,144592.9531250000,123327.2890625000,157839.6250000000,131577.9843750000,117535.3828125000,123824.1406250000,114987.8203125000,133083.5000000000,,,
2.6799999957,20,144587.9531250000,123323.8046875000,157835.6875000000,131566.9062500000,117529.8828125000,123812.0156250000,114981.1953125000,133079.9062500000,,,
2.6839999957,20,144582.9687500000,123318.9765625000,157830.5625000000,131551.1875000000,117524.7890625000,123811.0234375000,114975.2656250000,133074.2812500000,,,
2.6879999957,21,144588.0625000000,123323.1093750000,157837.1562500000,131566.9843750000,117528.6484375000,123816.8750000000,114979.4531250000,133078.7500000000,,,
2.6919999956,21,144600.0000000000,123333.7265625000,157850.4687500000,131587.7500000000,117541.4140625000,123824.6562500000,114988.5390625000,133090.2343750000,,,
2.6959999956,21,144605.3125000000,123336.3828125000,157855.0000000000,131577.4375000000,117548.6562500000,123827.9531250000,114994.8203125000,133092.7343750000,,,
2.6999999955,21,144596.1093750000,123327.1328125000,157845.6406250000,131556.4687500000,117541.5234375000,123819.5000000000,114985.4609375000,133083.7968750000,,,
2.7039999955,21,144590.2656250000,123319.8359375000,157838.4531250000,131541.1562500000,117534.3906250000,123814.6718750000,114981.3281250000,133076.6875000000,,,
2.7079999954,21,144590.0156250000,123320.2890625000,157838.5312500000,131544.2187500000,117531.8906250000,123816.9296875000,114983.9296875000,133077.2343750000,,,
2.7119999956,21,144596.7500000000,123329.7578125000,157846.7812500000,131541.4218750000,117537.7968750000,123830.3125000000,114991.0390625000,133086.5625000000,,,
2.7159999956,21,144597.3125000000,123333.2734375000,157848.4531250000,131541.4218750000,117538.4375000000,123829.3750000000,114992.5390625000,133088.9218750000,,,
2.7199999955,21,144592.7031250000,123325.1406250000,157841.3437500000,131543.4375000000,117532.1875000000,123816.7109375000,114989.3984375000,133080.0937500000,,,
2.7239999955,21,144591.6875000000,123318.7890625000,157837.3750000000,131547.4375000000,117527.8984375000,123814.6718750000,114985.0546875000,133073.4218750000,,,
2.7279999955,21,144603.7031250000,123332.6796875000,157847.3593750000,131552.6562500000,117537.1796875000,123832.3203125000,114994.7109375000,133087.9062500000,,,
2.7319999957,21,144621.4062500000,123349.4687500000,157863.7187500000,131566.6093750000,117555.0937500000,123844.9296875000,115009.7890625000,133104.9375000000,,,
2.7359999956,21,144622.7656250000,123348.2890625000,157865.7187500000,131557.4062500000,117561.2109375000,123840.1015625000,115011.6093750000,133103.8125000000,,,
2.7399999956,21,144606.8437500000,123328.5781250000,157850.6718750000,131541.1250000000,117547.6640625000,123821.9453125000,114996.9921875000,133085.0312500000,,,
2.7439999955,21,144592.6718750000,123315.4062500000,157839.2500000000,131540.7187500000,117532.9921875000,123811.3984375000,114986.2109375000,133071.7343750000,,,
2.7479999955,21,144596.1875000000,123321.8437500000,157843.6718750000,131557.6250000000,117535.3828125000,123823.3671875000,114987.4140625000,133077.9843750000,,,
2.7519999954,21,144604.6093750000,123333.1640625000,157851.4531250000,131567.0312500000,117542.5156250000,123834.1171875000,114995.4609375000,133089.7343750000,,,
2.7559999956,21,144606.2500000000,123339.2031250000,157852.5625000000,131572.1093750000,117542.7031250000,123838.2500000000,114998.6015625000,133095.3281250000,,,
2.7599999956,21,144601.6406250000,123341.0468750000,157849.6562500000,131572.4218750000,117538.4375000000,123835.6250000000,114994.7109375000,133096.8125000000,,,
2.7639999955,21,144589.8906250000,123332.7656250000,157838.5781250000,131556.0937500000,117526.7187500000,123827.3906250000,114984.6015625000,133087.9843750000,,,
2.7679999955,21,144592.3281250000,123329.8671875000,157839.3281250000,131550.4687500000,117529.5859375000,123827.3593750000,114986.7421875000,133085.0000000000,,,
2.7719999955,21,144600.0000000000,123333.2187500000,157845.4687500000,131545.2343750000,117536.3984375000,123831.6796875000,114998.1953125000,133088.6562500000,,,
2.7759999956,21,144607.8593750000,123338.7968750000,157853.3593750000,131555.0156250000,117543.6953125000,123831.0390625000,115005.7109375000,133094.7500000000,,,
2.7799999956,21,144604.3750000000,123333.9921875000,157850.8593750000,131554.4843750000,117541.2031250000,123824.9453125000,115000.6406250000,133090.5937500000,,,
2.7839999956,21,144598.5312500000,123326.8359375000,157845.5000000000,131550.9687500000,117536.1015625000,123818.4296875000,114993.1796875000,133083.4843750000,,,
2.7879999955,21,144598.8750000000,123327.9609375000,157845.5625000000,131547.3750000000,117536.8281250000,123824.8125000000,114994.3906250000,133084.2812500000,,,
2.7919999955,21,144607.5937500000,123335.8203125000,157854.5625000000,131563.8125000000,117548.1718750000,123835.2734375000,115004.1250000000,133092.2812500000,,,
2.7959999954,21,144608.5781250000,123341.8828125000,157860.3906250000,131581.0312500000,117550.5078125000,123834.2812500000,115004.1796875000,133098.5468750000,,,
2.7999999956,21,144595.2031250000,123330.1093750000,157848.8281250000,131556.9062500000,117536.2656250000,123821.0859375000,114993.3984375000,133086.5625000000,,,
2.8039999956,21,144589.5937500000,123321.9296875000,157841.6875000000,131549.0468750000,117528.1953125000,123818.5390625000,114990.2343750000,133078.1718750000,,,
2.8079999955,21,144596.9375000000,123326.9453125000,157847.3750000000,131555.8750000000,117534.0390625000,123824.1953125000,114997.0156250000,133083.1562500000,,,
2.8119999955,21,144597.6718750000,123328.2812500000,157848.6093750000,131545.9218750000,117535.0625000000,123827.7656250000,114999.7031250000,133084.2812500000,,,
2.8159999955,22,144589.8125000000,123322.5156250000,157843.4843750000,131539.3281250000,117529.2109375000,123822.5625000000,114995.4609375000,133079.1406250000,,,
2.8199999954,22,144579.8906250000,123313.4765625000,157835.7968750000,131533.4062500000,117523.1796875000,123808.4531250000,114985.6484375000,133070.2343750000,,,
2.8239999954,22,144579.8281250000,123313.6093750000,157835.2343750000,131546.6718750000,117524.9765625000,123806.4921875000,114983.3125000000,133069.3125000000,,,
2.8279999953,22,144584.3125000000,123316.3750000000,157835.9062500000,131557.0937500000,117528.2500000000,123813.3906250000,114985.7500000000,133072.1093750000,,,
2.8319999953,22,144588.8125000000,123319.8906250000,157837.8593750000,131556.3593750000,117531.4140625000,123820.9218750000,114993.6640625000,133075.6250000000,,,
2.8359999952,22,144587.4218750000,123317.5000000000,157834.1562500000,131553.6562500000,117528.3828125000,123817.3593750000,114993.8515625000,133073.6406250000,,,
2.8399999954,22,144583.9843750000,123314.7656250000,157830.5312500000,131541.2031250000,117527.0625000000,123811.7265625000,114990.0703125000,133071.2187500000,,,
2.8439999954,22,144586.4531250000,123320.9296875000,157837.0000000000,131548.1875000000,117531.4140625000,123811.9375000000,114990.2890625000,133077.6093750000,,,
2.8479999953,22,144588.4062500000,123327.1562500000,157844.4843750000,131562.5625000000,117530.8750000000,123818.1640625000,114987.1484375000,133083.9687500000,,,
2.8519999953,22,144587.5625000000,123328.4140625000,157844.7968750000,131560.4062500000,117526.4218750000,123824.5703125000,114986.9843750000,133084.9531250000,,,
2.8559999953,22,144581.5000000000,123325.1953125000,157838.8437500000,131549.7031250000,117520.1484375000,123818.0546875000,114984.4687500000,133081.4062500000,,,
2.8599999954,22,144579.9062500000,123324.5312500000,157838.1250000000,131546.1718750000,117519.3984375000,123812.8203125000,114979.5546875000,133080.9375000000,,,
2.8639999954,22,144578.5625000000,123320.7734375000,157836.0312500000,131540.4062500000,117519.4453125000,123814.2187500000,114976.6875000000,133077.3906250000,,,
2.8679999954,22,144586.7187500000,123326.7265625000,157841.0156250000,131545.2343750000,117526.2109375000,123826.8281250000,114983.2031250000,133083.3437500000,,,
2.8719999953,22,144603.9687500000,123343.2187500000,157856.7187500000,131558.5312500000,117545.1171875000,123842.1953125000,115002.1953125000,133099.9531250000,,,
2.8759999953,22,144601.0000000000,123343.8359375000,157854.1875000000,131569.8281250000,117540.3984375000,123836.2421875000,115002.9765625000,133101.0156250000,,,
2.8799999952,22,144586.1093750000,123329.2734375000,157841.1562500000,131571.5156250000,117524.4609375000,123811.2968750000,114987.3593750000,133086.7031250000,,,
2.8839999954,22,144583.1875000000,123325.5468750000,157836.8906250000,131545.6406250000,117522.2343750000,123811.5390625000,114983.7968750000,133082.3281250000,,,
2.8879999954,22,144585.9218750000,123326.5625000000,157838.1718750000,131537.3750000000,117525.3203125000,123816.5234375000,114987.5000000000,133083.2968750000,,,
2.8919999953,22,144597.8593750000,123336.9453125000,157850.5937500000,131557.8437500000,117538.6796875000,123827.3906250000,114998.8984375000,133094.1250000000,,,
2.8959999953,22,144597.8281250000,123331.7734375000,157849.3125000000,131558.7968750000,117539.1328125000,123823.0156250000,114999.3515625000,133088.4375000000,,,
2.8999999953,22,144585.1093750000,123319.2968750000,157836.7031250000,131544.2656250000,117526.0468750000,123809.2578125000,114987.4140625000,133076.1562500000,,,
2.9039999954,22,144580.4531250000,123317.8750000000,157834.9062500000,131546.2500000000,117520.2265625000,123807.6484375000,114977.0859375000,133074.7656250000,,,
2.9079999954,22,144587.4687500000,123326.2187500000,157844.2343750000,131558.7812500000,117526.7968750000,123816.7109375000,114981.1406250000,133082.7343750000,,,
2.9119999954,22,144601.9531250000,123339.4140625000,157858.1875000000,131560.5937500000,117539.9375000000,123828.4609375000,114995.3046875000,133096.1093750000,,,
2.9159999953,22,144612.3125000000,123343.3828125000,157867.1718750000,131556.9531250000,117551.0156250000,123824.1406250000,115007.5625000000,133099.8906250000,,,
2.9199999953,22,144610.1093750000,123342.1484375000,157866.7968750000,131548.5781250000,117548.2031250000,123818.2421875000,115008.4687500000,133098.5000000000,,,
2.9239999952,22,144600.8593750000,123338.1562500000,157859.7500000000,131548.0156250000,117537.4765625000,123817.5156250000,115001.6875000000,133095.0312500000,,,
2.9279999954,22,144601.8281250000,123339.6015625000,157860.5156250000,131547.8593750000,117536.8593750000,123824.6250000000,115001.5234375000,133095.9531250000,,,
2.9319999954,22,144612.8437500000,123345.8515625000,157868.7031250000,131559.9218750000,117545.7109375000,123837.6093750000,115010.2656250000,133101.8437500000,,,
2.9359999953,22,144615.8593750000,123343.0312500000,157871.0625000000,131558.6093750000,117549.3515625000,123834.8750000000,115013.2968750000,133099.1718750000,,,
2.9399999953,22,144605.5312500000,123329.7578125000,157862.3125000000,131552.5312500000,117540.3984375000,123818.0546875000,115006.4843750000,133086.5625000000,,,
2.9439999952,23,144598.5468750000,123323.8828125000,157854.0000000000,131548.4218750000,117532.7500000000,123812.2890625000,115002.3281250000,133080.6093750000,,,
