Time:250Hz,Epoch,Channel 1,Channel 2,Channel 3,Channel 4,Channel 5,Channel 6,Channel 7,Channel 8,Event Id,Event Date,Event Duration
0.0000000000,0,211408.6093750000,225000.0000000000,225000.0000000000,200016.7812500000,0.0000000000,0.0000000000,0.0000000000,0.0000000000,,,
0.0040000000,0,203739.2812500000,224485.3906250000,223710.5625000000,167264.0000000000,0.0000000000,0.0000000000,0.0000000000,0.0000000000,,,
0.0079999999,0,216104.6406250000,225000.0000000000,225000.0000000000,213333.6250000000,0.0000000000,0.0000000000,0.0000000000,0.0000000000,,,
0.0119999999,0,225000.0000000000,225000.0000000000,225000.0000000000,225000.0000000000,0.0000000000,0.0000000000,0.0000000000,0.0000000000,,,
0.0159999998,0,225000.0000000000,225000.0000000000,225000.0000000000,225000.0000000000,0.0000000000,0.0000000000,0.0000000000,0.0000000000,,,
0.0199999998,0,210492.1406250000,225000.0000000000,225000.0000000000,200798.3437500000,0.0000000000,0.0000000000,0.0000000000,0.0000000000,,,
0.0240000000,0,203013.0156250000,225000.0000000000,221218.4843750000,167816.3437500000,0.0000000000,0.0000000000,0.0000000000,0.0000000000,,,
0.0279999999,0,215500.2343750000,225000.0000000000,225000.0000000000,213239.8281250000,0.0000000000,0.0000000000,0.0000000000,0.0000000000,,,
0.0319999999,0,225000.0000000000,225000.0000000000,225000.0000000000,225000.0000000000,0.0000000000,0.0000000000,0.0000000000,0.0000000000,,,
0.0359999998,0,225000.0000000000,225000.0000000000,225000.0000000000,225000.0000000000,0.0000000000,0.0000000000,0.0000000000,0.0000000000,,,
0.0399999998,0,209616.9687500000,225000.0000000000,225000.0000000000,200436.2187500000,0.0000000000,0.0000000000,0.0000000000,0.0000000000,,,
0.0440000000,0,201713.2500000000,225000.0000000000,219554.8750000000,166840.3906250000,0.0000000000,0.0000000000,0.0000000000,0.0000000000,,,
0.0480000000,0,214057.9843750000,225000.0000000000,225000.0000000000,212368.9218750000,0.0000000000,0.0000000000,0.0000000000,0.0000000000,,,
0.0519999999,0,225000.0000000000,225000.0000000000,225000.0000000000,225000.0000000000,0.0000000000,0.0000000000,0.0000000000,0.0000000000,,,
0.0559999999,0,225000.0000000000,225000.0000000000,225000.0000000000,225000.0000000000,0.0000000000,0.0000000000,0.0000000000,0.0000000000,,,
0.0599999998,0,208132.7500000000,225000.0000000000,225000.0000000000,200465.0312500000,0.0000000000,0.0000000000,0.0000000000,0.0000000000,,,
0.0639999998,0,200106.3593750000,224061.8750000000,218410.8906250000,166125.2968750000,0.0000000000,0.0000000000,0.0000000000,0.0000000000,,,
0.0680000000,0,212929.9843750000,225000.0000000000,225000.0000000000,211790.5000000000,0.0000000000,0.0000000000,0.0000000000,0.0000000000,,,
0.0719999999,0,225000.0000000000,225000.0000000000,225000.0000000000,225000.0000000000,0.0000000000,0.0000000000,0.0000000000,0.0000000000,,,
0.0759999999,0,225000.0000000000,225000.0000000000,225000.0000000000,225000.0000000000,0.0000000000,0.0000000000,0.0000000000,0.0000000000,,,
0.0799999998,0,208024.1406250000,225000.0000000000,225000.0000000000,201501.3281250000,0.0000000000,0.0000000000,0.0000000000,0.0000000000,,,
0.0839999998,0,199851.2343750000,223954.5937500000,217003.5625000000,166718.4375000000,0.0000000000,0.0000000000,0.0000000000,0.0000000000,,,
0.0880000000,0,212847.7656250000,225000.0000000000,225000.0000000000,212116.8750000000,0.0000000000,0.0000000000,0.0000000000,0.0000000000,,,
0.0919999999,0,225000.0000000000,225000.0000000000,225000.0000000000,225000.0000000000,0.0000000000,0.0000000000,0.0000000000,0.0000000000,,,
0.0959999999,0,225000.0000000000,225000.0000000000,225000.0000000000,225000.0000000000,0.0000000000,0.0000000000,0.0000000000,0.0000000000,,,
0.0999999999,0,207999.1093750000,224649.2187500000,225000.0000000000,201679.2968750000,0.0000000000,0.0000000000,0.0000000000,0.0000000000,,,
0.1039999998,0,199486.4062500000,223379.7812500000,215607.2343750000,165947.8906250000,0.0000000000,0.0000000000,0.0000000000,0.0000000000,,,
0.1079999998,0,212490.4531250000,225000.0000000000,225000.0000000000,211302.6250000000,0.0000000000,0.0000000000,0.0000000000,0.0000000000,,,
0.1120000000,0,225000.0000000000,225000.0000000000,225000.0000000000,225000.0000000000,0.0000000000,0.0000000000,0.0000000000,0.0000000000,,,
0.1159999999,0,225000.0000000000,225000.0000000000,225000.0000000000,225000.0000000000,0.0000000000,0.0000000000,0.0000000000,0.0000000000,,,
0.1199999999,0,207337.5000000000,225000.0000000000,225000.0000000000,201703.1718750000,0.0000000000,0.0000000000,0.0000000000,0.0000000000,,,
0.1239999998,0,198499.0000000000,225000.0000000000,213640.4218750000,165421.6406250000,0.0000000000,0.0000000000,0.0000000000,0.0000000000,,,
0.1279999998,1,211432.5625000000,225000.0000000000,225000.0000000000,210398.7812500000,0.0000000000,0.0000000000,0.0000000000,0.0000000000,,,
0.1319999998,1,225000.0000000000,225000.0000000000,225000.0000000000,225000.0000000000,0.0000000000,0.0000000000,0.0000000000,0.0000000000,,,
0.1359999997,1,225000.0000000000,225000.0000000000,225000.0000000000,225000.0000000000,0.0000000000,0.0000000000,0.0000000000,0.0000000000,,,
0.1399999997,1,206539.0000000000,225000.0000000000,225000.0000000000,201168.5000000000,0.0000000000,0.0000000000,0.0000000000,0.0000000000,,,
0.1439999996,1,197667.3750000000,225000.0000000000,212400.6250000000,164025.1718750000,0.0000000000,0.0000000000,0.0000000000,0.0000000000,,,
0.1479999996,1,210595.5781250000,225000.0000000000,225000.0000000000,208793.7187500000,0.0000000000,0.0000000000,0.0000000000,0.0000000000,,,
0.1519999998,1,225000.0000000000,225000.0000000000,225000.0000000000,225000.0000000000,0.0000000000,0.0000000000,0.0000000000,0.0000000000,,,
0.1559999997,1,224750.8750000000,225000.0000000000,225000.0000000000,225000.0000000000,0.0000000000,0.0000000000,0.0000000000,0.0000000000,,,
0.1599999997,1,206562.9531250000,225000.0000000000,225000.0000000000,198241.2656250000,0.0000000000,0.0000000000,0.0000000000,0.0000000000,,,
0.1639999996,1,197949.4375000000,225000.0000000000,212860.6250000000,159824.3281250000,0.0000000000,0.0000000000,0.0000000000,0.0000000000,,,
0.1679999996,1,210863.7343750000,225000.0000000000,225000.0000000000,205312.9687500000,0.0000000000,0.0000000000,0.0000000000,0.0000000000,,,
0.1719999998,1,225000.0000000000,225000.0000000000,225000.0000000000,225000.0000000000,0.0000000000,0.0000000000,0.0000000000,0.0000000000,,,
0.1759999997,1,225000.0000000000,225000.0000000000,225000.0000000000,225000.0000000000,0.0000000000,0.0000000000,0.0000000000,0.0000000000,,,
0.1799999997,1,207765.2343750000,225000.0000000000,225000.0000000000,196674.0468750000,0.0000000000,0.0000000000,0.0000000000,0.0000000000,,,
0.1839999997,1,199396.7812500000,225000.0000000000,213825.0937500000,158124.9843750000,0.0000000000,0.0000000000,0.0000000000,0.0000000000,,,
0.1879999996,1,212200.0468750000,225000.0000000000,225000.0000000000,203674.4062500000,0.0000000000,0.0000000000,0.0000000000,0.0000000000,,,
0.1919999996,1,225000.0000000000,225000.0000000000,225000.0000000000,225000.0000000000,0.0000000000,0.0000000000,0.0000000000,0.0000000000,,,
0.1959999998,1,225000.0000000000,225000.0000000000,225000.0000000000,225000.0000000000,0.0000000000,0.0000000000,0.0000000000,0.0000000000,,,
0.1999999997,1,210020.5156250000,225000.0000000000,225000.0000000000,195970.5625000000,0.0000000000,0.0000000000,0.0000000000,0.0000000000,,,
0.2039999997,1,201939.7656250000,225000.0000000000,214148.6093750000,157354.3906250000,0.0000000000,0.0000000000,0.0000000000,0.0000000000,,,
0.2079999996,1,214430.9687500000,225000.0000000000,225000.0000000000,202738.8750000000,0.0000000000,0.0000000000,0.0000000000,0.0000000000,,,
0.2119999996,1,225000.0000000000,225000.0000000000,225000.0000000000,225000.0000000000,0.0000000000,0.0000000000,0.0000000000,0.0000000000,,,
0.2159999998,1,225000.0000000000,225000.0000000000,225000.0000000000,225000.0000000000,0.0000000000,0.0000000000,0.0000000000,0.0000000000,,,
0.2199999997,1,212059.4375000000,225000.0000000000,225000.0000000000,197300.9375000000,0.0000000000,0.0000000000,0.0000000000,0.0000000000,,,
0.2239999997,1,203874.3593750000,225000.0000000000,214232.4687500000,159649.1875000000,0.0000000000,0.0000000000,0.0000000000,0.0000000000,,,
0.2279999997,1,215823.2343750000,225000.0000000000,225000.0000000000,203690.6562500000,0.0000000000,0.0000000000,0.0000000000,0.0000000000,,,
0.2319999996,1,225000.0000000000,225000.0000000000,225000.0000000000,225000.0000000000,0.0000000000,0.0000000000,0.0000000000,0.0000000000,,,
0.2359999996,1,225000.0000000000,225000.0000000000,225000.0000000000,225000.0000000000,0.0000000000,0.0000000000,0.0000000000,0.0000000000,,,
0.2399999998,1,213653.8906250000,225000.0000000000,225000.0000000000,197637.2500000000,0.0000000000,0.0000000000,0.0000000000,0.0000000000,,,
0.2439999997,1,205625.1718750000,225000.0000000000,216159.2343750000,160088.5000000000,0.0000000000,0.0000000000,0.0000000000,0.0000000000,,,
0.2479999997,1,217360.5312500000,225000.0000000000,225000.0000000000,203688.7031250000,0.0000000000,0.0000000000,0.0000000000,0.0000000000,,,
0.2519999996,1,225000.0000000000,225000.0000000000,225000.0000000000,225000.0000000000,0.0000000000,0.0000000000,0.0000000000,0.0000000000,,,
0.2559999996,2,225000.0000000000,225000.0000000000,225000.0000000000,225000.0000000000,0.0000000000,0.0000000000,0.0000000000,0.0000000000,,,
0.2599999995,2,215753.1406250000,225000.0000000000,225000.0000000000,199122.9062500000,0.0000000000,0.0000000000,0.0000000000,0.0000000000,,,
0.2639999995,2,207790.9687500000,225000.0000000000,222935.6718750000,161790.9531250000,0.0000000000,0.0000000000,0.0000000000,0.0000000000,,,
0.2679999995,2,219246.6406250000,225000.0000000000,225000.0000000000,204687.1562500000,0.0000000000,0.0000000000,0.0000000000,0.0000000000,,,
0.2719999994,2,225000.0000000000,225000.0000000000,225000.0000000000,225000.0000000000,0.0000000000,0.0000000000,0.0000000000,0.0000000000,,,
0.2759999994,2,225000.0000000000,225000.0000000000,225000.0000000000,225000.0000000000,0.0000000000,0.0000000000,0.0000000000,0.0000000000,,,
0.2799999996,2,217069.5625000000,225000.0000000000,225000.0000000000,200314.2031250000,0.0000000000,0.0000000000,0.0000000000,0.0000000000,,,
0.2839999995,2,208872.4375000000,225000.0000000000,225000.0000000000,163158.6875000000,0.0000000000,0.0000000000,0.0000000000,0.0000000000,,,
0.2879999995,2,220018.9218750000,225000.0000000000,225000.0000000000,205378.0312500000,0.0000000000,0.0000000000,0.0000000000,0.0000000000,,,
0.2919999994,2,225000.0000000000,225000.0000000000,225000.0000000000,225000.0000000000,0.0000000000,0.0000000000,0.0000000000,0.0000000000,,,
0.2959999994,2,225000.0000000000,225000.0000000000,225000.0000000000,225000.0000000000,0.0000000000,0.0000000000,0.0000000000,0.0000000000,,,
0.2999999996,2,219113.5468750000,225000.0000000000,225000.0000000000,201618.0000000000,0.0000000000,0.0000000000,0.0000000000,0.0000000000,,,
0.3039999995,2,212151.1718750000,225000.0000000000,225000.0000000000,164447.8437500000,0.0000000000,0.0000000000,0.0000000000,0.0000000000,,,
0.3079999995,2,222415.2968750000,225000.0000000000,225000.0000000000,205447.2812500000,0.0000000000,0.0000000000,0.0000000000,0.0000000000,,,
0.3119999995,2,225000.0000000000,225000.0000000000,225000.0000000000,225000.0000000000,0.0000000000,0.0000000000,0.0000000000,0.0000000000,,,
0.3159999994,2,225000.0000000000,225000.0000000000,225000.0000000000,225000.0000000000,0.0000000000,0.0000000000,0.0000000000,0.0000000000,,,
0.3199999994,2,221145.1406250000,225000.0000000000,225000.0000000000,201172.4687500000,0.0000000000,0.0000000000,0.0000000000,0.0000000000,,,
0.3239999996,2,214431.9843750000,225000.0000000000,225000.0000000000,163842.9687500000,0.0000000000,0.0000000000,0.0000000000,0.0000000000,,,
0.3279999995,2,223527.5312500000,225000.0000000000,225000.0000000000,204731.0312500000,0.0000000000,0.0000000000,0.0000000000,0.0000000000,,,
0.3319999995,2,225000.0000000000,225000.0000000000,225000.0000000000,225000.0000000000,0.0000000000,0.0000000000,0.0000000000,0.0000000000,,,
0.3359999994,2,225000.0000000000,225000.0000000000,225000.0000000000,225000.0000000000,0.0000000000,0.0000000000,0.0000000000,0.0000000000,,,
0.3399999994,2,221626.7187500000,225000.0000000000,225000.0000000000,204058.5781250000,0.0000000000,0.0000000000,0.0000000000,0.0000000000,,,
0.3439999996,2,214814.0000000000,225000.0000000000,225000.0000000000,169500.1093750000,0.0000000000,0.0000000000,0.0000000000,0.0000000000,,,
0.3479999995,2,223491.9531250000,225000.0000000000,225000.0000000000,207886.2812500000,0.0000000000,0.0000000000,0.0000000000,0.0000000000,,,
0.3519999995,2,225000.0000000000,225000.0000000000,225000.0000000000,225000.0000000000,0.0000000000,0.0000000000,0.0000000000,0.0000000000,,,
0.3559999994,2,225000.0000000000,225000.0000000000,225000.0000000000,225000.0000000000,0.0000000000,0.0000000000,0.0000000000,0.0000000000,,,
0.3599999994,2,221358.1562500000,225000.0000000000,225000.0000000000,204677.3593750000,0.0000000000,0.0000000000,0.0000000000,0.0000000000,,,
0.3639999994,2,214312.6093750000,225000.0000000000,225000.0000000000,169738.2812500000,0.0000000000,0.0000000000,0.0000000000,0.0000000000,,,
0.3679999996,2,222861.7968750000,225000.0000000000,225000.0000000000,207243.2343750000,0.0000000000,0.0000000000,0.0000000000,0.0000000000,,,
0.3719999995,2,225000.0000000000,225000.0000000000,225000.0000000000,225000.0000000000,0.0000000000,0.0000000000,0.0000000000,0.0000000000,,,
0.3759999995,2,225000.0000000000,225000.0000000000,225000.0000000000,225000.0000000000,0.0000000000,0.0000000000,0.0000000000,0.0000000000,,,
0.3799999994,2,220742.6406250000,225000.0000000000,225000.0000000000,203339.5468750000,0.0000000000,0.0000000000,0.0000000000,0.0000000000,,,
0.3839999994,3,213422.6718750000,225000.0000000000,225000.0000000000,166546.8593750000,0.0000000000,0.0000000000,0.0000000000,0.0000000000,,,
0.3879999993,3,222043.5625000000,225000.0000000000,225000.0000000000,204713.8906250000,0.0000000000,0.0000000000,0.0000000000,0.0000000000,,,
0.3919999993,3,225000.0000000000,225000.0000000000,225000.0000000000,225000.0000000000,0.0000000000,0.0000000000,0.0000000000,0.0000000000,,,
0.3959999993,3,225000.0000000000,225000.0000000000,225000.0000000000,225000.0000000000,0.0000000000,0.0000000000,0.0000000000,0.0000000000,,,
0.3999999992,3,220079.7343750000,225000.0000000000,225000.0000000000,200686.6562500000,0.0000000000,0.0000000000,0.0000000000,0.0000000000,,,
0.4039999992,3,212509.3593750000,225000.0000000000,225000.0000000000,161534.2031250000,0.0000000000,0.0000000000,0.0000000000,0.0000000000,,,
0.4079999994,3,221290.3437500000,225000.0000000000,225000.0000000000,201422.3593750000,0.0000000000,0.0000000000,0.0000000000,0.0000000000,,,
0.4119999993,3,225000.0000000000,225000.0000000000,225000.0000000000,225000.0000000000,0.0000000000,0.0000000000,0.0000000000,0.0000000000,,,
0.4159999993,3,225000.0000000000,225000.0000000000,225000.0000000000,225000.0000000000,0.0000000000,0.0000000000,0.0000000000,0.0000000000,,,
0.4199999992,3,219470.3593750000,225000.0000000000,225000.0000000000,200985.6250000000,0.0000000000,0.0000000000,0.0000000000,0.0000000000,,,
0.4239999992,3,211555.4531250000,225000.0000000000,225000.0000000000,161418.4218750000,0.0000000000,0.0000000000,0.0000000000,0.0000000000,,,
0.4279999994,3,220594.9375000000,225000.0000000000,225000.0000000000,201135.0000000000,0.0000000000,0.0000000000,0.0000000000,0.0000000000,,,
0.4319999993,3,225000.0000000000,225000.0000000000,225000.0000000000,225000.0000000000,0.0000000000,0.0000000000,0.0000000000,0.0000000000,,,
0.4359999993,3,225000.0000000000,225000.0000000000,225000.0000000000,225000.0000000000,0.0000000000,0.0000000000,0.0000000000,0.0000000000,,,
0.4399999992,3,218802.9687500000,225000.0000000000,225000.0000000000,201735.4843750000,0.0000000000,0.0000000000,0.0000000000,0.0000000000,,,
0.4439999992,3,210313.3593750000,225000.0000000000,225000.0000000000,161721.8281250000,0.0000000000,0.0000000000,0.0000000000,0.0000000000,,,
0.4479999992,3,219697.9687500000,225000.0000000000,225000.0000000000,201089.7500000000,0.0000000000,0.0000000000,0.0000000000,0.0000000000,,,
0.4519999993,3,225000.0000000000,225000.0000000000,225000.0000000000,225000.0000000000,0.0000000000,0.0000000000,0.0000000000,0.0000000000,,,
0.4559999993,3,225000.0000000000,225000.0000000000,225000.0000000000,225000.0000000000,0.0000000000,0.0000000000,0.0000000000,0.0000000000,,,
0.4599999993,3,217173.1875000000,225000.0000000000,225000.0000000000,202725.1718750000,0.0000000000,0.0000000000,0.0000000000,0.0000000000,,,
0.4639999992,3,207362.8750000000,225000.0000000000,225000.0000000000,162319.6406250000,0.0000000000,0.0000000000,0.0000000000,0.0000000000,,,
0.4679999992,3,217714.4843750000,225000.0000000000,225000.0000000000,201283.5312500000,0.0000000000,0.0000000000,0.0000000000,0.0000000000,,,
0.4719999994,3,225000.0000000000,225000.0000000000,225000.0000000000,225000.0000000000,0.0000000000,0.0000000000,0.0000000000,0.0000000000,,,
0.4759999993,3,225000.0000000000,225000.0000000000,225000.0000000000,225000.0000000000,0.0000000000,0.0000000000,0.0000000000,0.0000000000,,,
0.4799999993,3,216731.1875000000,225000.0000000000,225000.0000000000,203518.2187500000,0.0000000000,0.0000000000,0.0000000000,0.0000000000,,,
0.4839999992,3,206947.3125000000,225000.0000000000,224348.1406250000,162754.5625000000,0.0000000000,0.0000000000,0.0000000000,0.0000000000,,,
0.4879999992,3,217282.6250000000,225000.0000000000,225000.0000000000,201336.3437500000,0.0000000000,0.0000000000,0.0000000000,0.0000000000,,,
0.4919999992,3,225000.0000000000,225000.0000000000,225000.0000000000,225000.0000000000,0.0000000000,0.0000000000,0.0000000000,0.0000000000,,,
0.4959999993,3,225000.0000000000,225000.0000000000,225000.0000000000,225000.0000000000,0.0000000000,0.0000000000,0.0000000000,0.0000000000,,,
0.4999999993,3,216575.2968750000,225000.0000000000,225000.0000000000,204264.9375000000,0.0000000000,0.0000000000,0.0000000000,0.0000000000,,,
0.5039999993,3,206632.3437500000,225000.0000000000,223225.6406250000,162966.3750000000,0.0000000000,0.0000000000,0.0000000000,0.0000000000,,,
0.5079999992,3,216681.1250000000,225000.0000000000,225000.0000000000,201089.3750000000,0.0000000000,0.0000000000,0.0000000000,0.0000000000,,,
0.5119999992,4,225000.0000000000,225000.0000000000,225000.0000000000,225000.0000000000,0.0000000000,0.0000000000,0.0000000000,0.0000000000,,,
0.5159999991,4,225000.0000000000,225000.0000000000,225000.0000000000,225000.0000000000,0.0000000000,0.0000000000,0.0000000000,0.0000000000,,,
0.5199999991,4,215425.5625000000,225000.0000000000,225000.0000000000,204599.8437500000,0.0000000000,0.0000000000,0.0000000000,0.0000000000,,,
0.5239999990,4,205299.2812500000,225000.0000000000,223674.1406250000,162949.3750000000,0.0000000000,0.0000000000,0.0000000000,0.0000000000,,,
0.5279999990,4,215218.3593750000,225000.0000000000,225000.0000000000,200623.2812500000,0.0000000000,0.0000000000,0.0000000000,0.0000000000,,,
0.5319999990,4,225000.0000000000,225000.0000000000,225000.0000000000,225000.0000000000,0.0000000000,0.0000000000,0.0000000000,0.0000000000,,,
0.5359999991,4,225000.0000000000,225000.0000000000,225000.0000000000,225000.0000000000,0.0000000000,0.0000000000,0.0000000000,0.0000000000,,,
0.5399999991,4,214727.6718750000,225000.0000000000,225000.0000000000,204679.0000000000,0.0000000000,0.0000000000,0.0000000000,0.0000000000,,,
0.5439999991,4,204741.1718750000,225000.0000000000,224145.2343750000,162688.2812500000,0.0000000000,0.0000000000,0.0000000000,0.0000000000,,,
0.5479999990,4,214689.9375000000,225000.0000000000,225000.0000000000,200025.7343750000,0.0000000000,0.0000000000,0.0000000000,0.0000000000,,,
0.5519999990,4,225000.0000000000,225000.0000000000,225000.0000000000,225000.0000000000,0.0000000000,0.0000000000,0.0000000000,0.0000000000,,,
0.5559999992,4,225000.0000000000,225000.0000000000,225000.0000000000,225000.0000000000,0.0000000000,0.0000000000,0.0000000000,0.0000000000,,,
0.5599999991,4,214768.2812500000,225000.0000000000,225000.0000000000,204924.6562500000,0.0000000000,0.0000000000,0.0000000000,0.0000000000,,,
0.5639999991,4,204829.0312500000,225000.0000000000,224715.9375000000,162644.3750000000,0.0000000000,0.0000000000,0.0000000000,0.0000000000,,,
0.5679999990,4,214676.3906250000,225000.0000000000,225000.0000000000,199624.4218750000,0.0000000000,0.0000000000,0.0000000000,0.0000000000,,,
0.5719999990,4,225000.0000000000,225000.0000000000,225000.0000000000,225000.0000000000,0.0000000000,0.0000000000,0.0000000000,0.0000000000,,,
0.5759999990,4,225000.0000000000,225000.0000000000,225000.0000000000,225000.0000000000,0.0000000000,0.0000000000,0.0000000000,0.0000000000,,,
0.5799999991,4,215052.1718750000,225000.0000000000,225000.0000000000,205154.3125000000,0.0000000000,0.0000000000,0.0000000000,0.0000000000,,,
0.5839999991,4,205104.3437500000,225000.0000000000,225000.0000000000,162444.9531250000,0.0000000000,0.0000000000,0.0000000000,0.0000000000,,,
0.5879999991,4,214820.3281250000,225000.0000000000,225000.0000000000,199089.5625000000,0.0000000000,0.0000000000,0.0000000000,0.0000000000,,,
0.5919999990,4,225000.0000000000,225000.0000000000,225000.0000000000,225000.0000000000,0.0000000000,0.0000000000,0.0000000000,0.0000000000,,,
0.5959999990,4,225000.0000000000,225000.0000000000,225000.0000000000,225000.0000000000,0.0000000000,0.0000000000,0.0000000000,0.0000000000,,,
0.5999999992,4,215516.1718750000,225000.0000000000,225000.0000000000,205386.3750000000,0.0000000000,0.0000000000,0.0000000000,0.0000000000,,,
0.6039999991,4,205596.7968750000,225000.0000000000,225000.0000000000,162370.2500000000,0.0000000000,0.0000000000,0.0000000000,0.0000000000,,,
0.6079999991,4,215195.3437500000,225000.0000000000,225000.0000000000,198676.7812500000,0.0000000000,0.0000000000,0.0000000000,0.0000000000,,,
0.6119999990,4,225000.0000000000,225000.0000000000,225000.0000000000,225000.0000000000,0.0000000000,0.0000000000,0.0000000000,0.0000000000,,,
0.6159999990,4,225000.0000000000,225000.0000000000,225000.0000000000,225000.0000000000,0.0000000000,0.0000000000,0.0000000000,0.0000000000,,,
0.6199999989,4,216107.8593750000,225000.0000000000,225000.0000000000,205654.8125000000,0.0000000000,0.0000000000,0.0000000000,0.0000000000,,,
0.6239999991,4,206162.7343750000,225000.0000000000,225000.0000000000,162264.9218750000,0.0000000000,0.0000000000,0.0000000000,0.0000000000,,,
0.6279999991,4,215624.9843750000,225000.0000000000,225000.0000000000,198115.5781250000,0.0000000000,0.0000000000,0.0000000000,0.0000000000,,,
0.6319999991,4,225000.0000000000,225000.0000000000,225000.0000000000,225000.0000000000,0.0000000000,0.0000000000,0.0000000000,0.0000000000,,,
0.6359999990,4,225000.0000000000,225000.0000000000,225000.0000000000,225000.0000000000,0.0000000000,0.0000000000,0.0000000000,0.0000000000,,,
0.6399999990,5,216752.4531250000,225000.0000000000,225000.0000000000,205766.8750000000,0.0000000000,0.0000000000,0.0000000000,0.0000000000,,,
0.6439999989,5,206739.6093750000,225000.0000000000,225000.0000000000,161993.7812500000,0.0000000000,0.0000000000,0.0000000000,0.0000000000,,,
0.6479999989,5,216072.5625000000,225000.0000000000,225000.0000000000,197514.9687500000,0.0000000000,0.0000000000,0.0000000000,0.0000000000,,,
0.6519999988,5,225000.0000000000,225000.0000000000,225000.0000000000,225000.0000000000,0.0000000000,0.0000000000,0.0000000000,0.0000000000,,,
0.6559999988,5,225000.0000000000,225000.0000000000,225000.0000000000,225000.0000000000,0.0000000000,0.0000000000,0.0000000000,0.0000000000,,,
0.6599999988,5,217333.6562500000,225000.0000000000,225000.0000000000,205979.1406250000,0.0000000000,0.0000000000,0.0000000000,0.0000000000,,,
0.6639999989,5,207226.8281250000,225000.0000000000,225000.0000000000,161946.8125000000,0.0000000000,0.0000000000,0.0000000000,0.0000000000,,,
0.6679999989,5,216410.3437500000,225000.0000000000,225000.0000000000,197084.1562500000,0.0000000000,0.0000000000,0.0000000000,0.0000000000,,,
0.6719999989,5,225000.0000000000,225000.0000000000,225000.0000000000,225000.0000000000,0.0000000000,0.0000000000,0.0000000000,0.0000000000,,,
0.6759999988,5,225000.0000000000,225000.0000000000,225000.0000000000,225000.0000000000,0.0000000000,0.0000000000,0.0000000000,0.0000000000,,,
0.6799999988,5,217736.5468750000,225000.0000000000,225000.0000000000,206306.4062500000,0.0000000000,0.0000000000,0.0000000000,0.0000000000,,,
0.6839999990,5,207490.5468750000,225000.0000000000,225000.0000000000,161977.2031250000,0.0000000000,0.0000000000,0.0000000000,0.0000000000,,,
0.6879999989,5,216554.4218750000,225000.0000000000,225000.0000000000,196729.5468750000,0.0000000000,0.0000000000,0.0000000000,0.0000000000,,,
0.6919999989,5,225000.0000000000,225000.0000000000,225000.0000000000,225000.0000000000,0.0000000000,0.0000000000,0.0000000000,0.0000000000,,,
0.6959999988,5,225000.0000000000,225000.0000000000,225000.0000000000,225000.0000000000,0.0000000000,0.0000000000,0.0000000000,0.0000000000,,,
0.6999999988,5,217970.4687500000,225000.0000000000,225000.0000000000,206691.5625000000,0.0000000000,0.0000000000,0.0000000000,0.0000000000,,,
0.7039999987,5,207559.0781250000,225000.0000000000,225000.0000000000,162112.2500000000,0.0000000000,0.0000000000,0.0000000000,0.0000000000,,,
0.7079999989,5,216501.8281250000,225000.0000000000,225000.0000000000,196441.0781250000,0.0000000000,0.0000000000,0.0000000000,0.0000000000,,,
0.7119999989,5,225000.0000000000,225000.0000000000,225000.0000000000,225000.0000000000,0.0000000000,0.0000000000,0.0000000000,0.0000000000,,,
0.7159999989,5,225000.0000000000,225000.0000000000,225000.0000000000,225000.0000000000,0.0000000000,0.0000000000,0.0000000000,0.0000000000,,,
0.7199999988,5,217993.3281250000,225000.0000000000,225000.0000000000,207022.5156250000,0.0000000000,0.0000000000,0.0000000000,0.0000000000,,,
0.7239999988,5,207442.9531250000,225000.0000000000,225000.0000000000,162170.5156250000,0.0000000000,0.0000000000,0.0000000000,0.0000000000,,,
0.7279999990,5,216301.6562500000,225000.0000000000,225000.0000000000,196098.6875000000,0.0000000000,0.0000000000,0.0000000000,0.0000000000,,,
0.7319999989,5,225000.0000000000,225000.0000000000,225000.0000000000,225000.0000000000,0.0000000000,0.0000000000,0.0000000000,0.0000000000,,,
0.7359999989,5,225000.0000000000,225000.0000000000,225000.0000000000,225000.0000000000,0.0000000000,0.0000000000,0.0000000000,0.0000000000,,,
0.7399999988,5,217956.4218750000,225000.0000000000,225000.0000000000,207456.4531250000,0.0000000000,0.0000000000,0.0000000000,0.0000000000,,,
0.7439999988,5,207226.2656250000,225000.0000000000,225000.0000000000,162318.8593750000,0.0000000000,0.0000000000,0.0000000000,0.0000000000,,,
0.7479999987,5,215955.3750000000,225000.0000000000,225000.0000000000,195804.2031250000,0.0000000000,0.0000000000,0.0000000000,0.0000000000,,,
0.7519999989,5,225000.0000000000,225000.0000000000,225000.0000000000,225000.0000000000,0.0000000000,0.0000000000,0.0000000000,0.0000000000,,,
0.7559999989,5,225000.0000000000,225000.0000000000,225000.0000000000,225000.0000000000,0.0000000000,0.0000000000,0.0000000000,0.0000000000,,,
0.7599999988,5,217351.3906250000,225000.0000000000,225000.0000000000,207868.4375000000,0.0000000000,0.0000000000,0.0000000000,0.0000000000,,,
0.7639999988,5,206241.4687500000,225000.0000000000,225000.0000000000,162484.6562500000,0.0000000000,0.0000000000,0.0000000000,0.0000000000,,,
0.7679999988,6,214729.2656250000,225000.0000000000,225000.0000000000,195574.4531250000,0.0000000000,0.0000000000,0.0000000000,0.0000000000,,,
0.7719999987,6,225000.0000000000,225000.0000000000,225000.0000000000,225000.0000000000,0.0000000000,0.0000000000,0.0000000000,0.0000000000,,,
0.7759999987,6,225000.0000000000,225000.0000000000,225000.0000000000,225000.0000000000,0.0000000000,0.0000000000,0.0000000000,0.0000000000,,,
0.7799999986,6,216421.4687500000,225000.0000000000,225000.0000000000,208394.4687500000,0.0000000000,0.0000000000,0.0000000000,0.0000000000,,,
0.7839999986,6,205414.1562500000,225000.0000000000,225000.0000000000,162624.3437500000,0.0000000000,0.0000000000,0.0000000000,0.0000000000,,,
0.7879999985,6,214088.7968750000,225000.0000000000,225000.0000000000,195137.0156250000,0.0000000000,0.0000000000,0.0000000000,0.0000000000,,,
0.7919999987,6,225000.0000000000,225000.0000000000,225000.0000000000,225000.0000000000,0.0000000000,0.0000000000,0.0000000000,0.0000000000,,,
0.7959999987,6,225000.0000000000,225000.0000000000,225000.0000000000,225000.0000000000,0.0000000000,0.0000000000,0.0000000000,0.0000000000,,,
0.7999999986,6,216428.2500000000,225000.0000000000,225000.0000000000,208741.2812500000,0.0000000000,0.0000000000,0.0000000000,0.0000000000,,,
0.8039999986,6,205319.1093750000,225000.0000000000,225000.0000000000,162682.2500000000,0.0000000000,0.0000000000,0.0000000000,0.0000000000,,,
0.8079999986,6,213985.9687500000,225000.0000000000,225000.0000000000,194901.6718750000,0.0000000000,0.0000000000,0.0000000000,0.0000000000,,,
0.8119999988,6,225000.0000000000,225000.0000000000,225000.0000000000,225000.0000000000,0.0000000000,0.0000000000,0.0000000000,0.0000000000,,,
0.8159999987,6,225000.0000000000,225000.0000000000,225000.0000000000,225000.0000000000,0.0000000000,0.0000000000,0.0000000000,0.0000000000,,,
0.8199999987,6,216571.0781250000,225000.0000000000,225000.0000000000,208798.1250000000,0.0000000000,0.0000000000,0.0000000000,0.0000000000,,,
0.8239999986,6,205217.0156250000,225000.0000000000,224056.7031250000,162189.9843750000,0.0000000000,0.0000000000,0.0000000000,0.0000000000,,,
0.8279999986,6,213786.4375000000,225000.0000000000,225000.0000000000,194048.8437500000,0.0000000000,0.0000000000,0.0000000000,0.0000000000,,,
0.8319999985,6,225000.0000000000,225000.0000000000,225000.0000000000,225000.0000000000,0.0000000000,0.0000000000,0.0000000000,0.0000000000,,,
0.8359999987,6,225000.0000000000,225000.0000000000,225000.0000000000,225000.0000000000,0.0000000000,0.0000000000,0.0000000000,0.0000000000,,,
0.8399999987,6,216296.6875000000,225000.0000000000,225000.0000000000,209000.3281250000,0.0000000000,0.0000000000,0.0000000000,0.0000000000,,,
0.8439999986,6,204695.7812500000,225000.0000000000,223924.2968750000,162019.3437500000,0.0000000000,0.0000000000,0.0000000000,0.0000000000,,,
0.8479999986,6,213115.4843750000,225000.0000000000,225000.0000000000,193592.2187500000,0.0000000000,0.0000000000,0.0000000000,0.0000000000,,,
0.8519999986,6,225000.0000000000,225000.0000000000,225000.0000000000,225000.0000000000,0.0000000000,0.0000000000,0.0000000000,0.0000000000,,,
0.8559999987,6,225000.0000000000,225000.0000000000,225000.0000000000,225000.0000000000,0.0000000000,0.0000000000,0.0000000000,0.0000000000,,,
0.8599999987,6,216105.7500000000,225000.0000000000,225000.0000000000,209503.6406250000,0.0000000000,0.0000000000,0.0000000000,0.0000000000,,,
0.8639999987,6,204497.1093750000,225000.0000000000,223034.9687500000,162229.2031250000,0.0000000000,0.0000000000,0.0000000000,0.0000000000,,,
0.8679999986,6,212818.1093750000,225000.0000000000,225000.0000000000,193344.7812500000,0.0000000000,0.0000000000,0.0000000000,0.0000000000,,,
0.8719999986,6,225000.0000000000,225000.0000000000,225000.0000000000,225000.0000000000,0.0000000000,0.0000000000,0.0000000000,0.0000000000,,,
0.8759999985,6,225000.0000000000,225000.0000000000,225000.0000000000,225000.0000000000,0.0000000000,0.0000000000,0.0000000000,0.0000000000,,,
0.8799999987,6,216091.2656250000,225000.0000000000,225000.0000000000,210038.5625000000,0.0000000000,0.0000000000,0.0000000000,0.0000000000,,,
0.8839999987,6,204469.9375000000,225000.0000000000,222744.8593750000,162439.6093750000,0.0000000000,0.0000000000,0.0000000000,0.0000000000,,,
0.8879999986,6,212714.5000000000,225000.0000000000,225000.0000000000,193082.2968750000,0.0000000000,0.0000000000,0.0000000000,0.0000000000,,,
0.8919999986,6,225000.0000000000,225000.0000000000,225000.0000000000,225000.0000000000,0.0000000000,0.0000000000,0.0000000000,0.0000000000,,,
0.8959999986,7,225000.0000000000,225000.0000000000,225000.0000000000,225000.0000000000,0.0000000000,0.0000000000,0.0000000000,0.0000000000,,,
0.8999999985,7,216232.9375000000,225000.0000000000,225000.0000000000,210445.8593750000,0.0000000000,0.0000000000,0.0000000000,0.0000000000,,,
0.9039999985,7,204525.3593750000,225000.0000000000,222565.6562500000,162595.5625000000,0.0000000000,0.0000000000,0.0000000000,0.0000000000,,,
0.9079999984,7,212612.0312500000,225000.0000000000,225000.0000000000,192805.7968750000,0.0000000000,0.0000000000,0.0000000000,0.0000000000,,,
0.9119999984,7,225000.0000000000,225000.0000000000,225000.0000000000,225000.0000000000,0.0000000000,0.0000000000,0.0000000000,0.0000000000,,,
0.9159999983,7,225000.0000000000,225000.0000000000,225000.0000000000,225000.0000000000,0.0000000000,0.0000000000,0.0000000000,0.0000000000,,,
0.9199999985,7,216311.6093750000,225000.0000000000,225000.0000000000,210879.2187500000,0.0000000000,0.0000000000,0.0000000000,0.0000000000,,,
0.9239999985,7,204567.7656250000,225000.0000000000,222810.5468750000,162759.1406250000,0.0000000000,0.0000000000,0.0000000000,0.0000000000,,,
0.9279999984,7,212533.3906250000,225000.0000000000,225000.0000000000,192525.9375000000,0.0000000000,0.0000000000,0.0000000000,0.0000000000,,,
0.9319999984,7,225000.0000000000,225000.0000000000,225000.0000000000,225000.0000000000,0.0000000000,0.0000000000,0.0000000000,0.0000000000,,,
0.9359999984,7,225000.0000000000,225000.0000000000,225000.0000000000,225000.0000000000,0.0000000000,0.0000000000,0.0000000000,0.0000000000,,,
0.9399999985,7,216473.9062500000,225000.0000000000,225000.0000000000,211317.8437500000,0.0000000000,0.0000000000,0.0000000000,0.0000000000,,,
0.9439999985,7,204683.2656250000,225000.0000000000,222894.7656250000,162921.5000000000,0.0000000000,0.0000000000,0.0000000000,0.0000000000,,,
0.9479999985,7,212512.3281250000,225000.0000000000,225000.0000000000,192265.6718750000,0.0000000000,0.0000000000,0.0000000000,0.0000000000,,,
0.9519999984,7,225000.0000000000,225000.0000000000,225000.0000000000,225000.0000000000,0.0000000000,0.0000000000,0.0000000000,0.0000000000,,,
0.9559999984,7,225000.0000000000,225000.0000000000,225000.0000000000,225000.0000000000,0.0000000000,0.0000000000,0.0000000000,0.0000000000,,,
0.9599999983,7,216657.5000000000,225000.0000000000,225000.0000000000,211630.5312500000,0.0000000000,0.0000000000,0.0000000000,0.0000000000,,,
0.9639999985,7,204839.4687500000,225000.0000000000,217465.8906250000,162898.6718750000,0.0000000000,0.0000000000,0.0000000000,0.0000000000,,,
0.9679999985,7,212509.3593750000,225000.0000000000,225000.0000000000,191764.6406250000,0.0000000000,0.0000000000,0.0000000000,0.0000000000,,,
0.9719999984,7,225000.0000000000,225000.0000000000,225000.0000000000,225000.0000000000,0.0000000000,0.0000000000,0.0000000000,0.0000000000,,,
0.9759999984,7,225000.0000000000,225000.0000000000,225000.0000000000,225000.0000000000,0.0000000000,0.0000000000,0.0000000000,0.0000000000,,,
0.9799999984,7,216812.1562500000,225000.0000000000,225000.0000000000,212313.0937500000,0.0000000000,0.0000000000,0.0000000000,0.0000000000,,,
0.9839999985,7,204947.1875000000,225000.0000000000,218585.3437500000,163472.2343750000,0.0000000000,0.0000000000,0.0000000000,0.0000000000,,,
0.9879999985,7,212512.1250000000,225000.0000000000,225000.0000000000,191716.3125000000,0.0000000000,0.0000000000,0.0000000000,0.0000000000,,,
0.9919999985,7,225000.0000000000,225000.0000000000,225000.0000000000,225000.0000000000,0.0000000000,0.0000000000,0.0000000000,0.0000000000,,,
0.9959999984,7,225000.0000000000,225000.0000000000,225000.0000000000,225000.0000000000,0.0000000000,0.0000000000,0.0000000000,0.0000000000,,,
0.9999999984,7,217054.8750000000,225000.0000000000,225000.0000000000,212465.8750000000,0.0000000000,0.0000000000,0.0000000000,0.0000000000,,,
1.0039999983,7,205119.8750000000,225000.0000000000,218906.7187500000,163213.2187500000,0.0000000000,0.0000000000,0.0000000000,0.0000000000,,,
1.0079999985,7,212555.5156250000,225000.0000000000,225000.0000000000,191134.7187500000,0.0000000000,0.0000000000,0.0000000000,0.0000000000,,,
1.0119999985,7,225000.0000000000,225000.0000000000,225000.0000000000,225000.0000000000,0.0000000000,0.0000000000,0.0000000000,0.0000000000,,,
1.0159999984,7,225000.0000000000,225000.0000000000,225000.0000000000,225000.0000000000,0.0000000000,0.0000000000,0.0000000000,0.0000000000,,,
1.0199999984,7,217283.5781250000,225000.0000000000,225000.0000000000,212691.5000000000,0.0000000000,0.0000000000,0.0000000000,0.0000000000,,,
1.0239999983,8,205244.7812500000,225000.0000000000,219078.7031250000,163055.9687500000,0.0000000000,0.0000000000,0.0000000000,0.0000000000,,,
1.0279999983,8,212575.6875000000,225000.0000000000,225000.0000000000,190539.6718750000,0.0000000000,0.0000000000,0.0000000000,0.0000000000,,,
1.0319999983,8,225000.0000000000,225000.0000000000,225000.0000000000,225000.0000000000,0.0000000000,0.0000000000,0.0000000000,0.0000000000,,,
1.0359999982,8,225000.0000000000,225000.0000000000,225000.0000000000,225000.0000000000,0.0000000000,0.0000000000,0.0000000000,0.0000000000,,,
1.0399999982,8,217556.7656250000,225000.0000000000,225000.0000000000,212897.6406250000,0.0000000000,0.0000000000,0.0000000000,0.0000000000,,,
1.0439999981,8,205393.0781250000,225000.0000000000,219169.8125000000,162864.8750000000,0.0000000000,0.0000000000,0.0000000000,0.0000000000,33029,1.0461565813,0.0000000000
1.0479999983,8,212615.5468750000,225000.0000000000,225000.0000000000,189945.5937500000,0.0000000000,0.0000000000,0.0000000000,0.0000000000,,,
1.0519999983,8,225000.0000000000,225000.0000000000,225000.0000000000,225000.0000000000,0.0000000000,0.0000000000,0.0000000000,0.0000000000,,,
1.0559999982,8,225000.0000000000,225000.0000000000,225000.0000000000,225000.0000000000,0.0000000000,0.0000000000,0.0000000000,0.0000000000,,,
1.0599999982,8,217714.4843750000,225000.0000000000,225000.0000000000,213118.5468750000,0.0000000000,0.0000000000,0.0000000000,0.0000000000,,,
1.0639999982,8,205355.6562500000,225000.0000000000,219284.1875000000,162717.6562500000,0.0000000000,0.0000000000,0.0000000000,0.0000000000,,,
1.0679999983,8,212443.3437500000,225000.0000000000,225000.0000000000,189352.1562500000,0.0000000000,0.0000000000,0.0000000000,0.0000000000,,,
1.0719999983,8,225000.0000000000,225000.0000000000,225000.0000000000,225000.0000000000,0.0000000000,0.0000000000,0.0000000000,0.0000000000,,,
1.0759999983,8,225000.0000000000,225000.0000000000,225000.0000000000,225000.0000000000,0.0000000000,0.0000000000,0.0000000000,0.0000000000,,,
1.0799999982,8,217771.9375000000,225000.0000000000,225000.0000000000,213390.8125000000,0.0000000000,0.0000000000,0.0000000000,0.0000000000,,,
1.0839999982,8,205294.0781250000,225000.0000000000,219464.6250000000,162646.3125000000,0.0000000000,0.0000000000,0.0000000000,0.0000000000,,,
1.0879999981,8,212291.1562500000,225000.0000000000,225000.0000000000,188759.2500000000,0.0000000000,0.0000000000,0.0000000000,0.0000000000,,,
1.0919999983,8,225000.0000000000,225000.0000000000,225000.0000000000,225000.0000000000,0.0000000000,0.0000000000,0.0000000000,0.0000000000,,,
1.0959999983,8,225000.0000000000,225000.0000000000,225000.0000000000,225000.0000000000,0.0000000000,0.0000000000,0.0000000000,0.0000000000,,,
1.0999999982,8,217850.0625000000,225000.0000000000,225000.0000000000,213555.5781250000,0.0000000000,0.0000000000,0.0000000000,0.0000000000,,,
1.1039999982,8,205241.8906250000,225000.0000000000,219550.9843750000,162512.7812500000,0.0000000000,0.0000000000,0.0000000000,0.0000000000,,,
1.1079999981,8,212111.6718750000,225000.0000000000,225000.0000000000,188133.7031250000,0.0000000000,0.0000000000,0.0000000000,0.0000000000,,,
1.1119999983,8,225000.0000000000,225000.0000000000,225000.0000000000,225000.0000000000,0.0000000000,0.0000000000,0.0000000000,0.0000000000,,,
1.1159999983,8,225000.0000000000,225000.0000000000,225000.0000000000,225000.0000000000,0.0000000000,0.0000000000,0.0000000000,0.0000000000,,,
1.1199999982,8,217869.2656250000,225000.0000000000,225000.0000000000,213762.8125000000,0.0000000000,0.0000000000,0.0000000000,0.0000000000,,,
1.1239999982,8,205154.7343750000,225000.0000000000,219698.9375000000,162467.7187500000,0.0000000000,0.0000000000,0.0000000000,0.0000000000,,,
1.1279999982,8,211925.5468750000,225000.0000000000,225000.0000000000,187618.9843750000,0.0000000000,0.0000000000,0.0000000000,0.0000000000,,,
1.1319999981,8,225000.0000000000,225000.0000000000,225000.0000000000,225000.0000000000,0.0000000000,0.0000000000,0.0000000000,0.0000000000,,,
1.1359999983,8,225000.0000000000,225000.0000000000,225000.0000000000,225000.0000000000,0.0000000000,0.0000000000,0.0000000000,0.0000000000,,,
1.1399999983,8,217879.0937500000,225000.0000000000,225000.0000000000,213931.2500000000,0.0000000000,0.0000000000,0.0000000000,0.0000000000,,,
1.1439999982,8,205079.8593750000,225000.0000000000,219823.0468750000,162319.0312500000,0.0000000000,0.0000000000,0.0000000000,0.0000000000,,,
1.1479999982,8,211761.5312500000,225000.0000000000,225000.0000000000,187009.7812500000,0.0000000000,0.0000000000,0.0000000000,0.0000000000,,,
1.1519999981,9,225000.0000000000,225000.0000000000,225000.0000000000,225000.0000000000,0.0000000000,0.0000000000,0.0000000000,0.0000000000,,,
1.1559999981,9,225000.0000000000,225000.0000000000,225000.0000000000,225000.0000000000,0.0000000000,0.0000000000,0.0000000000,0.0000000000,,,
1.1599999981,9,217937.5937500000,225000.0000000000,225000.0000000000,214026.3906250000,0.0000000000,0.0000000000,0.0000000000,0.0000000000,,,
1.1639999980,9,205027.2500000000,225000.0000000000,219933.3593750000,162071.1562500000,0.0000000000,0.0000000000,0.0000000000,0.0000000000,,,
1.1679999980,9,211623.7500000000,225000.0000000000,225000.0000000000,186377.9062500000,0.0000000000,0.0000000000,0.0000000000,0.0000000000,,,
1.1719999979,9,225000.0000000000,225000.0000000000,225000.0000000000,225000.0000000000,0.0000000000,0.0000000000,0.0000000000,0.0000000000,,,
1.1759999981,9,225000.0000000000,225000.0000000000,225000.0000000000,225000.0000000000,0.0000000000,0.0000000000,0.0000000000,0.0000000000,,,
1.1799999981,9,218056.9218750000,225000.0000000000,225000.0000000000,214257.8593750000,0.0000000000,0.0000000000,0.0000000000,0.0000000000,,,
1.1839999980,9,205053.9375000000,225000.0000000000,219977.5625000000,161928.3125000000,0.0000000000,0.0000000000,0.0000000000,0.0000000000,,,
1.1879999980,9,211547.7343750000,225000.0000000000,225000.0000000000,185796.0781250000,0.0000000000,0.0000000000,0.0000000000,0.0000000000,,,
1.1919999979,9,225000.0000000000,225000.0000000000,225000.0000000000,225000.0000000000,0.0000000000,0.0000000000,0.0000000000,0.0000000000,,,
1.1959999981,9,225000.0000000000,225000.0000000000,225000.0000000000,225000.0000000000,0.0000000000,0.0000000000,0.0000000000,0.0000000000,,,
1.1999999981,9,218239.6875000000,225000.0000000000,225000.0000000000,214509.1093750000,0.0000000000,0.0000000000,0.0000000000,0.0000000000,,,
1.2039999980,9,205179.1718750000,225000.0000000000,220072.4687500000,161903.3281250000,0.0000000000,0.0000000000,0.0000000000,0.0000000000,,,
1.2079999980,9,211569.7187500000,225000.0000000000,225000.0000000000,185307.8906250000,0.0000000000,0.0000000000,0.0000000000,0.0000000000,,,
1.2119999980,9,225000.0000000000,225000.0000000000,225000.0000000000,225000.0000000000,0.0000000000,0.0000000000,0.0000000000,0.0000000000,,,
1.2159999979,9,225000.0000000000,225000.0000000000,225000.0000000000,225000.0000000000,0.0000000000,0.0000000000,0.0000000000,0.0000000000,,,
1.2199999981,9,218470.0000000000,225000.0000000000,225000.0000000000,214842.2968750000,0.0000000000,0.0000000000,0.0000000000,0.0000000000,,,
1.2239999981,9,205345.6875000000,225000.0000000000,220133.0625000000,161948.7500000000,0.0000000000,0.0000000000,0.0000000000,0.0000000000,,,
1.2279999980,9,211618.2187500000,225000.0000000000,225000.0000000000,184905.3750000000,0.0000000000,0.0000000000,0.0000000000,0.0000000000,,,
1.2319999980,9,225000.0000000000,225000.0000000000,225000.0000000000,225000.0000000000,0.0000000000,0.0000000000,0.0000000000,0.0000000000,,,
1.2359999979,9,225000.0000000000,225000.0000000000,225000.0000000000,225000.0000000000,0.0000000000,0.0000000000,0.0000000000,0.0000000000,,,
1.2399999981,9,218700.6250000000,225000.0000000000,225000.0000000000,215195.6093750000,0.0000000000,0.0000000000,0.0000000000,0.0000000000,,,
1.2439999981,9,205534.4843750000,225000.0000000000,220247.6406250000,162103.4062500000,0.0000000000,0.0000000000,0.0000000000,0.0000000000,,,
1.2479999980,9,211646.6718750000,225000.0000000000,225000.0000000000,184559.5781250000,0.0000000000,0.0000000000,0.0000000000,0.0000000000,,,
1.2519999980,9,225000.0000000000,225000.0000000000,225000.0000000000,225000.0000000000,0.0000000000,0.0000000000,0.0000000000,0.0000000000,,,
1.2559999980,9,225000.0000000000,225000.0000000000,225000.0000000000,225000.0000000000,0.0000000000,0.0000000000,0.0000000000,0.0000000000,,,
1.2599999979,9,218858.4375000000,225000.0000000000,225000.0000000000,215539.7656250000,0.0000000000,0.0000000000,0.0000000000,0.0000000000,,,
1.2639999981,9,205649.7968750000,225000.0000000000,220275.8750000000,162163.3437500000,0.0000000000,0.0000000000,0.0000000000,0.0000000000,,,
1.2679999981,9,211619.9062500000,225000.0000000000,225000.0000000000,184116.5937500000,0.0000000000,0.0000000000,0.0000000000,0.0000000000,,,
1.2719999980,9,225000.0000000000,225000.0000000000,225000.0000000000,225000.0000000000,0.0000000000,0.0000000000,0.0000000000,0.0000000000,,,
1.2759999980,9,225000.0000000000,225000.0000000000,225000.0000000000,225000.0000000000,0.0000000000,0.0000000000,0.0000000000,0.0000000000,,,
1.2799999979,10,218979.3593750000,225000.0000000000,225000.0000000000,215824.0781250000,0.0000000000,0.0000000000,0.0000000000,0.0000000000,,,
1.2839999979,10,205730.0156250000,225000.0000000000,220376.9531250000,162143.2656250000,0.0000000000,0.0000000000,0.0000000000,0.0000000000,,,
1.2879999978,10,211562.9062500000,225000.0000000000,225000.0000000000,183631.9062500000,0.0000000000,0.0000000000,0.0000000000,0.0000000000,,,
1.2919999978,10,225000.0000000000,225000.0000000000,225000.0000000000,225000.0000000000,0.0000000000,0.0000000000,0.0000000000,0.0000000000,,,
1.2959999978,10,225000.0000000000,225000.0000000000,225000.0000000000,225000.0000000000,0.0000000000,0.0000000000,0.0000000000,0.0000000000,,,
1.2999999977,10,219120.4375000000,225000.0000000000,225000.0000000000,216136.3750000000,0.0000000000,0.0000000000,0.0000000000,0.0000000000,,,
1.3039999979,10,205826.5000000000,225000.0000000000,220372.5000000000,162174.7812500000,0.0000000000,0.0000000000,0.0000000000,0.0000000000,,,
1.3079999979,10,211515.3593750000,225000.0000000000,225000.0000000000,183148.8750000000,0.0000000000,0.0000000000,0.0000000000,0.0000000000,,,
1.3119999978,10,225000.0000000000,225000.0000000000,225000.0000000000,225000.0000000000,0.0000000000,0.0000000000,0.0000000000,0.0000000000,,,
1.3159999978,10,225000.0000000000,225000.0000000000,225000.0000000000,225000.0000000000,0.0000000000,0.0000000000,0.0000000000,0.0000000000,,,
1.3199999977,10,219301.9531250000,225000.0000000000,225000.0000000000,216452.7656250000,0.0000000000,0.0000000000,0.0000000000,0.0000000000,,,
1.3239999979,10,206004.7031250000,225000.0000000000,220419.4843750000,162232.2812500000,0.0000000000,0.0000000000,0.0000000000,0.0000000000,,,
1.3279999979,10,211572.3593750000,225000.0000000000,225000.0000000000,182691.4531250000,0.0000000000,0.0000000000,0.0000000000,0.0000000000,,,
1.3319999978,10,225000.0000000000,225000.0000000000,225000.0000000000,225000.0000000000,0.0000000000,0.0000000000,0.0000000000,0.0000000000,,,
1.3359999978,10,225000.0000000000,225000.0000000000,225000.0000000000,225000.0000000000,0.0000000000,0.0000000000,0.0000000000,0.0000000000,,,
1.3399999978,10,219545.1406250000,225000.0000000000,225000.0000000000,216787.6718750000,0.0000000000,0.0000000000,0.0000000000,0.0000000000,,,
1.3439999977,10,206209.0937500000,225000.0000000000,220614.2500000000,162392.7031250000,0.0000000000,0.0000000000,0.0000000000,0.0000000000,,,
1.3479999979,10,211643.7812500000,225000.0000000000,225000.0000000000,182345.8750000000,0.0000000000,0.0000000000,0.0000000000,0.0000000000,,,
1.3519999979,10,225000.0000000000,225000.0000000000,225000.0000000000,225000.0000000000,0.0000000000,0.0000000000,0.0000000000,0.0000000000,,,
1.3559999978,10,225000.0000000000,225000.0000000000,225000.0000000000,225000.0000000000,0.0000000000,0.0000000000,0.0000000000,0.0000000000,,,
1.3599999978,10,219775.5156250000,225000.0000000000,225000.0000000000,217068.4375000000,0.0000000000,0.0000000000,0.0000000000,0.0000000000,,,
1.3639999977,10,206370.3437500000,225000.0000000000,220783.4375000000,162425.8281250000,0.0000000000,0.0000000000,0.0000000000,0.0000000000,,,
1.3679999979,10,211675.9687500000,225000.0000000000,225000.0000000000,181897.6718750000,0.0000000000,0.0000000000,0.0000000000,0.0000000000,,,
1.3719999979,10,225000.0000000000,225000.0000000000,225000.0000000000,225000.0000000000,0.0000000000,0.0000000000,0.0000000000,0.0000000000,,,
1.3759999978,10,225000.0000000000,225000.0000000000,225000.0000000000,225000.0000000000,0.0000000000,0.0000000000,0.0000000000,0.0000000000,,,
1.3799999978,10,219966.9531250000,225000.0000000000,225000.0000000000,217343.9843750000,0.0000000000,0.0000000000,0.0000000000,0.0000000000,,,
1.3839999977,10,206491.5781250000,225000.0000000000,220917.7343750000,162495.7812500000,0.0000000000,0.0000000000,0.0000000000,0.0000000000,,,
1.3879999977,10,211698.6875000000,225000.0000000000,225000.0000000000,181507.4218750000,0.0000000000,0.0000000000,0.0000000000,0.0000000000,,,
1.3919999979,10,225000.0000000000,225000.0000000000,225000.0000000000,225000.0000000000,0.0000000000,0.0000000000,0.0000000000,0.0000000000,,,
1.3959999979,10,225000.0000000000,225000.0000000000,225000.0000000000,225000.0000000000,0.0000000000,0.0000000000,0.0000000000,0.0000000000,,,
1.3999999978,10,220169.4062500000,225000.0000000000,225000.0000000000,217715.1718750000,0.0000000000,0.0000000000,0.0000000000,0.0000000000,,,
1.4039999978,10,206579.5625000000,225000.0000000000,221082.8750000000,162700.6562500000,0.0000000000,0.0000000000,0.0000000000,0.0000000000,,,
1.4079999977,11,211663.9843750000,225000.0000000000,225000.0000000000,181177.2031250000,0.0000000000,0.0000000000,0.0000000000,0.0000000000,,,
1.4119999977,11,225000.0000000000,225000.0000000000,225000.0000000000,225000.0000000000,0.0000000000,0.0000000000,0.0000000000,0.0000000000,,,
1.4159999976,11,225000.0000000000,225000.0000000000,225000.0000000000,225000.0000000000,0.0000000000,0.0000000000,0.0000000000,0.0000000000,,,
1.4199999976,11,220343.4218750000,225000.0000000000,225000.0000000000,218116.4843750000,0.0000000000,0.0000000000,0.0000000000,0.0000000000,,,
1.4239999976,11,206623.3281250000,225000.0000000000,221246.0625000000,162918.0156250000,0.0000000000,0.0000000000,0.0000000000,0.0000000000,,,
1.4279999975,11,211597.2968750000,225000.0000000000,225000.0000000000,180916.1718750000,0.0000000000,0.0000000000,0.0000000000,0.0000000000,,,
1.4319999977,11,225000.0000000000,225000.0000000000,225000.0000000000,225000.0000000000,0.0000000000,0.0000000000,0.0000000000,0.0000000000,,,
1.4359999977,11,225000.0000000000,225000.0000000000,225000.0000000000,225000.0000000000,0.0000000000,0.0000000000,0.0000000000,0.0000000000,,,
1.4399999976,11,220477.8593750000,225000.0000000000,225000.0000000000,218494.3593750000,0.0000000000,0.0000000000,0.0000000000,0.0000000000,,,
1.4439999976,11,206653.6093750000,225000.0000000000,221373.9062500000,163147.9531250000,0.0000000000,0.0000000000,0.0000000000,0.0000000000,,,
1.4479999975,11,211513.8750000000,225000.0000000000,225000.0000000000,180567.3593750000,0.0000000000,0.0000000000,0.0000000000,0.0000000000,,,
1.4519999977,11,225000.0000000000,225000.0000000000,225000.0000000000,225000.0000000000,0.0000000000,0.0000000000,0.0000000000,0.0000000000,,,
1.4559999977,11,225000.0000000000,225000.0000000000,225000.0000000000,225000.0000000000,0.0000000000,0.0000000000,0.0000000000,0.0000000000,,,
1.4599999976,11,220614.7812500000,225000.0000000000,225000.0000000000,218843.0156250000,0.0000000000,0.0000000000,0.0000000000,0.0000000000,,,
1.4639999976,11,206647.3593750000,225000.0000000000,221405.3281250000,163291.6406250000,0.0000000000,0.0000000000,0.0000000000,0.0000000000,,,
1.4679999975,11,211382.8593750000,225000.0000000000,225000.0000000000,180199.2187500000,0.0000000000,0.0000000000,0.0000000000,0.0000000000,,,
1.4719999975,11,225000.0000000000,225000.0000000000,225000.0000000000,225000.0000000000,0.0000000000,0.0000000000,0.0000000000,0.0000000000,,,
1.4759999977,11,225000.0000000000,225000.0000000000,225000.0000000000,225000.0000000000,0.0000000000,0.0000000000,0.0000000000,0.0000000000,,,
1.4799999977,11,220733.0937500000,225000.0000000000,225000.0000000000,219220.1718750000,0.0000000000,0.0000000000,0.0000000000,0.0000000000,,,
1.4839999976,11,206639.6406250000,225000.0000000000,221412.6093750000,163398.3750000000,0.0000000000,0.0000000000,0.0000000000,0.0000000000,,,
1.4879999976,11,211296.2968750000,225000.0000000000,225000.0000000000,179814.3750000000,0.0000000000,0.0000000000,0.0000000000,0.0000000000,,,
1.4919999975,11,225000.0000000000,225000.0000000000,225000.0000000000,225000.0000000000,0.0000000000,0.0000000000,0.0000000000,0.0000000000,,,
1.4959999977,11,225000.0000000000,225000.0000000000,225000.0000000000,225000.0000000000,0.0000000000,0.0000000000,0.0000000000,0.0000000000,,,
1.4999999977,11,220912.3906250000,225000.0000000000,225000.0000000000,219544.2343750000,0.0000000000,0.0000000000,0.0000000000,0.0000000000,,,
1.5039999976,11,206704.3125000000,225000.0000000000,221479.5781250000,163529.5625000000,0.0000000000,0.0000000000,0.0000000000,0.0000000000,,,
1.5079999976,11,211243.7031250000,225000.0000000000,225000.0000000000,179435.8906250000,0.0000000000,0.0000000000,0.0000000000,0.0000000000,,,
1.5119999975,11,225000.0000000000,225000.0000000000,225000.0000000000,225000.0000000000,0.0000000000,0.0000000000,0.0000000000,0.0000000000,,,
1.5159999975,11,225000.0000000000,225000.0000000000,225000.0000000000,225000.0000000000,0.0000000000,0.0000000000,0.0000000000,0.0000000000,,,
1.5199999977,11,221052.3281250000,225000.0000000000,225000.0000000000,219871.6406250000,0.0000000000,0.0000000000,0.0000000000,0.0000000000,,,
1.5239999976,11,206731.9531250000,225000.0000000000,221538.6718750000,163617.4218750000,0.0000000000,0.0000000000,0.0000000000,0.0000000000,,,
1.5279999976,11,211151.8906250000,225000.0000000000,225000.0000000000,178995.9843750000,0.0000000000,0.0000000000,0.0000000000,0.0000000000,,,
1.5319999976,11,225000.0000000000,225000.0000000000,225000.0000000000,225000.0000000000,0.0000000000,0.0000000000,0.0000000000,0.0000000000,,,
1.5359999975,12,225000.0000000000,225000.0000000000,225000.0000000000,225000.0000000000,0.0000000000,0.0000000000,0.0000000000,0.0000000000,,,
1.5399999975,12,221181.5312500000,225000.0000000000,225000.0000000000,220084.2968750000,0.0000000000,0.0000000000,0.0000000000,0.0000000000,,,
1.5439999974,12,206778.3593750000,225000.0000000000,221487.8906250000,163521.7343750000,0.0000000000,0.0000000000,0.0000000000,0.0000000000,,,
1.5479999974,12,211083.2500000000,225000.0000000000,225000.0000000000,178401.1562500000,0.0000000000,0.0000000000,0.0000000000,0.0000000000,,,
1.5519999973,12,225000.0000000000,225000.0000000000,225000.0000000000,225000.0000000000,0.0000000000,0.0000000000,0.0000000000,0.0000000000,,,
1.5559999973,12,225000.0000000000,225000.0000000000,225000.0000000000,225000.0000000000,0.0000000000,0.0000000000,0.0000000000,0.0000000000,,,
1.5599999975,12,221282.8593750000,225000.0000000000,225000.0000000000,220360.9843750000,0.0000000000,0.0000000000,0.0000000000,0.0000000000,,,
1.5639999975,12,206827.9531250000,225000.0000000000,221473.4843750000,163558.6875000000,0.0000000000,0.0000000000,0.0000000000,0.0000000000,,,
1.5679999974,12,211000.7968750000,225000.0000000000,225000.0000000000,177940.7500000000,0.0000000000,0.0000000000,0.0000000000,0.0000000000,,,
1.5719999974,12,225000.0000000000,225000.0000000000,225000.0000000000,225000.0000000000,0.0000000000,0.0000000000,0.0000000000,0.0000000000,,,
1.5759999973,12,225000.0000000000,225000.0000000000,225000.0000000000,225000.0000000000,0.0000000000,0.0000000000,0.0000000000,0.0000000000,,,
1.5799999975,12,221409.2031250000,225000.0000000000,225000.0000000000,220642.3750000000,0.0000000000,0.0000000000,0.0000000000,0.0000000000,,,
1.5839999975,12,206927.5937500000,225000.0000000000,221547.0937500000,163650.5312500000,0.0000000000,0.0000000000,0.0000000000,0.0000000000,,,
1.5879999974,12,210993.2656250000,225000.0000000000,225000.0000000000,177554.7031250000,0.0000000000,0.0000000000,0.0000000000,0.0000000000,,,
1.5919999974,12,225000.0000000000,225000.0000000000,225000.0000000000,225000.0000000000,0.0000000000,0.0000000000,0.0000000000,0.0000000000,,,
1.5959999973,12,225000.0000000000,225000.0000000000,225000.0000000000,225000.0000000000,0.0000000000,0.0000000000,0.0000000000,0.0000000000,,,
1.5999999973,12,221547.7031250000,225000.0000000000,225000.0000000000,220939.6562500000,0.0000000000,0.0000000000,0.0000000000,0.0000000000,,,
1.6039999975,12,207014.4531250000,225000.0000000000,221623.2656250000,163679.8906250000,0.0000000000,0.0000000000,0.0000000000,0.0000000000,,,
1.6079999974,12,210947.8750000000,225000.0000000000,225000.0000000000,177064.2031250000,0.0000000000,0.0000000000,0.0000000000,0.0000000000,,,
1.6119999974,12,225000.0000000000,225000.0000000000,225000.0000000000,225000.0000000000,0.0000000000,0.0000000000,0.0000000000,0.0000000000,,,
1.6159999974,12,225000.0000000000,225000.0000000000,225000.0000000000,225000.0000000000,0.0000000000,0.0000000000,0.0000000000,0.0000000000,,,
1.6199999973,12,221615.6406250000,225000.0000000000,225000.0000000000,221200.6875000000,0.0000000000,0.0000000000,0.0000000000,0.0000000000,,,
1.6239999975,12,207044.0000000000,225000.0000000000,221570.5625000000,163675.0625000000,0.0000000000,0.0000000000,0.0000000000,0.0000000000,,,
1.6279999975,12,210845.6093750000,225000.0000000000,225000.0000000000,176567.4531250000,0.0000000000,0.0000000000,0.0000000000,0.0000000000,,,
1.6319999974,12,225000.0000000000,225000.0000000000,225000.0000000000,225000.0000000000,0.0000000000,0.0000000000,0.0000000000,0.0000000000,,,
1.6359999974,12,225000.0000000000,225000.0000000000,225000.0000000000,225000.0000000000,0.0000000000,0.0000000000,0.0000000000,0.0000000000,,,
1.6399999973,12,221652.6562500000,225000.0000000000,225000.0000000000,221483.7343750000,0.0000000000,0.0000000000,0.0000000000,0.0000000000,,,
1.6439999973,12,207019.2500000000,225000.0000000000,221561.2031250000,163741.6718750000,0.0000000000,0.0000000000,0.0000000000,0.0000000000,,,
1.6479999975,12,210668.6093750000,225000.0000000000,225000.0000000000,176144.9531250000,0.0000000000,0.0000000000,0.0000000000,0.0000000000,,,
1.6519999974,12,225000.0000000000,225000.0000000000,225000.0000000000,225000.0000000000,0.0000000000,0.0000000000,0.0000000000,0.0000000000,,,
1.6559999974,12,225000.0000000000,225000.0000000000,225000.0000000000,225000.0000000000,0.0000000000,0.0000000000,0.0000000000,0.0000000000,,,
1.6599999974,12,221546.6875000000,225000.0000000000,225000.0000000000,221704.7500000000,0.0000000000,0.0000000000,0.0000000000,0.0000000000,,,
1.6639999973,13,206877.4687500000,225000.0000000000,221580.7031250000,163618.7187500000,0.0000000000,0.0000000000,0.0000000000,0.0000000000,,,
1.6679999973,13,210399.9062500000,225000.0000000000,225000.0000000000,175514.5781250000,0.0000000000,0.0000000000,0.0000000000,0.0000000000,,,
1.6719999972,13,225000.0000000000,225000.0000000000,225000.0000000000,225000.0000000000,0.0000000000,0.0000000000,0.0000000000,0.0000000000,,,
1.6759999972,13,225000.0000000000,225000.0000000000,225000.0000000000,225000.0000000000,0.0000000000,0.0000000000,0.0000000000,0.0000000000,,,
1.6799999971,13,221515.6875000000,225000.0000000000,225000.0000000000,222077.8906250000,0.0000000000,0.0000000000,0.0000000000,0.0000000000,,,
1.6839999971,13,206824.3906250000,225000.0000000000,221645.1562500000,163880.3437500000,0.0000000000,0.0000000000,0.0000000000,0.0000000000,,,
1.6879999973,13,210230.0156250000,225000.0000000000,225000.0000000000,175235.0156250000,0.0000000000,0.0000000000,0.0000000000,0.0000000000,,,
1.6919999972,13,225000.0000000000,225000.0000000000,225000.0000000000,225000.0000000000,0.0000000000,0.0000000000,0.0000000000,0.0000000000,,,
1.6959999972,13,225000.0000000000,225000.0000000000,225000.0000000000,225000.0000000000,0.0000000000,0.0000000000,0.0000000000,0.0000000000,,,
1.6999999972,13,221488.5156250000,225000.0000000000,225000.0000000000,222420.0937500000,0.0000000000,0.0000000000,0.0000000000,0.0000000000,,,
1.7039999971,13,206755.8906250000,225000.0000000000,221727.8437500000,164081.7187500000,0.0000000000,0.0000000000,0.0000000000,0.0000000000,,,
1.7079999973,13,210044.1718750000,225000.0000000000,225000.0000000000,174901.5937500000,0.0000000000,0.0000000000,0.0000000000,0.0000000000,,,
1.7119999973,13,225000.0000000000,225000.0000000000,225000.0000000000,225000.0000000000,0.0000000000,0.0000000000,0.0000000000,0.0000000000,,,
1.7159999972,13,225000.0000000000,225000.0000000000,225000.0000000000,225000.0000000000,0.0000000000,0.0000000000,0.0000000000,0.0000000000,,,
1.7199999972,13,221489.0937500000,225000.0000000000,225000.0000000000,222734.5312500000,0.0000000000,0.0000000000,0.0000000000,0.0000000000,,,
1.7239999971,13,206695.5937500000,225000.0000000000,221804.5781250000,164212.4531250000,0.0000000000,0.0000000000,0.0000000000,0.0000000000,,,
1.7279999971,13,209871.4062500000,225000.0000000000,225000.0000000000,174456.3906250000,0.0000000000,0.0000000000,0.0000000000,0.0000000000,,,
1.7319999973,13,225000.0000000000,225000.0000000000,225000.0000000000,225000.0000000000,0.0000000000,0.0000000000,0.0000000000,0.0000000000,,,
1.7359999972,13,225000.0000000000,225000.0000000000,225000.0000000000,225000.0000000000,0.0000000000,0.0000000000,0.0000000000,0.0000000000,,,
1.7399999972,13,221553.7968750000,225000.0000000000,225000.0000000000,223014.8750000000,0.0000000000,0.0000000000,0.0000000000,0.0000000000,,,
1.7439999972,13,206704.7343750000,225000.0000000000,221889.3593750000,164399.8281250000,0.0000000000,0.0000000000,0.0000000000,0.0000000000,,,
1.7479999971,13,209786.5156250000,225000.0000000000,225000.0000000000,174198.3906250000,0.0000000000,0.0000000000,0.0000000000,0.0000000000,,,
1.7519999973,13,225000.0000000000,225000.0000000000,225000.0000000000,225000.0000000000,0.0000000000,0.0000000000,0.0000000000,0.0000000000,,,
1.7559999973,13,225000.0000000000,225000.0000000000,225000.0000000000,225000.0000000000,0.0000000000,0.0000000000,0.0000000000,0.0000000000,,,
1.7599999972,13,221690.4531250000,225000.0000000000,225000.0000000000,223354.7031250000,0.0000000000,0.0000000000,0.0000000000,0.0000000000,,,
1.7639999972,13,206754.6718750000,225000.0000000000,221915.5937500000,164668.2968750000,0.0000000000,0.0000000000,0.0000000000,0.0000000000,,,
1.7679999971,13,209714.9218750000,225000.0000000000,225000.0000000000,173890.9062500000,0.0000000000,0.0000000000,0.0000000000,0.0000000000,,,
1.7719999971,13,225000.0000000000,225000.0000000000,225000.0000000000,225000.0000000000,0.0000000000,0.0000000000,0.0000000000,0.0000000000,,,
1.7759999973,13,225000.0000000000,225000.0000000000,225000.0000000000,225000.0000000000,0.0000000000,0.0000000000,0.0000000000,0.0000000000,,,
1.7799999972,13,221846.1093750000,225000.0000000000,225000.0000000000,223729.7656250000,0.0000000000,0.0000000000,0.0000000000,0.0000000000,,,
1.7839999972,13,206811.9375000000,225000.0000000000,222034.7968750000,164988.2031250000,0.0000000000,0.0000000000,0.0000000000,0.0000000000,,,
1.7879999971,13,209635.7656250000,225000.0000000000,225000.0000000000,173604.7187500000,0.0000000000,0.0000000000,0.0000000000,0.0000000000,,,
1.7919999971,14,225000.0000000000,225000.0000000000,225000.0000000000,225000.0000000000,0.0000000000,0.0000000000,0.0000000000,0.0000000000,,,
1.7959999971,14,225000.0000000000,225000.0000000000,225000.0000000000,225000.0000000000,0.0000000000,0.0000000000,0.0000000000,0.0000000000,,,
1.7999999970,14,221980.7968750000,225000.0000000000,225000.0000000000,224020.5625000000,0.0000000000,0.0000000000,0.0000000000,0.0000000000,,,
1.8039999970,14,206828.7343750000,225000.0000000000,222095.8750000000,165096.0468750000,0.0000000000,0.0000000000,0.0000000000,0.0000000000,,,
1.8079999969,14,209559.7656250000,225000.0000000000,225000.0000000000,173231.5156250000,0.0000000000,0.0000000000,0.0000000000,0.0000000000,,,
1.8119999969,14,225000.0000000000,225000.0000000000,225000.0000000000,225000.0000000000,0.0000000000,0.0000000000,0.0000000000,0.0000000000,,,
1.8159999971,14,225000.0000000000,225000.0000000000,225000.0000000000,225000.0000000000,0.0000000000,0.0000000000,0.0000000000,0.0000000000,,,
1.8199999970,14,222161.4218750000,225000.0000000000,225000.0000000000,224411.7187500000,0.0000000000,0.0000000000,0.0000000000,0.0000000000,,,
1.8239999970,14,206908.1250000000,225000.0000000000,222274.3906250000,165435.7500000000,0.0000000000,0.0000000000,0.0000000000,0.0000000000,,,
1.8279999970,14,209532.2968750000,225000.0000000000,225000.0000000000,173055.7187500000,0.0000000000,0.0000000000,0.0000000000,0.0000000000,,,
1.8319999969,14,225000.0000000000,225000.0000000000,225000.0000000000,225000.0000000000,0.0000000000,0.0000000000,0.0000000000,0.0000000000,,,
1.8359999971,14,225000.0000000000,225000.0000000000,225000.0000000000,225000.0000000000,0.0000000000,0.0000000000,0.0000000000,0.0000000000,,,
1.8399999971,14,222384.5625000000,225000.0000000000,225000.0000000000,224831.9062500000,0.0000000000,0.0000000000,0.0000000000,0.0000000000,,,
1.8439999970,14,207038.2187500000,225000.0000000000,222515.5312500000,165866.8437500000,0.0000000000,0.0000000000,0.0000000000,0.0000000000,,,
1.8479999970,14,209525.1562500000,225000.0000000000,225000.0000000000,172937.0937500000,0.0000000000,0.0000000000,0.0000000000,0.0000000000,,,
1.8519999969,14,225000.0000000000,225000.0000000000,225000.0000000000,225000.0000000000,0.0000000000,0.0000000000,0.0000000000,0.0000000000,,,
1.8559999969,14,225000.0000000000,225000.0000000000,225000.0000000000,225000.0000000000,0.0000000000,0.0000000000,0.0000000000,0.0000000000,,,
1.8599999971,14,222490.0000000000,225000.0000000000,225000.0000000000,225000.0000000000,0.0000000000,0.0000000000,0.0000000000,0.0000000000,,,
1.8639999970,14,207025.0156250000,225000.0000000000,222665.2187500000,165959.2187500000,0.0000000000,0.0000000000,0.0000000000,0.0000000000,,,
1.8679999970,14,209372.4531250000,225000.0000000000,225000.0000000000,172350.1875000000,0.0000000000,0.0000000000,0.0000000000,0.0000000000,,,
1.8719999969,14,225000.0000000000,225000.0000000000,225000.0000000000,225000.0000000000,0.0000000000,0.0000000000,0.0000000000,0.0000000000,,,
1.8759999969,14,225000.0000000000,225000.0000000000,225000.0000000000,225000.0000000000,0.0000000000,0.0000000000,0.0000000000,0.0000000000,,,
1.8799999971,14,222578.5312500000,225000.0000000000,225000.0000000000,225000.0000000000,0.0000000000,0.0000000000,0.0000000000,0.0000000000,,,
1.8839999971,14,207054.3906250000,225000.0000000000,222752.7187500000,165953.5781250000,0.0000000000,0.0000000000,0.0000000000,0.0000000000,,,
1.8879999970,14,209301.2187500000,225000.0000000000,225000.0000000000,171880.4375000000,0.0000000000,0.0000000000,0.0000000000,0.0000000000,,,
1.8919999970,14,225000.0000000000,225000.0000000000,225000.0000000000,225000.0000000000,0.0000000000,0.0000000000,0.0000000000,0.0000000000,,,
1.8959999969,14,225000.0000000000,225000.0000000000,225000.0000000000,225000.0000000000,0.0000000000,0.0000000000,0.0000000000,0.0000000000,,,
1.8999999969,14,222698.4218750000,225000.0000000000,225000.0000000000,225000.0000000000,0.0000000000,0.0000000000,0.0000000000,0.0000000000,,,
1.9039999971,14,207114.0156250000,225000.0000000000,222781.9218750000,166114.5312500000,0.0000000000,0.0000000000,0.0000000000,0.0000000000,,,
1.9079999970,14,209219.2812500000,225000.0000000000,225000.0000000000,171539.5468750000,0.0000000000,0.0000000000,0.0000000000,0.0000000000,,,
1.9119999970,14,225000.0000000000,225000.0000000000,225000.0000000000,225000.0000000000,0.0000000000,0.0000000000,0.0000000000,0.0000000000,,,
1.9159999969,14,225000.0000000000,225000.0000000000,225000.0000000000,225000.0000000000,0.0000000000,0.0000000000,0.0000000000,0.0000000000,,,
1.9199999969,15,222816.4687500000,225000.0000000000,225000.0000000000,225000.0000000000,0.0000000000,0.0000000000,0.0000000000,0.0000000000,,,
1.9239999969,15,207200.5468750000,225000.0000000000,222775.8906250000,166689.4687500000,0.0000000000,0.0000000000,0.0000000000,0.0000000000,,,
1.9279999968,15,209185.8281250000,225000.0000000000,225000.0000000000,171506.1562500000,0.0000000000,0.0000000000,0.0000000000,0.0000000000,,,
1.9319999968,15,225000.0000000000,225000.0000000000,225000.0000000000,225000.0000000000,0.0000000000,0.0000000000,0.0000000000,0.0000000000,,,
1.9359999967,15,225000.0000000000,225000.0000000000,225000.0000000000,225000.0000000000,0.0000000000,0.0000000000,0.0000000000,0.0000000000,,,
1.9399999967,15,222880.4375000000,225000.0000000000,225000.0000000000,225000.0000000000,0.0000000000,0.0000000000,0.0000000000,0.0000000000,,,
1.9439999969,15,207263.9687500000,225000.0000000000,222725.9218750000,167089.6250000000,0.0000000000,0.0000000000,0.0000000000,0.0000000000,,,
1.9479999968,15,209118.5937500000,225000.0000000000,225000.0000000000,171298.8750000000,0.0000000000,0.0000000000,0.0000000000,0.0000000000,,,
1.9519999968,15,225000.0000000000,225000.0000000000,225000.0000000000,225000.0000000000,0.0000000000,0.0000000000,0.0000000000,0.0000000000,,,
1.9559999967,15,225000.0000000000,225000.0000000000,225000.0000000000,225000.0000000000,0.0000000000,0.0000000000,0.0000000000,0.0000000000,,,
1.9599999967,15,222923.7031250000,225000.0000000000,225000.0000000000,225000.0000000000,0.0000000000,0.0000000000,0.0000000000,0.0000000000,,,
1.9639999969,15,207316.6562500000,225000.0000000000,222832.4375000000,167325.2031250000,0.0000000000,0.0000000000,0.0000000000,0.0000000000,,,
1.9679999969,15,209057.9375000000,225000.0000000000,225000.0000000000,170927.0312500000,0.0000000000,0.0000000000,0.0000000000,0.0000000000,,,
1.9719999968,15,225000.0000000000,225000.0000000000,225000.0000000000,225000.0000000000,0.0000000000,0.0000000000,0.0000000000,0.0000000000,,,
1.9759999968,15,225000.0000000000,225000.0000000000,225000.0000000000,225000.0000000000,0.0000000000,0.0000000000,0.0000000000,0.0000000000,,,
1.9799999967,15,223002.8593750000,225000.0000000000,225000.0000000000,225000.0000000000,0.0000000000,0.0000000000,0.0000000000,0.0000000000,,,
1.9839999967,15,207397.2812500000,225000.0000000000,223099.7187500000,167472.8281250000,0.0000000000,0.0000000000,0.0000000000,0.0000000000,,,
1.9879999969,15,209011.5156250000,225000.0000000000,225000.0000000000,170576.7656250000,0.0000000000,0.0000000000,0.0000000000,0.0000000000,,,
1.9919999968,15,225000.0000000000,225000.0000000000,225000.0000000000,225000.0000000000,0.0000000000,0.0000000000,0.0000000000,0.0000000000,,,
1.9959999968,15,225000.0000000000,225000.0000000000,225000.0000000000,225000.0000000000,0.0000000000,0.0000000000,0.0000000000,0.0000000000,,,
1.9999999967,15,223103.8437500000,225000.0000000000,225000.0000000000,225000.0000000000,0.0000000000,0.0000000000,0.0000000000,0.0000000000,,,
2.0039999967,15,207468.3125000000,225000.0000000000,223278.4531250000,167677.1093750000,0.0000000000,0.0000000000,0.0000000000,0.0000000000,,,
2.0079999969,15,208955.8593750000,225000.0000000000,225000.0000000000,170201.4218750000,0.0000000000,0.0000000000,0.0000000000,0.0000000000,,,
2.0119999968,15,225000.0000000000,225000.0000000000,225000.0000000000,225000.0000000000,0.0000000000,0.0000000000,0.0000000000,0.0000000000,,,
2.0159999968,15,225000.0000000000,225000.0000000000,225000.0000000000,225000.0000000000,0.0000000000,0.0000000000,0.0000000000,0.0000000000,,,
2.0199999968,15,223217.1875000000,225000.0000000000,225000.0000000000,225000.0000000000,0.0000000000,0.0000000000,0.0000000000,0.0000000000,,,
2.0239999967,15,207531.1250000000,225000.0000000000,223354.8906250000,167859.8750000000,0.0000000000,0.0000000000,0.0000000000,0.0000000000,,,
2.0279999967,15,208898.0312500000,225000.0000000000,225000.0000000000,169800.3281250000,0.0000000000,0.0000000000,0.0000000000,0.0000000000,,,
2.0319999969,15,225000.0000000000,225000.0000000000,225000.0000000000,225000.0000000000,0.0000000000,0.0000000000,0.0000000000,0.0000000000,,,
2.0359999968,15,225000.0000000000,225000.0000000000,225000.0000000000,225000.0000000000,0.0000000000,0.0000000000,0.0000000000,0.0000000000,,,
2.0399999968,15,223342.0468750000,225000.0000000000,225000.0000000000,225000.0000000000,0.0000000000,0.0000000000,0.0000000000,0.0000000000,,,
2.0439999967,15,207607.3593750000,225000.0000000000,223342.3750000000,168000.6875000000,0.0000000000,0.0000000000,0.0000000000,0.0000000000,,,
2.0479999967,16,208845.9218750000,225000.0000000000,225000.0000000000,169338.4218750000,0.0000000000,0.0000000000,0.0000000000,0.0000000000,,,
2.0519999966,16,225000.0000000000,225000.0000000000,225000.0000000000,225000.0000000000,0.0000000000,0.0000000000,0.0000000000,0.0000000000,,,
2.0559999966,16,225000.0000000000,225000.0000000000,225000.0000000000,225000.0000000000,0.0000000000,0.0000000000,0.0000000000,0.0000000000,,,
2.0599999966,16,223514.3593750000,225000.0000000000,225000.0000000000,225000.0000000000,0.0000000000,0.0000000000,0.0000000000,0.0000000000,,,
2.0639999965,16,207757.5312500000,225000.0000000000,223307.3437500000,168103.3906250000,0.0000000000,0.0000000000,0.0000000000,0.0000000000,,,
2.0679999965,16,208866.7031250000,225000.0000000000,225000.0000000000,168868.7187500000,0.0000000000,0.0000000000,0.0000000000,0.0000000000,,,
2.0719999967,16,225000.0000000000,225000.0000000000,225000.0000000000,225000.0000000000,0.0000000000,0.0000000000,0.0000000000,0.0000000000,,,
2.0759999966,16,225000.0000000000,225000.0000000000,225000.0000000000,225000.0000000000,0.0000000000,0.0000000000,0.0000000000,0.0000000000,,,
2.0799999966,16,223660.6093750000,225000.0000000000,225000.0000000000,225000.0000000000,0.0000000000,0.0000000000,0.0000000000,0.0000000000,,,
2.0839999965,16,208004.4843750000,225000.0000000000,223375.4218750000,168765.1718750000,0.0000000000,0.0000000000,0.0000000000,0.0000000000,,,
2.0879999965,16,209067.7031250000,225000.0000000000,225000.0000000000,169237.8593750000,0.0000000000,0.0000000000,0.0000000000,0.0000000000,,,
2.0919999967,16,225000.0000000000,225000.0000000000,225000.0000000000,225000.0000000000,0.0000000000,0.0000000000,0.0000000000,0.0000000000,,,
2.0959999966,16,225000.0000000000,225000.0000000000,225000.0000000000,225000.0000000000,0.0000000000,0.0000000000,0.0000000000,0.0000000000,,,
2.0999999966,16,223594.1250000000,225000.0000000000,225000.0000000000,225000.0000000000,0.0000000000,0.0000000000,0.0000000000,0.0000000000,,,
2.1039999966,16,208136.4375000000,225000.0000000000,223031.7656250000,169075.0468750000,0.0000000000,0.0000000000,0.0000000000,0.0000000000,,,
2.1079999965,16,209111.9062500000,225000.0000000000,225000.0000000000,169128.2656250000,0.0000000000,0.0000000000,0.0000000000,0.0000000000,,,
2.1119999965,16,225000.0000000000,225000.0000000000,225000.0000000000,225000.0000000000,0.0000000000,0.0000000000,0.0000000000,0.0000000000,,,
2.1159999967,16,225000.0000000000,225000.0000000000,225000.0000000000,225000.0000000000,0.0000000000,0.0000000000,0.0000000000,0.0000000000,,,
2.1199999966,16,223719.2968750000,225000.0000000000,225000.0000000000,225000.0000000000,0.0000000000,0.0000000000,0.0000000000,0.0000000000,,,
2.1239999966,16,208216.1093750000,225000.0000000000,222507.4218750000,169461.9375000000,0.0000000000,0.0000000000,0.0000000000,0.0000000000,,,
2.1279999965,16,209062.9375000000,225000.0000000000,225000.0000000000,168904.4062500000,0.0000000000,0.0000000000,0.0000000000,0.0000000000,,,
2.1319999965,16,224986.8906250000,225000.0000000000,225000.0000000000,225000.0000000000,0.0000000000,0.0000000000,0.0000000000,0.0000000000,,,
2.1359999967,16,225000.0000000000,225000.0000000000,225000.0000000000,225000.0000000000,0.0000000000,0.0000000000,0.0000000000,0.0000000000,,,
2.1399999966,16,223806.2812500000,225000.0000000000,225000.0000000000,225000.0000000000,0.0000000000,0.0000000000,0.0000000000,0.0000000000,,,
2.1439999966,16,208240.8593750000,225000.0000000000,222532.8281250000,169775.9218750000,0.0000000000,0.0000000000,0.0000000000,0.0000000000,,,
2.1479999966,16,208949.1562500000,225000.0000000000,225000.0000000000,168668.7500000000,0.0000000000,0.0000000000,0.0000000000,0.0000000000,,,
2.1519999965,16,224827.7031250000,225000.0000000000,225000.0000000000,225000.0000000000,0.0000000000,0.0000000000,0.0000000000,0.0000000000,,,
2.1559999965,16,225000.0000000000,225000.0000000000,225000.0000000000,225000.0000000000,0.0000000000,0.0000000000,0.0000000000,0.0000000000,,,
2.1599999967,16,223819.0468750000,225000.0000000000,225000.0000000000,225000.0000000000,0.0000000000,0.0000000000,0.0000000000,0.0000000000,,,
2.1639999966,16,208203.7656250000,225000.0000000000,222559.5625000000,170106.4218750000,0.0000000000,0.0000000000,0.0000000000,0.0000000000,,,
2.1679999966,16,208781.0937500000,225000.0000000000,225000.0000000000,168391.1093750000,0.0000000000,0.0000000000,0.0000000000,0.0000000000,,,
2.1719999965,16,224643.0312500000,225000.0000000000,225000.0000000000,225000.0000000000,0.0000000000,0.0000000000,0.0000000000,0.0000000000,,,
2.1759999965,17,225000.0000000000,225000.0000000000,225000.0000000000,225000.0000000000,0.0000000000,0.0000000000,0.0000000000,0.0000000000,,,
2.1799999964,17,223840.9218750000,225000.0000000000,225000.0000000000,225000.0000000000,0.0000000000,0.0000000000,0.0000000000,0.0000000000,,,
2.1839999964,17,208168.7968750000,225000.0000000000,222592.0312500000,170517.8125000000,0.0000000000,0.0000000000,0.0000000000,0.0000000000,,,
2.1879999964,17,208630.7812500000,225000.0000000000,225000.0000000000,168255.2031250000,0.0000000000,0.0000000000,0.0000000000,0.0000000000,,,
2.1919999963,17,224485.8750000000,225000.0000000000,225000.0000000000,225000.0000000000,0.0000000000,0.0000000000,0.0000000000,0.0000000000,,,
2.1959999963,17,225000.0000000000,225000.0000000000,225000.0000000000,225000.0000000000,0.0000000000,0.0000000000,0.0000000000,0.0000000000,,,
2.1999999965,17,223902.3593750000,225000.0000000000,225000.0000000000,225000.0000000000,0.0000000000,0.0000000000,0.0000000000,0.0000000000,,,
2.2039999964,17,208144.5937500000,225000.0000000000,222652.7500000000,170952.3906250000,0.0000000000,0.0000000000,0.0000000000,0.0000000000,,,
2.2079999964,17,208465.3125000000,225000.0000000000,224942.7187500000,168080.8125000000,0.0000000000,0.0000000000,0.0000000000,0.0000000000,,,
2.2119999963,17,224329.1093750000,225000.0000000000,225000.0000000000,225000.0000000000,0.0000000000,0.0000000000,0.0000000000,0.0000000000,,,
2.2159999963,17,225000.0000000000,225000.0000000000,225000.0000000000,225000.0000000000,0.0000000000,0.0000000000,0.0000000000,0.0000000000,,,
2.2199999965,17,223970.2187500000,225000.0000000000,225000.0000000000,225000.0000000000,0.0000000000,0.0000000000,0.0000000000,0.0000000000,,,
2.2239999964,17,208142.1093750000,225000.0000000000,222786.1406250000,171417.4218750000,0.0000000000,0.0000000000,0.0000000000,0.0000000000,,,
2.2279999964,17,208344.0468750000,225000.0000000000,224855.4843750000,167989.0312500000,0.0000000000,0.0000000000,0.0000000000,0.0000000000,,,
2.2319999964,17,224204.7031250000,225000.0000000000,225000.0000000000,225000.0000000000,0.0000000000,0.0000000000,0.0000000000,0.0000000000,,,
2.2359999963,17,225000.0000000000,225000.0000000000,225000.0000000000,225000.0000000000,0.0000000000,0.0000000000,0.0000000000,0.0000000000,,,
2.2399999963,17,224044.7968750000,225000.0000000000,225000.0000000000,225000.0000000000,0.0000000000,0.0000000000,0.0000000000,0.0000000000,,,
2.2439999965,17,208138.8593750000,225000.0000000000,222937.5000000000,171909.3437500000,0.0000000000,0.0000000000,0.0000000000,0.0000000000,,,
2.2479999964,17,208197.7656250000,225000.0000000000,224771.8281250000,167891.3906250000,0.0000000000,0.0000000000,0.0000000000,0.0000000000,,,
2.2519999964,17,224028.3437500000,225000.0000000000,225000.0000000000,225000.0000000000,0.0000000000,0.0000000000,0.0000000000,0.0000000000,,,
2.2559999963,17,225000.0000000000,225000.0000000000,225000.0000000000,225000.0000000000,0.0000000000,0.0000000000,0.0000000000,0.0000000000,,,
2.2599999963,17,224100.9843750000,225000.0000000000,225000.0000000000,225000.0000000000,0.0000000000,0.0000000000,0.0000000000,0.0000000000,,,
2.2639999965,17,208130.4375000000,225000.0000000000,223067.6875000000,172434.5000000000,0.0000000000,0.0000000000,0.0000000000,0.0000000000,,,
2.2679999964,17,208044.6093750000,225000.0000000000,224653.2812500000,167795.5312500000,0.0000000000,0.0000000000,0.0000000000,0.0000000000,,,
2.2719999964,17,223841.6406250000,225000.0000000000,225000.0000000000,225000.0000000000,0.0000000000,0.0000000000,0.0000000000,0.0000000000,,,
2.2759999963,17,225000.0000000000,225000.0000000000,225000.0000000000,225000.0000000000,0.0000000000,0.0000000000,0.0000000000,0.0000000000,,,
2.2799999963,17,224120.9687500000,225000.0000000000,225000.0000000000,225000.0000000000,0.0000000000,0.0000000000,0.0000000000,0.0000000000,,,
2.2839999963,17,208129.3437500000,225000.0000000000,223211.6718750000,172870.2500000000,0.0000000000,0.0000000000,0.0000000000,0.0000000000,,,
2.2879999964,17,207913.6562500000,225000.0000000000,224544.5312500000,167636.0156250000,0.0000000000,0.0000000000,0.0000000000,0.0000000000,,,
2.2919999964,17,223647.9218750000,225000.0000000000,225000.0000000000,225000.0000000000,0.0000000000,0.0000000000,0.0000000000,0.0000000000,,,
2.2959999964,17,225000.0000000000,225000.0000000000,225000.0000000000,225000.0000000000,0.0000000000,0.0000000000,0.0000000000,0.0000000000,,,
2.2999999963,17,224140.8906250000,225000.0000000000,225000.0000000000,225000.0000000000,0.0000000000,0.0000000000,0.0000000000,0.0000000000,,,
2.3039999963,18,208122.9531250000,225000.0000000000,223275.2031250000,173237.5000000000,0.0000000000,0.0000000000,0.0000000000,0.0000000000,,,
2.3079999962,18,207789.1562500000,225000.0000000000,224384.0312500000,167459.2656250000,0.0000000000,0.0000000000,0.0000000000,0.0000000000,,,
2.3119999962,18,223473.8281250000,225000.0000000000,225000.0000000000,225000.0000000000,0.0000000000,0.0000000000,0.0000000000,0.0000000000,,,
2.3159999961,18,225000.0000000000,225000.0000000000,225000.0000000000,225000.0000000000,0.0000000000,0.0000000000,0.0000000000,0.0000000000,,,
2.3199999961,18,224173.6718750000,225000.0000000000,225000.0000000000,225000.0000000000,0.0000000000,0.0000000000,0.0000000000,0.0000000000,,,
2.3239999961,18,208141.7812500000,225000.0000000000,223331.1562500000,173601.1250000000,0.0000000000,0.0000000000,0.0000000000,0.0000000000,,,
2.3279999963,18,207677.9531250000,225000.0000000000,224204.4375000000,167215.7968750000,0.0000000000,0.0000000000,0.0000000000,0.0000000000,,,
2.3319999962,18,223295.1093750000,225000.0000000000,225000.0000000000,225000.0000000000,0.0000000000,0.0000000000,0.0000000000,0.0000000000,,,
2.3359999962,18,225000.0000000000,225000.0000000000,225000.0000000000,225000.0000000000,0.0000000000,0.0000000000,0.0000000000,0.0000000000,,,
2.3399999961,18,224234.2656250000,225000.0000000000,225000.0000000000,225000.0000000000,0.0000000000,0.0000000000,0.0000000000,0.0000000000,,,
2.3439999961,18,208214.2031250000,225000.0000000000,223375.7343750000,173940.4218750000,0.0000000000,0.0000000000,0.0000000000,0.0000000000,,,
2.3479999963,18,207637.6875000000,225000.0000000000,224017.3437500000,166990.3593750000,0.0000000000,0.0000000000,0.0000000000,0.0000000000,,,
2.3519999962,18,223198.5781250000,225000.0000000000,225000.0000000000,225000.0000000000,0.0000000000,0.0000000000,0.0000000000,0.0000000000,,,
2.3559999962,18,225000.0000000000,225000.0000000000,225000.0000000000,225000.0000000000,0.0000000000,0.0000000000,0.0000000000,0.0000000000,,,
2.3599999961,18,224353.6406250000,225000.0000000000,225000.0000000000,225000.0000000000,0.0000000000,0.0000000000,0.0000000000,0.0000000000,,,
2.3639999961,18,208341.1718750000,225000.0000000000,223387.7812500000,174348.8437500000,0.0000000000,0.0000000000,0.0000000000,0.0000000000,,,
2.3679999961,18,207651.1562500000,225000.0000000000,223787.0312500000,166828.2812500000,0.0000000000,0.0000000000,0.0000000000,0.0000000000,,,
2.3719999962,18,223145.9062500000,225000.0000000000,225000.0000000000,225000.0000000000,0.0000000000,0.0000000000,0.0000000000,0.0000000000,,,
2.3759999962,18,225000.0000000000,225000.0000000000,225000.0000000000,225000.0000000000,0.0000000000,0.0000000000,0.0000000000,0.0000000000,,,
2.3799999962,18,224525.6875000000,225000.0000000000,225000.0000000000,225000.0000000000,0.0000000000,0.0000000000,0.0000000000,0.0000000000,,,
2.3839999961,18,208507.8281250000,225000.0000000000,223464.2187500000,174692.3750000000,0.0000000000,0.0000000000,0.0000000000,0.0000000000,,,
2.3879999961,18,207695.7343750000,225000.0000000000,223665.9218750000,166624.1093750000,0.0000000000,0.0000000000,0.0000000000,0.0000000000,,,
2.3919999963,18,223121.8125000000,225000.0000000000,225000.0000000000,224769.3906250000,0.0000000000,0.0000000000,0.0000000000,0.0000000000,,,
2.3959999962,18,225000.0000000000,225000.0000000000,225000.0000000000,225000.0000000000,0.0000000000,0.0000000000,0.0000000000,0.0000000000,,,
2.3999999962,18,224691.5468750000,225000.0000000000,225000.0000000000,225000.0000000000,0.0000000000,0.0000000000,0.0000000000,0.0000000000,,,
2.4039999961,18,208648.4843750000,225000.0000000000,223559.0625000000,175042.7031250000,0.0000000000,0.0000000000,0.0000000000,0.0000000000,,,
2.4079999961,18,207708.8750000000,225000.0000000000,223524.3593750000,166400.1718750000,0.0000000000,0.0000000000,0.0000000000,0.0000000000,,,
2.4119999961,18,223092.3906250000,225000.0000000000,225000.0000000000,224471.5000000000,0.0000000000,0.0000000000,0.0000000000,0.0000000000,,,
2.4159999962,18,225000.0000000000,225000.0000000000,225000.0000000000,225000.0000000000,0.0000000000,0.0000000000,0.0000000000,0.0000000000,,,
2.4199999962,18,224872.7812500000,225000.0000000000,225000.0000000000,225000.0000000000,0.0000000000,0.0000000000,0.0000000000,0.0000000000,,,
2.4239999962,18,208794.5312500000,225000.0000000000,223721.3750000000,175376.2656250000,0.0000000000,0.0000000000,0.0000000000,0.0000000000,,,
2.4279999961,18,207722.9218750000,225000.0000000000,223462.3281250000,166149.8906250000,0.0000000000,0.0000000000,0.0000000000,0.0000000000,,,
2.4319999961,19,223072.0312500000,225000.0000000000,225000.0000000000,224205.5625000000,0.0000000000,0.0000000000,0.0000000000,0.0000000000,,,
2.4359999960,19,225000.0000000000,225000.0000000000,225000.0000000000,225000.0000000000,0.0000000000,0.0000000000,0.0000000000,0.0000000000,,,
2.4399999960,19,225000.0000000000,225000.0000000000,225000.0000000000,225000.0000000000,0.0000000000,0.0000000000,0.0000000000,0.0000000000,,,
2.4439999959,19,208854.3437500000,225000.0000000000,223848.3906250000,175524.5625000000,0.0000000000,0.0000000000,0.0000000000,0.0000000000,,,
2.4479999959,19,207584.0468750000,225000.0000000000,223281.0000000000,165541.3750000000,0.0000000000,0.0000000000,0.0000000000,0.0000000000,,,
2.4519999959,19,223015.8125000000,225000.0000000000,225000.0000000000,223749.7500000000,0.0000000000,0.0000000000,0.0000000000,0.0000000000,,,
2.4559999960,19,225000.0000000000,225000.0000000000,225000.0000000000,225000.0000000000,0.0000000000,0.0000000000,0.0000000000,0.0000000000,,,
2.4599999960,19,225000.0000000000,225000.0000000000,225000.0000000000,225000.0000000000,0.0000000000,0.0000000000,0.0000000000,0.0000000000,,,
2.4639999960,19,208893.8437500000,225000.0000000000,223917.1718750000,175652.2812500000,0.0000000000,0.0000000000,0.0000000000,0.0000000000,,,
2.4679999959,19,207484.0781250000,225000.0000000000,223132.8125000000,165077.6250000000,0.0000000000,0.0000000000,0.0000000000,0.0000000000,,,
2.4719999959,19,222951.5000000000,225000.0000000000,225000.0000000000,223374.4843750000,0.0000000000,0.0000000000,0.0000000000,0.0000000000,,,
2.4759999961,19,225000.0000000000,225000.0000000000,225000.0000000000,225000.0000000000,0.0000000000,0.0000000000,0.0000000000,0.0000000000,,,
2.4799999960,19,225000.0000000000,225000.0000000000,225000.0000000000,225000.0000000000,0.0000000000,0.0000000000,0.0000000000,0.0000000000,,,
2.4839999960,19,209021.6250000000,225000.0000000000,224149.6406250000,176009.2031250000,0.0000000000,0.0000000000,0.0000000000,0.0000000000,,,
2.4879999959,19,207458.3750000000,225000.0000000000,223108.2343750000,164829.3593750000,0.0000000000,0.0000000000,0.0000000000,0.0000000000,,,
2.4919999959,19,222904.9843750000,225000.0000000000,225000.0000000000,223064.7968750000,0.0000000000,0.0000000000,0.0000000000,0.0000000000,,,
2.4959999959,19,225000.0000000000,225000.0000000000,225000.0000000000,225000.0000000000,0.0000000000,0.0000000000,0.0000000000,0.0000000000,,,
2.4999999960,19,225000.0000000000,225000.0000000000,225000.0000000000,225000.0000000000,0.0000000000,0.0000000000,0.0000000000,0.0000000000,,,
2.5039999960,19,209137.9062500000,225000.0000000000,224407.6718750000,176430.1250000000,0.0000000000,0.0000000000,0.0000000000,0.0000000000,,,
2.5079999960,19,207449.1562500000,225000.0000000000,223145.9843750000,164686.2812500000,0.0000000000,0.0000000000,0.0000000000,0.0000000000,,,
2.5119999959,19,222880.5000000000,225000.0000000000,225000.0000000000,222800.8125000000,0.0000000000,0.0000000000,0.0000000000,0.0000000000,,,
2.5159999959,19,225000.0000000000,225000.0000000000,225000.0000000000,225000.0000000000,0.0000000000,0.0000000000,0.0000000000,0.0000000000,,,
2.5199999961,19,225000.0000000000,225000.0000000000,225000.0000000000,225000.0000000000,0.0000000000,0.0000000000,0.0000000000,0.0000000000,,,
2.5239999960,19,209364.2812500000,225000.0000000000,224789.2968750000,177216.8125000000,0.0000000000,0.0000000000,0.0000000000,0.0000000000,,,
2.5279999960,19,207569.6875000000,225000.0000000000,223331.0781250000,165022.6718750000,0.0000000000,0.0000000000,0.0000000000,0.0000000000,,,
2.5319999959,19,222847.4531250000,225000.0000000000,225000.0000000000,222727.6562500000,0.0000000000,0.0000000000,0.0000000000,0.0000000000,,,
2.5359999959,19,225000.0000000000,225000.0000000000,225000.0000000000,225000.0000000000,0.0000000000,0.0000000000,0.0000000000,0.0000000000,,,
2.5399999958,19,225000.0000000000,225000.0000000000,225000.0000000000,225000.0000000000,0.0000000000,0.0000000000,0.0000000000,0.0000000000,,,
2.5439999960,19,209488.8750000000,225000.0000000000,225000.0000000000,177611.6875000000,0.0000000000,0.0000000000,0.0000000000,0.0000000000,,,
2.5479999960,19,207646.6718750000,225000.0000000000,223421.4375000000,165143.3437500000,0.0000000000,0.0000000000,0.0000000000,0.0000000000,,,
2.5519999960,19,222882.2968750000,225000.0000000000,225000.0000000000,222605.2968750000,0.0000000000,0.0000000000,0.0000000000,0.0000000000,,,
2.5559999959,19,225000.0000000000,225000.0000000000,225000.0000000000,225000.0000000000,0.0000000000,0.0000000000,0.0000000000,0.0000000000,,,
2.5599999959,20,225000.0000000000,225000.0000000000,225000.0000000000,225000.0000000000,0.0000000000,0.0000000000,0.0000000000,0.0000000000,,,
2.5639999958,20,209660.0156250000,225000.0000000000,225000.0000000000,178178.2031250000,0.0000000000,0.0000000000,0.0000000000,0.0000000000,,,
2.5679999958,20,207690.8750000000,225000.0000000000,223403.5781250000,165158.5468750000,0.0000000000,0.0000000000,0.0000000000,0.0000000000,,,
2.5719999957,20,222890.8750000000,225000.0000000000,225000.0000000000,222421.4843750000,0.0000000000,0.0000000000,0.0000000000,0.0000000000,,,
2.5759999957,20,225000.0000000000,225000.0000000000,225000.0000000000,225000.0000000000,0.0000000000,0.0000000000,0.0000000000,0.0000000000,,,
2.5799999957,20,225000.0000000000,225000.0000000000,225000.0000000000,225000.0000000000,0.0000000000,0.0000000000,0.0000000000,0.0000000000,,,
2.5839999958,20,209829.8906250000,225000.0000000000,225000.0000000000,178734.4062500000,0.0000000000,0.0000000000,0.0000000000,0.0000000000,,,
2.5879999958,20,207729.1250000000,225000.0000000000,223354.2343750000,165155.5937500000,0.0000000000,0.0000000000,0.0000000000,0.0000000000,,,
2.5919999958,20,222875.6406250000,225000.0000000000,225000.0000000000,222229.4687500000,0.0000000000,0.0000000000,0.0000000000,0.0000000000,,,
2.5959999957,20,225000.0000000000,225000.0000000000,225000.0000000000,225000.0000000000,0.0000000000,0.0000000000,0.0000000000,0.0000000000,,,
2.5999999957,20,225000.0000000000,225000.0000000000,225000.0000000000,225000.0000000000,0.0000000000,0.0000000000,0.0000000000,0.0000000000,,,
2.6039999959,20,209980.6562500000,225000.0000000000,225000.0000000000,179255.8906250000,0.0000000000,0.0000000000,0.0000000000,0.0000000000,,,
2.6079999958,20,207751.5468750000,225000.0000000000,223246.7031250000,165147.5781250000,0.0000000000,0.0000000000,0.0000000000,0.0000000000,,,
2.6119999958,20,222845.5468750000,225000.0000000000,225000.0000000000,222022.9375000000,0.0000000000,0.0000000000,0.0000000000,0.0000000000,,,
2.6159999957,20,225000.0000000000,225000.0000000000,225000.0000000000,225000.0000000000,0.0000000000,0.0000000000,0.0000000000,0.0000000000,,,
2.6199999957,20,225000.0000000000,225000.0000000000,225000.0000000000,225000.0000000000,0.0000000000,0.0000000000,0.0000000000,0.0000000000,,,
2.6239999956,20,210108.8906250000,225000.0000000000,225000.0000000000,179730.4531250000,0.0000000000,0.0000000000,0.0000000000,0.0000000000,,,
2.6279999958,20,207750.1718750000,225000.0000000000,223075.5156250000,165084.1093750000,0.0000000000,0.0000000000,0.0000000000,0.0000000000,,,
2.6319999958,20,222788.7656250000,225000.0000000000,225000.0000000000,221802.0625000000,0.0000000000,0.0000000000,0.0000000000,0.0000000000,,,
2.6359999957,20,225000.0000000000,225000.0000000000,225000.0000000000,225000.0000000000,0.0000000000,0.0000000000,0.0000000000,0.0000000000,,,
2.6399999957,20,225000.0000000000,225000.0000000000,225000.0000000000,225000.0000000000,0.0000000000,0.0000000000,0.0000000000,0.0000000000,,,
2.6439999957,20,210233.1250000000,225000.0000000000,225000.0000000000,180167.8593750000,0.0000000000,0.0000000000,0.0000000000,0.0000000000,,,
2.6479999959,20,207762.5937500000,225000.0000000000,222883.0156250000,165032.3437500000,0.0000000000,0.0000000000,0.0000000000,0.0000000000,,,
2.6519999958,20,222799.5156250000,225000.0000000000,225000.0000000000,221687.3125000000,0.0000000000,0.0000000000,0.0000000000,0.0000000000,,,
2.6559999958,20,225000.0000000000,225000.0000000000,225000.0000000000,225000.0000000000,0.0000000000,0.0000000000,0.0000000000,0.0000000000,,,
2.6599999957,20,225000.0000000000,225000.0000000000,225000.0000000000,225000.0000000000,0.0000000000,0.0000000000,0.0000000000,0.0000000000,,,
2.6639999957,20,210366.2656250000,225000.0000000000,225000.0000000000,180565.2656250000,0.0000000000,0.0000000000,0.0000000000,0.0000000000,,,
2.6679999956,20,207789.8281250000,225000.0000000000,222839.8125000000,164863.6875000000,0.0000000000,0.0000000000,0.0000000000,0.0000000000,,,
2.6719999958,20,222704.1875000000,225000.0000000000,225000.0000000000,221286.5156250000,0.0000000000,0.0000000000,0.0000000000,0.0000000000,,,
2.6759999958,20,225000.0000000000,225000.0000000000,225000.0000000000,225000.0000000000,0.0000000000,0.0000000000,0.0000000000,0.0000000000,,,
2.6799999957,20,225000.0000000000,225000.0000000000,225000.0000000000,225000.0000000000,0.0000000000,0.0000000000,0.0000000000,0.0000000000,,,
2.6839999957,20,210556.7968750000,225000.0000000000,225000.0000000000,180967.7031250000,0.0000000000,0.0000000000,0.0000000000,0.0000000000,,,
2.6879999957,21,207846.7656250000,225000.0000000000,222669.0625000000,164702.3750000000,0.0000000000,0.0000000000,0.0000000000,0.0000000000,,,
2.6919999956,21,222669.4843750000,225000.0000000000,225000.0000000000,220981.9531250000,0.0000000000,0.0000000000,0.0000000000,0.0000000000,,,
2.6959999956,21,225000.0000000000,225000.0000000000,225000.0000000000,225000.0000000000,0.0000000000,0.0000000000,0.0000000000,0.0000000000,,,
2.6999999955,21,225000.0000000000,225000.0000000000,225000.0000000000,225000.0000000000,0.0000000000,0.0000000000,0.0000000000,0.0000000000,,,
2.7039999955,21,210677.4843750000,225000.0000000000,225000.0000000000,181282.6250000000,0.0000000000,0.0000000000,0.0000000000,0.0000000000,,,
2.7079999954,21,207865.4843750000,225000.0000000000,222452.8437500000,164526.1406250000,0.0000000000,0.0000000000,0.0000000000,0.0000000000,,,
2.7119999956,21,222617.3437500000,225000.0000000000,225000.0000000000,220705.8125000000,0.0000000000,0.0000000000,0.0000000000,0.0000000000,,,
2.7159999956,21,225000.0000000000,225000.0000000000,225000.0000000000,225000.0000000000,0.0000000000,0.0000000000,0.0000000000,0.0000000000,,,
2.7199999955,21,225000.0000000000,225000.0000000000,225000.0000000000,225000.0000000000,0.0000000000,0.0000000000,0.0000000000,0.0000000000,,,
2.7239999955,21,210838.0781250000,225000.0000000000,225000.0000000000,181675.1875000000,0.0000000000,0.0000000000,0.0000000000,0.0000000000,,,
2.7279999955,21,207901.1093750000,225000.0000000000,222327.8281250000,164378.9062500000,0.0000000000,0.0000000000,0.0000000000,0.0000000000,,,
2.7319999957,21,222570.3593750000,225000.0000000000,225000.0000000000,220400.7968750000,0.0000000000,0.0000000000,0.0000000000,0.0000000000,,,
2.7359999956,21,225000.0000000000,225000.0000000000,225000.0000000000,225000.0000000000,0.0000000000,0.0000000000,0.0000000000,0.0000000000,,,
2.7399999956,21,225000.0000000000,225000.0000000000,225000.0000000000,225000.0000000000,0.0000000000,0.0000000000,0.0000000000,0.0000000000,,,
2.7439999955,21,210966.1718750000,225000.0000000000,225000.0000000000,182023.2343750000,0.0000000000,0.0000000000,0.0000000000,0.0000000000,,,
2.7479999955,21,207901.7187500000,225000.0000000000,222213.3750000000,164191.8750000000,0.0000000000,0.0000000000,0.0000000000,0.0000000000,,,
2.7519999954,21,222492.0312500000,225000.0000000000,225000.0000000000,220091.4531250000,0.0000000000,0.0000000000,0.0000000000,0.0000000000,,,
2.7559999956,21,225000.0000000000,225000.0000000000,225000.0000000000,225000.0000000000,0.0000000000,0.0000000000,0.0000000000,0.0000000000,,,
2.7599999956,21,225000.0000000000,225000.0000000000,225000.0000000000,225000.0000000000,0.0000000000,0.0000000000,0.0000000000,0.0000000000,,,
2.7639999955,21,211052.4375000000,225000.0000000000,225000.0000000000,182389.4375000000,0.0000000000,0.0000000000,0.0000000000,0.0000000000,,,
2.7679999955,21,207861.9218750000,225000.0000000000,222161.2031250000,164074.0468750000,0.0000000000,0.0000000000,0.0000000000,0.0000000000,,,
2.7719999955,21,222395.3125000000,225000.0000000000,225000.0000000000,219832.0625000000,0.0000000000,0.0000000000,0.0000000000,0.0000000000,,,
2.7759999956,21,225000.0000000000,225000.0000000000,225000.0000000000,225000.0000000000,0.0000000000,0.0000000000,0.0000000000,0.0000000000,,,
2.7799999956,21,225000.0000000000,225000.0000000000,225000.0000000000,225000.0000000000,0.0000000000,0.0000000000,0.0000000000,0.0000000000,,,
2.7839999956,21,211149.9843750000,225000.0000000000,225000.0000000000,182859.3281250000,0.0000000000,0.0000000000,0.0000000000,0.0000000000,,,
2.7879999955,21,207843.4687500000,225000.0000000000,222098.7656250000,164014.9375000000,0.0000000000,0.0000000000,0.0000000000,0.0000000000,,,
2.7919999955,21,222328.0937500000,225000.0000000000,225000.0000000000,219580.5781250000,0.0000000000,0.0000000000,0.0000000000,0.0000000000,,,
2.7959999954,21,225000.0000000000,225000.0000000000,225000.0000000000,225000.0000000000,0.0000000000,0.0000000000,0.0000000000,0.0000000000,,,
2.7999999956,21,225000.0000000000,225000.0000000000,225000.0000000000,225000.0000000000,0.0000000000,0.0000000000,0.0000000000,0.0000000000,,,
2.8039999956,21,211296.0937500000,225000.0000000000,225000.0000000000,183386.4687500000,0.0000000000,0.0000000000,0.0000000000,0.0000000000,,,
2.8079999955,21,207871.7031250000,225000.0000000000,222097.1250000000,164037.0625000000,0.0000000000,0.0000000000,0.0000000000,0.0000000000,,,
2.8119999955,21,222317.6875000000,225000.0000000000,225000.0000000000,219403.8906250000,0.0000000000,0.0000000000,0.0000000000,0.0000000000,,,
2.8159999955,22,225000.0000000000,225000.0000000000,225000.0000000000,225000.0000000000,0.0000000000,0.0000000000,0.0000000000,0.0000000000,,,
2.8199999954,22,225000.0000000000,225000.0000000000,225000.0000000000,225000.0000000000,0.0000000000,0.0000000000,0.0000000000,0.0000000000,,,
2.8239999954,22,211455.7656250000,225000.0000000000,225000.0000000000,183923.9062500000,0.0000000000,0.0000000000,0.0000000000,0.0000000000,,,
2.8279999953,22,207908.8593750000,225000.0000000000,222106.7031250000,164070.2968750000,0.0000000000,0.0000000000,0.0000000000,0.0000000000,,,
2.8319999953,22,222319.6718750000,225000.0000000000,225000.0000000000,219177.6562500000,0.0000000000,0.0000000000,0.0000000000,0.0000000000,,,
2.8359999952,22,225000.0000000000,225000.0000000000,225000.0000000000,225000.0000000000,0.0000000000,0.0000000000,0.0000000000,0.0000000000,,,
2.8399999954,22,225000.0000000000,225000.0000000000,225000.0000000000,225000.0000000000,0.0000000000,0.0000000000,0.0000000000,0.0000000000,,,
2.8439999954,22,211630.4218750000,225000.0000000000,225000.0000000000,184444.1093750000,0.0000000000,0.0000000000,0.0000000000,0.0000000000,,,
2.8479999953,22,207951.5625000000,225000.0000000000,222116.6875000000,164115.1718750000,0.0000000000,0.0000000000,0.0000000000,0.0000000000,,,
2.8519999953,22,222301.1406250000,225000.0000000000,225000.0000000000,218992.5781250000,0.0000000000,0.0000000000,0.0000000000,0.0000000000,,,
2.8559999953,22,225000.0000000000,225000.0000000000,225000.0000000000,225000.0000000000,0.0000000000,0.0000000000,0.0000000000,0.0000000000,,,
2.8599999954,22,225000.0000000000,225000.0000000000,225000.0000000000,225000.0000000000,0.0000000000,0.0000000000,0.0000000000,0.0000000000,,,
2.8639999954,22,211785.5312500000,225000.0000000000,225000.0000000000,184990.5000000000,0.0000000000,0.0000000000,0.0000000000,0.0000000000,,,
2.8679999954,22,207978.3593750000,225000.0000000000,222127.1093750000,164124.7656250000,0.0000000000,0.0000000000,0.0000000000,0.0000000000,,,
2.8719999953,22,222292.7656250000,225000.0000000000,225000.0000000000,218765.5781250000,0.0000000000,0.0000000000,0.0000000000,0.0000000000,,,
2.8759999953,22,225000.0000000000,225000.0000000000,225000.0000000000,225000.0000000000,0.0000000000,0.0000000000,0.0000000000,0.0000000000,,,
2.8799999952,22,225000.0000000000,225000.0000000000,225000.0000000000,225000.0000000000,0.0000000000,0.0000000000,0.0000000000,0.0000000000,,,
2.8839999954,22,211938.2031250000,225000.0000000000,225000.0000000000,185503.9843750000,0.0000000000,0.0000000000,0.0000000000,0.0000000000,,,
2.8879999954,22,207997.2031250000,225000.0000000000,222093.8593750000,164134.6875000000,0.0000000000,0.0000000000,0.0000000000,0.0000000000,,,
2.8919999953,22,222268.2500000000,225000.0000000000,225000.0000000000,218541.4843750000,0.0000000000,0.0000000000,0.0000000000,0.0000000000,,,
2.8959999953,22,225000.0000000000,225000.0000000000,225000.0000000000,225000.0000000000,0.0000000000,0.0000000000,0.0000000000,0.0000000000,,,
2.8999999953,22,225000.0000000000,225000.0000000000,225000.0000000000,225000.0000000000,0.0000000000,0.0000000000,0.0000000000,0.0000000000,,,
2.9039999954,22,212067.0312500000,225000.0000000000,225000.0000000000,185993.5937500000,0.0000000000,0.0000000000,0.0000000000,0.0000000000,,,
2.9079999954,22,207997.4843750000,225000.0000000000,222064.4843750000,164130.0312500000,0.0000000000,0.0000000000,0.0000000000,0.0000000000,,,
2.9119999954,22,222225.0937500000,225000.0000000000,225000.0000000000,218330.2031250000,0.0000000000,0.0000000000,0.0000000000,0.0000000000,,,
2.9159999953,22,225000.0000000000,225000.0000000000,225000.0000000000,225000.0000000000,0.0000000000,0.0000000000,0.0000000000,0.0000000000,,,
2.9199999953,22,225000.0000000000,225000.0000000000,225000.0000000000,225000.0000000000,0.0000000000,0.0000000000,0.0000000000,0.0000000000,,,
2.9239999952,22,212205.8906250000,225000.0000000000,225000.0000000000,186506.4687500000,0.0000000000,0.0000000000,0.0000000000,0.0000000000,,,
2.9279999954,22,208011.2968750000,225000.0000000000,222008.7187500000,164191.1562500000,0.0000000000,0.0000000000,0.0000000000,0.0000000000,,,
2.9319999954,22,222197.6250000000,225000.0000000000,225000.0000000000,218127.0781250000,0.0000000000,0.0000000000,0.0000000000,0.0000000000,,,
2.9359999953,22,225000.0000000000,225000.0000000000,225000.0000000000,225000.0000000000,0.0000000000,0.0000000000,0.0000000000,0.0000000000,,,
2.9399999953,22,225000.0000000000,225000.0000000000,225000.0000000000,225000.0000000000,0.0000000000,0.0000000000,0.0000000000,0.0000000000,,,
2.9439999952,23,212340.2500000000,225000.0000000000,225000.0000000000,187075.4218750000,0.0000000000,0.0000000000,0.0000000000,0.0000000000,,,
2.9479999952,23,208012.4218750000,225000.0000000000,221834.5937500000,164272.3437500000,0.0000000000,0.0000000000,0.0000000000,0.0000000000,,,
2.9519999952,23,222150.0781250000,225000.0000000000,225000.0000000000,217929.5468750000,0.0000000000,0.0000000000,0.0000000000,0.0000000000,,,
2.9559999951,23,225000.0000000000,225000.0000000000,225000.0000000000,225000.0000000000,0.0000000000,0.0000000000,0.0000000000,0.0000000000,,,
2.9599999951,23,225000.0000000000,225000.0000000000,225000.0000000000,225000.0000000000,0.0000000000,0.0000000000,0.0000000000,0.0000000000,,,
2.9639999950,23,212486.5312500000,225000.0000000000,225000.0000000000,187631.6250000000,0.0000000000,0.0000000000,0.0000000000,0.0000000000,,,
2.9679999952,23,208038.6250000000,225000.0000000000,221764.5312500000,164382.9843750000,0.0000000000,0.0000000000,0.0000000000,0.0000000000,,,
2.9719999952,23,222140.3906250000,225000.0000000000,225000.0000000000,217776.6562500000,0.0000000000,0.0000000000,0.0000000000,0.0000000000,,,
2.9759999951,23,225000.0000000000,225000.0000000000,225000.0000000000,225000.0000000000,0.0000000000,0.0000000000,0.0000000000,0.0000000000,,,
2.9799999951,23,225000.0000000000,225000.0000000000,225000.0000000000,225000.0000000000,0.0000000000,0.0000000000,0.0000000000,0.0000000000,,,
2.9839999950,23,212668.7812500000,225000.0000000000,225000.0000000000,188233.1562500000,0.0000000000,0.0000000000,0.0000000000,0.0000000000,,,
2.9879999952,23,208082.6718750000,225000.0000000000,221762.3125000000,164497.1093750000,0.0000000000,0.0000000000,0.0000000000,0.0000000000,,,
2.9919999952,23,222125.3750000000,225000.0000000000,225000.0000000000,217581.3906250000,0.0000000000,0.0000000000,0.0000000000,0.0000000000,,,
2.9959999952,23,225000.0000000000,225000.0000000000,225000.0000000000,225000.0000000000,0.0000000000,0.0000000000,0.0000000000,0.0000000000,,,
2.9999999951,23,225000.0000000000,225000.0000000000,225000.0000000000,225000.0000000000,0.0000000000,0.0000000000,0.0000000000,0.0000000000,,,
3.0039999951,23,212878.4062500000,225000.0000000000,225000.0000000000,188796.0468750000,0.0000000000,0.0000000000,0.0000000000,0.0000000000,,,
3.0079999950,23,208203.2343750000,225000.0000000000,221857.7187500000,164669.2500000000,0.0000000000,0.0000000000,0.0000000000,0.0000000000,,,
3.0119999952,23,222177.2187500000,225000.0000000000,225000.0000000000,217466.6718750000,0.0000000000,0.0000000000,0.0000000000,0.0000000000,,,
3.0159999952,23,225000.0000000000,225000.0000000000,225000.0000000000,225000.0000000000,0.0000000000,0.0000000000,0.0000000000,0.0000000000,,,
3.0199999951,23,225000.0000000000,225000.0000000000,225000.0000000000,225000.0000000000,0.0000000000,0.0000000000,0.0000000000,0.0000000000,,,
3.0239999951,23,213085.6875000000,225000.0000000000,225000.0000000000,189209.8593750000,0.0000000000,0.0000000000,0.0000000000,0.0000000000,,,
3.0279999950,23,208290.5625000000,225000.0000000000,222022.3281250000,164532.0312500000,0.0000000000,0.0000000000,0.0000000000,0.0000000000,,,
3.0319999952,23,222179.3593750000,225000.0000000000,225000.0000000000,217113.0781250000,0.0000000000,0.0000000000,0.0000000000,0.0000000000,,,
3.0359999952,23,225000.0000000000,225000.0000000000,225000.0000000000,225000.0000000000,0.0000000000,0.0000000000,0.0000000000,0.0000000000,,,
3.0399999951,23,225000.0000000000,225000.0000000000,225000.0000000000,225000.0000000000,0.0000000000,0.0000000000,0.0000000000,0.0000000000,,,
3.0439999951,23,213272.2812500000,225000.0000000000,225000.0000000000,189559.7812500000,0.0000000000,0.0000000000,0.0000000000,0.0000000000,,,
3.0479999951,23,208375.1875000000,225000.0000000000,221832.8593750000,164423.6718750000,0.0000000000,0.0000000000,0.0000000000,0.0000000000,,,
3.0519999950,23,222188.6250000000,225000.0000000000,225000.0000000000,216842.5156250000,0.0000000000,0.0000000000,0.0000000000,0.0000000000,,,
3.0559999952,23,225000.0000000000,225000.0000000000,225000.0000000000,225000.0000000000,0.0000000000,0.0000000000,0.0000000000,0.0000000000,,,
3.0599999952,23,225000.0000000000,225000.0000000000,225000.0000000000,225000.0000000000,0.0000000000,0.0000000000,0.0000000000,0.0000000000,,,
3.0639999951,23,213487.8593750000,225000.0000000000,225000.0000000000,190031.3437500000,0.0000000000,0.0000000000,0.0000000000,0.0000000000,,,
3.0679999951,23,208476.8125000000,225000.0000000000,221718.0312500000,164393.4218750000,0.0000000000,0.0000000000,0.0000000000,0.0000000000,,,
3.0719999950,24,222194.6875000000,225000.0000000000,225000.0000000000,216529.5625000000,0.0000000000,0.0000000000,0.0000000000,0.0000000000,,,
3.0759999950,24,225000.0000000000,225000.0000000000,225000.0000000000,225000.0000000000,0.0000000000,0.0000000000,0.0000000000,0.0000000000,,,
3.0799999950,24,225000.0000000000,225000.0000000000,225000.0000000000,225000.0000000000,0.0000000000,0.0000000000,0.0000000000,0.0000000000,,,
3.0839999949,24,213669.8906250000,225000.0000000000,225000.0000000000,190413.2968750000,0.0000000000,0.0000000000,0.0000000000,0.0000000000,,,
3.0879999949,24,208540.3906250000,225000.0000000000,221617.0156250000,164274.8125000000,0.0000000000,0.0000000000,0.0000000000,0.0000000000,,,
3.0919999948,24,222163.6562500000,225000.0000000000,225000.0000000000,216232.9062500000,0.0000000000,0.0000000000,0.0000000000,0.0000000000,,,
3.0959999950,24,225000.0000000000,225000.0000000000,225000.0000000000,225000.0000000000,0.0000000000,0.0000000000,0.0000000000,0.0000000000,,,
3.0999999950,24,225000.0000000000,225000.0000000000,225000.0000000000,225000.0000000000,0.0000000000,0.0000000000,0.0000000000,0.0000000000,,,
3.1039999949,24,213836.9218750000,225000.0000000000,225000.0000000000,190802.5000000000,0.0000000000,0.0000000000,0.0000000000,0.0000000000,,,
3.1079999949,24,208601.0000000000,225000.0000000000,221563.3125000000,164164.4687500000,0.0000000000,0.0000000000,0.0000000000,0.0000000000,,,
3.1119999948,24,222145.4843750000,225000.0000000000,225000.0000000000,215912.2031250000,0.0000000000,0.0000000000,0.0000000000,0.0000000000,,,
3.1159999950,24,225000.0000000000,225000.0000000000,225000.0000000000,225000.0000000000,0.0000000000,0.0000000000,0.0000000000,0.0000000000,,,
3.1199999950,24,225000.0000000000,225000.0000000000,225000.0000000000,225000.0000000000,0.0000000000,0.0000000000,0.0000000000,0.0000000000,,,
3.1239999949,24,213996.5625000000,225000.0000000000,225000.0000000000,191238.4687500000,0.0000000000,0.0000000000,0.0000000000,0.0000000000,,,
3.1279999949,24,208653.2031250000,225000.0000000000,221488.4843750000,164140.7343750000,0.0000000000,0.0000000000,0.0000000000,0.0000000000,,,
3.1319999949,24,222105.2812500000,225000.0000000000,225000.0000000000,215628.0937500000,0.0000000000,0.0000000000,0.0000000000,0.0000000000,,,
3.1359999948,24,225000.0000000000,225000.0000000000,225000.0000000000,225000.0000000000,0.0000000000,0.0000000000,0.0000000000,0.0000000000,,,
3.1399999950,24,225000.0000000000,225000.0000000000,225000.0000000000,225000.0000000000,0.0000000000,0.0000000000,0.0000000000,0.0000000000,,,
3.1439999950,24,214143.8750000000,225000.0000000000,225000.0000000000,191665.0156250000,0.0000000000,0.0000000000,0.0000000000,0.0000000000,,,
3.1479999949,24,208676.5312500000,225000.0000000000,221363.0625000000,164067.2343750000,0.0000000000,0.0000000000,0.0000000000,0.0000000000,,,
3.1519999949,24,222047.9375000000,225000.0000000000,225000.0000000000,215312.2343750000,0.0000000000,0.0000000000,0.0000000000,0.0000000000,,,
3.1559999948,24,225000.0000000000,225000.0000000000,225000.0000000000,225000.0000000000,0.0000000000,0.0000000000,0.0000000000,0.0000000000,,,
3.1599999950,24,225000.0000000000,225000.0000000000,225000.0000000000,225000.0000000000,0.0000000000,0.0000000000,0.0000000000,0.0000000000,,,
3.1639999950,24,214278.3281250000,225000.0000000000,225000.0000000000,192074.2500000000,0.0000000000,0.0000000000,0.0000000000,0.0000000000,,,
3.1679999949,24,208708.7812500000,225000.0000000000,221265.7812500000,164022.7031250000,0.0000000000,0.0000000000,0.0000000000,0.0000000000,,,
3.1719999949,24,222018.5468750000,225000.0000000000,225000.0000000000,215047.4218750000,0.0000000000,0.0000000000,0.0000000000,0.0000000000,,,
3.1759999949,24,225000.0000000000,225000.0000000000,225000.0000000000,225000.0000000000,0.0000000000,0.0000000000,0.0000000000,0.0000000000,,,
3.1799999948,24,225000.0000000000,225000.0000000000,225000.0000000000,225000.0000000000,0.0000000000,0.0000000000,0.0000000000,0.0000000000,,,
3.1839999950,24,214428.7812500000,225000.0000000000,225000.0000000000,192486.8281250000,0.0000000000,0.0000000000,0.0000000000,0.0000000000,,,
3.1879999950,24,208747.0781250000,225000.0000000000,221264.7812500000,164010.5312500000,0.0000000000,0.0000000000,0.0000000000,0.0000000000,,,
3.1919999949,24,221991.3437500000,225000.0000000000,225000.0000000000,214764.4531250000,0.0000000000,0.0000000000,0.0000000000,0.0000000000,,,
3.1959999949,24,225000.0000000000,225000.0000000000,225000.0000000000,225000.0000000000,0.0000000000,0.0000000000,0.0000000000,0.0000000000,,,
3.1999999948,25,225000.0000000000,225000.0000000000,225000.0000000000,225000.0000000000,0.0000000000,0.0000000000,0.0000000000,0.0000000000,,,
3.2039999948,25,214565.5937500000,225000.0000000000,225000.0000000000,192915.9843750000,0.0000000000,0.0000000000,0.0000000000,0.0000000000,,,
3.2079999947,25,208762.2031250000,225000.0000000000,221276.7812500000,163954.2812500000,0.0000000000,0.0000000000,0.0000000000,0.0000000000,,,
3.2119999947,25,221933.2812500000,225000.0000000000,225000.0000000000,214463.5937500000,0.0000000000,0.0000000000,0.0000000000,0.0000000000,,,
3.2159999947,25,225000.0000000000,225000.0000000000,225000.0000000000,225000.0000000000,0.0000000000,0.0000000000,0.0000000000,0.0000000000,,,
3.2199999946,25,225000.0000000000,225000.0000000000,225000.0000000000,225000.0000000000,0.0000000000,0.0000000000,0.0000000000,0.0000000000,,,
3.2239999948,25,214707.9375000000,225000.0000000000,225000.0000000000,193331.4531250000,0.0000000000,0.0000000000,0.0000000000,0.0000000000,,,
3.2279999948,25,208790.2031250000,225000.0000000000,221758.1250000000,163956.3281250000,0.0000000000,0.0000000000,0.0000000000,0.0000000000,,,
3.2319999947,25,221914.4218750000,225000.0000000000,225000.0000000000,214214.8750000000,0.0000000000,0.0000000000,0.0000000000,0.0000000000,,,
3.2359999947,25,225000.0000000000,225000.0000000000,225000.0000000000,225000.0000000000,0.0000000000,0.0000000000,0.0000000000,0.0000000000,,,
3.2399999946,25,225000.0000000000,225000.0000000000,225000.0000000000,225000.0000000000,0.0000000000,0.0000000000,0.0000000000,0.0000000000,,,
3.2439999948,25,214882.1406250000,225000.0000000000,225000.0000000000,193938.7812500000,0.0000000000,0.0000000000,0.0000000000,0.0000000000,,,
3.2479999948,25,208836.3906250000,225000.0000000000,222167.3281250000,164118.2812500000,0.0000000000,0.0000000000,0.0000000000,0.0000000000,,,
3.2519999947,25,221900.2343750000,225000.0000000000,225000.0000000000,214012.6250000000,0.0000000000,0.0000000000,0.0000000000,0.0000000000,,,
3.2559999947,25,225000.0000000000,225000.0000000000,225000.0000000000,225000.0000000000,0.0000000000,0.0000000000,0.0000000000,0.0000000000,,,
3.2599999947,25,225000.0000000000,225000.0000000000,225000.0000000000,225000.0000000000,0.0000000000,0.0000000000,0.0000000000,0.0000000000,,,
3.2639999946,25,215052.2812500000,225000.0000000000,225000.0000000000,194550.5156250000,0.0000000000,0.0000000000,0.0000000000,0.0000000000,,,
3.2679999948,25,208858.5468750000,225000.0000000000,222287.5468750000,164291.0312500000,0.0000000000,0.0000000000,0.0000000000,0.0000000000,,,
3.2719999948,25,221859.3281250000,225000.0000000000,225000.0000000000,213876.5937500000,0.0000000000,0.0000000000,0.0000000000,0.0000000000,,,
3.2759999947,25,225000.0000000000,225000.0000000000,225000.0000000000,225000.0000000000,0.0000000000,0.0000000000,0.0000000000,0.0000000000,,,
3.2799999947,25,225000.0000000000,225000.0000000000,225000.0000000000,225000.0000000000,0.0000000000,0.0000000000,0.0000000000,0.0000000000,,,
3.2839999946,25,215217.9843750000,225000.0000000000,225000.0000000000,195251.3281250000,0.0000000000,0.0000000000,0.0000000000,0.0000000000,,,
3.2879999948,25,208906.3750000000,225000.0000000000,222326.2187500000,164559.0468750000,0.0000000000,0.0000000000,0.0000000000,0.0000000000,,,
3.2919999948,25,221834.2968750000,225000.0000000000,225000.0000000000,213738.0468750000,0.0000000000,0.0000000000,0.0000000000,0.0000000000,,,
3.2959999947,25,225000.0000000000,225000.0000000000,225000.0000000000,225000.0000000000,0.0000000000,0.0000000000,0.0000000000,0.0000000000,,,
3.2999999947,25,225000.0000000000,225000.0000000000,225000.0000000000,225000.0000000000,0.0000000000,0.0000000000,0.0000000000,0.0000000000,,,
3.3039999946,25,215374.8906250000,225000.0000000000,225000.0000000000,195816.5937500000,0.0000000000,0.0000000000,0.0000000000,0.0000000000,,,
3.3079999946,25,208941.8281250000,225000.0000000000,222298.6250000000,164700.4843750000,0.0000000000,0.0000000000,0.0000000000,0.0000000000,,,
3.3119999948,25,221801.6562500000,225000.0000000000,225000.0000000000,213588.8593750000,0.0000000000,0.0000000000,0.0000000000,0.0000000000,,,
3.3159999948,25,225000.0000000000,225000.0000000000,225000.0000000000,225000.0000000000,0.0000000000,0.0000000000,0.0000000000,0.0000000000,,,
3.3199999947,25,225000.0000000000,225000.0000000000,225000.0000000000,225000.0000000000,0.0000000000,0.0000000000,0.0000000000,0.0000000000,,,
3.3239999947,25,215522.6093750000,225000.0000000000,225000.0000000000,196431.6562500000,0.0000000000,0.0000000000,0.0000000000,0.0000000000,,,
3.3279999946,26,208975.8437500000,225000.0000000000,222363.9843750000,164883.3281250000,0.0000000000,0.0000000000,0.0000000000,0.0000000000,,,
3.3319999946,26,221744.0468750000,225000.0000000000,225000.0000000000,213384.1093750000,0.0000000000,0.0000000000,0.0000000000,0.0000000000,,,
3.3359999945,26,225000.0000000000,225000.0000000000,225000.0000000000,225000.0000000000,0.0000000000,0.0000000000,0.0000000000,0.0000000000,,,
3.3399999945,26,225000.0000000000,225000.0000000000,225000.0000000000,225000.0000000000,0.0000000000,0.0000000000,0.0000000000,0.0000000000,,,
3.3439999945,26,215637.9687500000,225000.0000000000,225000.0000000000,196868.2968750000,0.0000000000,0.0000000000,0.0000000000,0.0000000000,,,
3.3479999944,26,208972.7343750000,225000.0000000000,222312.7500000000,164873.0781250000,0.0000000000,0.0000000000,0.0000000000,0.0000000000,,,
3.3519999946,26,221657.0312500000,225000.0000000000,225000.0000000000,213092.7968750000,0.0000000000,0.0000000000,0.0000000000,0.0000000000,,,
3.3559999946,26,225000.0000000000,225000.0000000000,225000.0000000000,225000.0000000000,0.0000000000,0.0000000000,0.0000000000,0.0000000000,,,
