Time:250Hz,Epoch,Channel 1,Channel 2,Channel 3,Channel 4,Channel 5,Channel 6,Channel 7,Channel 8,Event Id,Event Date,Event Duration
0.0000000000,0,180304.3125000000,160583.3593750000,191715.8750000000,176290.7031250000,168580.9687500000,138507.5156250000,161336.7968750000,129767.0078125000,,,
0.0040000000,0,180290.3125000000,160577.5000000000,191690.9531250000,176269.8906250000,168555.7031250000,138495.8593750000,161310.5937500000,130336.4687500000,,,
0.0079999999,0,180324.9062500000,160606.4375000000,191722.1562500000,176313.7968750000,168584.8750000000,138524.6406250000,161342.0781250000,130642.9375000000,,,
0.0119999999,0,180339.9531250000,160608.1718750000,191745.4687500000,176330.4843750000,168609.0156250000,138533.3281250000,161364.2187500000,130314.8203125000,,,
0.0159999998,0,180350.8437500000,160619.8437500000,191766.0156250000,176332.3906250000,168630.9375000000,138547.0625000000,161383.7031250000,129759.6875000000,,,
0.0199999998,0,180335.0156250000,160607.2968750000,191754.6093750000,176314.6875000000,168620.5468750000,138535.4218750000,161375.6718750000,129724.7656250000,,,
0.0240000000,0,180306.1093750000,160584.0156250000,191717.8125000000,176314.9062500000,168586.5156250000,138511.6562500000,161345.1406250000,130237.9765625000,,,
0.0279999999,0,180326.2187500000,160600.9375000000,191735.5156250000,176334.3750000000,168601.3437500000,138525.1718750000,161361.6406250000,130527.8125000000,,,
0.0319999999,0,180345.4843750000,160611.7500000000,191758.8750000000,176347.3750000000,168622.0000000000,138542.4375000000,161387.3125000000,130239.4765625000,,,
0.0359999998,0,180333.8437500000,160603.2187500000,191751.6250000000,176327.0781250000,168615.9062500000,138539.9843750000,161381.3750000000,129743.3203125000,,,
0.0399999998,0,180321.8750000000,160600.0156250000,191741.3125000000,176303.1250000000,168605.6093750000,138532.1718750000,161360.4843750000,129718.5625000000,,,
0.0440000000,0,180302.5468750000,160588.0000000000,191711.9375000000,176289.5312500000,168579.7500000000,138513.7968750000,161330.2500000000,130233.8984375000,,,
0.0480000000,0,180322.0625000000,160600.7968750000,191727.5781250000,176316.1875000000,168594.7187500000,138521.8750000000,161346.1093750000,130589.6171875000,,,
0.0519999999,0,180356.6718750000,160625.4218750000,191767.8906250000,176352.5625000000,168632.3750000000,138548.5937500000,161384.2187500000,130277.3515625000,,,
0.0559999999,0,180357.6093750000,160625.9843750000,191776.2500000000,176340.9687500000,168641.0468750000,138560.4218750000,161398.2187500000,129714.4921875000,,,
0.0599999998,0,180337.6250000000,160619.5156250000,191752.8437500000,176314.6093750000,168619.8593750000,138550.8906250000,161376.1406250000,129651.0546875000,,,
0.0639999998,0,180324.0781250000,160617.9687500000,191729.6093750000,176311.6875000000,168596.2812500000,138538.1562500000,161356.6250000000,130180.3359375000,,,
0.0680000000,0,180344.7343750000,160635.7812500000,191748.3906250000,176348.7968750000,168613.7968750000,138550.0312500000,161374.0000000000,130559.6015625000,,,
0.0719999999,0,180385.1718750000,160669.7343750000,191791.7500000000,176385.4687500000,168657.2968750000,138586.1718750000,161414.4218750000,130281.1875000000,,,
0.0759999999,0,180394.7031250000,160676.5468750000,191806.8906250000,176369.4531250000,168672.1250000000,138592.3906250000,161424.7812500000,129723.2578125000,,,
0.0799999998,0,180356.7500000000,160641.8906250000,191770.2187500000,176309.4843750000,168638.0937500000,138557.7656250000,161388.3437500000,129694.2421875000,,,
0.0839999998,0,180327.6250000000,160617.2187500000,191733.9843750000,176292.5625000000,168603.5000000000,138530.5156250000,161352.1718750000,130244.2265625000,,,
0.0880000000,0,180339.3906250000,160624.6250000000,191740.2031250000,176324.3750000000,168610.5156250000,138537.5625000000,161357.1250000000,130602.6484375000,,,
0.0919999999,0,180361.7343750000,160637.4062500000,191767.6250000000,176361.4062500000,168636.1093750000,138552.3125000000,161384.5937500000,130353.2265625000,,,
0.0959999999,0,180362.0312500000,160636.3906250000,191776.0625000000,176342.4531250000,168645.1562500000,138561.7343750000,161405.2031250000,129847.2343750000,,,
0.0999999999,0,180354.1406250000,160634.4843750000,191771.1250000000,176311.2812500000,168640.1875000000,138563.5781250000,161404.5000000000,129776.6093750000,,,
0.1039999998,0,180324.9687500000,160609.5781250000,191735.2500000000,176287.6718750000,168603.3281250000,138534.7187500000,161365.2343750000,130322.0078125000,,,
0.1079999998,0,180348.1875000000,160631.2500000000,191752.2968750000,176336.3281250000,168618.8125000000,138551.6250000000,161377.6562500000,130714.0703125000,,,
0.1120000000,0,180376.1406250000,160648.7656250000,191785.8906250000,176364.7031250000,168648.9375000000,138574.4687500000,161401.8437500000,130427.1015625000,,,
0.1159999999,0,180361.8750000000,160625.2968750000,191782.6093750000,176343.8437500000,168646.4687500000,138561.2187500000,161396.1562500000,129913.4531250000,,,
0.1199999999,0,180345.0312500000,160616.2812500000,191763.5625000000,176311.5937500000,168628.1093750000,138547.7343750000,161384.3750000000,129883.0156250000,,,
0.1239999998,0,180331.7031250000,160611.5000000000,191743.6875000000,176307.9218750000,168607.2500000000,138531.9843750000,161359.0625000000,130387.4531250000,,,
0.1279999998,1,180327.8125000000,160602.3281250000,191733.8750000000,176325.8437500000,168597.5468750000,138523.5625000000,161349.9218750000,130743.8437500000,,,
0.1319999998,1,180359.4375000000,160629.3906250000,191769.0937500000,176358.8281250000,168630.2656250000,138552.1562500000,161387.3125000000,130457.5156250000,,,
0.1359999997,1,180369.0312500000,160638.9375000000,191788.4531250000,176356.4687500000,168647.2343750000,138565.1093750000,161408.2812500000,129925.1250000000,,,
0.1399999997,1,180356.4062500000,160636.4687500000,191775.0937500000,176338.7968750000,168634.0937500000,138560.8125000000,161398.3593750000,129845.2968750000,,,
0.1439999996,1,180314.5781250000,160605.4218750000,191720.8437500000,176303.7343750000,168583.4843750000,138525.5937500000,161349.3593750000,130329.8125000000,,,
0.1479999996,1,180333.7656250000,160622.7343750000,191733.5000000000,176341.0000000000,168594.4843750000,138539.4062500000,161357.7968750000,130708.2500000000,,,
0.1519999998,1,180364.0781250000,160637.9531250000,191770.4062500000,176395.3125000000,168628.4687500000,138556.7968750000,161392.6718750000,130467.1718750000,,,
0.1559999997,1,180381.2031250000,160653.1562500000,191794.8437500000,176379.1718750000,168654.8125000000,138575.0312500000,161415.6562500000,129905.7812500000,,,
0.1599999997,1,180332.5781250000,160617.1093750000,191744.4687500000,176318.1718750000,168609.1562500000,138538.8281250000,161366.4062500000,129861.0156250000,,,
0.1639999996,1,180307.1875000000,160593.8593750000,191715.0156250000,176299.7968750000,168581.0468750000,138511.6250000000,161335.2500000000,130399.8437500000,,,
0.1679999996,1,180324.4843750000,160606.8125000000,191728.8125000000,176326.0312500000,168593.2968750000,138519.4531250000,161342.6250000000,130789.2500000000,,,
0.1719999998,1,180363.2968750000,160638.3593750000,191773.2031250000,176366.3750000000,168638.3906250000,138552.9531250000,161380.2187500000,130527.7343750000,,,
0.1759999997,1,180367.0000000000,160642.7968750000,191784.1718750000,176344.1875000000,168650.8281250000,138562.9843750000,161390.7968750000,129955.5390625000,,,
0.1799999997,1,180348.6406250000,160629.2343750000,191760.4218750000,176336.3906250000,168628.7343750000,138548.0781250000,161372.9062500000,129867.9687500000,,,
0.1839999997,1,180329.4687500000,160616.3593750000,191734.7343750000,176321.0625000000,168603.3125000000,138529.2500000000,161350.3750000000,130372.7031250000,,,
0.1879999996,1,180339.2656250000,160623.5937500000,191741.7812500000,176330.4062500000,168610.1718750000,138538.5625000000,161361.0781250000,130777.9843750000,,,
0.1919999996,1,180361.0468750000,160639.2656250000,191770.1406250000,176354.8593750000,168636.8281250000,138552.6875000000,161393.5468750000,130515.5078125000,,,
0.1959999998,1,180352.4375000000,160622.5468750000,191770.3593750000,176352.7500000000,168637.1250000000,138543.8437500000,161399.7812500000,130005.8281250000,,,
0.1999999997,1,180325.9531250000,160598.7656250000,191741.4375000000,176323.0000000000,168610.2031250000,138525.1718750000,161370.4062500000,129954.6015625000,,,
0.2039999997,1,180300.6875000000,160579.0781250000,191708.3437500000,176297.0937500000,168576.4062500000,138502.0468750000,161330.4218750000,130484.8750000000,,,
0.2079999996,1,180333.4687500000,160607.0000000000,191739.7812500000,176339.5000000000,168604.3281250000,138524.1250000000,161353.5625000000,130857.7812500000,,,
0.2119999996,1,180372.3281250000,160637.5468750000,191783.8125000000,176371.6093750000,168647.2343750000,138557.2500000000,161398.7656250000,130564.0000000000,,,
0.2159999998,1,180374.9375000000,160643.2343750000,191791.5937500000,176361.8593750000,168655.9375000000,138568.7343750000,161406.7812500000,129975.0156250000,,,
0.2199999997,1,180357.4218750000,160638.7500000000,191771.4062500000,176353.9843750000,168636.2187500000,138561.3593750000,161380.4687500000,129876.9218750000,,,
0.2239999997,1,180332.1250000000,160620.0781250000,191737.1406250000,176333.3593750000,168601.0781250000,138536.1406250000,161345.3750000000,130404.6250000000,,,
0.2279999997,1,180352.6250000000,160633.0156250000,191754.9843750000,176364.3593750000,168617.7968750000,138548.9375000000,161366.6718750000,130783.9687500000,,,
0.2319999996,1,180380.5625000000,160653.0000000000,191789.6875000000,176379.5937500000,168651.9375000000,138570.7968750000,161400.4531250000,130515.9609375000,,,
0.2359999996,1,180388.9843750000,160661.4218750000,191803.9375000000,176379.0625000000,168668.0625000000,138581.4375000000,161411.8281250000,129934.0312500000,,,
0.2399999998,1,180361.6562500000,160645.7343750000,191773.7812500000,176332.3906250000,168638.8125000000,138565.2500000000,161380.2812500000,129847.7421875000,,,
0.2439999997,1,180325.1250000000,160612.1406250000,191731.6718750000,176313.9062500000,168596.4062500000,138526.2656250000,161336.7968750000,130388.3906250000,,,
0.2479999997,1,180349.1250000000,160632.7968750000,191753.0312500000,176343.5000000000,168616.5312500000,138542.6875000000,161361.6093750000,130789.1171875000,,,
0.2519999996,1,180381.0781250000,160656.2656250000,191788.7031250000,176367.7656250000,168651.9062500000,138567.5781250000,161397.4687500000,130534.2265625000,,,
0.2559999996,2,180387.3750000000,160661.0156250000,191801.6562500000,176352.4843750000,168666.3437500000,138577.3437500000,161410.2968750000,129972.9453125000,,,
0.2599999995,2,180371.2812500000,160653.9062500000,191784.5468750000,176336.4062500000,168650.1406250000,138569.7968750000,161392.5312500000,129879.3359375000,,,
0.2639999995,2,180357.4687500000,160649.0781250000,191762.7031250000,176334.9687500000,168628.3906250000,138557.9687500000,161369.3906250000,130369.0312500000,,,
0.2679999995,2,180369.8125000000,160661.3437500000,191769.8750000000,176362.2187500000,168632.0625000000,138560.4687500000,161371.0468750000,130793.7265625000,,,
0.2719999994,2,180387.9218750000,160662.9531250000,191796.8593750000,176377.0156250000,168659.4687500000,138571.5468750000,161403.9062500000,130547.2578125000,,,
0.2759999994,2,180389.1718750000,160656.5937500000,191806.1093750000,176370.7187500000,168671.4843750000,138576.8281250000,161419.1718750000,129970.6640625000,,,
0.2799999996,2,180361.0937500000,160637.6875000000,191776.2343750000,176342.7187500000,168643.5937500000,138556.3437500000,161391.1406250000,129884.1953125000,,,
0.2839999995,2,180342.3906250000,160626.4218750000,191749.1093750000,176340.5468750000,168615.4062500000,138536.2812500000,161360.6718750000,130391.8828125000,,,
0.2879999995,2,180366.2656250000,160643.1718750000,191767.9375000000,176378.7031250000,168632.0625000000,138549.6875000000,161375.3750000000,130764.7656250000,,,
0.2919999994,2,180382.3125000000,160648.7656250000,191786.9062500000,176388.3593750000,168651.6093750000,138562.0312500000,161392.5312500000,130520.6015625000,,,
0.2959999994,2,180388.9062500000,160654.3593750000,191801.5468750000,176399.7343750000,168667.7031250000,138575.7343750000,161405.1406250000,129958.2734375000,,,
0.2999999996,2,180374.6718750000,160649.3437500000,191788.6406250000,176370.7656250000,168654.2187500000,138570.5312500000,161392.2343750000,129821.2421875000,,,
0.3039999995,2,180350.2500000000,160632.6718750000,191758.4218750000,176348.5156250000,168622.1562500000,138547.4843750000,161362.5000000000,130294.9765625000,,,
0.3079999995,2,180371.5781250000,160651.5468750000,191779.2343750000,176386.8125000000,168640.0468750000,138560.9843750000,161377.2500000000,130694.0625000000,,,
0.3119999995,2,180387.2656250000,160658.2031250000,191800.7500000000,176385.4218750000,168662.5625000000,138576.1562500000,161406.5937500000,130467.4921875000,,,
0.3159999994,2,180394.0781250000,160661.5468750000,191815.5781250000,176381.2656250000,168677.0156250000,138582.6250000000,161425.0156250000,129893.2578125000,,,
0.3199999994,2,180378.3906250000,160653.8281250000,191797.7187500000,176355.4218750000,168659.8281250000,138571.7812500000,161404.3593750000,129742.1953125000,,,
0.3239999996,2,180348.6250000000,160635.6093750000,191757.7187500000,176334.7812500000,168621.4843750000,138546.2812500000,161359.7656250000,130238.6171875000,,,
0.3279999995,2,180362.6718750000,160643.3906250000,191767.5312500000,176360.3593750000,168631.3281250000,138551.9687500000,161372.6875000000,130661.8750000000,,,
0.3319999995,2,180390.6250000000,160663.7187500000,191797.8125000000,176391.4531250000,168662.7187500000,138570.1718750000,161409.8906250000,130437.1562500000,,,
0.3359999994,2,180406.0937500000,160680.6250000000,191819.4062500000,176392.5156250000,168684.4375000000,138589.2812500000,161430.3750000000,129853.6171875000,,,
0.3399999994,2,180389.3437500000,160669.0312500000,191799.9687500000,176372.4843750000,168666.2656250000,138580.1250000000,161409.0312500000,129686.1953125000,,,
0.3439999996,2,180375.1718750000,160662.7656250000,191777.1875000000,176360.3437500000,168643.1093750000,138565.7812500000,161381.0312500000,130147.0234375000,,,
0.3479999995,2,180387.5468750000,160669.2500000000,191791.5937500000,176378.9218750000,168655.0000000000,138574.0625000000,161395.2187500000,130529.6406250000,,,
0.3519999995,2,180423.0000000000,160699.2968750000,191832.3437500000,176421.5468750000,168692.5156250000,138604.3281250000,161432.2031250000,130283.3046875000,,,
0.3559999994,2,180415.6562500000,160685.9531250000,191834.4375000000,176421.7343750000,168691.3593750000,138591.9843750000,161430.8906250000,129750.4609375000,,,
0.3599999994,2,180375.4687500000,160654.3437500000,191783.7343750000,176365.4843750000,168646.9687500000,138563.1718750000,161386.0781250000,129638.9062500000,,,
0.3639999994,2,180348.1875000000,160633.1718750000,191750.1875000000,176319.2187500000,168614.2031250000,138538.8281250000,161353.5156250000,130125.9140625000,,,
0.3679999996,2,180359.2968750000,160639.3750000000,191759.7812500000,176349.0468750000,168623.2031250000,138541.9062500000,161366.2031250000,130539.3203125000,,,
0.3719999995,2,180394.7031250000,160664.3750000000,191801.3906250000,176404.3593750000,168662.2656250000,138568.1093750000,161410.0156250000,130316.8593750000,,,
0.3759999995,2,180419.3437500000,160685.1875000000,191835.6718750000,176411.6718750000,168694.5000000000,138592.3281250000,161441.8593750000,129772.0781250000,,,
0.3799999994,2,180389.6875000000,160663.6406250000,191807.0000000000,176354.6250000000,168667.7812500000,138573.3906250000,161411.7187500000,129617.4453125000,,,
0.3839999994,3,180361.7968750000,160644.8437500000,191766.3906250000,176335.2031250000,168629.1093750000,138550.0937500000,161363.2187500000,130069.5078125000,,,
0.3879999993,3,180370.4218750000,160646.1875000000,191771.0312500000,176357.2187500000,168633.7187500000,138550.7812500000,161367.8125000000,130479.1328125000,,,
0.3919999993,3,180397.8437500000,160661.0468750000,191806.4843750000,176384.8750000000,168665.5312500000,138570.1250000000,161404.4687500000,130240.2578125000,,,
0.3959999993,3,180418.0312500000,160680.7343750000,191835.3125000000,176396.8750000000,168692.7031250000,138590.6406250000,161432.9531250000,129666.2656250000,,,
0.3999999992,3,180411.0156250000,160682.5468750000,191829.3593750000,176387.6406250000,168687.1562500000,138589.4687500000,161426.1718750000,129468.7968750000,,,
0.4039999992,3,180390.0000000000,160669.5156250000,191802.7812500000,176371.1718750000,168659.5468750000,138565.3750000000,161395.4843750000,129926.1171875000,,,
0.4079999994,3,180382.7656250000,160662.5781250000,191786.4531250000,176389.3281250000,168646.3906250000,138554.5625000000,161382.2343750000,130356.1562500000,,,
0.4119999993,3,180407.8437500000,160677.5937500000,191816.5937500000,176419.3437500000,168676.2968750000,138574.8125000000,161411.7656250000,130171.2187500000,,,
0.4159999993,3,180404.2812500000,160671.7500000000,191820.7812500000,176401.0468750000,168683.6718750000,138578.7343750000,161416.7343750000,129662.3750000000,,,
0.4199999992,3,180378.2031250000,160654.0156250000,191794.6562500000,176380.1562500000,168660.6718750000,138562.4218750000,161388.7812500000,129552.2187500000,,,
0.4239999992,3,180364.0781250000,160650.3437500000,191773.3593750000,176373.5937500000,168637.2343750000,138549.7968750000,161361.2031250000,130043.5703125000,,,
0.4279999994,3,180384.8281250000,160664.3906250000,191793.5781250000,176414.8437500000,168652.2500000000,138557.7343750000,161378.7500000000,130510.2968750000,,,
0.4319999993,3,180391.4843750000,160663.7031250000,191802.8125000000,176397.7343750000,168664.7812500000,138569.6718750000,161398.7031250000,130326.8359375000,,,
0.4359999993,3,180402.0000000000,160676.5156250000,191820.6250000000,176369.4531250000,168685.1093750000,138593.5468750000,161420.7500000000,129738.6015625000,,,
0.4399999992,3,180377.2343750000,160664.3906250000,191792.3750000000,176352.1562500000,168660.3593750000,138582.2812500000,161399.5156250000,129554.8671875000,,,
0.4439999992,3,180354.2343750000,160647.8437500000,191762.5000000000,176328.5781250000,168630.9843750000,138557.5468750000,161368.3750000000,130008.3750000000,,,
0.4479999992,3,180368.4218750000,160654.5312500000,191775.5781250000,176347.9375000000,168641.0468750000,138559.2968750000,161380.8906250000,130409.0468750000,,,
0.4519999993,3,180391.4843750000,160665.6562500000,191804.0937500000,176379.9687500000,168668.9062500000,138573.5000000000,161409.5156250000,130196.4531250000,,,
0.4559999993,3,180390.2187500000,160663.0781250000,191807.9843750000,176375.4843750000,168674.3906250000,138575.2968750000,161414.5312500000,129639.8437500000,,,
0.4599999993,3,180370.6093750000,160653.6875000000,191787.9218750000,176348.2187500000,168653.5937500000,138563.5781250000,161393.6093750000,129493.8515625000,,,
0.4639999992,3,180366.1562500000,160655.1718750000,191776.2500000000,176345.5000000000,168640.0468750000,138556.6562500000,161379.6562500000,129951.8671875000,,,
0.4679999992,3,180380.1562500000,160662.5468750000,191785.7812500000,176383.1406250000,168648.8281250000,138563.5781250000,161383.0156250000,130364.2812500000,,,
0.4719999994,3,180415.1406250000,160690.8750000000,191826.9687500000,176409.3906250000,168687.2031250000,138588.3906250000,161414.5625000000,130176.6640625000,,,
0.4759999993,3,180410.2656250000,160692.7187500000,191821.7656250000,176402.8281250000,168686.9843750000,138594.1562500000,161421.5625000000,129620.3671875000,,,
0.4799999993,3,180371.1562500000,160658.2812500000,191783.7968750000,176368.3593750000,168650.7031250000,138567.7187500000,161391.6250000000,129450.6406250000,,,
0.4839999992,3,180342.8750000000,160634.5468750000,191749.1406250000,176351.4531250000,168615.4375000000,138541.8281250000,161359.6718750000,129933.3281250000,,,
0.4879999992,3,180359.4375000000,160646.5625000000,191764.3750000000,176371.9843750000,168628.4687500000,138550.6718750000,161372.2812500000,130374.0703125000,,,
0.4919999992,3,180391.2656250000,160667.2656250000,191801.9218750000,176402.3437500000,168663.5781250000,138570.0156250000,161402.1718750000,130176.1484375000,,,
0.4959999993,3,180399.7187500000,160671.4843750000,191822.5000000000,176392.2500000000,168683.1093750000,138579.6718750000,161421.4687500000,129619.3281250000,,,
0.4999999993,3,180394.5625000000,160676.5468750000,191819.4687500000,176389.0156250000,168679.9375000000,138582.2812500000,161415.7343750000,129426.2890625000,,,
0.5039999993,3,180349.4531250000,160643.6562500000,191759.0156250000,176363.6406250000,168624.7968750000,138547.5468750000,161363.1406250000,129894.2812500000,,,
0.5079999992,3,180335.2343750000,160626.2812500000,191739.4062500000,176332.7031250000,168605.6718750000,138531.9062500000,161350.2031250000,130373.5859375000,,,
0.5119999992,4,180355.8593750000,160641.1718750000,191763.5625000000,176337.9062500000,168629.1875000000,138550.3593750000,161376.6250000000,130254.0156250000,,,
0.5159999991,4,180364.1250000000,160644.0156250000,191779.0468750000,176358.4375000000,168643.6250000000,138557.3906250000,161390.6875000000,129732.1406250000,,,
0.5199999991,4,180370.0781250000,160652.8281250000,191787.4375000000,176360.5781250000,168650.1093750000,138559.5625000000,161396.2656250000,129548.0546875000,,,
0.5239999990,4,180353.2656250000,160643.3906250000,191766.7343750000,176328.5312500000,168629.5156250000,138547.0000000000,161377.2968750000,129987.2421875000,,,
0.5279999990,4,180344.5937500000,160633.9843750000,191752.4062500000,176334.5937500000,168615.5937500000,138536.1406250000,161363.5468750000,130432.4062500000,,,
0.5319999990,4,180376.1406250000,160658.0625000000,191785.2343750000,176373.4531250000,168646.3593750000,138559.4843750000,161388.7343750000,130295.8046875000,,,
0.5359999991,4,180383.0625000000,160661.4687500000,191796.8750000000,176361.5937500000,168658.7500000000,138571.5468750000,161400.8437500000,129769.6093750000,,,
0.5399999991,4,180358.4062500000,160642.1406250000,191774.2968750000,176332.0937500000,168636.4062500000,138554.3750000000,161386.9062500000,129580.8906250000,,,
0.5439999991,4,180345.1406250000,160630.2500000000,191757.8281250000,176328.4218750000,168617.7031250000,138538.3906250000,161368.6406250000,130015.7578125000,,,
0.5479999990,4,180366.0781250000,160647.6562500000,191770.4687500000,176371.4687500000,168629.5937500000,138548.9687500000,161374.9687500000,130474.2265625000,,,
0.5519999990,4,180406.9375000000,160683.5156250000,191816.0625000000,176406.9218750000,168676.2968750000,138586.1406250000,161415.4218750000,130301.0078125000,,,
0.5559999992,4,180407.9218750000,160678.6875000000,191827.6718750000,176380.1875000000,168686.7187500000,138591.6406250000,161426.9687500000,129706.7890625000,,,
0.5599999991,4,180377.9375000000,160653.1875000000,191794.4062500000,176368.5468750000,168653.9218750000,138568.4062500000,161394.4687500000,129506.7500000000,,,
0.5639999991,4,180357.4218750000,160642.6406250000,191766.6562500000,176356.2343750000,168625.9375000000,138550.4687500000,161365.9843750000,129969.0078125000,,,
0.5679999990,4,180364.2656250000,160648.5468750000,191772.7656250000,176365.6250000000,168629.4062500000,138551.9062500000,161379.0156250000,130447.3515625000,,,
0.5719999990,4,180395.4843750000,160669.6562500000,191808.5781250000,176398.0156250000,168663.2500000000,138574.9531250000,161422.5468750000,130310.1562500000,,,
0.5759999990,4,180416.0312500000,160688.2187500000,191833.9531250000,176416.9062500000,168689.1093750000,138593.8593750000,161448.0625000000,129745.3359375000,,,
0.5799999991,4,180392.4531250000,160673.4843750000,191807.7187500000,176378.4375000000,168667.0937500000,138580.6093750000,161425.2343750000,129550.6875000000,,,
0.5839999991,4,180342.2343750000,160634.5468750000,191750.1093750000,176333.6718750000,168611.9375000000,138540.5937500000,161368.9531250000,130038.6640625000,,,
0.5879999991,4,180349.6875000000,160637.8750000000,191757.3125000000,176353.5000000000,168617.1250000000,138535.9843750000,161374.3750000000,130515.1796875000,,,
0.5919999990,4,180387.5937500000,160667.8593750000,191799.6093750000,176391.1562500000,168660.0937500000,138564.1093750000,161414.2343750000,130357.0937500000,,,
0.5959999990,4,180393.6093750000,160673.7031250000,191812.6562500000,176405.8750000000,168674.9218750000,138577.6406250000,161423.7812500000,129834.0625000000,,,
0.5999999992,4,180367.9062500000,160655.5781250000,191785.1875000000,176373.6875000000,168652.0468750000,138565.8281250000,161403.4531250000,129656.8984375000,,,
0.6039999991,4,180333.1718750000,160628.1875000000,191743.4843750000,176312.0000000000,168611.9375000000,138536.4062500000,161371.1250000000,130129.4296875000,,,
0.6079999991,4,180344.4375000000,160634.4375000000,191753.1093750000,176343.8906250000,168619.5000000000,138540.4531250000,161383.6875000000,130616.0859375000,,,
0.6119999990,4,180389.2812500000,160672.9062500000,191803.6718750000,176385.9218750000,168668.5937500000,138581.8125000000,161429.8750000000,130462.4218750000,,,
0.6159999990,4,180403.6093750000,160684.8906250000,191823.1875000000,176376.9687500000,168689.8281250000,138601.6093750000,161452.1875000000,129893.2031250000,,,
0.6199999989,4,180369.9375000000,160650.1562500000,191792.7500000000,176331.0156250000,168660.5156250000,138574.5781250000,161427.5156250000,129669.5078125000,,,
0.6239999991,4,180346.3906250000,160630.6250000000,191762.6875000000,176318.2812500000,168629.8125000000,138551.2968750000,161397.0625000000,130092.9453125000,,,
0.6279999991,4,180356.4218750000,160642.3750000000,191762.8437500000,176344.9687500000,168628.9218750000,138554.5625000000,161398.0000000000,130570.0625000000,,,
0.6319999991,4,180399.2031250000,160679.0625000000,191807.0937500000,176398.7500000000,168671.8437500000,138589.2031250000,161439.7656250000,130453.1718750000,,,
0.6359999990,4,180413.7968750000,160688.7968750000,191832.5000000000,176397.8906250000,168698.2500000000,138606.3281250000,161466.0625000000,129900.2890625000,,,
0.6399999990,5,180381.5781250000,160661.9062500000,191797.5312500000,176378.2812500000,168666.8437500000,138581.4687500000,161432.1562500000,129674.8437500000,,,
0.6439999989,5,180355.7500000000,160644.8437500000,191765.9843750000,176357.7656250000,168634.0781250000,138556.5312500000,161395.2656250000,130095.6562500000,,,
0.6479999989,5,180362.2968750000,160652.0000000000,191768.6875000000,176359.9062500000,168635.7656250000,138559.3906250000,161396.1250000000,130574.8593750000,,,
0.6519999988,5,180383.9687500000,160664.3437500000,191794.3906250000,176387.2187500000,168659.0468750000,138578.3906250000,161422.2343750000,130464.0312500000,,,
0.6559999988,5,180394.7812500000,160670.9687500000,191813.3437500000,176390.1093750000,168677.2031250000,138591.9531250000,161445.8906250000,129898.4375000000,,,
0.6599999988,5,180381.3906250000,160665.5781250000,191798.8593750000,176388.3437500000,168663.6562500000,138581.1562500000,161434.9218750000,129653.6562500000,,,
0.6639999989,5,180382.6875000000,160677.0625000000,191792.0312500000,176409.0781250000,168655.8281250000,138577.7656250000,161424.1875000000,130077.0468750000,,,
0.6679999989,5,180388.2031250000,160680.1406250000,191795.1093750000,176420.2343750000,168656.5468750000,138576.6406250000,161422.4218750000,130545.6796875000,,,
0.6719999989,5,180383.2187500000,160665.6875000000,191793.9843750000,176373.4531250000,168657.5468750000,138571.4062500000,161421.0937500000,130428.1953125000,,,
0.6759999988,5,180384.5156250000,160669.8125000000,191802.1406250000,176363.4218750000,168667.6250000000,138580.8593750000,161433.4062500000,129890.7890625000,,,
0.6799999988,5,180381.9843750000,160676.7031250000,191801.5156250000,176360.9531250000,168667.1406250000,138585.3593750000,161436.8125000000,129668.2500000000,,,
0.6839999990,5,180354.0156250000,160654.0937500000,191763.2968750000,176346.3906250000,168631.0156250000,138561.3593750000,161401.7031250000,130112.6875000000,,,
0.6879999989,5,180360.5781250000,160658.9218750000,191764.1875000000,176358.1875000000,168631.8750000000,138567.2031250000,161404.0468750000,130580.3593750000,,,
0.6919999989,5,180386.8906250000,160675.7656250000,191795.9218750000,176388.0156250000,168662.2031250000,138588.7656250000,161432.9843750000,130440.7500000000,,,
0.6959999988,5,180397.2031250000,160678.0468750000,191815.2031250000,176408.4843750000,168679.9843750000,138593.1718750000,161450.8750000000,129896.0781250000,,,
0.6999999988,5,180371.6406250000,160659.6250000000,191791.1875000000,176353.1718750000,168657.6718750000,138576.6406250000,161430.8906250000,129677.1015625000,,,
0.7039999987,5,180358.9218750000,160655.9687500000,191771.0000000000,176350.3125000000,168636.6406250000,138564.3593750000,161405.5468750000,130107.8593750000,,,
0.7079999989,5,180379.8750000000,160671.2656250000,191789.2656250000,176391.7187500000,168649.8125000000,138571.8125000000,161411.9062500000,130576.8984375000,,,
0.7119999989,5,180404.8125000000,160687.7812500000,191819.1718750000,176405.5000000000,168676.3125000000,138597.2968750000,161438.6093750000,130452.5000000000,,,
0.7159999989,5,180387.5468750000,160662.8125000000,191806.1406250000,176368.6250000000,168666.4687500000,138585.6250000000,161434.4062500000,129944.2734375000,,,
0.7199999988,5,180355.7343750000,160637.2812500000,191771.8281250000,176322.8906250000,168636.6406250000,138560.5468750000,161409.8125000000,129728.3281250000,,,
0.7239999988,5,180340.4687500000,160632.6718750000,191750.1093750000,176317.3906250000,168614.9531250000,138549.5468750000,161387.3906250000,130148.1718750000,,,
0.7279999990,5,180364.7656250000,160656.0468750000,191768.6562500000,176360.2500000000,168630.8750000000,138567.2343750000,161396.4218750000,130612.8125000000,,,
0.7319999989,5,180396.6562500000,160678.6875000000,191803.3750000000,176393.1875000000,168662.8281250000,138589.3281250000,161424.3750000000,130496.5703125000,33029,0.7335108002,0.0000000000
0.7359999989,5,180415.5937500000,160694.6562500000,191831.3281250000,176398.1875000000,168689.8593750000,138607.5468750000,161447.9843750000,129947.4375000000,,,
0.7399999988,5,180399.6562500000,160686.2031250000,191815.0937500000,176381.7656250000,168676.0000000000,138594.9375000000,161426.6562500000,129709.4218750000,,,
0.7439999988,5,180374.5312500000,160669.8125000000,191781.7500000000,176362.5312500000,168645.6250000000,138574.0625000000,161393.9062500000,130137.8203125000,,,
0.7479999987,5,180390.2187500000,160678.4531250000,191794.9687500000,176399.3281250000,168657.0781250000,138574.5781250000,161410.1562500000,130594.5781250000,,,
0.7519999989,5,180408.7812500000,160685.2343750000,191820.1562500000,176424.1718750000,168681.3593750000,138587.1562500000,161442.8593750000,130494.1015625000,,,
0.7559999989,5,180387.1093750000,160668.0156250000,191801.5468750000,176365.1718750000,168669.1875000000,138581.0468750000,161434.6250000000,130011.1953125000,,,
0.7599999988,5,180351.9218750000,160641.4843750000,191768.3437500000,176312.3593750000,168639.0625000000,138557.7812500000,161405.1093750000,129794.5546875000,,,
0.7639999988,5,180329.7968750000,160625.6875000000,191740.8437500000,176295.1093750000,168611.7812500000,138537.6718750000,161378.1250000000,130211.4218750000,,,
0.7679999988,6,180344.7343750000,160640.2343750000,191752.8125000000,176315.3281250000,168621.9531250000,138545.7968750000,161382.3906250000,130704.0625000000,,,
0.7719999987,6,180393.6250000000,160676.7812500000,191812.6562500000,176357.7656250000,168678.8593750000,138582.0000000000,161436.6875000000,130585.3515625000,,,
0.7759999987,6,180395.7812500000,160673.1093750000,191818.2812500000,176394.4062500000,168686.7968750000,138589.7812500000,161446.2812500000,130000.5703125000,,,
0.7799999986,6,180380.7031250000,160665.2031250000,191803.0781250000,176388.4687500000,168672.1093750000,138587.0000000000,161434.5312500000,129709.9531250000,,,
0.7839999986,6,180358.6718750000,160652.5625000000,191771.1093750000,176365.2187500000,168640.3750000000,138565.0781250000,161405.0625000000,130136.5859375000,,,
0.7879999985,6,180361.5156250000,160655.5156250000,191770.9218750000,176361.6250000000,168638.7187500000,138562.3750000000,161405.1406250000,130645.1093750000,,,
0.7919999987,6,180403.7656250000,160686.8437500000,191820.0781250000,176404.7343750000,168686.2343750000,138596.0312500000,161453.0781250000,130508.6406250000,,,
0.7959999987,6,180403.3593750000,160681.8906250000,191825.6562500000,176389.2187500000,168694.3750000000,138602.9843750000,161462.8125000000,129941.9921875000,,,
0.7999999986,6,180371.9062500000,160657.8437500000,191791.4062500000,176347.5625000000,168661.9062500000,138582.2187500000,161432.3437500000,129683.1093750000,,,
0.8039999986,6,180365.5156250000,160663.0000000000,191774.5937500000,176354.4375000000,168643.1875000000,138576.1562500000,161412.7343750000,130065.6406250000,,,
0.8079999986,6,180374.1250000000,160668.5000000000,191779.1250000000,176378.3593750000,168644.5312500000,138577.0781250000,161413.2968750000,130541.3906250000,,,
0.8119999988,6,180399.5312500000,160680.9375000000,191810.6875000000,176397.1093750000,168673.6406250000,138592.6250000000,161440.2031250000,130434.1250000000,,,
0.8159999987,6,180395.7968750000,160672.4687500000,191815.4687500000,176380.3125000000,168679.1875000000,138590.3750000000,161442.5312500000,129903.0468750000,,,
0.8199999987,6,180383.3593750000,160666.4687500000,191806.3281250000,176374.0468750000,168670.8125000000,138581.1718750000,161431.1562500000,129649.2812500000,,,
0.8239999986,6,180367.4531250000,160660.3750000000,191783.6875000000,176373.6093750000,168646.8906250000,138567.3281250000,161409.5937500000,130030.6406250000,,,
0.8279999986,6,180367.4531250000,160660.6718750000,191777.6562500000,176373.0000000000,168639.3593750000,138558.8593750000,161407.7968750000,130526.9296875000,,,
0.8319999985,6,180394.1718750000,160679.1718750000,191810.1875000000,176396.5000000000,168671.4687500000,138581.4218750000,161444.6250000000,130457.9140625000,,,
0.8359999987,6,180392.0156250000,160673.4062500000,191812.4375000000,176387.8281250000,168675.9062500000,138589.9531250000,161449.7812500000,129927.5390625000,,,
0.8399999987,6,180362.7031250000,160650.8750000000,191784.4843750000,176338.9843750000,168648.0937500000,138570.4218750000,161427.4843750000,129667.9765625000,,,
0.8439999986,6,180344.7656250000,160641.0937500000,191760.3437500000,176323.5312500000,168623.7500000000,138555.3437500000,161408.3281250000,130048.5312500000,,,
0.8479999986,6,180365.0312500000,160659.9687500000,191774.5625000000,176363.7968750000,168638.5781250000,138569.6718750000,161422.6093750000,130523.0390625000,,,
0.8519999986,6,180392.6875000000,160678.7968750000,191804.3593750000,176402.4531250000,168667.8125000000,138591.8437500000,161446.3750000000,130416.4765625000,,,
0.8559999987,6,180402.1875000000,160685.2343750000,191821.2812500000,176407.2500000000,168683.8281250000,138602.8750000000,161462.2656250000,129866.4921875000,,,
0.8599999987,6,180388.2031250000,160678.4843750000,191810.4062500000,176387.8281250000,168673.7968750000,138597.1093750000,161452.2187500000,129578.3125000000,,,
0.8639999987,6,180355.9375000000,160659.5468750000,191768.5312500000,176358.1562500000,168634.8750000000,138572.7812500000,161410.6093750000,129977.6640625000,,,
0.8679999986,6,180368.0468750000,160663.4375000000,191777.1093750000,176378.5000000000,168642.0625000000,138571.6875000000,161413.1562500000,130491.8750000000,,,
0.8719999986,6,180389.3125000000,160670.5625000000,191799.8906250000,176411.2968750000,168665.0312500000,138584.2812500000,161436.8125000000,130419.7500000000,,,
0.8759999985,6,180382.0468750000,160661.9062500000,191799.6093750000,176380.3125000000,168665.1250000000,138580.5000000000,161439.0468750000,129898.6250000000,,,
0.8799999987,6,180378.0156250000,160662.2812500000,191796.2343750000,176378.8125000000,168660.8906250000,138580.5625000000,161434.1875000000,129606.6093750000,,,
0.8839999987,6,180360.6875000000,160652.5937500000,191769.5156250000,176378.3593750000,168633.2968750000,138561.3593750000,161403.7500000000,129988.7734375000,,,
0.8879999986,6,180374.7656250000,160668.7968750000,191777.1718750000,176390.1406250000,168638.5312500000,138573.4531250000,161407.2812500000,130513.9218750000,,,
0.8919999986,6,180404.9218750000,160693.0625000000,191810.0312500000,176411.7500000000,168668.8906250000,138595.2343750000,161443.2031250000,130476.7734375000,,,
0.8959999986,7,180404.7031250000,160684.4843750000,191822.6875000000,176382.7031250000,168680.1562500000,138592.5781250000,161458.1718750000,129994.5937500000,,,
0.8999999985,7,180373.5156250000,160654.2500000000,191794.7656250000,176355.4218750000,168653.8437500000,138568.0000000000,161433.5468750000,129752.2265625000,,,
0.9039999985,7,180328.0468750000,160619.7031250000,191739.3281250000,176319.8906250000,168601.0000000000,138533.4062500000,161380.4375000000,130179.2109375000,,,
0.9079999984,7,180333.9687500000,160626.4218750000,191741.3906250000,176339.1250000000,168601.1406250000,138535.8437500000,161377.3593750000,130728.3671875000,,,
0.9119999984,7,180381.4218750000,160666.5156250000,191792.0468750000,176382.4375000000,168650.7031250000,138574.6250000000,161430.5156250000,130645.4062500000,,,
0.9159999983,7,180404.7031250000,160685.8593750000,191819.2187500000,176396.7031250000,168678.8906250000,138592.6093750000,161462.0781250000,130068.1406250000,,,
0.9199999985,7,180363.4531250000,160647.6875000000,191780.5937500000,176356.1562500000,168642.5468750000,138558.4531250000,161428.6093750000,129779.0234375000,,,
0.9239999985,7,180336.0468750000,160631.2500000000,191745.4375000000,176333.5156250000,168609.3906250000,138537.9375000000,161393.9375000000,130190.6328125000,,,
0.9279999984,7,180349.7187500000,160645.7343750000,191756.0000000000,176346.3125000000,168618.8437500000,138546.8437500000,161400.2812500000,130702.2109375000,,,
0.9319999984,7,180381.9062500000,160671.3906250000,191792.9687500000,176376.5312500000,168653.4375000000,138572.7500000000,161432.3437500000,130652.4062500000,,,
0.9359999984,7,180392.5312500000,160678.1562500000,191810.3750000000,176384.5781250000,168670.6875000000,138586.9375000000,161450.3593750000,130139.8359375000,,,
0.9399999985,7,180369.0000000000,160655.5781250000,191785.7812500000,176370.3437500000,168648.0937500000,138569.3437500000,161428.8281250000,129861.7656250000,,,
0.9439999985,7,180341.1875000000,160637.5000000000,191747.1562500000,176357.2187500000,168609.6562500000,138545.8281250000,161387.7656250000,130252.7031250000,,,
0.9479999985,7,180351.0312500000,160647.1250000000,191752.7343750000,176360.6250000000,168613.5000000000,138548.6093750000,161389.7968750000,130783.3515625000,,,
0.9519999984,7,180382.1562500000,160669.8125000000,191788.1875000000,176374.3593750000,168648.0781250000,138571.3281250000,161421.0937500000,130749.2031250000,,,
0.9559999984,7,180391.6406250000,160672.8125000000,191805.7343750000,176382.4843750000,168665.7968750000,138578.2500000000,161431.1250000000,130234.4375000000,,,
0.9599999983,7,180365.9218750000,160649.2343750000,191780.2500000000,176372.2656250000,168641.0937500000,138556.5781250000,161400.5625000000,129915.7890625000,,,
0.9639999985,7,180339.7968750000,160630.2500000000,191745.6718750000,176348.7031250000,168604.7500000000,138527.5625000000,161368.0156250000,130308.0625000000,,,
0.9679999985,7,180347.1406250000,160635.9062500000,191747.5781250000,176351.3750000000,168604.8906250000,138533.4062500000,161377.5937500000,130855.3125000000,,,
0.9719999984,7,180369.5625000000,160645.6718750000,191772.3906250000,176366.3437500000,168629.3750000000,138550.7031250000,161409.3281250000,130826.5859375000,,,
0.9759999984,7,180385.2812500000,160653.1875000000,191794.0625000000,176382.1093750000,168651.0000000000,138561.3750000000,161433.7031250000,130306.8046875000,,,
0.9799999984,7,180383.6250000000,160658.0468750000,191794.9687500000,176363.0156250000,168652.1718750000,138563.4218750000,161434.9687500000,129956.0781250000,,,
0.9839999985,7,180343.3593750000,160624.5937500000,191750.9062500000,176323.6093750000,168610.0156250000,138527.2031250000,161390.8437500000,130301.4921875000,,,
0.9879999985,7,180347.1250000000,160625.7968750000,191749.7031250000,176342.3906250000,168608.4843750000,138523.9375000000,161386.2812500000,130843.0859375000,,,
0.9919999985,7,180380.2656250000,160654.1718750000,191785.2187500000,176368.8437500000,168644.1250000000,138549.9843750000,161416.7031250000,130854.1093750000,,,
0.9959999984,7,180408.5625000000,160671.8593750000,191826.4062500000,176397.8593750000,168683.4531250000,138572.2500000000,161455.0312500000,130303.9296875000,,,
0.9999999984,7,180392.7968750000,160665.9531250000,191809.0000000000,176367.7968750000,168668.6250000000,138571.7031250000,161445.6093750000,129958.4062500000,,,
1.0039999983,7,180367.6093750000,160653.2343750000,191772.8750000000,176354.4062500000,168634.5312500000,138557.6562500000,161411.0156250000,130261.1250000000,,,
1.0079999985,7,180377.9843750000,160666.2500000000,191777.5156250000,176369.5156250000,168636.4375000000,138564.3906250000,161410.7500000000,130757.3359375000,,,
1.0119999985,7,180400.1406250000,160676.0937500000,191805.5781250000,176388.5000000000,168661.5156250000,138577.4531250000,161438.1093750000,130741.5859375000,,,
1.0159999984,7,180401.5156250000,160671.9843750000,191813.0468750000,176393.2812500000,168669.3125000000,138581.0156250000,161451.9218750000,130227.0625000000,,,
1.0199999984,7,180378.5468750000,160658.6562500000,191790.3906250000,176355.7812500000,168649.8437500000,138571.5937500000,161431.4843750000,129923.2421875000,,,
1.0239999983,8,180362.5937500000,160652.1718750000,191771.0468750000,176336.2031250000,168631.9218750000,138559.1562500000,161406.6406250000,130273.7812500000,,,
1.0279999983,8,180352.2656250000,160639.9062500000,191757.0781250000,176332.2812500000,168615.8281250000,138539.7656250000,161388.8281250000,130822.9687500000,,,
1.0319999983,8,180384.2968750000,160664.5781250000,191788.9687500000,176380.2343750000,168646.5781250000,138564.4375000000,161418.2812500000,130802.9296875000,,,
1.0359999982,8,180394.7031250000,160668.5000000000,191809.8593750000,176394.4531250000,168665.4062500000,138577.9062500000,161447.1406250000,130261.2578125000,,,
1.0399999982,8,180386.8437500000,160667.6406250000,191805.8437500000,176380.2343750000,168660.7656250000,138585.2812500000,161451.9531250000,129903.3671875000,,,
1.0439999981,8,180354.9531250000,160648.6718750000,191765.3125000000,176339.9531250000,168619.4062500000,138563.2343750000,161414.0937500000,130248.7343750000,,,
1.0479999983,8,180356.6875000000,160647.0156250000,191758.4218750000,176377.0156250000,168612.4218750000,138561.4375000000,161402.6406250000,130783.6171875000,,,
1.0519999983,8,180386.8750000000,160663.2968750000,191793.9062500000,176417.6875000000,168648.5781250000,138582.8906250000,161436.8437500000,130750.2500000000,,,
1.0559999982,8,180407.9218750000,160680.2812500000,191824.7187500000,176398.9062500000,168680.0937500000,138600.5156250000,161465.5781250000,130190.7656250000,,,
1.0599999982,8,180399.6093750000,160676.6875000000,191822.0625000000,176377.1875000000,168675.6406250000,138594.7968750000,161458.3593750000,129818.6406250000,,,
1.0639999982,8,180374.1093750000,160661.2812500000,191786.5312500000,176375.1406250000,168641.4531250000,138572.3437500000,161423.5937500000,130140.5859375000,,,
1.0679999983,8,180381.7500000000,160666.3281250000,191787.9218750000,176394.3437500000,168642.2187500000,138566.8750000000,161417.6093750000,130630.7343750000,,,
1.0719999983,8,180396.4687500000,160671.2031250000,191806.7500000000,176415.1875000000,168661.6406250000,138573.7500000000,161435.2343750000,130587.3906250000,,,
1.0759999983,8,180385.8750000000,160658.1718750000,191801.0156250000,176396.3593750000,168656.5468750000,138565.7031250000,161438.1093750000,130083.2421875000,,,
1.0799999982,8,180363.8593750000,160643.1250000000,191779.9843750000,176353.8750000000,168637.1250000000,138551.1093750000,161421.3437500000,129782.6171875000,,,
1.0839999982,8,180338.8593750000,160627.1718750000,191747.2343750000,176338.4843750000,168605.1093750000,138529.7656250000,161387.5468750000,130168.3203125000,,,
1.0879999981,8,180343.9062500000,160633.9218750000,191746.6718750000,176349.4687500000,168603.9531250000,138533.0625000000,161386.3437500000,130731.6093750000,,,
1.0919999983,8,180379.5468750000,160658.9531250000,191784.2500000000,176386.4843750000,168640.2343750000,138559.2343750000,161420.7500000000,130735.4687500000,,,
1.0959999983,8,180401.8437500000,160679.4218750000,191811.6406250000,176406.8125000000,168667.2812500000,138578.7656250000,161438.8906250000,130214.2656250000,,,
1.0999999982,8,180390.2968750000,160670.7500000000,191805.9531250000,176377.8281250000,168662.1250000000,138576.3281250000,161435.9375000000,129870.8906250000,,,
1.1039999982,8,180358.7812500000,160650.2031250000,191765.3437500000,176355.2187500000,168622.8125000000,138557.6562500000,161404.1250000000,130223.6796875000,,,
1.1079999981,8,180350.4218750000,160642.6718750000,191747.2343750000,176364.5468750000,168605.4062500000,138549.4687500000,161390.1250000000,130804.1640625000,,,
1.1119999983,8,180379.5156250000,160659.5468750000,191780.9531250000,176395.7968750000,168635.8906250000,138569.9687500000,161424.9687500000,130810.3593750000,,,
1.1159999983,8,180395.1250000000,160668.9062500000,191805.6718750000,176401.7812500000,168657.7031250000,138580.7500000000,161452.3281250000,130277.1640625000,,,
1.1199999982,8,180380.6406250000,160661.6406250000,191793.8437500000,176384.7500000000,168644.1562500000,138570.1250000000,161441.1562500000,129916.9140625000,,,
1.1239999982,8,180368.7343750000,160657.3437500000,191775.7187500000,176384.1875000000,168625.0937500000,138560.8125000000,161418.3437500000,130236.2578125000,,,
1.1279999982,8,180349.3125000000,160636.2812500000,191752.7031250000,176366.1093750000,168602.2343750000,138538.6093750000,161390.4375000000,130819.0234375000,,,
1.1319999981,8,180372.2500000000,160648.6718750000,191781.0000000000,176391.7187500000,168629.5312500000,138554.2500000000,161418.8281250000,130872.8515625000,,,
1.1359999983,8,180396.6250000000,160667.4843750000,191814.2343750000,176396.7343750000,168662.0781250000,138578.3906250000,161455.9687500000,130384.7500000000,,,
1.1399999983,8,180389.3437500000,160662.2812500000,191812.2812500000,176375.5468750000,168660.0625000000,138574.3437500000,161450.1718750000,130041.5546875000,,,
1.1439999982,8,180361.8125000000,160642.2343750000,191775.9531250000,176366.2031250000,168627.6875000000,138555.5312500000,161414.9062500000,130379.9218750000,,,
1.1479999982,8,180367.9531250000,160649.9375000000,191774.2968750000,176382.2031250000,168626.7187500000,138561.0625000000,161416.0781250000,130902.7890625000,,,
1.1519999981,9,180383.4843750000,160657.3906250000,191791.5468750000,176410.3281250000,168642.6250000000,138563.7968750000,161433.2187500000,130902.4921875000,,,
1.1559999981,9,180397.5937500000,160667.9062500000,191813.6406250000,176402.7656250000,168663.5156250000,138579.4531250000,161458.4687500000,130393.0312500000,,,
1.1599999981,9,180387.3750000000,160666.9218750000,191806.9375000000,176380.0312500000,168657.2656250000,138583.4531250000,161461.3125000000,130005.3203125000,,,
1.1639999980,9,180349.8750000000,160638.2187500000,191761.7500000000,176361.8125000000,168614.2812500000,138550.4687500000,161419.9531250000,130320.2421875000,,,
1.1679999980,9,180341.8906250000,160630.2812500000,191747.7968750000,176355.4218750000,168600.0937500000,138536.8593750000,161405.4375000000,130899.2500000000,,,
1.1719999979,9,180381.9843750000,160661.5468750000,191789.9375000000,176391.6406250000,168640.7187500000,138569.7187500000,161446.2031250000,130905.3359375000,,,
1.1759999981,9,180402.2968750000,160675.6875000000,191815.8437500000,176412.2343750000,168667.4843750000,138591.5312500000,161472.8906250000,130355.6953125000,,,
1.1799999981,9,180399.5312500000,160681.8281250000,191815.4687500000,176402.8750000000,168667.9687500000,138600.7031250000,161472.5781250000,129946.0703125000,,,
1.1839999980,9,180363.1093750000,160657.0781250000,191772.3125000000,176354.6250000000,168626.5312500000,138573.5625000000,161426.2187500000,130279.0937500000,,,
1.1879999980,9,180356.4218750000,160650.5000000000,191760.0000000000,176350.6562500000,168614.2968750000,138561.2812500000,161413.5625000000,130848.1250000000,,,
1.1919999979,9,180381.9062500000,160665.0625000000,191790.5468750000,176375.7343750000,168642.9531250000,138576.7812500000,161446.8281250000,130901.7421875000,,,
1.1959999981,9,180401.6718750000,160679.0468750000,191816.9375000000,176387.9843750000,168671.0312500000,138591.9375000000,161476.0000000000,130376.9140625000,,,
1.1999999981,9,180402.6718750000,160680.2812500000,191819.2031250000,176401.7812500000,168674.1093750000,138594.3125000000,161477.4531250000,129958.0859375000,,,
1.2039999980,9,180370.5312500000,160658.9531250000,191776.0937500000,176382.5781250000,168633.0312500000,138566.6093750000,161438.1562500000,130273.8125000000,,,
1.2079999980,9,180371.6875000000,160661.2343750000,191771.1875000000,176389.0625000000,168626.9375000000,138564.8750000000,161431.7968750000,130832.4609375000,,,
1.2119999980,9,180391.2656250000,160672.3281250000,191795.0781250000,176399.4687500000,168647.6093750000,138575.7031250000,161452.0468750000,130856.7109375000,,,
1.2159999979,9,180406.4531250000,160679.8750000000,191820.8593750000,176406.5781250000,168670.6875000000,138590.6406250000,161477.5625000000,130351.1953125000,,,
1.2199999981,9,180386.8750000000,160663.7812500000,191806.4531250000,176385.6250000000,168657.7500000000,138587.7812500000,161466.3437500000,129979.1718750000,,,
1.2239999981,9,180364.6562500000,160651.7656250000,191778.5312500000,176356.9375000000,168630.6093750000,138574.7656250000,161436.3281250000,130283.4140625000,,,
1.2279999980,9,180362.9687500000,160653.0156250000,191770.3593750000,176362.4843750000,168620.5312500000,138566.3750000000,161424.0781250000,130836.4609375000,,,
1.2319999980,9,180383.1093750000,160665.0625000000,191794.2812500000,176392.4687500000,168642.5468750000,138576.0468750000,161450.4687500000,130892.5703125000,,,
1.2359999979,9,180414.8125000000,160686.0937500000,191837.4062500000,176431.0156250000,168685.0625000000,138598.5781250000,161498.9687500000,130370.8281250000,,,
1.2399999981,9,180417.9062500000,160691.8906250000,191842.5000000000,176418.9218750000,168691.8437500000,138601.5312500000,161504.9531250000,129942.2890625000,,,
1.2439999981,9,180380.6406250000,160667.6406250000,191798.0937500000,176375.0312500000,168649.3906250000,138570.7656250000,161460.8437500000,130229.3906250000,,,
1.2479999980,9,180360.1875000000,160651.3125000000,191771.5312500000,176346.9062500000,168622.8281250000,138551.4531250000,161428.7500000000,130795.0156250000,,,
1.2519999980,9,180386.7812500000,160669.6562500000,191798.7031250000,176385.8750000000,168649.5156250000,138570.4531250000,161446.0156250000,130846.4375000000,,,
1.2559999980,9,180410.4687500000,160685.0156250000,191830.8437500000,176401.0781250000,168683.4218750000,138593.7343750000,161483.0000000000,130317.9843750000,,,
1.2599999979,9,180401.8437500000,160681.3281250000,191826.6250000000,176380.0000000000,168680.9531250000,138596.0156250000,161490.7812500000,129918.3671875000,,,
1.2639999981,9,180376.9218750000,160669.0156250000,191794.2812500000,176363.2812500000,168650.0000000000,138576.5156250000,161462.7500000000,130208.3906250000,,,
1.2679999981,9,180373.2968750000,160668.6562500000,191780.0312500000,176379.6562500000,168636.7343750000,138564.6875000000,161446.8437500000,130780.7187500000,,,
1.2719999980,9,180402.9375000000,160689.4531250000,191810.4218750000,176401.7968750000,168667.6718750000,138587.2187500000,161480.6250000000,130834.3359375000,,,
1.2759999980,9,180412.8281250000,160695.2343750000,191826.9218750000,176396.8437500000,168684.6250000000,138602.6875000000,161499.6562500000,130329.8984375000,,,
1.2799999979,10,180386.5781250000,160672.0625000000,191805.1406250000,176372.7812500000,168662.3125000000,138582.9531250000,161473.4375000000,129973.1093750000,,,
1.2839999979,10,180368.2031250000,160660.4843750000,191781.1562500000,176379.8125000000,168637.7500000000,138565.9218750000,161447.6250000000,130280.3828125000,,,
1.2879999978,10,180375.9843750000,160668.2656250000,191780.7812500000,176377.3437500000,168636.4062500000,138566.5312500000,161448.1093750000,130804.6171875000,,,
1.2919999978,10,180394.0000000000,160681.7031250000,191802.1093750000,176393.5937500000,168654.0468750000,138583.4218750000,161469.4375000000,130829.4843750000,,,
1.2959999978,10,180411.8125000000,160695.9375000000,191829.0156250000,176408.2343750000,168677.2812500000,138604.4843750000,161493.3281250000,130324.9062500000,,,
1.2999999977,10,180386.9843750000,160671.9531250000,191807.9531250000,176375.2812500000,168659.5000000000,138593.2656250000,161479.1406250000,129909.8359375000,,,
1.3039999979,10,180337.6562500000,160631.8906250000,191755.3281250000,176325.5156250000,168607.6718750000,138555.2187500000,161425.9843750000,130210.0234375000,,,
1.3079999979,10,180326.2500000000,160622.0468750000,191736.6406250000,176323.2187500000,168587.7031250000,138540.5625000000,161406.7968750000,130814.4609375000,,,
1.3119999978,10,180368.8750000000,160653.2343750000,191785.0468750000,176379.0312500000,168633.3437500000,138569.4531250000,161457.6875000000,130865.7734375000,,,
1.3159999978,10,180403.8281250000,160678.6718750000,191828.3750000000,176423.9531250000,168675.8593750000,138598.1562500000,161502.2031250000,130314.6093750000,,,
1.3199999977,10,180391.1875000000,160668.6093750000,191817.3125000000,176405.6406250000,168666.9218750000,138586.5468750000,161493.0312500000,129898.0078125000,,,
1.3239999979,10,180380.5468750000,160665.9218750000,191801.1406250000,176390.1562500000,168651.4062500000,138575.4375000000,161475.8125000000,130158.6093750000,,,
1.3279999979,10,180378.9843750000,160669.6250000000,191790.6093750000,176390.6250000000,168639.7343750000,138567.2500000000,161458.5156250000,130714.5000000000,,,
1.3319999978,10,180396.0156250000,160680.1406250000,191807.7187500000,176394.2343750000,168655.1562500000,138574.5781250000,161476.7343750000,130779.4843750000,,,
1.3359999978,10,180414.4218750000,160690.5000000000,191832.6093750000,176408.5937500000,168679.7031250000,138585.8906250000,161506.2656250000,130258.3593750000,,,
1.3399999978,10,180418.7031250000,160701.0156250000,191842.4531250000,176403.2500000000,168689.9375000000,138593.7500000000,161517.8437500000,129804.3671875000,,,
1.3439999977,10,180391.0000000000,160682.4218750000,191808.3906250000,176389.6562500000,168656.6875000000,138568.1093750000,161481.3750000000,130059.7421875000,,,
1.3479999979,10,180390.0000000000,160679.3593750000,191800.5312500000,176420.5468750000,168647.6093750000,138555.4531250000,161468.9531250000,130624.5625000000,,,
1.3519999979,10,180415.7343750000,160699.4843750000,191829.2812500000,176412.4218750000,168674.0937500000,138580.5312500000,161503.2500000000,130722.7343750000,,,
1.3559999978,10,180426.6250000000,160702.8906250000,191851.4062500000,176420.4218750000,168695.5937500000,138594.7187500000,161530.4062500000,130225.7734375000,,,
1.3599999978,10,180425.2812500000,160704.1250000000,191851.2968750000,176429.7812500000,168696.4531250000,138594.7968750000,161527.1875000000,129799.7031250000,,,
1.3639999977,10,180394.1093750000,160682.5468750000,191810.1250000000,176396.8437500000,168660.3593750000,138569.5937500000,161483.0625000000,130065.0781250000,,,
1.3679999979,10,180395.7500000000,160686.3437500000,191803.8593750000,176396.9218750000,168654.1406250000,138570.1718750000,161480.7031250000,130606.4062500000,,,
1.3719999979,10,180426.5937500000,160702.9375000000,191837.6718750000,176442.7812500000,168685.0625000000,138591.6875000000,161514.6250000000,130642.8515625000,,,
1.3759999978,10,180424.7343750000,160693.8437500000,191842.5781250000,176434.6875000000,168689.5468750000,138592.4687500000,161523.7968750000,130163.2734375000,,,
1.3799999978,10,180406.4531250000,160680.0000000000,191829.0156250000,176405.6718750000,168676.3125000000,138585.1250000000,161512.8906250000,129769.0156250000,,,
1.3839999977,10,180377.6093750000,160661.9062500000,191793.8281250000,176379.1406250000,168641.3437500000,138561.5156250000,161477.3125000000,130046.2812500000,,,
1.3879999977,10,180376.1718750000,160663.3750000000,191787.8906250000,176362.0781250000,168633.6093750000,138557.7656250000,161468.6093750000,130615.5234375000,,,
1.3919999979,10,180413.1875000000,160688.7500000000,191829.0625000000,176398.6093750000,168671.3750000000,138584.9062500000,161498.4843750000,130694.3515625000,,,
1.3959999979,10,180425.5781250000,160692.4218750000,191848.5156250000,176433.0781250000,168690.0156250000,138595.5000000000,161508.8593750000,130223.5468750000,,,
1.3999999978,10,180415.5468750000,160687.6250000000,191841.9375000000,176405.6718750000,168684.9218750000,138599.0468750000,161504.2187500000,129799.0625000000,,,
1.4039999978,10,180368.4218750000,160653.5000000000,191788.5625000000,176351.5937500000,168634.1250000000,138562.5937500000,161462.7500000000,130051.1562500000,,,
1.4079999977,11,180367.2031250000,160653.3750000000,191780.8906250000,176373.2343750000,168623.9843750000,138557.3281250000,161457.0156250000,130619.7890625000,,,
1.4119999977,11,180409.0312500000,160688.0000000000,191822.3906250000,176426.0781250000,168662.0937500000,138589.2500000000,161484.4531250000,130677.1328125000,,,
1.4159999976,11,180413.4843750000,160682.9375000000,191835.1875000000,176431.1406250000,168674.2031250000,138590.0000000000,161501.4843750000,130155.9843750000,,,
1.4199999976,11,180399.5625000000,160670.5625000000,191824.6875000000,176423.2812500000,168665.3437500000,138574.9062500000,161501.5468750000,129727.1484375000,,,
1.4239999976,11,180366.4843750000,160649.3281250000,191782.8750000000,176376.0468750000,168626.7968750000,138545.6562500000,161471.5312500000,129996.4453125000,,,
1.4279999975,11,180339.3437500000,160627.1875000000,191748.8906250000,176321.8125000000,168594.6406250000,138527.0156250000,161444.6250000000,130584.4375000000,,,
1.4319999977,11,180355.0625000000,160638.0000000000,191766.6562500000,176348.2343750000,168612.5625000000,138541.3437500000,161461.2031250000,130739.7656250000,,,
1.4359999977,11,180373.5156250000,160650.9531250000,191794.8906250000,176363.6562500000,168641.9375000000,138557.5937500000,161488.3437500000,130262.7890625000,,,
1.4399999976,11,180362.3750000000,160640.2343750000,191787.5156250000,176353.0156250000,168637.5781250000,138549.0937500000,161477.5312500000,129836.2109375000,,,
1.4439999976,11,180348.9375000000,160635.7968750000,191767.2187500000,176341.7500000000,168617.4375000000,138539.1250000000,161453.2812500000,130083.2890625000,,,
1.4479999975,11,180342.0468750000,160631.1875000000,191751.9062500000,176345.9062500000,168600.2812500000,138529.3281250000,161430.7343750000,130656.3437500000,,,
1.4519999977,11,180370.0781250000,160645.5937500000,191782.8281250000,176385.9843750000,168624.6250000000,138540.1093750000,161460.2031250000,130761.8125000000,,,
1.4559999977,11,180399.6406250000,160665.1718750000,191820.8125000000,176415.5937500000,168658.8281250000,138558.4062500000,161482.5312500000,130287.2734375000,,,
1.4599999976,11,180395.3125000000,160663.0781250000,191818.8281250000,176400.1406250000,168662.3750000000,138558.1875000000,161451.3906250000,129848.6796875000,,,
1.4639999976,11,180373.8593750000,160651.8906250000,191789.6875000000,176382.2968750000,168634.8281250000,138541.1562500000,161436.0937500000,130087.6640625000,,,
1.4679999975,11,180365.9687500000,160648.8437500000,191773.1718750000,176355.7812500000,168618.2968750000,138534.0468750000,161452.1562500000,130659.8593750000,,,
1.4719999975,11,180380.8281250000,160657.1250000000,191789.7187500000,176362.6406250000,168633.7968750000,138548.3125000000,161483.9687500000,130768.1171875000,,,
1.4759999977,11,180400.8906250000,160672.7343750000,191817.2968750000,176387.9843750000,168659.6406250000,138567.0625000000,161510.9531250000,130305.4609375000,,,
1.4799999977,11,180398.4531250000,160676.8906250000,191816.0312500000,176404.7031250000,168656.7343750000,138573.5000000000,161492.8750000000,129885.1328125000,,,
1.4839999976,11,180379.0937500000,160669.1406250000,191796.0000000000,176361.4375000000,168638.9062500000,138567.7968750000,161433.2812500000,130109.2578125000,,,
1.4879999976,11,180373.8906250000,160662.2812500000,191789.2656250000,176344.2187500000,168636.1093750000,138562.9375000000,161421.6718750000,130640.3046875000,,,
1.4919999975,11,180387.7343750000,160667.4531250000,191804.6093750000,176374.2031250000,168649.7656250000,138576.5156250000,161458.4687500000,130731.9062500000,,,
1.4959999977,11,180402.7500000000,160675.8437500000,191820.3750000000,176403.3593750000,168663.1250000000,138590.5156250000,161533.1875000000,130228.0546875000,,,
1.4999999977,11,180402.4062500000,160681.3437500000,191818.8437500000,176408.4843750000,168661.7031250000,138598.0468750000,161549.5781250000,129760.2187500000,,,
1.5039999976,11,180375.6093750000,160665.8906250000,191786.0468750000,176369.2968750000,168629.1093750000,138579.9687500000,161506.0468750000,129967.5000000000,,,
1.5079999976,11,180356.2187500000,160648.2187500000,191757.4062500000,176349.8281250000,168601.7968750000,138559.6406250000,161468.8906250000,130543.4296875000,,,
1.5119999975,11,180362.1406250000,160647.7187500000,191766.0312500000,176377.5312500000,168609.6093750000,138560.2500000000,161469.4375000000,130701.5937500000,,,
1.5159999975,11,180387.1875000000,160666.0000000000,191802.4843750000,176399.9062500000,168644.8281250000,138582.5156250000,161492.9375000000,130231.2968750000,,,
1.5199999977,11,180383.3281250000,160668.0781250000,191803.1250000000,176376.7031250000,168646.5468750000,138589.0312500000,161496.6093750000,129786.2656250000,,,
1.5239999976,11,180348.8125000000,160644.9843750000,191759.5781250000,176336.6562500000,168606.4375000000,138561.0312500000,161460.2031250000,130022.3281250000,,,
1.5279999976,11,180325.9531250000,160622.5312500000,191728.4375000000,176327.4843750000,168575.6875000000,138533.6718750000,161429.9843750000,130612.6250000000,,,
1.5319999976,11,180349.0156250000,160635.3281250000,191755.3906250000,176356.8281250000,168600.6250000000,138547.2187500000,161453.4687500000,130760.3906250000,,,
1.5359999975,12,180380.5468750000,160659.4062500000,191796.5312500000,176388.6875000000,168640.2343750000,138571.5937500000,161487.4843750000,130300.5000000000,,,
1.5399999975,12,180385.9062500000,160666.0625000000,191806.9062500000,176398.2031250000,168651.6718750000,138575.2812500000,161495.5312500000,129837.3359375000,,,
1.5439999974,12,180363.2343750000,160651.9843750000,191777.0625000000,176384.0000000000,168620.8281250000,138550.9218750000,161454.7343750000,130045.0156250000,,,
1.5479999974,12,180354.0468750000,160645.2656250000,191759.3593750000,176366.7812500000,168602.9843750000,138537.1562500000,161443.6250000000,130616.2500000000,,,
1.5519999973,12,180374.0000000000,160658.0156250000,191781.0000000000,176370.0937500000,168623.3125000000,138549.5468750000,161474.0781250000,130763.3125000000,,,
1.5559999973,12,180391.2656250000,160668.2343750000,191805.8906250000,176384.1250000000,168647.2187500000,138564.8906250000,161487.1562500000,130307.2578125000,,,
1.5599999975,12,180367.4531250000,160646.8750000000,191785.5937500000,176354.3281250000,168626.5937500000,138546.5000000000,161456.5312500000,129894.3828125000,,,
1.5639999975,12,180352.2343750000,160638.4531250000,191763.5937500000,176339.2031250000,168604.5468750000,138535.3906250000,161438.9062500000,130128.3828125000,,,
1.5679999974,12,180352.4062500000,160638.5625000000,191756.7812500000,176340.8125000000,168597.2968750000,138529.1093750000,161425.2812500000,130714.3359375000,,,
1.5719999974,12,180384.1875000000,160659.9687500000,191791.1093750000,176383.1875000000,168631.1406250000,138545.6406250000,161468.9531250000,130862.4765625000,,,
1.5759999973,12,180415.0937500000,160681.8593750000,191827.7500000000,176429.1093750000,168667.0156250000,138574.5000000000,161522.6250000000,130397.7578125000,,,
1.5799999975,12,180411.1718750000,160681.1093750000,191828.1093750000,176426.3750000000,168668.6406250000,138579.1406250000,161522.7343750000,129928.7421875000,,,
1.5839999975,12,180381.8593750000,160661.6093750000,191794.5781250000,176381.0156250000,168636.8125000000,138559.2031250000,161480.2968750000,130115.5312500000,,,
1.5879999974,12,180366.8125000000,160653.1875000000,191772.2343750000,176344.7812500000,168614.3906250000,138544.3437500000,161455.3593750000,130679.2031250000,,,
1.5919999974,12,180378.2031250000,160657.3750000000,191788.3750000000,176370.9062500000,168628.3125000000,138550.6250000000,161471.9218750000,130861.9375000000,,,
1.5959999973,12,180385.9531250000,160658.1718750000,191803.5625000000,176389.5468750000,168644.9687500000,138564.5781250000,161491.2343750000,130401.8046875000,,,
1.5999999973,12,180381.1250000000,160659.4062500000,191800.5781250000,176376.4375000000,168643.9375000000,138575.0937500000,161489.7656250000,129906.8046875000,,,
1.6039999975,12,180352.2343750000,160636.6562500000,191766.8125000000,176347.1875000000,168610.8750000000,138553.8906250000,161466.1562500000,130059.2343750000,,,
1.6079999974,12,180341.0000000000,160627.1093750000,191748.6250000000,176356.8437500000,168592.4218750000,138544.3281250000,161452.0781250000,130603.8593750000,,,
1.6119999974,12,180364.3437500000,160644.5156250000,191772.4218750000,176384.0000000000,168614.5468750000,138560.7656250000,161474.0937500000,130739.0156250000,,,
1.6159999974,12,180380.2656250000,160654.5781250000,191796.5625000000,176393.4687500000,168638.5781250000,138571.9531250000,161495.5312500000,130315.1718750000,,,
1.6199999973,12,180370.3750000000,160649.2968750000,191791.8593750000,176389.0312500000,168636.4375000000,138564.7812500000,161490.8593750000,129898.3281250000,,,
1.6239999975,12,180351.4687500000,160643.0468750000,191767.1875000000,176345.4843750000,168612.8593750000,138551.9687500000,161466.7500000000,130108.0468750000,,,
1.6279999975,12,180341.2500000000,160640.3125000000,191750.1562500000,176311.3906250000,168594.4531250000,138536.8125000000,161437.8593750000,130705.3515625000,,,
1.6319999974,12,180357.6562500000,160644.5000000000,191769.8125000000,176337.5312500000,168612.1562500000,138539.6875000000,161449.5781250000,130896.1093750000,,,
1.6359999974,12,180391.4843750000,160666.6718750000,191809.5156250000,176389.0312500000,168649.7968750000,138564.7812500000,161503.7968750000,130460.6015625000,,,
1.6399999973,12,180387.6406250000,160662.2968750000,191808.8906250000,176387.1875000000,168648.4531250000,138561.0000000000,161517.9843750000,130002.8828125000,,,
1.6439999973,12,180367.3906250000,160653.2968750000,191782.3906250000,176337.1562500000,168621.7343750000,138542.6562500000,161480.9375000000,130203.7812500000,,,
1.6479999975,12,180361.6875000000,160651.2812500000,191767.8906250000,176354.7343750000,168607.5468750000,138537.3281250000,161441.9375000000,130806.8437500000,,,
1.6519999974,12,180381.1562500000,160658.1250000000,191790.2031250000,176388.6875000000,168631.2812500000,138555.0468750000,161451.4375000000,130966.6250000000,,,
1.6559999974,12,180400.9531250000,160669.4062500000,191816.3593750000,176393.7812500000,168657.7343750000,138575.9531250000,161492.2343750000,130509.1718750000,,,
1.6599999974,12,180389.8437500000,160659.8593750000,191806.2343750000,176387.9062500000,168646.8906250000,138569.2968750000,161516.8593750000,130030.4531250000,,,
1.6639999973,13,180371.5312500000,160657.0781250000,191780.4375000000,176352.0781250000,168621.7343750000,138560.8437500000,161498.0781250000,130209.8906250000,,,
1.6679999973,13,180363.5937500000,160658.2500000000,191766.0312500000,176337.3281250000,168608.4531250000,138553.3281250000,161480.0781250000,130801.8046875000,,,
1.6719999972,13,180378.2656250000,160664.6718750000,191788.8125000000,176362.4218750000,168631.0156250000,138558.5937500000,161496.4218750000,130990.7343750000,,,
1.6759999972,13,180382.4218750000,160663.0781250000,191800.3750000000,176382.5156250000,168645.9218750000,138562.4843750000,161509.1875000000,130583.0703125000,,,
1.6799999971,13,180374.2968750000,160660.0468750000,191793.8281250000,176378.6093750000,168640.2343750000,138560.8125000000,161516.2187500000,130111.1875000000,,,
1.6839999971,13,180353.1562500000,160648.2968750000,191767.4843750000,176358.9218750000,168612.1875000000,138547.0625000000,161489.5468750000,130309.3203125000,,,
1.6879999973,13,180347.9531250000,160641.8906250000,191754.6093750000,176358.9687500000,168599.8750000000,138537.9687500000,161461.7031250000,130915.8515625000,,,
1.6919999972,13,180369.0312500000,160653.1093750000,191775.1875000000,176387.6406250000,168620.5468750000,138550.7812500000,161474.5781250000,131091.0000000000,,,
1.6959999972,13,180393.6875000000,160667.2187500000,191806.2656250000,176389.4062500000,168650.4531250000,138572.8125000000,161508.2187500000,130629.3125000000,,,
1.6999999972,13,180389.1250000000,160668.5781250000,191805.8593750000,176382.0625000000,168648.8281250000,138573.7500000000,161500.0156250000,130144.7656250000,,,
1.7039999971,13,180367.5312500000,160660.2968750000,191778.9375000000,176349.6406250000,168622.6406250000,138564.9687500000,161477.7500000000,130316.7265625000,,,
1.7079999973,13,180362.3281250000,160658.4687500000,191763.1718750000,176350.3281250000,168607.6718750000,138558.4531250000,161473.8125000000,130894.6328125000,,,
1.7119999973,13,180375.6093750000,160665.5781250000,191776.6093750000,176386.2187500000,168619.4062500000,138562.4218750000,161483.4843750000,131101.6718750000,,,
1.7159999972,13,180388.7968750000,160669.2500000000,191799.1406250000,176399.9062500000,168643.1718750000,138571.0937500000,161497.2187500000,130684.9140625000,,,
1.7199999972,13,180375.5468750000,160656.9687500000,191790.3125000000,176368.2968750000,168636.2187500000,138566.3906250000,161487.9218750000,130194.5234375000,,,
1.7239999971,13,180351.0937500000,160645.2656250000,191761.3125000000,176341.3125000000,168605.0781250000,138550.7656250000,161472.6562500000,130365.4843750000,,,
1.7279999971,13,180333.2812500000,160630.6562500000,191736.2968750000,176340.8906250000,168576.8125000000,138532.6562500000,161457.8437500000,130963.8125000000,,,
1.7319999973,13,180356.9375000000,160644.5781250000,191761.5781250000,176349.5000000000,168601.4218750000,138553.0156250000,161470.3750000000,131175.4062500000,,,
1.7359999972,13,180383.9687500000,160662.9687500000,191802.1406250000,176363.0937500000,168642.2812500000,138576.7031250000,161480.2656250000,130761.7343750000,,,
1.7399999972,13,180381.1093750000,160665.5000000000,191804.3593750000,176371.0312500000,168646.5156250000,138580.0000000000,161505.7812500000,130278.0234375000,,,
1.7439999972,13,180344.8125000000,160638.2656250000,191760.4062500000,176354.5468750000,168605.4531250000,138552.2656250000,161476.6562500000,130465.0234375000,,,
1.7479999971,13,180334.1562500000,160631.2968750000,191743.3750000000,176344.5156250000,168588.6093750000,138540.2656250000,161452.1875000000,131048.4062500000,,,
1.7519999973,13,180357.7187500000,160652.2968750000,191766.1718750000,176356.5000000000,168609.8750000000,138557.3906250000,161475.2031250000,131250.4531250000,,,
1.7559999973,13,180373.1562500000,160655.6562500000,191790.2343750000,176379.1406250000,168631.9218750000,138566.7968750000,161504.0312500000,130829.0781250000,,,
1.7599999972,13,180363.7187500000,160644.4062500000,191786.7187500000,176355.7812500000,168631.2031250000,138561.6718750000,161499.2812500000,130345.5625000000,,,
1.7639999972,13,180341.0000000000,160629.9062500000,191761.7187500000,176325.3281250000,168609.6562500000,138545.6093750000,161467.5000000000,130507.8359375000,,,
1.7679999971,13,180340.5156250000,160636.1562500000,191751.3906250000,176330.7031250000,168600.9531250000,138543.8906250000,161462.6718750000,131089.6562500000,,,
1.7719999971,13,180367.8281250000,160656.0781250000,191777.2500000000,176378.5000000000,168623.4531250000,138558.5156250000,161489.5781250000,131289.6406250000,,,
1.7759999973,13,180385.8750000000,160660.3437500000,191800.3125000000,176400.8125000000,168643.7500000000,138566.3437500000,161506.0937500000,130849.2500000000,,,
1.7799999972,13,180376.9375000000,160651.8125000000,191797.8750000000,176368.8906250000,168639.5625000000,138559.9375000000,161505.5625000000,130380.1093750000,,,
1.7839999972,13,180354.7343750000,160637.7656250000,191773.8437500000,176340.1406250000,168616.0468750000,138544.5312500000,161473.1562500000,130523.7890625000,,,
1.7879999971,13,180353.6406250000,160640.2812500000,191766.3593750000,176325.0156250000,168606.8437500000,138536.0000000000,161481.0156250000,131100.7656250000,,,
1.7919999971,14,180376.2500000000,160657.5781250000,191783.9843750000,176362.3437500000,168624.0468750000,138556.7968750000,161506.9062500000,131305.6562500000,,,
1.7959999971,14,180400.0937500000,160674.2656250000,191811.8750000000,176406.5000000000,168649.7343750000,138579.3593750000,161529.0000000000,130890.8281250000,,,
1.7999999970,14,180401.6718750000,160674.0781250000,191823.6562500000,176402.9062500000,168659.3593750000,138579.7812500000,161537.3750000000,130394.4531250000,,,
1.8039999970,14,180358.7031250000,160636.6562500000,191779.7968750000,176343.0156250000,168617.6093750000,138544.6718750000,161470.0312500000,130522.4531250000,,,
1.8079999969,14,180335.1875000000,160620.0625000000,191745.9218750000,176325.7656250000,168585.8125000000,138526.4843750000,161424.7812500000,131100.3906250000,,,
1.8119999969,14,180363.9062500000,160644.6250000000,191774.2968750000,176370.3906250000,168612.9062500000,138554.9687500000,161498.8906250000,131302.6718750000,,,
1.8159999971,14,180387.7343750000,160663.1875000000,191807.7968750000,176378.3593750000,168642.5156250000,138578.4687500000,161541.2031250000,130870.1171875000,,,
1.8199999970,14,180372.0312500000,160654.1250000000,191799.2187500000,176349.4218750000,168636.3750000000,138576.7500000000,161524.5781250000,130348.3750000000,,,
1.8239999970,14,180327.8125000000,160622.4218750000,191748.0625000000,176323.2343750000,168590.2656250000,138545.8750000000,161460.5312500000,130467.1718750000,,,
1.8279999970,14,180322.4218750000,160618.4687500000,191736.5000000000,176333.3593750000,168576.3437500000,138538.3437500000,161453.2031250000,131042.4531250000,,,
1.8319999969,14,180349.4531250000,160635.2968750000,191763.6250000000,176370.8750000000,168602.0937500000,138557.8125000000,161494.3593750000,131254.5312500000,,,
1.8359999971,14,180364.4687500000,160640.9843750000,191785.7812500000,176396.6562500000,168624.6875000000,138571.2031250000,161517.9062500000,130827.1484375000,,,
1.8399999971,14,180354.9218750000,160633.9843750000,191784.1093750000,176385.0625000000,168624.1406250000,138567.1250000000,161512.8593750000,130313.5078125000,,,
1.8439999970,14,180328.0000000000,160616.2187500000,191757.0781250000,176363.4687500000,168598.0781250000,138547.0000000000,161482.7343750000,130430.1328125000,,,
1.8479999970,14,180315.0468750000,160606.8593750000,191738.1093750000,176341.6093750000,168580.0781250000,138530.6406250000,161443.8437500000,131028.0781250000,,,
1.8519999969,14,180349.9687500000,160635.9843750000,191768.9375000000,176355.0312500000,168611.9375000000,138552.3906250000,161482.3593750000,131259.3593750000,,,
1.8559999969,14,180380.0781250000,160654.2031250000,191801.9843750000,176384.7656250000,168643.8125000000,138574.3125000000,161537.2343750000,130823.0468750000,,,
1.8599999971,14,180373.7500000000,160646.2656250000,191795.8281250000,176372.8281250000,168638.5000000000,138570.5000000000,161534.7500000000,130304.3593750000,,,
1.8639999970,14,180366.1875000000,160644.5781250000,191786.0468750000,176367.0468750000,168628.5781250000,138562.6406250000,161508.6250000000,130411.9140625000,,,
1.8679999970,14,180348.0625000000,160633.6093750000,191756.7343750000,176357.3125000000,168600.2187500000,138542.2500000000,161479.0312500000,130993.5781250000,,,
1.8719999969,14,180370.8906250000,160649.4218750000,191777.8593750000,176373.1250000000,168618.3750000000,138562.1093750000,161499.9531250000,131219.1250000000,,,
1.8759999969,14,180398.9375000000,160665.9843750000,191814.1250000000,176402.0468750000,168649.7031250000,138581.1562500000,161533.0000000000,130774.8437500000,,,
1.8799999971,14,180369.0000000000,160637.3593750000,191790.6093750000,176361.1406250000,168626.7968750000,138559.2968750000,161517.4687500000,130252.5703125000,,,
1.8839999971,14,180341.0625000000,160621.1093750000,191759.8125000000,176336.9531250000,168595.8750000000,138538.8281250000,161489.6875000000,130362.8359375000,,,
1.8879999970,14,180337.6562500000,160619.9531250000,191749.9375000000,176347.8437500000,168584.9375000000,138526.4375000000,161476.1406250000,130932.2890625000,,,
1.8919999970,14,180360.9531250000,160635.1875000000,191775.4218750000,176371.8125000000,168608.3750000000,138539.7343750000,161496.6250000000,131172.3437500000,,,
1.8959999969,14,180384.7187500000,160650.7500000000,191808.4218750000,176386.1875000000,168639.7031250000,138558.9375000000,161526.5312500000,130768.1171875000,,,
1.8999999969,14,180392.2031250000,160660.1250000000,191819.7031250000,176375.2500000000,168653.7812500000,138573.8281250000,161537.0781250000,130240.1484375000,,,
1.9039999971,14,180372.0312500000,160652.5156250000,191792.1562500000,176362.0468750000,168628.6250000000,138563.6093750000,161511.6718750000,130313.3437500000,,,
1.9079999970,14,180353.6093750000,160642.6093750000,191767.0781250000,176360.0625000000,168602.7968750000,138549.2812500000,161487.5468750000,130889.0312500000,,,
1.9119999970,14,180366.8125000000,160651.0937500000,191780.8750000000,176390.9062500000,168616.7656250000,138560.6250000000,161503.1718750000,131139.5000000000,,,
1.9159999969,14,180387.0312500000,160663.2187500000,191808.7656250000,176413.8437500000,168647.1562500000,138582.8906250000,161533.1875000000,130723.6718750000,,,
1.9199999969,15,180371.4218750000,160648.6718750000,191799.1406250000,176387.5312500000,168639.0625000000,138574.6875000000,161530.7187500000,130197.5312500000,,,
1.9239999969,15,180338.9843750000,160625.6406250000,191764.4062500000,176369.2343750000,168606.1718750000,138548.5000000000,161495.8750000000,130290.8125000000,,,
1.9279999968,15,180318.1250000000,160611.4687500000,191735.9687500000,176341.4062500000,168579.9218750000,138531.0937500000,161471.3593750000,130870.3593750000,,,
1.9319999968,15,180337.8906250000,160626.0156250000,191756.2500000000,176344.6406250000,168600.6718750000,138547.8125000000,161496.7968750000,131124.3125000000,,,
1.9359999967,15,180379.0937500000,160655.4375000000,191803.5937500000,176383.3281250000,168648.2656250000,138581.6562500000,161550.5937500000,130691.8046875000,,,
1.9399999967,15,180379.1250000000,160655.2500000000,191804.9062500000,176367.7968750000,168650.8593750000,138581.6875000000,161549.5312500000,130161.3750000000,,,
1.9439999969,15,180355.5468750000,160637.5156250000,191778.5937500000,176333.2500000000,168624.4687500000,138562.1250000000,161512.1406250000,130269.8906250000,,,
1.9479999968,15,180346.5000000000,160627.6250000000,191765.6093750000,176339.3125000000,168607.4843750000,138546.7343750000,161494.1093750000,130838.2031250000,,,
1.9519999968,15,180371.6875000000,160647.5000000000,191786.3906250000,176384.1875000000,168625.3750000000,138565.4375000000,161512.4062500000,131079.0312500000,,,
1.9559999967,15,180397.7812500000,160664.7656250000,191816.4531250000,176405.0000000000,168653.7812500000,138587.3750000000,161542.8125000000,130656.4296875000,,,
1.9599999967,15,180399.1250000000,160663.9062500000,191822.7031250000,176415.4843750000,168660.1093750000,138588.7187500000,161551.2187500000,130111.2109375000,,,
1.9639999969,15,180362.5625000000,160636.4687500000,191780.9687500000,176368.5781250000,168620.9218750000,138556.6093750000,161513.3906250000,130199.4296875000,,,
1.9679999969,15,180341.5156250000,160620.1718750000,191752.2968750000,176340.0625000000,168591.2343750000,138533.0781250000,161486.1406250000,130798.9609375000,,,
1.9719999968,15,180374.5312500000,160646.6718750000,191786.1562500000,176376.9375000000,168622.1406250000,138555.5312500000,161517.5781250000,131060.5000000000,,,
1.9759999968,15,180394.5937500000,160655.7031250000,191816.1093750000,176398.6406250000,168651.6718750000,138569.4843750000,161541.4218750000,130639.6093750000,,,
1.9799999967,15,180385.1250000000,160649.1406250000,191814.1562500000,176374.9218750000,168649.3593750000,138565.6406250000,161534.6718750000,130085.3593750000,,,
1.9839999967,15,180358.8437500000,160632.1875000000,191784.9218750000,176346.3906250000,168621.8750000000,138548.6093750000,161517.3125000000,130165.8515625000,,,
1.9879999969,15,180350.6093750000,160630.7031250000,191764.6718750000,176357.8437500000,168602.2343750000,138542.4687500000,161499.6562500000,130747.1640625000,,,
1.9919999968,15,180372.8437500000,160646.3437500000,191783.5000000000,176404.6406250000,168619.3125000000,138554.6562500000,161513.0937500000,131030.2968750000,,,
1.9959999968,15,180387.4375000000,160652.1718750000,191808.3125000000,176404.9218750000,168642.8437500000,138564.7812500000,161538.2812500000,130648.1953125000,,,
1.9999999967,15,180394.0312500000,160662.4375000000,191822.6562500000,176395.8437500000,168657.8281250000,138576.3750000000,161547.7031250000,130128.0312500000,,,
2.0039999967,15,180369.3593750000,160653.1875000000,191793.8750000000,176365.1406250000,168633.1250000000,138563.9531250000,161511.8125000000,130232.2109375000,,,
2.0079999969,15,180343.5312500000,160631.0000000000,191762.9218750000,176369.7031250000,168603.7968750000,138540.7343750000,161481.2343750000,130832.8125000000,,,
2.0119999968,15,180351.0625000000,160630.8750000000,191771.4843750000,176383.4062500000,168610.9531250000,138545.9843750000,161511.7031250000,131093.6250000000,,,
2.0159999968,15,180372.6250000000,160647.6875000000,191797.5468750000,176386.0625000000,168636.9375000000,138567.8750000000,161549.7968750000,130678.6875000000,,,
2.0199999968,15,180377.7812500000,160652.4843750000,191809.2187500000,176386.0312500000,168650.1093750000,138577.5312500000,161561.8437500000,130099.0625000000,,,
2.0239999967,15,180347.3593750000,160629.8437500000,191773.9687500000,176335.5468750000,168618.4843750000,138558.8593750000,161524.5468750000,130166.0937500000,,,
2.0279999967,15,180320.9062500000,160612.0156250000,191737.8125000000,176323.1406250000,168583.8593750000,138539.8906250000,161486.9687500000,130771.4687500000,,,
2.0319999969,15,180346.0000000000,160633.7187500000,191761.9843750000,176354.3281250000,168603.2812500000,138559.3906250000,161503.3437500000,131113.8750000000,,,
2.0359999968,15,180362.5625000000,160632.9531250000,191785.1875000000,176379.6562500000,168625.0937500000,138566.8750000000,161525.5000000000,130761.5703125000,,,
2.0399999968,15,180357.9531250000,160624.4843750000,191782.4218750000,176396.4687500000,168623.2812500000,138564.7656250000,161519.6250000000,130223.6250000000,,,
2.0439999967,15,180335.5625000000,160610.5156250000,191755.4062500000,176362.5156250000,168596.5781250000,138547.1875000000,161489.0156250000,130298.1953125000,,,
2.0479999967,16,180322.9531250000,160602.9531250000,191733.1250000000,176346.1406250000,168570.8750000000,138528.7968750000,161456.6875000000,130874.2734375000,,,
2.0519999966,16,180340.2500000000,160616.4687500000,191750.0781250000,176370.1250000000,168581.6093750000,138537.4843750000,161473.9375000000,131153.4375000000,,,
2.0559999966,16,180364.3906250000,160633.2031250000,191782.2968750000,176395.0156250000,168609.9531250000,138556.0468750000,161511.7656250000,130781.9296875000,,,
2.0599999966,16,180362.2812500000,160631.2656250000,191785.1875000000,176369.3750000000,168615.8281250000,138555.1875000000,161509.9687500000,130229.0156250000,,,
2.0639999965,16,180331.7031250000,160611.4687500000,191753.8593750000,176324.3906250000,168585.4687500000,138529.7656250000,161475.9218750000,130315.1953125000,,,
2.0679999965,16,180323.4843750000,160610.3281250000,191739.1875000000,176335.7968750000,168570.5781250000,138524.1562500000,161467.3437500000,130905.5781250000,,,
2.0719999967,16,180352.9062500000,160638.5625000000,191767.7031250000,176379.7031250000,168599.4218750000,138550.5937500000,161489.6093750000,131159.6875000000,,,
2.0759999966,16,180370.4218750000,160649.1406250000,191790.5468750000,176396.2500000000,168624.6093750000,138568.8593750000,161527.2343750000,130766.2656250000,,,
2.0799999966,16,180373.8906250000,160652.7500000000,191799.9375000000,176394.6406250000,168636.9218750000,138576.6718750000,161550.1718750000,130216.7578125000,,,
2.0839999965,16,180350.1250000000,160640.4687500000,191773.0625000000,176376.7187500000,168612.8593750000,138558.2500000000,161521.2031250000,130294.8359375000,,,
2.0879999965,16,180347.9531250000,160642.9687500000,191765.0625000000,176388.0937500000,168604.9218750000,138550.6250000000,161510.5312500000,130850.2734375000,,,
2.0919999967,16,180358.9218750000,160645.9375000000,191777.7343750000,176389.0156250000,168616.0468750000,138554.8437500000,161526.1562500000,131122.7031250000,,,
2.0959999966,16,180363.2656250000,160639.8281250000,191789.0000000000,176379.1875000000,168628.4375000000,138554.9687500000,161540.3593750000,130757.1171875000,,,
2.0999999966,16,180358.0156250000,160636.7500000000,191789.0781250000,176365.9687500000,168629.2656250000,138554.6250000000,161541.5781250000,130220.3828125000,,,
2.1039999966,16,180326.6250000000,160618.6718750000,191751.0468750000,176341.4062500000,168592.0468750000,138536.7656250000,161509.1250000000,130283.8125000000,,,
2.1079999965,16,180305.0625000000,160601.6093750000,191721.4531250000,176326.9687500000,168561.3281250000,138515.7031250000,161471.2343750000,130939.9921875000,,,
2.1119999965,16,180349.0468750000,160632.8281250000,191767.7187500000,176388.6093750000,168605.6875000000,138547.5468750000,161503.3593750000,131253.4531250000,,,
2.1159999967,16,180375.0625000000,160644.7031250000,191799.6093750000,176403.5781250000,168637.9531250000,138570.7343750000,161542.6250000000,130866.3671875000,,,
2.1199999966,16,180356.4843750000,160624.6406250000,191784.2968750000,176376.6406250000,168625.4687500000,138560.6250000000,161536.8593750000,130341.7812500000,,,
2.1239999966,16,180333.2031250000,160607.0312500000,191758.0156250000,176347.0625000000,168600.2812500000,138546.8906250000,161511.5156250000,130412.2109375000,,,
2.1279999965,16,180317.4531250000,160595.7812500000,191734.4062500000,176337.7812500000,168575.3593750000,138529.9687500000,161480.7031250000,130997.4140625000,,,
2.1319999965,16,180339.2656250000,160608.0156250000,191755.9218750000,176369.5937500000,168593.3281250000,138541.6875000000,161490.9531250000,131305.1718750000,,,
2.1359999967,16,180363.7187500000,160624.1093750000,191786.5781250000,176379.9687500000,168622.6406250000,138565.1406250000,161522.0000000000,130927.9218750000,,,
2.1399999966,16,180370.2656250000,160633.3125000000,191799.5937500000,176372.8125000000,168634.4687500000,138574.1562500000,161526.4375000000,130361.6562500000,,,
2.1439999966,16,180362.3750000000,160638.2968750000,191789.1562500000,176347.1406250000,168625.1875000000,138571.4375000000,161511.0156250000,130374.7656250000,,,
2.1479999966,16,180334.2656250000,160619.5000000000,191748.2812500000,176333.4531250000,168586.0000000000,138547.4375000000,161475.8750000000,130959.4921875000,,,
2.1519999965,16,180327.4531250000,160608.9843750000,191739.9687500000,176341.2187500000,168578.0156250000,138541.1093750000,161478.8281250000,131308.3125000000,,,
2.1559999965,16,180356.5625000000,160629.5000000000,191775.6406250000,176373.3437500000,168611.4531250000,138563.0937500000,161528.4218750000,130989.0781250000,,,
2.1599999967,16,180376.6718750000,160649.1406250000,191802.1093750000,176390.6406250000,168637.4843750000,138584.1875000000,161557.8593750000,130409.5000000000,,,
2.1639999966,16,180351.9531250000,160635.3281250000,191772.2343750000,176368.1093750000,168613.1562500000,138568.0312500000,161524.7343750000,130402.3984375000,,,
2.1679999966,16,180322.8125000000,160605.9218750000,191737.7656250000,176348.8593750000,168579.7500000000,138530.7031250000,161486.8906250000,130990.2265625000,,,
2.1719999965,16,180341.9375000000,160620.8906250000,191755.6875000000,176382.4375000000,168596.6875000000,138543.4375000000,161499.1562500000,131310.7031250000,,,
2.1759999965,17,180365.5156250000,160637.1406250000,191783.8437500000,176394.0468750000,168624.1718750000,138567.1250000000,161539.3593750000,130952.3046875000,,,
2.1799999964,17,180364.9843750000,160639.6875000000,191787.7656250000,176381.9062500000,168629.7812500000,138572.3437500000,161547.8593750000,130391.0468750000,,,
2.1839999964,17,180339.6562500000,160624.0000000000,191760.5156250000,176355.2656250000,168603.0937500000,138552.3906250000,161524.3437500000,130415.8359375000,,,
2.1879999964,17,180330.0312500000,160618.5000000000,191748.3281250000,176343.9218750000,168588.9375000000,138539.1250000000,161510.3906250000,130968.1015625000,,,
2.1919999963,17,180343.3125000000,160626.0625000000,191760.7187500000,176392.4375000000,168599.7343750000,138540.0312500000,161517.3906250000,131305.3906250000,,,
2.1959999963,17,180364.6406250000,160636.8750000000,191786.9062500000,176403.8437500000,168625.0937500000,138553.1250000000,161541.3750000000,130997.0390625000,,,
2.1999999965,17,180365.3281250000,160640.1562500000,191791.5468750000,176387.5312500000,168630.0781250000,138561.4843750000,161545.7968750000,130423.7421875000,,,
2.2039999964,17,180346.7500000000,160630.1406250000,191771.1562500000,176371.9531250000,168609.9062500000,138549.8281250000,161528.9531250000,130406.0468750000,,,
2.2079999964,17,180325.2812500000,160611.6093750000,191744.4375000000,176357.1718750000,168581.3593750000,138521.8437500000,161503.2343750000,130981.0312500000,,,
2.2119999963,17,180339.5625000000,160619.9843750000,191759.2187500000,176362.5312500000,168594.9375000000,138530.3437500000,161508.0625000000,131308.3437500000,,,
2.2159999963,17,180363.0468750000,160634.8593750000,191789.5625000000,176378.0156250000,168623.2812500000,138556.3906250000,161533.0000000000,130953.1875000000,,,
2.2199999965,17,180355.4843750000,160627.5468750000,191785.5625000000,176366.6093750000,168618.8125000000,138557.4687500000,161530.1250000000,130404.0546875000,,,
2.2239999964,17,180347.4062500000,160627.9375000000,191776.5781250000,176344.8593750000,168609.7968750000,138555.5937500000,161501.9375000000,130411.2187500000,,,
2.2279999964,17,180339.0156250000,160621.7812500000,191764.1250000000,176345.7187500000,168597.0000000000,138540.1093750000,161481.4531250000,130949.5156250000,,,
2.2319999964,17,180352.9687500000,160630.7343750000,191767.2500000000,176391.6718750000,168601.2656250000,138552.4218750000,161515.7812500000,131256.0937500000,,,
2.2359999963,17,180375.3593750000,160644.3281250000,191790.6875000000,176412.3437500000,168621.0937500000,138570.0468750000,161545.3906250000,130889.1093750000,,,
2.2399999963,17,180376.4687500000,160644.9843750000,191799.4843750000,176400.8593750000,168629.6406250000,138575.3750000000,161549.9218750000,130287.1171875000,,,
2.2439999965,17,180356.4062500000,160636.2656250000,191775.5781250000,176378.4218750000,168607.2500000000,138563.3906250000,161524.2343750000,130258.4921875000,,,
2.2479999964,17,180329.4687500000,160618.4531250000,191741.4375000000,176361.7656250000,168574.7187500000,138542.2343750000,161487.8125000000,130814.6484375000,,,
2.2519999964,17,180335.9375000000,160618.1875000000,191750.2968750000,176374.6250000000,168582.3125000000,138539.8437500000,161484.1250000000,131177.5781250000,,,
2.2559999963,17,180353.3750000000,160626.9062500000,191774.4531250000,176388.6093750000,168604.8281250000,138551.8281250000,161512.8906250000,130882.6171875000,,,
2.2599999963,17,180363.5937500000,160637.3906250000,191789.6718750000,176397.9375000000,168620.1562500000,138564.6562500000,161546.5000000000,130299.2343750000,,,
2.2639999965,17,180337.5156250000,160618.7656250000,191762.5781250000,176364.8125000000,168593.6562500000,138544.1093750000,161513.9531250000,130299.5859375000,,,
2.2679999964,17,180330.8125000000,160618.2656250000,191748.6250000000,176384.0781250000,168580.9687500000,138536.1093750000,161481.1875000000,130883.9843750000,,,
2.2719999964,17,180345.1875000000,160628.3437500000,191762.6250000000,176385.8906250000,168595.7187500000,138550.0156250000,161503.8750000000,131228.0625000000,,,
2.2759999963,17,180371.1718750000,160648.7343750000,191795.5937500000,176374.2031250000,168626.2343750000,138574.0468750000,161544.9687500000,130882.9375000000,,,
2.2799999963,17,180361.4218750000,160639.4531250000,191781.4375000000,176376.5937500000,168616.7187500000,138570.1250000000,161551.0468750000,130302.9921875000,,,
2.2839999963,17,180331.6093750000,160618.3750000000,191745.4687500000,176356.1718750000,168583.2656250000,138545.0000000000,161520.3750000000,130274.3750000000,,,
2.2879999964,17,180316.5625000000,160608.4375000000,191722.9062500000,176341.2656250000,168561.3593750000,138527.5000000000,161499.1250000000,130818.7812500000,,,
2.2919999964,17,180340.0312500000,160621.7187500000,191745.4062500000,176380.7812500000,168581.7187500000,138532.3281250000,161512.9687500000,131157.6718750000,,,
2.2959999964,17,180371.6562500000,160645.8593750000,191783.9531250000,176405.4531250000,168619.0000000000,138558.1875000000,161550.7812500000,130845.2265625000,,,
2.2999999963,17,180384.1093750000,160660.0312500000,191808.1250000000,176388.1562500000,168642.0937500000,138573.5000000000,161581.3593750000,130303.5546875000,,,
2.3039999963,18,180346.0156250000,160629.5468750000,191767.2187500000,176362.0468750000,168604.1875000000,138548.5312500000,161552.6093750000,130298.8359375000,,,
2.3079999962,18,180323.1093750000,160612.9531250000,191733.6093750000,176348.4531250000,168570.0781250000,138536.8437500000,161517.7656250000,130883.6640625000,,,
2.3119999962,18,180347.1718750000,160626.0156250000,191755.8750000000,176394.2343750000,168588.2812500000,138551.1562500000,161531.6093750000,131247.1093750000,,,
2.3159999961,18,180378.5312500000,160647.6093750000,191791.7812500000,176430.6093750000,168624.4375000000,138576.9843750000,161566.3437500000,130913.9765625000,,,
2.3199999961,18,180374.5312500000,160646.4843750000,191793.3593750000,176399.1718750000,168627.6562500000,138581.5312500000,161568.4375000000,130348.2968750000,,,
2.3239999961,18,180355.5625000000,160639.0781250000,191770.2656250000,176373.1250000000,168606.3125000000,138573.5625000000,161543.5156250000,130353.3906250000,,,
2.3279999963,18,180340.3281250000,160627.8437500000,191750.1250000000,176373.6718750000,168587.7968750000,138557.8125000000,161520.3437500000,130889.6484375000,,,
2.3319999962,18,180351.9687500000,160635.1093750000,191760.2968750000,176381.4531250000,168595.1250000000,138561.3593750000,161530.6406250000,131271.8281250000,,,
2.3359999962,18,180355.8593750000,160632.2968750000,191764.5937500000,176408.9843750000,168598.6718750000,138566.1562500000,161533.0000000000,131004.6875000000,,,
2.3399999961,18,180358.6250000000,160639.2968750000,191773.0312500000,176406.9218750000,168607.0625000000,138572.0781250000,161537.1562500000,130496.8125000000,,,
2.3439999961,18,180331.2343750000,160615.6875000000,191750.2656250000,176395.8437500000,168586.8906250000,138550.0156250000,161518.1093750000,130486.7500000000,,,
2.3479999963,18,180301.5156250000,160591.1718750000,191716.1718750000,176357.5000000000,168553.7656250000,138521.7968750000,161503.2343750000,131069.3515625000,,,
2.3519999962,18,180324.9843750000,160608.5312500000,191739.3281250000,176365.8281250000,168572.8125000000,138537.1406250000,161526.5937500000,131451.8906250000,,,
2.3559999962,18,180359.5937500000,160631.5937500000,191778.8281250000,176412.1093750000,168610.6875000000,138562.3437500000,161537.7031250000,131127.2031250000,,,
2.3599999961,18,180369.7500000000,160645.2500000000,191790.1250000000,176412.4531250000,168624.1718750000,138579.5937500000,161560.5781250000,130557.1875000000,,,
2.3639999961,18,180339.3125000000,160626.1250000000,191753.1093750000,176371.7343750000,168589.9687500000,138560.9531250000,161546.6250000000,130540.7734375000,,,
2.3679999961,18,180315.5000000000,160606.7812500000,191722.6093750000,176353.0937500000,168559.2343750000,138538.8281250000,161520.6875000000,131125.3281250000,,,
2.3719999962,18,180336.3593750000,160616.9218750000,191747.4218750000,176366.4531250000,168580.6406250000,138552.3125000000,161544.6093750000,131502.4218750000,,,
2.3759999962,18,180371.9062500000,160639.1562500000,191795.0312500000,176391.6718750000,168624.4218750000,138575.8906250000,161583.8906250000,131183.2656250000,,,
2.3799999962,18,180357.6875000000,160621.5000000000,191787.2812500000,176379.4843750000,168617.8906250000,138561.0312500000,161564.9687500000,130624.9921875000,,,
2.3839999961,18,180343.4687500000,160616.2500000000,191766.3906250000,176360.0468750000,168598.7968750000,138546.5000000000,161541.1250000000,130607.9843750000,,,
2.3879999961,18,180344.7812500000,160625.0156250000,191757.4062500000,176363.0781250000,168587.6718750000,138539.2500000000,161532.2031250000,131207.6250000000,,,
2.3919999963,18,180365.2968750000,160640.1718750000,191773.9687500000,176383.9062500000,168604.0312500000,138552.7187500000,161548.0781250000,131634.5000000000,,,
2.3959999962,18,180392.7656250000,160656.1093750000,191809.7500000000,176415.2343750000,168639.7343750000,138574.4375000000,161582.9531250000,131322.1562500000,,,
2.3999999962,18,180391.1875000000,160654.8281250000,191815.2343750000,176403.7031250000,168645.4687500000,138577.2656250000,161588.4375000000,130758.8593750000,,,
2.4039999961,18,180362.5468750000,160634.2500000000,191783.5156250000,176376.6718750000,168614.5781250000,138554.9218750000,161556.3593750000,130752.7187500000,,,
2.4079999961,18,180338.9843750000,160617.1562500000,191753.3281250000,176371.4375000000,168583.1093750000,138530.8281250000,161522.0625000000,131340.1718750000,,,
2.4119999961,18,180366.2500000000,160638.8906250000,191778.2343750000,176424.1406250000,168605.4531250000,138545.7500000000,161540.6718750000,131727.3593750000,,,
2.4159999962,18,180396.0937500000,160662.4687500000,191810.3125000000,176443.2187500000,168636.1562500000,138567.6250000000,161574.0937500000,131453.0781250000,,,
2.4199999962,18,180382.3906250000,160649.2343750000,191803.3125000000,176402.8437500000,168630.7968750000,138562.9687500000,161567.9531250000,130909.6250000000,,,
2.4239999962,18,180347.0625000000,160625.7500000000,191763.1718750000,176345.5625000000,168595.0781250000,138542.9843750000,161529.3281250000,130897.6953125000,,,
2.4279999961,18,180326.0156250000,160612.5156250000,191733.6562500000,176328.9531250000,168566.8750000000,138524.5781250000,161503.4687500000,131502.0156250000,,,
2.4319999961,19,180337.0000000000,160621.8281250000,191741.4375000000,176354.2187500000,168575.4687500000,138529.8437500000,161515.1093750000,131960.9687500000,,,
2.4359999960,19,180377.9843750000,160652.8593750000,191792.5937500000,176404.7812500000,168625.7812500000,138568.0000000000,161563.9843750000,131689.8281250000,,,
2.4399999960,19,180375.6562500000,160653.5937500000,191794.2031250000,176424.5781250000,168629.0781250000,138577.0156250000,161569.5625000000,131111.0937500000,,,
2.4439999959,19,180348.7031250000,160637.5468750000,191764.7187500000,176401.5156250000,168600.4687500000,138564.2187500000,161545.9375000000,131057.1484375000,,,
2.4479999959,19,180315.8437500000,160611.9843750000,191724.0312500000,176392.2812500000,168559.2656250000,138536.7031250000,161504.4062500000,131641.0937500000,,,
2.4519999959,19,180332.2812500000,160623.8125000000,191739.9687500000,176383.2187500000,168575.8750000000,138548.1562500000,161517.0156250000,132057.2187500000,,,
2.4559999960,19,180354.0156250000,160631.8125000000,191770.5625000000,176380.0312500000,168606.9843750000,138564.3281250000,161545.3125000000,131769.9218750000,,,
2.4599999960,19,180366.3437500000,160637.3125000000,191793.5312500000,176386.7812500000,168631.3281250000,138576.7187500000,161573.1250000000,131168.5937500000,,,
2.4639999960,19,180342.2343750000,160623.0156250000,191766.1406250000,176375.2187500000,168603.8906250000,138560.1250000000,161554.9375000000,131114.4218750000,,,
2.4679999959,19,180313.0312500000,160599.1718750000,191729.9531250000,176349.7343750000,168566.5000000000,138531.7968750000,161516.5625000000,131735.7187500000,,,
2.4719999959,19,180340.9218750000,160627.2812500000,191757.5625000000,176376.1406250000,168591.7656250000,138554.7500000000,161529.7500000000,132179.5000000000,,,
2.4759999961,19,180371.2343750000,160647.9218750000,191791.3281250000,176407.7812500000,168625.0000000000,138576.2343750000,161556.3906250000,131928.2500000000,,,
2.4799999960,19,180361.5781250000,160633.5000000000,191787.9218750000,176386.5625000000,168621.7031250000,138568.0625000000,161572.2968750000,131383.2187500000,,,
2.4839999960,19,180349.8593750000,160626.7343750000,191773.9218750000,176359.5625000000,168607.8437500000,138559.7968750000,161570.4687500000,131289.9687500000,,,
2.4879999959,19,180344.1406250000,160624.4843750000,191758.3906250000,176375.0312500000,168591.3125000000,138551.3750000000,161551.2343750000,131798.3437500000,,,
2.4919999959,19,180368.8125000000,160644.5000000000,191779.1250000000,176417.4687500000,168611.2656250000,138565.2968750000,161558.1562500000,132204.5937500000,,,
2.4959999959,19,180397.5156250000,160666.1406250000,191809.9218750000,176436.5312500000,168640.5312500000,138583.3750000000,161595.0468750000,131923.7500000000,,,
2.4999999960,19,180388.9843750000,160656.1875000000,191807.4531250000,176401.2187500000,168638.6093750000,138586.4375000000,161600.7812500000,131362.7031250000,,,
2.5039999960,19,180367.8750000000,160644.2031250000,191785.4843750000,176379.7500000000,168619.7500000000,138577.3906250000,161573.6093750000,131272.4218750000,,,
2.5079999960,19,180366.5937500000,160649.9687500000,191776.8437500000,176390.0781250000,168611.9687500000,138577.3437500000,161561.5937500000,131786.0937500000,,,
2.5119999959,19,180375.5781250000,160655.3906250000,191781.7031250000,176417.7031250000,168615.9062500000,138579.1093750000,161573.6875000000,132186.4062500000,,,
2.5159999959,19,180395.6875000000,160665.7656250000,191805.9687500000,176442.5468750000,168640.0000000000,138593.0625000000,161603.7656250000,131890.1406250000,,,
2.5199999961,19,180400.1406250000,160670.6406250000,191817.2968750000,176418.4062500000,168652.1718750000,138601.9843750000,161621.7031250000,131286.8593750000,,,
2.5239999960,19,180367.4843750000,160647.8437500000,191780.2187500000,176385.9531250000,168616.9531250000,138575.4375000000,161585.0312500000,131228.8593750000,,,
2.5279999960,19,180352.6406250000,160640.3125000000,191758.8125000000,176380.0312500000,168594.9843750000,138559.9531250000,161557.4843750000,131788.8906250000,,,
2.5319999959,19,180357.8281250000,160644.9218750000,191762.1250000000,176381.3906250000,168596.8750000000,138560.3125000000,161559.9375000000,132232.5468750000,,,
2.5359999959,19,180377.9687500000,160655.2968750000,191790.7187500000,176417.4687500000,168622.3281250000,138573.9531250000,161585.5781250000,131998.4687500000,,,
2.5399999958,19,180389.4218750000,160663.3437500000,191812.7812500000,176409.2656250000,168643.2500000000,138591.3125000000,161593.9218750000,131406.8281250000,,,
2.5439999960,19,180346.4218750000,160631.9687500000,191765.1718750000,176347.1406250000,168599.8125000000,138565.7187500000,161536.6562500000,131308.0937500000,,,
2.5479999960,19,180323.2968750000,160616.9687500000,191733.0468750000,176335.6875000000,168567.4218750000,138545.5312500000,161527.8281250000,131869.3750000000,,,
2.5519999960,19,180344.1718750000,160634.9375000000,191749.1875000000,176374.2031250000,168580.7812500000,138560.3125000000,161560.4218750000,132317.4375000000,,,
2.5559999959,19,180369.0937500000,160650.4687500000,191779.4687500000,176393.5156250000,168607.7031250000,138578.1250000000,161583.8906250000,132082.7968750000,,,
2.5599999959,20,180365.5781250000,160644.9843750000,191783.2343750000,176385.6562500000,168610.3281250000,138573.2031250000,161573.6875000000,131529.6718750000,,,
2.5639999958,20,180350.3437500000,160636.2656250000,191770.3593750000,176373.1875000000,168598.6875000000,138561.1718750000,161551.8281250000,131454.0312500000,,,
2.5679999958,20,180345.3437500000,160633.8437500000,191763.5156250000,176391.5781250000,168588.9375000000,138548.6093750000,161548.8281250000,131988.9218750000,,,
2.5719999957,20,180358.8437500000,160642.3281250000,191774.4843750000,176413.1562500000,168599.1718750000,138552.8593750000,161548.4531250000,132420.6718750000,,,
2.5759999957,20,180384.7031250000,160658.7343750000,191804.6250000000,176431.3281250000,168632.4062500000,138572.5625000000,161569.6718750000,132154.1718750000,,,
2.5799999957,20,180394.6250000000,160666.6250000000,191824.7968750000,176427.6562500000,168655.0000000000,138586.8906250000,161569.4531250000,131528.7968750000,,,
2.5839999958,20,180366.4062500000,160649.2968750000,191793.1562500000,176399.5468750000,168625.5625000000,138570.5468750000,161567.0156250000,131413.7031250000,,,
2.5879999958,20,180350.7968750000,160644.3593750000,191762.1718750000,176404.7343750000,168592.1718750000,138553.0468750000,161576.8281250000,131935.0156250000,,,
2.5919999958,20,180357.1250000000,160647.8750000000,191763.0312500000,176426.8281250000,168590.4375000000,138552.3750000000,161588.2031250000,132376.3750000000,,,
2.5959999957,20,180383.4062500000,160667.6718750000,191795.6406250000,176442.0312500000,168624.5781250000,138580.5312500000,161622.1093750000,132149.9375000000,,,
2.5999999957,20,180389.6250000000,160670.5937500000,191810.4843750000,176419.5312500000,168642.8125000000,138589.8437500000,161634.0937500000,131560.1718750000,,,
2.6039999959,20,180364.3906250000,160652.7031250000,191784.2187500000,176390.5937500000,168618.4687500000,138570.3906250000,161604.0000000000,131456.0000000000,,,
2.6079999958,20,180358.2968750000,160654.6093750000,191771.2968750000,176387.2187500000,168605.5000000000,138563.0468750000,161586.1093750000,131970.8125000000,,,
2.6119999958,20,180377.0468750000,160665.7968750000,191789.6718750000,176414.2031250000,168622.1406250000,138572.4375000000,161598.0000000000,132375.2968750000,,,
2.6159999957,20,180401.7031250000,160680.1875000000,191815.0156250000,176457.1718750000,168647.7812500000,138594.7187500000,161612.2031250000,132124.5625000000,,,
2.6199999957,20,180392.7968750000,160667.6406250000,191810.0468750000,176445.2343750000,168642.2812500000,138591.9062500000,161613.7343750000,131548.5312500000,,,
2.6239999956,20,180356.4218750000,160638.4062500000,191774.3750000000,176397.3750000000,168605.6718750000,138565.9218750000,161584.4687500000,131468.2031250000,,,
2.6279999958,20,180328.2968750000,160614.9687500000,191742.1875000000,176363.2812500000,168574.1250000000,138541.9062500000,161546.5781250000,132006.4687500000,,,
2.6319999958,20,180347.0937500000,160634.1406250000,191758.5468750000,176373.6875000000,168588.7968750000,138556.3125000000,161559.5781250000,132431.0781250000,,,
2.6359999957,20,180386.1406250000,160668.3906250000,191800.7500000000,176409.1562500000,168632.0625000000,138594.0312500000,161598.6093750000,132179.3593750000,,,
2.6399999957,20,180382.6562500000,160656.9062500000,191810.8750000000,176418.8125000000,168642.3906250000,138590.8125000000,161594.0468750000,131602.7343750000,,,
2.6439999957,20,180346.5000000000,160629.7187500000,191770.6718750000,176393.1718750000,168604.1718750000,138564.9687500000,161559.9843750000,131491.2968750000,,,
2.6479999959,20,180334.8906250000,160628.2343750000,191748.1718750000,176364.0625000000,168581.2656250000,138556.0156250000,161564.3906250000,131998.4375000000,,,
2.6519999958,20,180362.4843750000,160653.7187500000,191771.3437500000,176409.7500000000,168600.7812500000,138576.0468750000,161592.3906250000,132436.7500000000,,,
2.6559999958,20,180379.5937500000,160660.3750000000,191788.8125000000,176439.4843750000,168618.3750000000,138588.2500000000,161609.0937500000,132221.7656250000,,,
2.6599999957,20,180370.7031250000,160646.7187500000,191787.8906250000,176422.0781250000,168618.4375000000,138583.9062500000,161606.8125000000,131658.7187500000,,,
2.6639999957,20,180347.6093750000,160631.9218750000,191764.3125000000,176394.0000000000,168597.4062500000,138572.3750000000,161574.2812500000,131538.7968750000,,,
2.6679999956,20,180332.5312500000,160625.4531250000,191743.8750000000,176380.1562500000,168577.7968750000,138559.8593750000,161544.1875000000,132059.4843750000,,,
2.6719999958,20,180337.2500000000,160627.6250000000,191744.9218750000,176387.7968750000,168578.8125000000,138553.1406250000,161552.2656250000,132525.9843750000,,,
2.6759999958,20,180368.9062500000,160650.6093750000,191782.0156250000,176411.2968750000,168616.5312500000,138580.2031250000,161605.7187500000,132289.9531250000,,,
2.6799999957,20,180371.7187500000,160652.0781250000,191790.9531250000,176403.0156250000,168628.5781250000,138592.8437500000,161626.3906250000,131673.8906250000,,,
2.6839999957,20,180353.4687500000,160640.5000000000,191772.3125000000,176374.1718750000,168612.7812500000,138577.7500000000,161608.1875000000,131534.0468750000,,,
2.6879999957,21,180345.2187500000,160639.1875000000,191757.2031250000,176368.2968750000,168599.2812500000,138568.7812500000,161582.0000000000,132038.4843750000,,,
2.6919999956,21,180344.7656250000,160635.9843750000,191747.3750000000,176389.4375000000,168590.6406250000,138564.9218750000,161574.6562500000,132485.9375000000,,,
2.6959999956,21,180365.0625000000,160644.5000000000,191773.5156250000,176420.2031250000,168613.6875000000,138576.2656250000,161605.1250000000,132277.2031250000,,,
2.6999999955,21,180377.8593750000,160659.2187500000,191793.2812500000,176419.2968750000,168631.3281250000,138594.0000000000,161623.7187500000,131726.7343750000,,,
2.7039999955,21,180371.1250000000,160659.2500000000,191789.9375000000,176393.1093750000,168627.9062500000,138593.7031250000,161609.4531250000,131593.4531250000,,,
2.7079999954,21,180349.5625000000,160637.6875000000,191762.7968750000,176374.9062500000,168602.3125000000,138571.8437500000,161581.0625000000,132068.3750000000,,,
2.7119999956,21,180354.5156250000,160638.5468750000,191763.3593750000,176394.3750000000,168600.4843750000,138571.4687500000,161582.6250000000,132499.1093750000,,,
2.7159999956,21,180382.2812500000,160659.5156250000,191796.2968750000,176424.0937500000,168631.6875000000,138596.5468750000,161612.0468750000,132294.2187500000,,,
2.7199999955,21,180387.4531250000,160663.9687500000,191810.7500000000,176408.3437500000,168644.8281250000,138603.4375000000,161624.0156250000,131779.0468750000,,,
2.7239999955,21,180365.7343750000,160646.7968750000,191790.0156250000,176384.9843750000,168625.5625000000,138584.5000000000,161613.5156250000,131651.3593750000,,,
2.7279999955,21,180339.5312500000,160622.5312500000,191760.7500000000,176379.4843750000,168596.6562500000,138558.4531250000,161577.2656250000,132139.8281250000,,,
2.7319999957,21,180334.3750000000,160618.6093750000,191749.0000000000,176384.4687500000,168583.5312500000,138550.2187500000,161562.9843750000,132649.3593750000,,,
2.7359999956,21,180359.7031250000,160635.4843750000,191776.0468750000,176414.9687500000,168608.7500000000,138568.4687500000,161602.2343750000,132486.6093750000,,,
2.7399999956,21,180384.2968750000,160657.9375000000,191805.2968750000,176421.0156250000,168639.4062500000,138598.1875000000,161633.3437500000,131895.7187500000,,,
2.7439999955,21,180360.9531250000,160644.5781250000,191780.5156250000,176382.8437500000,168617.2500000000,138586.5625000000,161603.9218750000,131740.7031250000,,,
2.7479999955,21,180326.0937500000,160619.3281250000,191735.9375000000,176361.7812500000,168575.0937500000,138554.1875000000,161560.7968750000,132272.2187500000,,,
2.7519999954,21,180327.6250000000,160619.1250000000,191736.5781250000,176377.0781250000,168573.8593750000,138551.7500000000,161548.6406250000,132792.0312500000,,,
2.7559999956,21,180362.7812500000,160647.7343750000,191778.8593750000,176406.9218750000,168615.9375000000,138581.2031250000,161564.8906250000,132630.5000000000,,,
2.7599999956,21,180382.2343750000,160665.7656250000,191805.3593750000,176419.2187500000,168644.1562500000,138601.7968750000,161602.6093750000,132034.3593750000,,,
2.7639999955,21,180363.9375000000,160651.5468750000,191785.4218750000,176399.0156250000,168625.3593750000,138589.8906250000,161619.1562500000,131818.6093750000,,,
2.7679999955,21,180350.2343750000,160646.3906250000,191761.6875000000,176367.9843750000,168601.8281250000,138577.3125000000,161616.6875000000,132278.7343750000,,,
2.7719999955,21,180359.7031250000,160654.7343750000,191762.3906250000,176391.2968750000,168603.5000000000,138579.1406250000,161616.8281250000,132720.6875000000,,,
2.7759999956,21,180392.0156250000,160678.5781250000,191797.7187500000,176437.2656250000,168637.9375000000,138600.1875000000,161627.2500000000,132515.3125000000,,,
2.7799999956,21,180384.4843750000,160670.2500000000,191797.2500000000,176424.4218750000,168640.9843750000,138602.5781250000,161583.0000000000,131959.0156250000,,,
2.7839999956,21,180363.4218750000,160657.4218750000,191778.5625000000,176394.0000000000,168622.7031250000,138594.7968750000,161601.3437500000,131806.5625000000,,,
2.7879999955,21,180347.2187500000,160647.6093750000,191754.4531250000,176399.0156250000,168596.4687500000,138577.8437500000,161620.0937500000,132284.6562500000,,,
2.7919999955,21,180357.0625000000,160650.2031250000,191764.8593750000,176428.8593750000,168603.1250000000,138570.0781250000,161601.3437500000,132780.4375000000,,,
2.7959999954,21,180395.0468750000,160674.5156250000,191809.0312500000,176458.8593750000,168643.7031250000,138589.8125000000,161631.6250000000,132580.9062500000,,,
2.7999999956,21,180407.5000000000,160682.6562500000,191828.2968750000,176439.7031250000,168660.0312500000,138611.0781250000,161673.7656250000,131955.3906250000,,,
2.8039999956,21,180382.8125000000,160663.7812500000,191801.7343750000,176404.7343750000,168635.6250000000,138599.1250000000,161655.3906250000,131743.2031250000,,,
2.8079999955,21,180355.1406250000,160642.7187500000,191766.3906250000,176390.8906250000,168601.6093750000,138570.7968750000,161612.0000000000,132210.9531250000,,,
2.8119999955,21,180368.7656250000,160653.0781250000,191778.1250000000,176414.3906250000,168614.4375000000,138575.5625000000,161615.2187500000,132673.7656250000,,,
2.8159999955,22,180399.2656250000,160673.4062500000,191818.3437500000,176445.5781250000,168654.4218750000,138596.4687500000,161641.1562500000,132459.8125000000,,,
2.8199999954,22,180413.2031250000,160682.0781250000,191841.4375000000,176450.4843750000,168678.7812500000,138608.9062500000,161638.8437500000,131870.1250000000,,,
2.8239999954,22,180377.6718750000,160659.5156250000,191803.6406250000,176395.4218750000,168644.5625000000,138587.2968750000,161620.5781250000,131708.0156250000,,,
2.8279999953,22,180346.3125000000,160636.4687500000,191763.3593750000,176381.5000000000,168605.1250000000,138562.9062500000,161600.9687500000,132215.8906250000,,,
2.8319999953,22,180350.3906250000,160637.2500000000,191761.0156250000,176402.1562500000,168600.8125000000,138558.3437500000,161604.8125000000,132711.7968750000,,,
2.8359999952,22,180374.5000000000,160649.3437500000,191789.6718750000,176428.3593750000,168627.5000000000,138576.0468750000,161631.1718750000,132553.3906250000,,,
2.8399999954,22,180394.8281250000,160667.3750000000,191813.8125000000,176434.6406250000,168652.8125000000,138600.2968750000,161674.2812500000,131967.7031250000,,,
2.8439999954,22,180377.1562500000,160657.9375000000,191792.4062500000,176406.8750000000,168634.7187500000,138590.4531250000,161659.1250000000,131766.7343750000,,,
2.8479999953,22,180352.2187500000,160641.7656250000,191758.7656250000,176391.7187500000,168601.9687500000,138568.3281250000,161615.9687500000,132257.6250000000,,,
2.8519999953,22,180354.0468750000,160644.1718750000,191756.1406250000,176394.3750000000,168597.8593750000,138562.7500000000,161602.1562500000,132793.8593750000,,,
2.8559999953,22,180392.8750000000,160672.7968750000,191805.1406250000,176417.5000000000,168644.3750000000,138592.4687500000,161618.5937500000,132648.9375000000,,,
2.8599999954,22,180401.0000000000,160674.1562500000,191821.4218750000,176418.3281250000,168663.0468750000,138603.3906250000,161619.1875000000,132070.9218750000,,,
2.8639999954,22,180391.9687500000,160670.3281250000,191808.1718750000,176416.6562500000,168651.4062500000,138596.5781250000,161636.6718750000,131865.0625000000,,,
2.8679999954,22,180368.6093750000,160657.5312500000,191771.4218750000,176399.5000000000,168613.2343750000,138575.1093750000,161623.7656250000,132348.3125000000,,,
2.8719999953,22,180364.0156250000,160645.1406250000,191762.6562500000,176400.0937500000,168601.8281250000,138563.5468750000,161621.5156250000,132839.6718750000,,,
2.8759999953,22,180405.1093750000,160676.5000000000,191812.0156250000,176445.0156250000,168647.7812500000,138601.5937500000,161666.6250000000,132621.0937500000,,,
2.8799999952,22,180401.7500000000,160671.0937500000,191815.8906250000,176445.6875000000,168651.8281250000,138605.2812500000,161665.6718750000,132031.7812500000,,,
2.8839999954,22,180377.5625000000,160655.7343750000,191793.9843750000,176402.5312500000,168633.1250000000,138595.0937500000,161639.8281250000,131833.9218750000,,,
2.8879999954,22,180354.6875000000,160640.0156250000,191770.2968750000,176381.6093750000,168608.7187500000,138576.5156250000,161606.0937500000,132318.2500000000,,,
2.8919999953,22,180384.1562500000,160663.6406250000,191800.0468750000,176435.4375000000,168635.3125000000,138594.0781250000,161625.8125000000,132752.7656250000,,,
2.8959999953,22,180396.0468750000,160670.0000000000,191810.0000000000,176446.7500000000,168647.4843750000,138606.0937500000,161650.4843750000,132559.1093750000,,,
2.8999999953,22,180396.0937500000,160670.1406250000,191815.7656250000,176420.0156250000,168654.5625000000,138613.4375000000,161666.6875000000,131968.7031250000,,,
2.9039999954,22,180367.1562500000,160645.1093750000,191788.3281250000,176392.3125000000,168628.6250000000,138591.3750000000,161640.2343750000,131750.2812500000,,,
2.9079999954,22,180346.4218750000,160633.8750000000,191760.8593750000,176372.7343750000,168601.2968750000,138572.1562500000,161608.3750000000,132220.0156250000,,,
2.9119999954,22,180359.9687500000,160647.6093750000,191767.6718750000,176379.1875000000,168606.4218750000,138576.0468750000,161608.9843750000,132719.9375000000,,,
2.9159999953,22,180381.7500000000,160658.6875000000,191789.9375000000,176409.7500000000,168628.1718750000,138587.1562500000,161627.6562500000,132588.5312500000,,,
2.9199999953,22,180409.4843750000,160681.5937500000,191824.6875000000,176437.3906250000,168660.8906250000,138615.5625000000,161655.7187500000,131988.5468750000,,,
2.9239999952,22,180397.3281250000,160675.7187500000,191813.8125000000,176418.9375000000,168650.1718750000,138606.8437500000,161645.2031250000,131727.4375000000,,,
2.9279999954,22,180356.0000000000,160648.6718750000,191761.7656250000,176371.2187500000,168600.5156250000,138571.8125000000,161596.0312500000,132205.8593750000,,,
2.9319999954,22,180369.7343750000,160659.1406250000,191772.2031250000,176381.2343750000,168608.9687500000,138576.4062500000,161600.7500000000,132716.8437500000,,,
2.9359999953,22,180406.1562500000,160682.6875000000,191812.7031250000,176412.3437500000,168646.0312500000,138597.3281250000,161631.4687500000,132583.5468750000,,,
2.9399999953,22,180410.9218750000,160683.6250000000,191817.7500000000,176437.7656250000,168656.5468750000,138607.0937500000,161647.1875000000,131980.3593750000,,,
2.9439999952,23,180389.0468750000,160668.6093750000,191796.0156250000,176416.3125000000,168636.4843750000,138593.0781250000,161639.3281250000,131715.7656250000,,,
