Time:250Hz,Epoch,Channel 1,Channel 2,Channel 3,Channel 4,Channel 5,Channel 6,Channel 7,Channel 8,Event Id,Event Date,Event Duration
0.0000000000,0,177302.1406250000,192338.2812500000,168854.0468750000,169726.4531250000,136551.1250000000,120670.6171875000,133109.0625000000,154525.5937500000,,,
0.0040000000,0,176985.8281250000,211170.1562500000,168393.8281250000,169129.4218750000,135948.6093750000,120103.8125000000,132463.5625000000,157425.7343750000,,,
0.0079999999,0,177102.3750000000,220931.4375000000,168644.8750000000,169431.2187500000,136269.1875000000,120390.9921875000,132784.0156250000,157533.7187500000,,,
0.0119999999,0,177490.1562500000,211307.0625000000,169238.2656250000,170165.0000000000,137024.7968750000,121106.7187500000,133580.8593750000,155191.9062500000,,,
0.0159999998,0,177651.3125000000,192939.2031250000,169443.9375000000,170453.7656250000,137304.0937500000,121368.0703125000,133891.5000000000,153106.1250000000,,,
0.0199999998,0,177362.4687500000,192334.0000000000,168921.5312500000,169795.5000000000,136620.7187500000,120728.6875000000,133188.5156250000,154538.6093750000,,,
0.0240000000,0,177069.4843750000,210945.2031250000,168486.0156250000,169201.4062500000,136042.3281250000,120183.2578125000,132561.7656250000,157445.2343750000,,,
0.0279999999,0,177143.2187500000,220766.5937500000,168683.6406250000,169451.7500000000,136312.5937500000,120438.1250000000,132829.3593750000,157579.2968750000,,,
0.0319999999,0,177517.4375000000,211441.6718750000,169261.7656250000,170190.8593750000,137051.0000000000,121135.9218750000,133608.1406250000,155281.3125000000,,,
0.0359999998,0,177692.5312500000,193146.0781250000,169491.1718750000,170510.7812500000,137353.5625000000,121418.2031250000,133944.6562500000,153184.4843750000,,,
0.0399999998,0,177444.5468750000,192261.5781250000,169009.6093750000,169926.0156250000,136710.2343750000,120815.8046875000,133284.5625000000,154584.9218750000,,,
0.0440000000,0,177115.0781250000,210631.4062500000,168529.5781250000,169276.0625000000,136087.0937500000,120239.3671875000,132619.0312500000,157443.0937500000,,,
0.0480000000,0,177206.5781250000,220520.0156250000,168748.3281250000,169520.0312500000,136372.7812500000,120502.4140625000,132897.3593750000,157627.2187500000,,,
0.0519999999,0,177594.8281250000,211360.7812500000,169340.1562500000,170247.7187500000,137122.0312500000,121203.5156250000,133682.0156250000,155374.5156250000,,,
0.0559999999,0,177769.1093750000,193238.3281250000,169554.2343750000,170565.9531250000,137412.3750000000,121495.9843750000,134002.1875000000,153303.5625000000,,,
0.0599999998,0,177471.3281250000,192142.4531250000,169028.0000000000,169941.2187500000,136727.7187500000,120855.4765625000,133305.7187500000,154598.2031250000,,,
0.0639999998,0,177164.0312500000,210312.3906250000,168576.7500000000,169315.0781250000,136132.9843750000,120285.6640625000,132665.9687500000,157447.1875000000,,,
0.0680000000,0,177242.0312500000,220313.0312500000,168774.8906250000,169514.9687500000,136400.7031250000,120527.7343750000,132923.2968750000,157667.9375000000,,,
0.0719999999,0,177602.6562500000,211423.5937500000,169338.1562500000,170248.2500000000,137125.1093750000,121210.8906250000,133684.5000000000,155429.3437500000,,,
0.0759999999,0,177809.7187500000,193426.4062500000,169600.4687500000,170605.5781250000,137461.1718750000,121530.8281250000,134050.7031250000,153356.0156250000,,,
0.0799999998,0,177552.3906250000,192147.6406250000,169114.2656250000,169990.3281250000,136817.0312500000,120938.1093750000,133395.3125000000,154647.0000000000,,,
0.0839999998,0,177226.0937500000,210164.0937500000,168637.6406250000,169365.4531250000,136198.0000000000,120359.0781250000,132736.2187500000,157487.8750000000,,,
0.0880000000,0,177295.9218750000,220286.4218750000,168827.8593750000,169592.2343750000,136455.8750000000,120592.0234375000,132986.1718750000,157736.8125000000,,,
0.0919999999,0,177683.5312500000,211591.5625000000,169424.1406250000,170328.1875000000,137203.7500000000,121290.8203125000,133769.0781250000,155531.3125000000,,,
0.0959999999,0,177941.5000000000,193634.7500000000,169738.7343750000,170729.5781250000,137587.0468750000,121658.8203125000,134182.4531250000,153487.1718750000,,,
0.0999999999,0,177670.0625000000,192116.3593750000,169234.1093750000,170135.4062500000,136932.3906250000,121064.5234375000,133517.7812500000,154717.6406250000,,,
0.1039999998,0,177292.5312500000,209998.1718750000,168702.0625000000,169452.0937500000,136259.9687500000,120426.3437500000,132791.4375000000,157524.6250000000,,,
0.1079999998,0,177310.9062500000,220228.5156250000,168844.0312500000,169610.2031250000,136467.4843750000,120610.1875000000,132984.7187500000,157770.3437500000,,,
0.1120000000,0,177697.3593750000,211651.2187500000,169436.5156250000,170333.8125000000,137212.7968750000,121309.3828125000,133767.2343750000,155578.7343750000,,,
0.1159999999,0,177830.7187500000,193615.6406250000,169627.0312500000,170646.5625000000,137476.8593750000,121546.6250000000,134073.5625000000,153390.8593750000,,,
0.1199999999,0,177544.6093750000,191823.5937500000,169111.2656250000,170029.0312500000,136814.2187500000,120947.1484375000,133399.3593750000,154549.1250000000,,,
0.1239999998,0,177156.1406250000,209649.9375000000,168563.7500000000,169315.2968750000,136129.9843750000,120293.8437500000,132657.2812500000,157382.0156250000,,,
0.1279999998,1,177161.9375000000,220036.1250000000,168690.9375000000,169471.4062500000,136323.8593750000,120458.8046875000,132834.1406250000,157654.1250000000,,,
0.1319999998,1,177516.1250000000,211601.3437500000,169254.4062500000,170180.1250000000,137038.9531250000,121120.4765625000,133584.6718750000,155438.2656250000,,,
0.1359999997,1,177738.7187500000,193571.9375000000,169531.1406250000,170551.9843750000,137392.2343750000,121469.0859375000,133976.8125000000,153312.1093750000,,,
0.1399999997,1,177521.2500000000,191599.3125000000,169084.4375000000,170003.9062500000,136795.1250000000,120936.2578125000,133369.2968750000,154490.8125000000,,,
0.1439999996,1,177126.5625000000,209400.5468750000,168532.7343750000,169287.9687500000,136105.0468750000,120277.3203125000,132625.7656250000,157336.3125000000,,,
0.1479999996,1,177084.4062500000,219986.0625000000,168612.3437500000,169374.2031250000,136252.0781250000,120394.8828125000,132762.5468750000,157625.2656250000,,,
0.1519999998,1,177417.8437500000,211698.0468750000,169152.9687500000,170053.7656250000,136944.9218750000,121040.1171875000,133499.1875000000,155388.3750000000,,,
0.1559999997,1,177633.9062500000,193619.6093750000,169430.2031250000,170440.9218750000,137296.8750000000,121376.9218750000,133892.5937500000,153219.5781250000,,,
0.1599999997,1,177426.9687500000,191529.5937500000,169000.8125000000,169888.9218750000,136714.7031250000,120847.0781250000,133299.0468750000,154389.6875000000,,,
0.1639999996,1,177061.5937500000,209361.5156250000,168474.7968750000,169193.6406250000,136041.5312500000,120220.6250000000,132567.9375000000,157276.2343750000,,,
0.1679999996,1,177036.2187500000,220043.4218750000,168572.1718750000,169323.2343750000,136203.5625000000,120352.8515625000,132711.7031250000,157583.1562500000,,,
0.1719999998,1,177396.7968750000,211821.6718750000,169134.5937500000,170044.8593750000,136923.0312500000,121022.3046875000,133474.4687500000,155377.5468750000,,,
0.1759999997,1,177670.9218750000,193790.3281250000,169467.5468750000,170462.5312500000,137328.8593750000,121423.5625000000,133923.7343750000,153274.5625000000,,,
0.1799999997,1,177481.7656250000,191563.9531250000,169050.0781250000,169941.7343750000,136759.2656250000,120926.5781250000,133341.6875000000,154437.6406250000,,,
0.1839999997,1,177072.0312500000,209311.3281250000,168488.3750000000,169222.5156250000,136051.0937500000,120229.0937500000,132578.4218750000,157268.1875000000,,,
0.1879999996,1,177040.3281250000,220059.4062500000,168574.6093750000,169342.7656250000,136207.1718750000,120352.5625000000,132722.4843750000,157586.6093750000,,,
0.1919999996,1,177426.0781250000,211969.6718750000,169160.5937500000,170076.2968750000,136949.1250000000,121070.3437500000,133502.2812500000,155439.6093750000,,,
0.1959999998,1,177683.3593750000,193923.8437500000,169481.8125000000,170486.9687500000,137344.9218750000,121448.4843750000,133931.5468750000,153310.2031250000,,,
0.1999999997,1,177480.9062500000,191490.5781250000,169058.0000000000,169949.4218750000,136769.9062500000,120922.3671875000,133345.9375000000,154396.1875000000,,,
0.2039999997,1,177091.2968750000,209126.0468750000,168503.1562500000,169233.3593750000,136071.5937500000,120260.5078125000,132603.5781250000,157233.5000000000,,,
0.2079999996,1,177052.3437500000,219999.4531250000,168578.8125000000,169338.7968750000,136216.6250000000,120378.8750000000,132743.2343750000,157591.4375000000,,,
0.2119999996,1,177441.3281250000,212072.6093750000,169175.3437500000,170066.7187500000,136963.6093750000,121079.7578125000,133533.2812500000,155465.1250000000,,,
0.2159999998,1,177695.1406250000,194058.8125000000,169495.4843750000,170487.2031250000,137360.0156250000,121451.7265625000,133971.6406250000,153320.2968750000,,,
0.2199999997,1,177461.8906250000,191463.1562500000,169043.0625000000,169948.2500000000,136758.6406250000,120906.1640625000,133366.4531250000,154341.5156250000,,,
0.2239999997,1,177030.9375000000,209023.0781250000,168447.0625000000,169187.9531250000,136014.7812500000,120189.7500000000,132564.0937500000,157137.2343750000,,,
0.2279999997,1,176993.7656250000,220009.7812500000,168525.5000000000,169264.7968750000,136158.5312500000,120312.3515625000,132686.7187500000,157521.2500000000,,,
0.2319999996,1,177407.3437500000,212241.4375000000,169147.3437500000,170018.5000000000,136933.7031250000,121040.0625000000,133503.1093750000,155441.9218750000,,,
0.2359999996,1,177694.2500000000,194259.7968750000,169498.3125000000,170476.5625000000,137365.3906250000,121456.6875000000,133976.1718750000,153322.8125000000,,,
0.2399999998,1,177508.0312500000,191548.2656250000,169098.4375000000,169985.4531250000,136814.8593750000,120952.6484375000,133416.6875000000,154363.2500000000,,,
0.2439999997,1,177116.9062500000,209123.7968750000,168539.1718750000,169259.8281250000,136102.7812500000,120272.5234375000,132641.0468750000,157204.6875000000,,,
0.2479999997,1,177081.9062500000,220233.6875000000,168618.2968750000,169361.4843750000,136248.4531250000,120384.9609375000,132767.2500000000,157613.8906250000,,,
0.2519999996,1,177497.5156250000,212578.9843750000,169234.3437500000,170116.2656250000,137023.4218750000,121128.0625000000,133584.7500000000,155558.4375000000,,,
0.2559999996,2,177744.2031250000,194540.8593750000,169545.6406250000,170540.0781250000,137416.5937500000,121505.7500000000,134018.5781250000,153391.6406250000,,,
0.2599999995,2,177529.0625000000,191674.4687500000,169116.8906250000,170000.2500000000,136832.0000000000,120976.1718750000,133423.1250000000,154384.2968750000,,,
0.2639999995,2,177127.5312500000,209307.3125000000,168545.0781250000,169268.3906250000,136107.2656250000,120289.4453125000,132639.8437500000,157234.3125000000,,,
0.2679999995,2,177096.6875000000,220569.3906250000,168631.3906250000,169365.8125000000,136257.6562500000,120403.7343750000,132772.7968750000,157670.0000000000,,,
0.2719999994,2,177444.8593750000,212878.1093750000,169181.8125000000,170060.2812500000,136967.2656250000,121072.6250000000,133526.7968750000,155542.9531250000,,,
0.2759999994,2,177696.6093750000,194671.4531250000,169500.8750000000,170482.2968750000,137369.4843750000,121466.9062500000,133975.0468750000,153353.3437500000,,,
0.2799999996,2,177517.3593750000,191686.3125000000,169113.9531250000,170009.0781250000,136829.7187500000,120970.3828125000,133432.7812500000,154356.8906250000,,,
0.2839999995,2,177157.7812500000,209447.3281250000,168578.2812500000,169330.0468750000,136140.8437500000,120321.8750000000,132681.8437500000,157269.2031250000,,,
0.2879999995,2,177141.0937500000,220841.2968750000,168670.9843750000,169446.3750000000,136299.5000000000,120445.2265625000,132815.6562500000,157741.5156250000,,,
0.2919999994,2,177515.7500000000,213070.0468750000,169252.5625000000,170165.4218750000,137041.4843750000,121141.3437500000,133601.4375000000,155621.7656250000,,,
0.2959999994,2,177753.6875000000,194629.4531250000,169558.1406250000,170547.7187500000,137432.8750000000,121527.0156250000,134037.2187500000,153399.2812500000,,,
0.2999999996,2,177505.4843750000,191526.2656250000,169092.2500000000,169981.7500000000,136819.5781250000,120971.9062500000,133414.4687500000,154355.7812500000,,,
0.3039999995,2,177093.3906250000,209485.3593750000,168510.9531250000,169257.1718750000,136085.7343750000,120267.8828125000,132620.2812500000,157245.2500000000,,,
0.3079999995,2,177101.6406250000,221047.6875000000,168630.4843750000,169386.6406250000,136271.7187500000,120428.0625000000,132780.5468750000,157748.1875000000,,,
0.3119999995,2,177471.8750000000,213240.9062500000,169208.2500000000,170125.5468750000,137011.6562500000,121118.4375000000,133570.5156250000,155610.0625000000,,,
0.3159999994,2,177717.5312500000,194573.5625000000,169532.0156250000,170564.3437500000,137419.1093750000,121497.0078125000,134028.5625000000,153343.8750000000,,,
0.3199999994,2,177502.8437500000,191348.3906250000,169096.9062500000,170022.6250000000,136830.3906250000,120969.5468750000,133431.0312500000,154321.6093750000,,,
0.3239999996,2,177135.3281250000,209476.6875000000,168553.9531250000,169297.4843750000,136126.6875000000,120300.1250000000,132664.2812500000,157289.1250000000,,,
0.3279999995,2,177144.5937500000,221224.3593750000,168673.2031250000,169443.9687500000,136309.1875000000,120452.2812500000,132823.9218750000,157814.0312500000,,,
0.3319999995,2,177564.1718750000,213476.5312500000,169296.5312500000,170249.4062500000,137091.0000000000,121195.9296875000,133652.0468750000,155706.8125000000,,,
0.3359999994,2,177850.2812500000,194689.5312500000,169653.5312500000,170717.1562500000,137530.5312500000,121622.5312500000,134143.7031250000,153457.9687500000,,,
0.3399999994,2,177583.6093750000,191324.1093750000,169167.9375000000,170063.0937500000,136896.5625000000,121052.7500000000,133501.3593750000,154382.9531250000,,,
0.3439999996,2,177198.6562500000,209554.9531250000,168611.5156250000,169335.8125000000,136179.9531250000,120369.9921875000,132714.0312500000,157350.6406250000,,,
0.3479999995,2,177215.7500000000,221467.3437500000,168736.8750000000,169493.8281250000,136370.7968750000,120532.1562500000,132883.5468750000,157906.2500000000,,,
0.3519999995,2,177598.6250000000,213758.7812500000,169323.6093750000,170212.1718750000,137122.3437500000,121246.8593750000,133685.7343750000,155777.5781250000,,,
0.3559999994,2,177869.0000000000,194872.4375000000,169667.5781250000,170653.0468750000,137552.5781250000,121663.2500000000,134165.6093750000,153498.8750000000,,,
0.3599999994,2,177642.6250000000,191364.9375000000,169230.3281250000,170106.8437500000,136960.8593750000,121124.6875000000,133562.8906250000,154431.5625000000,,,
0.3639999994,2,177188.3125000000,209592.2187500000,168596.3906250000,169325.0156250000,136168.0937500000,120362.8828125000,132703.1406250000,157352.1875000000,,,
0.3679999996,2,177157.1875000000,221604.0312500000,168678.1875000000,169408.9062500000,136314.6093750000,120474.4687500000,132823.7656250000,157875.7500000000,,,
0.3719999995,2,177588.4375000000,213977.7812500000,169321.5156250000,170173.8281250000,137114.2968750000,121232.4062500000,133662.9375000000,155791.4375000000,,,
0.3759999995,2,177845.5312500000,195044.1250000000,169650.3906250000,170641.0937500000,137533.8750000000,121649.5703125000,134142.7343750000,153501.7187500000,,,
0.3799999994,2,177567.7812500000,191335.8281250000,169156.2187500000,170088.0937500000,136892.2187500000,121051.9218750000,133505.7968750000,154342.8593750000,,,
0.3839999994,3,177178.4062500000,209503.4375000000,168584.6406250000,169359.9375000000,136161.2656250000,120356.5000000000,132709.3125000000,157305.1718750000,,,
0.3879999993,3,177169.2031250000,221606.1718750000,168685.5625000000,169460.1406250000,136327.5781250000,120487.4765625000,132850.4687500000,157877.0156250000,,,
0.3919999993,3,177520.1250000000,214053.8281250000,169248.0000000000,170157.2500000000,137050.3593750000,121166.8281250000,133618.2343750000,155745.7343750000,,,
0.3959999993,3,177760.9062500000,195122.1562500000,169560.7500000000,170585.1718750000,137453.0312500000,121571.1640625000,134068.4687500000,153433.2187500000,,,
0.3999999992,3,177548.2656250000,191283.4843750000,169137.5781250000,170066.0468750000,136877.4843750000,121036.3359375000,133477.8437500000,154306.2656250000,,,
0.4039999992,3,177169.3125000000,209377.6093750000,168588.2812500000,169333.7031250000,136162.8437500000,120335.8750000000,132685.0312500000,157269.9843750000,,,
0.4079999994,3,177130.0156250000,221550.7656250000,168647.9687500000,169413.9531250000,136292.5468750000,120451.2656250000,132789.2343750000,157841.7968750000,,,
0.4119999993,3,177506.3125000000,214153.7187500000,169227.6718750000,170153.8125000000,137033.8125000000,121157.7031250000,133594.4375000000,155749.7812500000,,,
0.4159999993,3,177778.9531250000,195247.6250000000,169579.3593750000,170641.9687500000,137470.5781250000,121571.0859375000,134087.2968750000,153443.8906250000,,,
0.4199999992,3,177556.2500000000,191233.0000000000,169145.4687500000,170091.7500000000,136886.1875000000,121038.2656250000,133491.2812500000,154277.4843750000,,,
0.4239999992,3,177162.4218750000,209220.7343750000,168568.2187500000,169318.8437500000,136143.9531250000,120330.5937500000,132677.2031250000,157224.7500000000,,,
0.4279999994,3,177146.8750000000,221491.0625000000,168661.4531250000,169417.2812500000,136297.5937500000,120448.7421875000,132805.2187500000,157837.3281250000,,,
0.4319999993,3,177492.5000000000,214222.6250000000,169218.5000000000,170135.5781250000,137013.8593750000,121120.2343750000,133579.5000000000,155737.0937500000,,,
0.4359999993,3,177745.2968750000,195383.8281250000,169546.2656250000,170567.4375000000,137430.0781250000,121531.9531250000,134049.6562500000,153419.9375000000,,,
0.4399999992,3,177515.1093750000,191222.0312500000,169110.0625000000,170033.8906250000,136845.7656250000,121002.2187500000,133456.1718750000,154221.9687500000,,,
0.4439999992,3,177139.5468750000,209118.7187500000,168554.4062500000,169292.2812500000,136127.0625000000,120317.1015625000,132665.0312500000,157193.4062500000,,,
0.4479999992,3,177147.6250000000,221504.1718750000,168673.2343750000,169400.5937500000,136304.3593750000,120457.4609375000,132811.7187500000,157863.3593750000,,,
0.4519999993,3,177523.4843750000,214404.3593750000,169248.5625000000,170135.8750000000,137045.7187500000,121173.7968750000,133607.3125000000,155827.8125000000,,,
0.4559999993,3,177793.9531250000,195613.5625000000,169599.4062500000,170601.6562500000,137488.1562500000,121599.8906250000,134105.2656250000,153519.1562500000,,,
0.4599999993,3,177597.7968750000,191320.9687500000,169202.7812500000,170103.8906250000,136943.2343750000,121091.5859375000,133540.6093750000,154308.8281250000,,,
0.4639999992,3,177196.8906250000,209130.2031250000,168612.2968750000,169342.4687500000,136192.4218750000,120384.0781250000,132721.4531250000,157240.3437500000,,,
0.4679999992,3,177162.3750000000,221597.0312500000,168675.3437500000,169424.3281250000,136319.0468750000,120491.3906250000,132824.2656250000,157890.2968750000,,,
0.4719999994,3,177564.1093750000,214696.7187500000,169285.0781250000,170184.4687500000,137084.2656250000,121211.7500000000,133636.5000000000,155892.7656250000,,,
0.4759999993,3,177847.4843750000,195906.0000000000,169655.4843750000,170654.8437500000,137542.5156250000,121642.1953125000,134147.8281250000,153581.7031250000,,,
0.4799999993,3,177558.7500000000,191360.6406250000,169159.8125000000,170076.2968750000,136910.3281250000,121062.2187500000,133509.0937500000,154257.1875000000,,,
0.4839999992,3,177150.2500000000,209006.7343750000,168568.2968750000,169295.7187500000,136153.4531250000,120338.1562500000,132683.8593750000,157158.2343750000,,,
0.4879999992,3,177127.8750000000,221515.3125000000,168646.5781250000,169368.1406250000,136287.9687500000,120433.3750000000,132790.3906250000,157830.2187500000,,,
0.4919999992,3,177486.7343750000,214706.6562500000,169203.6718750000,170082.7343750000,137004.0625000000,121114.0625000000,133559.5468750000,155811.5312500000,,,
0.4959999993,3,177771.8281250000,195908.0625000000,169574.1093750000,170559.6875000000,137466.2031250000,121568.3515625000,134079.6562500000,153492.9531250000,,,
0.4999999993,3,177557.0312500000,191203.2500000000,169161.7500000000,170053.1718750000,136909.7031250000,121056.0781250000,133511.3906250000,154209.5781250000,,,
0.5039999993,3,177145.4531250000,208788.1718750000,168565.9687500000,169283.7031250000,136147.6406250000,120328.6093750000,132678.5156250000,157129.6718750000,,,
0.5079999992,3,177104.6250000000,221373.1250000000,168617.3593750000,169341.5000000000,136262.8125000000,120420.5546875000,132764.9687500000,157812.6406250000,,,
0.5119999992,4,177473.8593750000,214630.2031250000,169190.5156250000,170053.1250000000,136995.6875000000,121112.0000000000,133545.8437500000,155814.0468750000,,,
0.5159999991,4,177747.6250000000,195866.5625000000,169556.7500000000,170539.8593750000,137450.5937500000,121548.5546875000,134056.7187500000,153487.7968750000,,,
0.5199999991,4,177528.8750000000,191054.9531250000,169134.5937500000,170033.1875000000,136892.7187500000,121052.2968750000,133490.0781250000,154185.7812500000,,,
0.5239999990,4,177087.1093750000,208577.3437500000,168502.3437500000,169242.5781250000,136101.3125000000,120297.7343750000,132630.0468750000,157076.8906250000,,,
0.5279999990,4,177062.8125000000,221256.7343750000,168588.5312500000,169311.3906250000,136243.7343750000,120386.6796875000,132744.9531250000,157777.7500000000,,,
0.5319999990,4,177434.2187500000,214615.1093750000,169160.6093750000,170048.9375000000,136978.5000000000,121086.1406250000,133529.8281250000,155796.4218750000,,,
0.5359999991,4,177714.5000000000,195861.1562500000,169520.4062500000,170531.6875000000,137434.6093750000,121535.6562500000,134043.9531250000,153477.3906250000,,,
0.5399999991,4,177491.9531250000,190916.7343750000,169100.3750000000,170024.7968750000,136874.1875000000,121022.9218750000,133479.9843750000,154149.6093750000,,,
0.5439999991,4,177065.8906250000,208387.5000000000,168487.1093750000,169216.0000000000,136093.2968750000,120276.3281250000,132631.1562500000,157042.4687500000,,,
0.5479999990,4,177033.1406250000,221149.2031250000,168551.5937500000,169274.7187500000,136213.9843750000,120363.4765625000,132722.9375000000,157753.2343750000,,,
0.5519999990,4,177423.3437500000,214641.8437500000,169150.9375000000,169994.0781250000,136964.2343750000,121066.0234375000,133519.7343750000,155796.3750000000,,,
0.5559999992,4,177688.6718750000,195873.9531250000,169487.0156250000,170489.7031250000,137398.1875000000,121506.0468750000,134006.0312500000,153456.2187500000,,,
0.5599999991,4,177456.3906250000,190748.4062500000,169059.2031250000,169975.5312500000,136832.5312500000,120985.1562500000,133433.0468750000,154085.9843750000,,,
0.5639999991,4,177051.9687500000,208145.8281250000,168469.7656250000,169181.4062500000,136069.8437500000,120257.1250000000,132598.8281250000,156993.7656250000,,,
0.5679999990,4,177049.3906250000,221026.8281250000,168563.8750000000,169255.5625000000,136213.4062500000,120370.6875000000,132707.3281250000,157755.8593750000,,,
0.5719999990,4,177424.2656250000,214643.7187500000,169146.7187500000,169993.5468750000,136953.7656250000,121056.8515625000,133494.0156250000,155804.4218750000,,,
0.5759999990,4,177666.8750000000,195815.9062500000,169459.8125000000,170472.5156250000,137374.5781250000,121489.3593750000,133967.5937500000,153436.3281250000,,,
0.5799999991,4,177458.7812500000,190529.2968750000,169056.9531250000,169974.8593750000,136832.0781250000,120991.8671875000,133428.3593750000,154065.0625000000,,,
0.5839999991,4,177065.0625000000,207894.9843750000,168475.7656250000,169205.8437500000,136073.9218750000,120268.5234375000,132605.7812500000,156975.8437500000,,,
0.5879999991,4,177031.2656250000,220858.7812500000,168536.5000000000,169260.5625000000,136185.5625000000,120355.2656250000,132688.0625000000,157728.5000000000,,,
0.5919999990,4,177408.0625000000,214563.1562500000,169117.0625000000,169988.1250000000,136922.6093750000,121050.9531250000,133473.2500000000,155800.8593750000,,,
0.5959999990,4,177698.6718750000,195727.6093750000,169501.6875000000,170491.3750000000,137404.4843750000,121515.4296875000,134010.0468750000,153463.8437500000,,,
0.5999999992,4,177497.8281250000,190312.2812500000,169114.2187500000,169994.7343750000,136878.0312500000,121032.0703125000,133477.0312500000,154082.1250000000,,,
0.6039999991,4,177058.6250000000,207679.8750000000,168473.6250000000,169211.1718750000,136070.3281250000,120274.9921875000,132602.8281250000,156967.2656250000,,,
0.6079999991,4,177016.9218750000,220783.0625000000,168527.9843750000,169278.9531250000,136177.4375000000,120348.4843750000,132683.2968750000,157730.8906250000,,,
0.6119999990,4,177411.0625000000,214688.8750000000,169132.1093750000,170010.8750000000,136935.2187500000,121054.5703125000,133490.2343750000,155839.2031250000,,,
0.6159999990,4,177715.9218750000,195868.8437500000,169527.2968750000,170515.7500000000,137431.9843750000,121536.7812500000,134040.8437500000,153506.1718750000,,,
0.6199999989,4,177492.0468750000,190241.1406250000,169101.3437500000,170019.8281250000,136878.3437500000,121053.3125000000,133495.1406250000,154074.7968750000,,,
0.6239999991,4,177074.5312500000,207511.5625000000,168491.8593750000,169235.2812500000,136090.6875000000,120302.0781250000,132652.1718750000,156958.8750000000,,,
0.6279999991,4,177031.0781250000,220715.0937500000,168544.0000000000,169278.7187500000,136194.2968750000,120368.3828125000,132727.2031250000,157742.9531250000,,,
0.6319999991,4,177414.9531250000,214691.3906250000,169133.3437500000,170009.8593750000,136941.4375000000,121061.3593750000,133518.7500000000,155857.4218750000,,,
0.6359999990,4,177719.5937500000,195947.1718750000,169525.3125000000,170523.6406250000,137436.7812500000,121545.2265625000,134062.8906250000,153546.7812500000,,,
0.6399999990,5,177531.3593750000,190314.5312500000,169133.8750000000,170057.9218750000,136919.2812500000,121096.8750000000,133529.3906250000,154154.2656250000,,,
0.6439999989,5,177099.7968750000,207622.1562500000,168519.0000000000,169241.3437500000,136123.7031250000,120315.8671875000,132665.5625000000,157020.0468750000,,,
0.6479999989,5,177024.7812500000,220957.4062500000,168534.9375000000,169261.7812500000,136188.0312500000,120347.0078125000,132706.4687500000,157769.8125000000,,,
0.6519999988,5,177419.4531250000,214998.7500000000,169127.1406250000,169995.9687500000,136939.4218750000,121070.6171875000,133508.9062500000,155893.6875000000,,,
0.6559999988,5,177724.7031250000,196204.3437500000,169525.3750000000,170507.0000000000,137438.2656250000,121549.2500000000,134068.3125000000,153563.3593750000,,,
0.6599999988,5,177541.0156250000,190389.0156250000,169151.2343750000,170047.1875000000,136929.9843750000,121088.6953125000,133549.3281250000,154123.2187500000,,,
0.6639999989,5,177125.1406250000,207618.4843750000,168538.1250000000,169250.1718750000,136135.2968750000,120333.4062500000,132678.8906250000,156996.3750000000,,,
0.6679999989,5,177027.3281250000,221034.5937500000,168530.8593750000,169239.8437500000,136176.5000000000,120342.5781250000,132692.4687500000,157761.0937500000,,,
0.6719999989,5,177367.7812500000,215190.9218750000,169077.5156250000,169928.5937500000,136884.1718750000,120999.1875000000,133452.0937500000,155858.7656250000,,,
0.6759999988,5,177657.6875000000,196410.7031250000,169463.0937500000,170433.1562500000,137372.9531250000,121463.3437500000,133995.7031250000,153509.9843750000,,,
0.6799999988,5,177477.0468750000,190454.7812500000,169095.9531250000,169970.2187500000,136873.7812500000,121013.1328125000,133486.5625000000,154051.8437500000,,,
0.6839999990,5,177025.2500000000,207647.7968750000,168441.1718750000,169163.7343750000,136043.9687500000,120230.7578125000,132587.2187500000,156901.8437500000,,,
0.6879999989,5,176957.6875000000,221182.2343750000,168461.6250000000,169187.1406250000,136110.8281250000,120274.5859375000,132623.1250000000,157702.9687500000,,,
0.6919999989,5,177339.9843750000,215500.3125000000,169051.8593750000,169914.0781250000,136855.0156250000,120971.2109375000,133419.3437500000,155856.7812500000,,,
0.6959999988,5,177639.5937500000,196764.3906250000,169447.0781250000,170434.5625000000,137355.9687500000,121452.8281250000,133982.0937500000,153522.0468750000,,,
0.6999999988,5,177446.2812500000,190632.1093750000,169066.2812500000,169967.4218750000,136848.0156250000,120990.1484375000,133473.7187500000,154021.2812500000,,,
0.7039999987,5,177027.5937500000,207662.2500000000,168447.6875000000,169169.9531250000,136052.2343750000,120239.3437500000,132605.2968750000,156875.2187500000,,,
0.7079999989,5,176962.2500000000,221222.9687500000,168470.8593750000,169191.7343750000,136121.2968750000,120282.6093750000,132636.5468750000,157698.4843750000,,,
0.7119999989,5,177339.0468750000,215636.2500000000,169053.2968750000,169910.2187500000,136857.5625000000,120971.5859375000,133419.7500000000,155874.2968750000,,,
0.7159999989,5,177674.0781250000,196936.7656250000,169484.5156250000,170456.3125000000,137391.5156250000,121489.9218750000,134012.9375000000,153580.2500000000,,,
0.7199999988,5,177425.3906250000,190624.5156250000,169039.2968750000,169967.9687500000,136831.0625000000,120996.3125000000,133454.6093750000,154008.1250000000,,,
0.7239999988,5,177006.8906250000,207522.3281250000,168421.6093750000,169171.0000000000,136036.3750000000,120242.0000000000,132582.7343750000,156836.5937500000,,,
0.7279999990,5,176937.6093750000,221135.7968750000,168440.8125000000,169181.2656250000,136100.1875000000,120264.8203125000,132608.5625000000,157660.1562500000,,,
0.7319999989,5,177313.8281250000,215726.1562500000,169020.3437500000,169889.9375000000,136828.1718750000,120946.5625000000,133393.4843750000,155861.6250000000,,,
0.7359999989,5,177630.6875000000,197021.7968750000,169435.2187500000,170410.5468750000,137346.0156250000,121449.0703125000,133977.3281250000,153536.9843750000,,,
0.7399999988,5,177453.9218750000,190544.4218750000,169077.6562500000,169980.8281250000,136860.0312500000,121012.5468750000,133487.3125000000,153990.7031250000,,,
0.7439999988,5,177040.9687500000,207358.9531250000,168461.1250000000,169196.0781250000,136062.9531250000,120262.4375000000,132612.2187500000,156836.7500000000,,,
0.7479999987,5,176963.0781250000,221047.1718750000,168467.4062500000,169191.7812500000,136114.8281250000,120282.1796875000,132628.4375000000,157682.2812500000,,,
0.7519999989,5,177330.7031250000,215732.7031250000,169040.0781250000,169883.0156250000,136839.4218750000,120959.6250000000,133405.1562500000,155891.5156250000,,,
0.7559999989,5,177619.0781250000,197054.4375000000,169421.9375000000,170402.3125000000,137330.4687500000,121444.1640625000,133959.9687500000,153542.2500000000,,,
0.7599999988,5,177420.6718750000,190390.3593750000,169042.8593750000,169963.3281250000,136829.6093750000,120990.6562500000,133456.8750000000,153933.0937500000,,,
0.7639999988,5,177003.9531250000,207035.3125000000,168424.2656250000,169166.2187500000,136033.5937500000,120233.1718750000,132583.3593750000,156750.9375000000,,,
0.7679999988,6,176938.7500000000,220777.7500000000,168442.1562500000,169169.5937500000,136098.2343750000,120262.0625000000,132608.5468750000,157639.5000000000,,,
0.7719999987,6,177303.2656250000,215546.2656250000,169004.2968750000,169871.1875000000,136821.0781250000,120943.1015625000,133383.0781250000,155870.6250000000,,,
0.7759999987,6,177631.1406250000,196929.5312500000,169437.1250000000,170419.4843750000,137357.6250000000,121463.2109375000,133987.9687500000,153553.5937500000,,,
0.7799999986,6,177450.5781250000,190153.4687500000,169080.0625000000,169998.6718750000,136877.2500000000,121038.9609375000,133509.5000000000,153941.2031250000,,,
0.7839999986,6,176997.5000000000,206703.2812500000,168426.8906250000,169187.5468750000,136044.5000000000,120243.3125000000,132601.8906250000,156718.8437500000,,,
0.7879999985,6,176946.5000000000,220585.6718750000,168460.8750000000,169187.7031250000,136114.7812500000,120279.3593750000,132632.0312500000,157645.8593750000,,,
0.7919999987,6,177311.3437500000,215574.4531250000,169023.3906250000,169878.2656250000,136832.1093750000,120958.8203125000,133400.7343750000,155914.5312500000,,,
0.7959999987,6,177595.7968750000,196964.1562500000,169399.7343750000,170414.7968750000,137320.9375000000,121442.7734375000,133959.8437500000,153550.5312500000,,,
0.7999999986,6,177425.4375000000,190005.9218750000,169055.3593750000,169995.0781250000,136852.6250000000,121018.8984375000,133492.5156250000,153900.2343750000,,,
0.8039999986,6,177034.5312500000,206510.3750000000,168461.9062500000,169197.7656250000,136071.1406250000,120276.1953125000,132627.0468750000,156721.6250000000,,,
0.8079999986,6,176978.8593750000,220495.7500000000,168485.5781250000,169198.0000000000,136131.4062500000,120303.4765625000,132642.9218750000,157663.2968750000,,,
0.8119999988,6,177320.5937500000,215645.9062500000,169022.4218750000,169894.2031250000,136824.3593750000,120959.3281250000,133396.8906250000,155927.7812500000,,,
0.8159999987,6,177632.9375000000,197072.4375000000,169437.1562500000,170446.1250000000,137349.5625000000,121466.6171875000,133991.8906250000,153582.0781250000,,,
0.8199999987,6,177463.0000000000,189961.7343750000,169091.0156250000,170016.3281250000,136885.7812500000,121052.2109375000,133524.8906250000,153913.4687500000,,,
0.8239999986,6,177040.7812500000,206380.3750000000,168466.0312500000,169215.2031250000,136076.4218750000,120279.6562500000,132635.9531250000,156702.9062500000,,,
0.8279999986,6,176964.4843750000,220470.5312500000,168468.1718750000,169200.5468750000,136116.1718750000,120287.5937500000,132635.0625000000,157652.8593750000,,,
0.8319999985,6,177349.4062500000,215800.5312500000,169046.4687500000,169910.1562500000,136847.1875000000,120983.6328125000,133413.3125000000,155985.0625000000,,,
0.8359999987,6,177666.1406250000,197263.4375000000,169467.8906250000,170458.4531250000,137378.6562500000,121507.1171875000,134012.2500000000,153652.3281250000,,,
0.8399999987,6,177478.8750000000,189984.8906250000,169103.0625000000,170027.0468750000,136898.7343750000,121083.1406250000,133532.0781250000,153940.7343750000,,,
0.8439999986,6,177042.9375000000,206279.7187500000,168460.2031250000,169199.0781250000,136074.7031250000,120298.1093750000,132629.1406250000,156699.8437500000,,,
0.8479999986,6,176978.5000000000,220412.5468750000,168477.9375000000,169201.5781250000,136129.2812500000,120310.3671875000,132639.2500000000,157668.1250000000,,,
0.8519999986,6,177357.4531250000,215836.3437500000,169052.2343750000,169882.5625000000,136854.7187500000,120996.6406250000,133414.2187500000,156014.7656250000,,,
0.8559999987,6,177663.2968750000,197325.8593750000,169460.8593750000,170429.7500000000,137377.2656250000,121507.8437500000,134011.3281250000,153667.4218750000,,,
0.8599999987,6,177499.6875000000,189886.9843750000,169127.9687500000,170033.8125000000,136927.4062500000,121103.3125000000,133564.6093750000,153934.2968750000,,,
0.8639999987,6,177090.7812500000,206034.3125000000,168516.0781250000,169242.4843750000,136128.4531250000,120339.2031250000,132688.7968750000,156694.9375000000,,,
0.8679999986,6,177009.8281250000,220200.5625000000,168509.1406250000,169222.8906250000,136158.5781250000,120336.4687500000,132673.6875000000,157672.9531250000,,,
0.8719999986,6,177367.4843750000,215625.0156250000,169063.0312500000,169914.5000000000,136864.4062500000,121007.3906250000,133432.0000000000,156003.0312500000,,,
0.8759999985,6,177697.7656250000,197170.0468750000,169498.4375000000,170475.7031250000,137409.5625000000,121542.0390625000,134052.4062500000,153690.5937500000,,,
0.8799999987,6,177529.4843750000,189722.6718750000,169163.8906250000,170072.1718750000,136959.3750000000,121135.3593750000,133607.2812500000,153964.4218750000,,,
0.8839999987,6,177086.8437500000,205827.8593750000,168515.4687500000,169265.3593750000,136126.3593750000,120350.7343750000,132703.5156250000,156694.5156250000,,,
0.8879999986,6,177011.0468750000,220041.4375000000,168511.0937500000,169249.5781250000,136156.2968750000,120358.1640625000,132694.4843750000,157671.4218750000,,,
0.8919999986,6,177371.5625000000,215579.7031250000,169067.1093750000,169934.9687500000,136860.0312500000,121028.5546875000,133447.7187500000,156020.3125000000,,,
0.8959999986,7,177688.8281250000,197231.5156250000,169488.2187500000,170479.0625000000,137389.9218750000,121549.6328125000,134048.2656250000,153707.7968750000,,,
0.8999999985,7,177515.9687500000,189684.4062500000,169148.5156250000,170087.6718750000,136937.5781250000,121139.7890625000,133598.6718750000,153944.8437500000,,,
0.9039999985,7,177088.3437500000,205667.6875000000,168514.3437500000,169273.5156250000,136122.0781250000,120356.4218750000,132702.4218750000,156658.6250000000,,,
0.9079999984,7,177025.5312500000,219926.7656250000,168527.1250000000,169264.5468750000,136170.1718750000,120358.3828125000,132699.2500000000,157651.9843750000,,,
0.9119999984,7,177372.1250000000,215629.9531250000,169067.5625000000,169925.1875000000,136863.3750000000,121016.4062500000,133439.0000000000,156026.0468750000,,,
0.9159999983,7,177683.2500000000,197373.5468750000,169484.7343750000,170464.8437500000,137392.3437500000,121541.8203125000,134041.5625000000,153724.6093750000,,,
0.9199999985,7,177529.1406250000,189697.9218750000,169166.8437500000,170086.5625000000,136961.5000000000,121158.5078125000,133617.1093750000,153948.3281250000,,,
0.9239999985,7,177119.9062500000,205518.9062500000,168547.6562500000,169289.1406250000,136158.6562500000,120395.6640625000,132737.0781250000,156655.3281250000,,,
0.9279999984,7,177016.9687500000,219815.5937500000,168517.9062500000,169243.5468750000,136164.3125000000,120357.6796875000,132696.5468750000,157645.4375000000,,,
0.9319999984,7,177357.2812500000,215718.0312500000,169047.7812500000,169894.3125000000,136845.5468750000,121003.7968750000,133429.0781250000,156049.1718750000,,,
0.9359999984,7,177661.7500000000,197554.7187500000,169453.5625000000,170452.6875000000,137366.0000000000,121523.7421875000,134023.5937500000,153745.8281250000,,,
0.9399999985,7,177505.1562500000,189724.4218750000,169131.9218750000,170074.1718750000,136933.5468750000,121145.3359375000,133595.4375000000,153921.9843750000,,,
0.9439999985,7,177093.4843750000,205415.2343750000,168514.4375000000,169260.3125000000,136129.1875000000,120373.9062500000,132710.4687500000,156600.0468750000,,,
0.9479999985,7,177010.3906250000,219811.0625000000,168499.0156250000,169216.4531250000,136149.4531250000,120355.4843750000,132682.0000000000,157639.1875000000,,,
0.9519999984,7,177379.5781250000,215885.4218750000,169059.3593750000,169900.7500000000,136858.9062500000,121022.3359375000,133435.3593750000,156103.7343750000,,,
0.9559999984,7,177688.4375000000,197782.4687500000,169483.8750000000,170464.7031250000,137395.9843750000,121535.8984375000,134047.2031250000,153803.3593750000,,,
0.9599999983,7,177530.8593750000,189821.1875000000,169170.5468750000,170085.4218750000,136972.5000000000,121154.5156250000,133631.4531250000,153949.2656250000,,,
0.9639999985,7,177109.6718750000,205429.4218750000,168538.2656250000,169275.2500000000,136154.3437500000,120377.4531250000,132734.4218750000,156614.1562500000,,,
0.9679999985,7,177006.1562500000,219922.3437500000,168501.0625000000,169236.0468750000,136150.7968750000,120344.0859375000,132682.5625000000,157655.3281250000,,,
0.9719999984,7,177344.3593750000,216093.6250000000,169031.7968750000,169887.7656250000,136831.3906250000,120987.6562500000,133411.4843750000,156102.2500000000,,,
0.9759999984,7,177662.7968750000,197955.3750000000,169461.5312500000,170440.2968750000,137374.6718750000,121517.0156250000,134027.2656250000,153786.1875000000,,,
0.9799999984,7,177533.4062500000,189805.5625000000,169174.2968750000,170091.2656250000,136977.1562500000,121169.7734375000,133637.0000000000,153927.5937500000,,,
0.9839999985,7,177123.7500000000,205358.4218750000,168558.8281250000,169299.1562500000,136169.5000000000,120394.9375000000,132750.5156250000,156614.7968750000,,,
0.9879999985,7,177021.1250000000,219975.3906250000,168520.9375000000,169209.6718750000,136162.9218750000,120357.6796875000,132695.8750000000,157684.3593750000,,,
0.9919999985,7,177343.0468750000,216146.4843750000,169029.7187500000,169869.0937500000,136825.3437500000,120999.2656250000,133413.5781250000,156091.1562500000,,,
0.9959999984,7,177665.0156250000,197793.3906250000,169463.5468750000,170464.4375000000,137372.6875000000,121534.7968750000,134040.5781250000,153710.0156250000,,,
0.9999999984,7,177519.3750000000,189294.8125000000,169160.5312500000,170104.5937500000,136958.3593750000,121159.1562500000,133629.8437500000,153792.6093750000,,,
1.0039999983,7,177085.9218750000,204694.7343750000,168514.7343750000,169266.5312500000,136122.8750000000,120364.7109375000,132712.7187500000,156485.7343750000,,,
1.0079999985,7,176978.8281250000,219345.3906250000,168476.7656250000,169195.4375000000,136113.7031250000,120327.0234375000,132654.4375000000,157575.3437500000,,,
1.0119999985,7,177338.8593750000,215523.2968750000,169031.6562500000,169889.2656250000,136815.1875000000,121000.0468750000,133406.3593750000,156013.0625000000,,,
1.0159999984,7,177685.2187500000,197116.4531250000,169492.7500000000,170499.8437500000,137388.9531250000,121560.8437500000,134059.4531250000,153659.4375000000,,,
1.0199999984,7,177562.2343750000,188524.9531250000,169209.6718750000,170163.8125000000,136999.9531250000,121213.4140625000,133677.2343750000,153772.4062500000,,,
1.0239999983,8,177114.2500000000,203929.7500000000,168548.9375000000,169327.7187500000,136151.2500000000,120391.4531250000,132746.5156250000,156468.4531250000,,,
1.0279999983,8,176993.5000000000,218763.9687500000,168492.0468750000,169230.7343750000,136127.3906250000,120327.7187500000,132673.5312500000,157575.9062500000,,,
1.0319999983,8,177348.4375000000,215224.2031250000,169038.0156250000,169909.2812500000,136822.7656250000,120982.6640625000,133419.6875000000,156052.0468750000,,,
1.0359999982,8,177708.0937500000,197066.8281250000,169509.0156250000,170508.5625000000,137408.3593750000,121558.2109375000,134078.7343750000,153745.8437500000,,,
1.0399999982,8,177563.2812500000,188548.6718750000,169199.0312500000,170139.6250000000,136996.8750000000,121202.1484375000,133671.7656250000,153848.2812500000,,,
1.0439999981,8,177081.6875000000,204006.5468750000,168501.3281250000,169266.3437500000,136113.5625000000,120347.6250000000,132707.8906250000,156506.0937500000,,,
1.0479999983,8,176984.7343750000,219048.0781250000,168466.2500000000,169174.8281250000,136108.4218750000,120306.5625000000,132644.1250000000,157651.2343750000,,,
1.0519999983,8,177340.6093750000,215739.7343750000,169016.8281250000,169858.7187500000,136807.9062500000,120961.1796875000,133391.4687500000,156147.5312500000,,,
1.0559999982,8,177678.9375000000,197673.3125000000,169475.7500000000,170454.0312500000,137383.9218750000,121519.1093750000,134044.7812500000,153807.3593750000,,,
1.0599999982,8,177551.4843750000,189024.3125000000,169201.8906250000,170104.3437500000,137005.2500000000,121180.7187500000,133673.1562500000,153868.8906250000,,,
1.0639999982,8,177131.8437500000,204374.4843750000,168563.9375000000,169265.6718750000,136178.8593750000,120393.6796875000,132762.5468750000,156561.9843750000,,,
1.0679999983,8,177019.4843750000,219421.6562500000,168513.9687500000,169183.7968750000,136157.8750000000,120341.2968750000,132687.9062500000,157706.0312500000,,,
1.0719999983,8,177333.3125000000,216141.5312500000,169018.7031250000,169853.1406250000,136812.5468750000,120961.5000000000,133399.0937500000,156172.6875000000,,,
1.0759999983,8,177645.9218750000,198063.4062500000,169447.3906250000,170435.6093750000,137355.4531250000,121494.2109375000,134024.7968750000,153804.0312500000,,,
1.0799999982,8,177513.6875000000,189257.2031250000,169161.1718750000,170093.7500000000,136965.0312500000,121157.4609375000,133640.5937500000,153844.8750000000,,,
1.0839999982,8,177096.7031250000,204445.5937500000,168528.5312500000,169272.2187500000,136138.6718750000,120365.7031250000,132731.4843750000,156516.5156250000,,,
1.0879999981,8,176996.5781250000,219500.5625000000,168490.4687500000,169191.9687500000,136126.0468750000,120313.7734375000,132664.7812500000,157670.0312500000,,,
1.0919999983,8,177332.6875000000,216331.1562500000,169020.3906250000,169849.6718750000,136803.1406250000,120952.8359375000,133395.2812500000,156171.8593750000,,,
1.0959999983,8,177653.7031250000,198323.6875000000,169452.6250000000,170439.6250000000,137355.1093750000,121500.9218750000,134025.6093750000,153821.9687500000,,,
1.0999999982,8,177525.2968750000,189397.4062500000,169173.9531250000,170103.0156250000,136977.0468750000,121165.8281250000,133653.2656250000,153843.3750000000,,,
1.1039999982,8,177097.9218750000,204451.1718750000,168530.7031250000,169275.3906250000,136145.6250000000,120372.2734375000,132738.0937500000,156499.0312500000,,,
1.1079999981,8,176975.4218750000,219541.7031250000,168472.2812500000,169180.8593750000,136114.5156250000,120299.2656250000,132656.4218750000,157648.5468750000,,,
1.1119999983,8,177293.7656250000,216494.0937500000,168974.8437500000,169824.1718750000,136769.4843750000,120928.2187500000,133363.9843750000,156168.2343750000,,,
1.1159999983,8,177625.9843750000,198602.4218750000,169420.9843750000,170408.8281250000,137334.5625000000,121490.0000000000,134007.1250000000,153851.2031250000,,,
1.1199999982,8,177515.7500000000,189584.6718750000,169161.6875000000,170084.9843750000,136977.3750000000,121181.2265625000,133655.3750000000,153870.2812500000,,,
1.1239999982,8,177089.2500000000,204500.6562500000,168518.4375000000,169251.5625000000,136144.3906250000,120380.6171875000,132738.4687500000,156508.9531250000,,,
1.1279999982,8,176962.8437500000,219659.9687500000,168448.7343750000,169140.9843750000,136100.8906250000,120302.5390625000,132645.2656250000,157675.9843750000,,,
1.1319999981,8,177298.4062500000,216763.3125000000,168973.9375000000,169797.0781250000,136770.2031250000,120935.5390625000,133361.5625000000,156223.6250000000,,,
1.1359999983,8,177646.7812500000,198922.5937500000,169439.5312500000,170417.0625000000,137351.1875000000,121502.1796875000,134017.7187500000,153904.5625000000,,,
1.1399999983,8,177549.2812500000,189773.3906250000,169198.0000000000,170140.7500000000,137009.3281250000,121194.5312500000,133684.7031250000,153896.4531250000,,,
1.1439999982,8,177136.8906250000,204590.8906250000,168564.2343750000,169310.5000000000,136183.3125000000,120412.5078125000,132774.9218750000,156534.2968750000,,,
1.1479999982,8,176983.3281250000,219802.8437500000,168458.4062500000,169163.8906250000,136104.9843750000,120311.0078125000,132639.5156250000,157692.5156250000,,,
1.1519999981,9,177311.3125000000,217019.3906250000,168979.3593750000,169781.3281250000,136771.6718750000,120936.4218750000,133352.9062500000,156243.9062500000,,,
1.1559999981,9,177661.2812500000,199180.9531250000,169454.9375000000,170394.7343750000,137366.9687500000,121516.7968750000,134031.8281250000,153916.0625000000,,,
1.1599999981,9,177532.1875000000,189848.0937500000,169180.5937500000,170083.8593750000,136999.6406250000,121201.3750000000,133683.4843750000,153862.3125000000,,,
1.1639999980,9,177107.0156250000,204535.5781250000,168536.6562500000,169253.4687500000,136159.9687500000,120405.9609375000,132763.0312500000,156488.6718750000,,,
1.1679999980,9,176963.0781250000,219808.5000000000,168445.1562500000,169149.7812500000,136089.2656250000,120300.1484375000,132640.5156250000,157665.8125000000,,,
1.1719999979,9,177284.5937500000,217123.3437500000,168956.6093750000,169792.3906250000,136744.2968750000,120912.4687500000,133343.2187500000,156218.3593750000,,,
1.1759999981,9,177629.7968750000,199305.4375000000,169422.5000000000,170399.5312500000,137329.6250000000,121486.7031250000,134006.4531250000,153880.2500000000,,,
1.1799999981,9,177526.7031250000,189839.0625000000,169175.9531250000,170097.7031250000,136988.8750000000,121190.4296875000,133673.8906250000,153828.2500000000,,,
1.1839999980,9,177105.2968750000,204435.7187500000,168533.9218750000,169268.6250000000,136153.8281250000,120394.0781250000,132755.0156250000,156452.1406250000,,,
1.1879999980,9,176968.3125000000,219792.6875000000,168450.7187500000,169151.8437500000,136093.5000000000,120296.5312500000,132639.6562500000,157656.3281250000,,,
1.1919999979,9,177295.8593750000,217244.0781250000,168968.2500000000,169802.0625000000,136756.1406250000,120920.6796875000,133346.9843750000,156238.5312500000,,,
1.1959999981,9,177635.4375000000,199476.1562500000,169428.1406250000,170412.5156250000,137337.3750000000,121497.0078125000,134006.5937500000,153899.0937500000,,,
1.1999999981,9,177517.7031250000,189884.5781250000,169166.7656250000,170109.9843750000,136986.6562500000,121195.3906250000,133667.5312500000,153816.3437500000,,,
1.2039999980,9,177090.9687500000,204388.3281250000,168525.3125000000,169278.9218750000,136152.0312500000,120387.3437500000,132752.2812500000,156432.7812500000,,,
1.2079999980,9,176973.8125000000,219830.1562500000,168463.1093750000,169160.9843750000,136109.0937500000,120309.0546875000,132654.7343750000,157673.8125000000,,,
1.2119999980,9,177299.6718750000,217391.9687500000,168976.3281250000,169788.1406250000,136768.6250000000,120931.5703125000,133363.4218750000,156276.5937500000,,,
1.2159999979,9,177639.9687500000,199668.8750000000,169434.9843750000,170406.2031250000,137349.9687500000,121492.5234375000,134023.9375000000,153931.2656250000,,,
1.2199999981,9,177535.6562500000,189960.2968750000,169191.5625000000,170120.9062500000,137016.8593750000,121197.5625000000,133702.9687500000,153829.5312500000,,,
1.2239999981,9,177123.1562500000,204346.2187500000,168557.3281250000,169302.6093750000,136188.8906250000,120409.6875000000,132789.1875000000,156447.7812500000,,,
1.2279999980,9,176982.3906250000,219847.2187500000,168464.2031250000,169164.8593750000,136116.5937500000,120311.1484375000,132661.8281250000,157690.7343750000,,,
1.2319999980,9,177306.3281250000,217499.6406250000,168976.0781250000,169798.3906250000,136773.0468750000,120929.1250000000,133366.0468750000,156297.5781250000,,,
1.2359999979,9,177660.7031250000,199813.5000000000,169450.9062500000,170420.2343750000,137367.9062500000,121515.5625000000,134041.5156250000,153961.0781250000,,,
1.2399999981,9,177547.0000000000,189981.9062500000,169200.6406250000,170125.1875000000,137028.9531250000,121216.6093750000,133718.7656250000,153829.9062500000,,,
1.2439999981,9,177131.9218750000,204239.3281250000,168566.5000000000,169298.5625000000,136199.1562500000,120423.6875000000,132808.8750000000,156429.5156250000,,,
1.2479999980,9,176998.7343750000,219810.7656250000,168482.6562500000,169177.5625000000,136131.3750000000,120318.4453125000,132682.1406250000,157692.7187500000,,,
1.2519999980,9,177304.3906250000,217640.0000000000,168977.3437500000,169798.9062500000,136772.1875000000,120911.0234375000,133370.3906250000,156306.7187500000,,,
1.2559999980,9,177662.5000000000,199996.9843750000,169461.5625000000,170421.9843750000,137379.8906250000,121515.1328125000,134057.7343750000,153971.0000000000,,,
1.2599999979,9,177559.3125000000,189975.7343750000,169217.8750000000,170159.2500000000,137049.3906250000,121239.1093750000,133738.4531250000,153822.7031250000,,,
1.2639999981,9,177133.0468750000,204116.9375000000,168568.7343750000,169324.9843750000,136201.1406250000,120430.6953125000,132809.3281250000,156411.7187500000,,,
1.2679999981,9,176996.3437500000,219773.2031250000,168480.9687500000,169192.0781250000,136126.5312500000,120319.5937500000,132682.0625000000,157687.7656250000,,,
1.2719999980,9,177298.8750000000,217829.2187500000,168969.3750000000,169793.3281250000,136757.7343750000,120907.1093750000,133362.7500000000,156323.8281250000,,,
1.2759999980,9,177653.9687500000,200221.9218750000,169451.1250000000,170417.9531250000,137366.6406250000,121503.0625000000,134049.9531250000,153967.2343750000,33029,1.2763223271,0.0000000000
1.2799999979,10,177547.3437500000,189977.3437500000,169204.9218750000,170141.8281250000,137036.4375000000,121229.8046875000,133733.6718750000,153788.3437500000,,,
1.2839999979,10,177130.7187500000,204014.7500000000,168562.2656250000,169302.3750000000,136196.4531250000,120433.6953125000,132815.1562500000,156389.8906250000,,,
1.2879999978,10,176995.0312500000,219739.5000000000,168472.2031250000,169166.1875000000,136118.2656250000,120320.8046875000,132678.1406250000,157692.9375000000,,,
1.2919999978,10,177309.4062500000,217760.6718750000,168976.9375000000,169795.6875000000,136764.8125000000,120924.3515625000,133367.5000000000,156339.3906250000,,,
1.2959999978,10,177674.6406250000,200191.7343750000,169469.6562500000,170437.4062500000,137382.0937500000,121531.5546875000,134061.7656250000,154003.1875000000,,,
1.2999999977,10,177576.8593750000,189970.6406250000,169238.2968750000,170173.3437500000,137067.5312500000,121261.0468750000,133761.9687500000,153822.2343750000,,,
1.3039999979,10,177147.9687500000,203917.8437500000,168579.6718750000,169328.5781250000,136213.6093750000,120456.3359375000,132827.6250000000,156403.2187500000,,,
1.3079999979,10,177018.3437500000,219712.0625000000,168492.2343750000,169192.6406250000,136137.0937500000,120346.7421875000,132692.0625000000,157722.7343750000,,,
1.3119999978,10,177309.1406250000,217773.6250000000,168967.5312500000,169799.9687500000,136757.8437500000,120932.3984375000,133358.4531250000,156356.0468750000,,,
1.3159999978,10,177666.9531250000,200258.3906250000,169455.5312500000,170423.8281250000,137368.2343750000,121524.8203125000,134051.4062500000,154005.7812500000,,,
1.3199999977,10,177571.6718750000,189961.3437500000,169225.8437500000,170159.6093750000,137056.0468750000,121258.0703125000,133752.3437500000,153807.3593750000,,,
1.3239999979,10,177166.8437500000,203799.2656250000,168595.6093750000,169335.0156250000,136227.1406250000,120468.8593750000,132844.6250000000,156397.4062500000,,,
1.3279999979,10,177017.7968750000,219662.1093750000,168489.0781250000,169188.2500000000,136132.3437500000,120339.6015625000,132692.2187500000,157716.9218750000,,,
1.3319999978,10,177328.7812500000,217878.8437500000,168986.7500000000,169809.5781250000,136773.4531250000,120949.8906250000,133374.1250000000,156382.8125000000,,,
1.3359999978,10,177689.7812500000,200405.5156250000,169476.9218750000,170449.4218750000,137388.0156250000,121553.8437500000,134070.5625000000,154042.7187500000,,,
1.3399999978,10,177579.8593750000,189957.2656250000,169238.2343750000,170191.2343750000,137069.1562500000,121273.4453125000,133770.0156250000,153805.3437500000,,,
1.3439999977,10,177157.1093750000,203674.3281250000,168593.0312500000,169358.6718750000,136225.5000000000,120463.7109375000,132849.2187500000,156367.0625000000,,,
1.3479999979,10,177009.6250000000,219599.5625000000,168488.9843750000,169196.6718750000,136132.4843750000,120334.7187500000,132699.2031250000,157706.5156250000,,,
1.3519999979,10,177316.2187500000,218023.5468750000,168983.0781250000,169794.6875000000,136769.0000000000,120932.9921875000,133378.5781250000,156401.0000000000,,,
1.3559999978,10,177677.4843750000,200612.1718750000,169473.7343750000,170432.1718750000,137385.6875000000,121547.0781250000,134074.8750000000,154050.3593750000,,,
1.3599999978,10,177582.9375000000,189960.7968750000,169248.8125000000,170187.5468750000,137080.0781250000,121286.6406250000,133786.1406250000,153793.7812500000,,,
1.3639999977,10,177150.1875000000,203541.4218750000,168588.8281250000,169343.6718750000,136221.2031250000,120468.7812500000,132849.0468750000,156343.2812500000,,,
1.3679999979,10,176996.9375000000,219533.8750000000,168473.7343750000,169174.0000000000,136115.7968750000,120330.7812500000,132684.0468750000,157695.0312500000,,,
1.3719999979,10,177306.2656250000,218081.5625000000,168963.0781250000,169782.0625000000,136749.6562500000,120928.9921875000,133360.0156250000,156402.0625000000,,,
1.3759999978,10,177671.7187500000,200698.2968750000,169458.2656250000,170425.7812500000,137373.2187500000,121539.5703125000,134063.1562500000,154048.5156250000,,,
1.3799999978,10,177591.4687500000,189913.6250000000,169253.2656250000,170187.5000000000,137091.1250000000,121296.1093750000,133796.5468750000,153782.3281250000,,,
1.3839999977,10,177177.5312500000,203390.3750000000,168613.9843750000,169352.3906250000,136254.3906250000,120497.8828125000,132883.8906250000,156351.7031250000,,,
1.3879999977,10,177025.7187500000,219469.9531250000,168508.4375000000,169191.6562500000,136154.3593750000,120348.7265625000,132722.5937500000,157722.0156250000,,,
1.3919999979,10,177314.7968750000,218100.5000000000,168979.0000000000,169788.0937500000,136770.9218750000,120927.6484375000,133370.1250000000,156415.1562500000,,,
1.3959999979,10,177676.7656250000,200762.5937500000,169469.8437500000,170433.3437500000,137389.4218750000,121537.7500000000,134070.2031250000,154053.7187500000,,,
1.3999999978,10,177585.0937500000,189898.2031250000,169249.4531250000,170194.0156250000,137090.2968750000,121285.9687500000,133794.7187500000,153759.1250000000,,,
1.4039999978,10,177170.9531250000,203273.9531250000,168609.9531250000,169353.8437500000,136246.9531250000,120487.6093750000,132880.4062500000,156315.6562500000,,,
1.4079999977,11,177021.7656250000,219425.6250000000,168497.0312500000,169187.9531250000,136138.1875000000,120352.5078125000,132717.2812500000,157715.3125000000,,,
1.4119999977,11,177330.4843750000,218148.0312500000,168991.4687500000,169799.2031250000,136772.0312500000,120950.1015625000,133393.1718750000,156442.7031250000,,,
1.4159999976,11,177699.8125000000,200865.1875000000,169491.0312500000,170445.2031250000,137397.5156250000,121568.8046875000,134097.9687500000,154092.6093750000,,,
1.4199999976,11,177613.2187500000,189912.8125000000,169274.6093750000,170211.9687500000,137108.4062500000,121330.5468750000,133823.5000000000,153791.7656250000,,,
1.4239999976,11,177170.6250000000,203173.7187500000,168605.1093750000,169358.9062500000,136238.0781250000,120494.4765625000,132877.3750000000,156311.7656250000,,,
1.4279999975,11,177021.9375000000,219398.2343750000,168499.3125000000,169192.1562500000,136134.4062500000,120343.4375000000,132715.6718750000,157711.7656250000,,,
1.4319999977,11,177331.5312500000,218243.8125000000,168992.6250000000,169807.4375000000,136773.9062500000,120942.4062500000,133396.6250000000,156459.2812500000,,,
1.4359999977,11,177679.3593750000,201003.1093750000,169468.9843750000,170443.1093750000,137383.8906250000,121545.2812500000,134083.6250000000,154096.1718750000,,,
1.4399999976,11,177591.8437500000,189928.5312500000,169263.0156250000,170211.0468750000,137104.7812500000,121308.3125000000,133820.7343750000,153763.5468750000,,,
1.4439999976,11,177176.5000000000,203088.9218750000,168619.4843750000,169385.4375000000,136257.6250000000,120506.0078125000,132894.9687500000,156294.0000000000,,,
1.4479999975,11,177036.9218750000,219362.4218750000,168514.5000000000,169210.7656250000,136152.4687500000,120366.1875000000,132725.6718750000,157723.4531250000,,,
1.4519999977,11,177356.9687500000,218354.9843750000,169022.4062500000,169780.9375000000,136798.2500000000,120972.6562500000,133412.4531250000,156502.7031250000,,,
1.4559999977,11,177685.5156250000,201168.2031250000,169483.9843750000,170413.0781250000,137394.7031250000,121550.2421875000,134091.6875000000,154121.2500000000,,,
1.4599999976,11,177582.6250000000,189930.3593750000,169258.7812500000,170179.3125000000,137103.2500000000,121298.0078125000,133822.6406250000,153743.6562500000,,,
1.4639999976,11,177174.2187500000,202940.0625000000,168616.4531250000,169346.0156250000,136256.4531250000,120498.4687500000,132896.5000000000,156266.5312500000,,,
1.4679999975,11,177030.9375000000,219288.2656250000,168503.8281250000,169174.2656250000,136143.5000000000,120348.6953125000,132719.5625000000,157716.0781250000,,,
1.4719999975,11,177324.6406250000,218448.3593750000,168978.6562500000,169766.5312500000,136759.7656250000,120926.4453125000,133374.9843750000,156494.2500000000,,,
1.4759999977,11,177679.6562500000,201311.1562500000,169468.8750000000,170424.6562500000,137384.1875000000,121538.3671875000,134076.7500000000,154120.2343750000,,,
1.4799999977,11,177615.8281250000,189885.5937500000,169289.7968750000,170225.6406250000,137135.2187500000,121325.9062500000,133847.6406250000,153743.5156250000,,,
1.4839999976,11,177205.1718750000,202777.9531250000,168651.2656250000,169388.3906250000,136292.3437500000,120526.3906250000,132933.8593750000,156269.6250000000,,,
1.4879999976,11,177041.1562500000,219214.4531250000,168518.5468750000,169197.6875000000,136158.5781250000,120360.5781250000,132737.9843750000,157732.8437500000,,,
1.4919999975,11,177321.2343750000,218491.3593750000,168978.6875000000,169780.8281250000,136759.7656250000,120940.3125000000,133376.5156250000,156518.0000000000,,,
1.4959999977,11,177685.2656250000,201409.6718750000,169481.4062500000,170433.8125000000,137395.1093750000,121573.1250000000,134094.2187500000,154153.0312500000,,,
1.4999999977,11,177600.1093750000,189889.4531250000,169278.6406250000,170223.2343750000,137125.2500000000,121342.7265625000,133848.0937500000,153741.3750000000,,,
1.5039999976,11,177183.1562500000,202656.1875000000,168635.0937500000,169375.7031250000,136275.1718750000,120521.7812500000,132926.6562500000,156241.5468750000,,,
1.5079999976,11,177003.5000000000,219142.5156250000,168475.0156250000,169180.1718750000,136119.4218750000,120343.0390625000,132711.9687500000,157703.6093750000,,,
1.5119999975,11,177296.9375000000,218498.8437500000,168950.5781250000,169769.0468750000,136737.3437500000,120918.6406250000,133365.1562500000,156498.8750000000,,,
1.5159999975,11,177668.7500000000,201479.6875000000,169456.7656250000,170422.2500000000,137376.2968750000,121540.8593750000,134080.3437500000,154139.2187500000,,,
1.5199999977,11,177606.9218750000,189898.8750000000,169279.7812500000,170225.1875000000,137132.1875000000,121333.1484375000,133859.1718750000,153730.9843750000,,,
1.5239999976,11,177188.6562500000,202580.5156250000,168631.7656250000,169372.4843750000,136279.0312500000,120529.9375000000,132933.0000000000,156239.4531250000,,,
1.5279999976,11,177034.4843750000,219158.2656250000,168512.3281250000,169175.2812500000,136151.0625000000,120370.3984375000,132740.0468750000,157741.5312500000,,,
1.5319999976,11,177309.8125000000,218629.4687500000,168965.7031250000,169762.4218750000,136745.6875000000,120938.4609375000,133371.8125000000,156542.5937500000,,,
1.5359999975,12,177657.6093750000,201633.6718750000,169446.8593750000,170419.4531250000,137363.9375000000,121543.7812500000,134072.5937500000,154154.5625000000,,,
1.5399999975,12,177589.3750000000,189925.1875000000,169263.3906250000,170223.8125000000,137115.7187500000,121334.4375000000,133842.0625000000,153718.8437500000,,,
1.5439999974,12,177168.4843750000,202488.0937500000,168610.4687500000,169367.0625000000,136258.3281250000,120527.0937500000,132909.0000000000,156213.8593750000,,,
1.5479999974,12,177000.0468750000,219114.8906250000,168470.0468750000,169166.6562500000,136114.5156250000,120344.0000000000,132703.7656250000,157712.6562500000,,,
1.5519999973,12,177296.1093750000,218719.0937500000,168950.7031250000,169774.3281250000,136734.5781250000,120911.9609375000,133361.5468750000,156541.9531250000,,,
1.5559999973,12,177657.7187500000,201781.6250000000,169449.7812500000,170428.2031250000,137367.8750000000,121529.9921875000,134073.0000000000,154166.9375000000,,,
1.5599999975,12,177597.6718750000,189941.8437500000,169277.6875000000,170240.2656250000,137131.8125000000,121334.9218750000,133858.0000000000,153714.7187500000,,,
1.5639999975,12,177164.1718750000,202379.4843750000,168607.4062500000,169384.9062500000,136256.2968750000,120507.1328125000,132910.9843750000,156182.3906250000,,,
1.5679999974,12,176998.2656250000,219068.6250000000,168465.4375000000,169154.1718750000,136107.3281250000,120331.9296875000,132698.7968750000,157698.8125000000,,,
1.5719999974,12,177299.0312500000,218800.0312500000,168946.9531250000,169742.5156250000,136725.2187500000,120912.4140625000,133351.9687500000,156551.2500000000,,,
1.5759999973,12,177674.5156250000,201925.4062500000,169458.5625000000,170425.4687500000,137373.4531250000,121549.5781250000,134079.7031250000,154194.2656250000,,,
1.5799999975,12,177607.0000000000,189975.0781250000,169284.1562500000,170213.8906250000,137140.6406250000,121352.3515625000,133868.5000000000,153725.2500000000,,,
1.5839999975,12,177184.9218750000,202294.9687500000,168635.5468750000,169372.5312500000,136287.1093750000,120532.0234375000,132941.9687500000,156198.0312500000,,,
1.5879999974,12,177002.3281250000,219041.7500000000,168470.3437500000,169155.8906250000,136115.3125000000,120338.6093750000,132704.4218750000,157717.8750000000,,,
1.5919999974,12,177283.6093750000,218856.7812500000,168934.5625000000,169730.6406250000,136716.0156250000,120896.1328125000,133338.0000000000,156558.2812500000,,,
1.5959999973,12,177667.0312500000,202025.6406250000,169459.0156250000,170406.9531250000,137374.4218750000,121537.2109375000,134077.4531250000,154196.3750000000,,,
1.5999999973,12,177609.6250000000,189992.0000000000,169289.6875000000,170241.3281250000,137144.7500000000,121348.3593750000,133870.8437500000,153712.8125000000,,,
1.6039999975,12,177182.0000000000,202188.6406250000,168626.7031250000,169400.9375000000,136277.1250000000,120518.3750000000,132935.3906250000,156167.3750000000,,,
1.6079999974,12,177005.5468750000,218996.6875000000,168468.9843750000,169172.6093750000,136110.4375000000,120324.6406250000,132703.4062500000,157706.9843750000,,,
1.6119999974,12,177289.7187500000,219025.9218750000,168931.9531250000,169741.8437500000,136711.7812500000,120887.5234375000,133339.2343750000,156582.3750000000,,,
1.6159999974,12,177678.1406250000,202266.8593750000,169465.6406250000,170431.4218750000,137381.5625000000,121541.9296875000,134088.6562500000,154223.0625000000,,,
1.6199999973,12,177631.9687500000,190016.4062500000,169317.9062500000,170261.3125000000,137173.7187500000,121368.4218750000,133905.1250000000,153716.0312500000,,,
1.6239999975,12,177221.8593750000,202082.4062500000,168678.0625000000,169414.3281250000,136325.6718750000,120565.6875000000,132983.7812500000,156180.5000000000,,,
1.6279999975,12,177021.9531250000,218941.4531250000,168489.6562500000,169195.6718750000,136131.1875000000,120347.7343750000,132722.0000000000,157720.8125000000,,,
1.6319999974,12,177289.0000000000,219023.1093750000,168934.2656250000,169739.1718750000,136716.2031250000,120889.6171875000,133342.0156250000,156585.5312500000,,,
1.6359999974,12,177682.4531250000,202317.5312500000,169469.4218750000,170417.7656250000,137388.2656250000,121547.1640625000,134092.6093750000,154232.4062500000,,,
1.6399999973,12,177619.6093750000,190005.9218750000,169300.0156250000,170245.8593750000,137162.9843750000,121368.8750000000,133890.0468750000,153699.6562500000,,,
1.6439999973,12,177202.4375000000,201963.1562500000,168652.2500000000,169399.0312500000,136305.6406250000,120552.9218750000,132960.8281250000,156148.5468750000,,,
1.6479999975,12,177004.8750000000,218877.1875000000,168471.2031250000,169163.6250000000,136113.8125000000,120324.9296875000,132705.3437500000,157697.4375000000,,,
1.6519999974,12,177303.5312500000,219027.7968750000,168952.1250000000,169731.5000000000,136730.7968750000,120900.6171875000,133353.0468750000,156600.6406250000,,,
1.6559999974,12,177673.7343750000,202334.4531250000,169465.8437500000,170398.1875000000,137384.1562500000,121534.0468750000,134086.8437500000,154230.0468750000,,,
1.6599999974,12,177615.3906250000,189974.3437500000,169298.9687500000,170222.3750000000,137166.4218750000,121366.2968750000,133896.9062500000,153688.7187500000,,,
1.6639999973,13,177213.8750000000,201822.9531250000,168663.0937500000,169388.1250000000,136321.3125000000,120562.8750000000,132977.9375000000,156139.5625000000,,,
1.6679999973,13,177014.3437500000,218788.3906250000,168475.3125000000,169155.7031250000,136122.7187500000,120336.4687500000,132712.9843750000,157703.6406250000,,,
1.6719999972,13,177290.8750000000,219045.5468750000,168932.1250000000,169730.4531250000,136714.5000000000,120888.4375000000,133338.8437500000,156600.0156250000,,,
1.6759999972,13,177664.8281250000,202422.8281250000,169447.5312500000,170399.2343750000,137368.9218750000,121536.3515625000,134072.7343750000,154236.4062500000,,,
1.6799999971,13,177618.7500000000,189963.2343750000,169299.6093750000,170251.5781250000,137167.1406250000,121379.6328125000,133897.9843750000,153685.3750000000,,,
1.6839999971,13,177207.6406250000,201673.9062500000,168656.2343750000,169412.7187500000,136313.6562500000,120572.8203125000,132973.6718750000,156118.1562500000,,,
1.6879999973,13,177023.1718750000,218711.6250000000,168484.9375000000,169166.9687500000,136125.4062500000,120364.2500000000,132718.9062500000,157718.8750000000,,,
1.6919999972,13,177312.7656250000,219132.7187500000,168954.5937500000,169736.3281250000,136728.3906250000,120921.4531250000,133356.2812500000,156648.1562500000,,,
1.6959999972,13,177694.7343750000,202596.9375000000,169477.5937500000,170423.2343750000,137391.3437500000,121567.9453125000,134096.7343750000,154290.1562500000,,,
1.6999999972,13,177619.3437500000,189997.0312500000,169303.0625000000,170248.9218750000,137166.6875000000,121377.9375000000,133896.5937500000,153682.8750000000,,,
1.7039999971,13,177191.3593750000,201575.2187500000,168639.1718750000,169388.2812500000,136297.9218750000,120556.0078125000,132958.8125000000,156090.4218750000,,,
1.7079999973,13,177006.2187500000,218658.9062500000,168469.2500000000,169147.1718750000,136112.9843750000,120334.2109375000,132707.7500000000,157699.4843750000,,,
1.7119999973,13,177290.1250000000,219194.8125000000,168933.0312500000,169711.7031250000,136713.8281250000,120886.1328125000,133344.3281250000,156637.3750000000,,,
1.7159999972,13,177671.4531250000,202702.7187500000,169457.9375000000,170400.3281250000,137381.1250000000,121541.9609375000,134094.8125000000,154270.5781250000,,,
1.7199999972,13,177632.7812500000,189976.7656250000,169321.3593750000,170259.4375000000,137195.2812500000,121395.8828125000,133938.1093750000,153671.8437500000,,,
1.7239999971,13,177206.5156250000,201425.4218750000,168657.0312500000,169397.3281250000,136324.0937500000,120573.9218750000,132998.1875000000,156071.8906250000,,,
1.7279999971,13,177029.8750000000,218583.7812500000,168492.7968750000,169149.1406250000,136139.6875000000,120358.3828125000,132746.4375000000,157710.5937500000,,,
1.7319999973,13,177310.9375000000,219264.5000000000,168945.3437500000,169707.6718750000,136725.9218750000,120916.4375000000,133365.9687500000,156669.1718750000,,,
1.7359999972,13,177693.8437500000,202847.1562500000,169471.8593750000,170400.8750000000,137394.9687500000,121583.0234375000,134122.5937500000,154309.2031250000,,,
1.7399999972,13,177634.6875000000,190002.4218750000,169322.4531250000,170258.6093750000,137197.8593750000,121421.7656250000,133959.7500000000,153670.2968750000,,,
1.7439999972,13,177213.3593750000,201311.7500000000,168666.0156250000,169404.8281250000,136335.3906250000,120606.0546875000,133036.8906250000,156062.9843750000,,,
1.7479999971,13,177041.2656250000,218510.9375000000,168507.3906250000,169148.5156250000,136157.7656250000,120399.8437500000,132797.5000000000,157722.7656250000,,,
1.7519999973,13,177313.4531250000,219299.6718750000,168955.0468750000,169721.7343750000,136744.1093750000,120940.6875000000,133416.7968750000,156689.1406250000,,,
1.7559999973,13,177689.9062500000,202942.9062500000,169473.9531250000,170407.9843750000,137407.6875000000,121605.8984375000,134165.1250000000,154320.8593750000,,,
1.7599999972,13,177649.3281250000,189997.7031250000,169337.2968750000,170268.6093750000,137224.5468750000,121473.3437500000,134018.4218750000,153678.4531250000,,,
1.7639999972,13,177240.8750000000,201170.2031250000,168692.2812500000,169424.8125000000,136371.0937500000,120664.7109375000,133100.2656250000,156073.9218750000,,,
1.7679999971,13,177048.1875000000,218418.0468750000,168506.5937500000,169157.5000000000,136164.4843750000,120437.2109375000,132821.7812500000,157739.2343750000,,,
1.7719999971,13,177327.9687500000,219317.0937500000,168963.9531250000,169715.1562500000,136756.4375000000,120990.0156250000,133449.2812500000,156725.2968750000,,,
1.7759999973,13,177710.6718750000,203021.8750000000,169495.7656250000,170412.4843750000,137430.4062500000,121647.8750000000,134212.0781250000,154357.5000000000,,,
1.7799999972,13,177674.4843750000,189998.4843750000,169366.4531250000,170280.5781250000,137255.1250000000,121516.1250000000,134068.9218750000,153700.3906250000,,,
1.7839999972,13,177235.5156250000,201036.0468750000,168690.7500000000,169407.5156250000,136370.6562500000,120690.0078125000,133120.7031250000,156059.8437500000,,,
1.7879999971,13,177023.7500000000,218322.0781250000,168487.8906250000,169130.8437500000,136147.7656250000,120438.1484375000,132832.6875000000,157716.0312500000,,,
1.7919999971,14,177308.6093750000,219338.7656250000,168948.0781250000,169682.9218750000,136741.6875000000,120987.3593750000,133458.7656250000,156722.6718750000,,,
1.7959999971,14,177711.8281250000,203128.2187500000,169493.5312500000,170404.1718750000,137430.3281250000,121672.6875000000,134225.7031250000,154384.7812500000,,,
1.7999999970,14,177689.7187500000,190002.7500000000,169380.3906250000,170298.9218750000,137271.9375000000,121550.9453125000,134093.8125000000,153716.2343750000,,,
1.8039999970,14,177256.1875000000,200907.0781250000,168710.0312500000,169427.2500000000,136391.9062500000,120705.8046875000,133144.7187500000,156055.2812500000,,,
1.8079999969,14,177043.8125000000,218224.7187500000,168505.4062500000,169149.2656250000,136164.2031250000,120446.1171875000,132854.7968750000,157721.7656250000,,,
1.8119999969,14,177311.3125000000,219341.9687500000,168953.3593750000,169700.1093750000,136743.2656250000,120975.5312500000,133463.3281250000,156730.7812500000,,,
1.8159999971,14,177693.7656250000,203194.2812500000,169482.1250000000,170390.7812500000,137412.7500000000,121638.9453125000,134211.2343750000,154374.1250000000,,,
1.8199999970,14,177673.6875000000,189994.9531250000,169370.4687500000,170287.0312500000,137258.1718750000,121527.2578125000,134084.1875000000,153692.1250000000,,,
1.8239999970,14,177249.9687500000,200761.5781250000,168704.1875000000,169439.0312500000,136385.0625000000,120704.9218750000,133137.4218750000,156034.6562500000,,,
1.8279999970,14,177050.9843750000,218144.4375000000,168505.1718750000,169156.8593750000,136160.7812500000,120455.8203125000,132841.1718750000,157736.6875000000,,,
1.8319999969,14,177316.2187500000,219418.5468750000,168946.7343750000,169701.3437500000,136733.7500000000,120977.5937500000,133441.8750000000,156763.8750000000,,,
1.8359999971,14,177678.1562500000,203351.3593750000,169459.3593750000,170382.1250000000,137391.6406250000,121612.7968750000,134178.3281250000,154383.8750000000,,,
1.8399999971,14,177665.8437500000,190009.5312500000,169355.9843750000,170278.3437500000,137248.5156250000,121504.2968750000,134061.5937500000,153673.7343750000,,,
1.8439999970,14,177251.3593750000,200619.8750000000,168703.3593750000,169433.2656250000,136385.0625000000,120680.6718750000,133125.0000000000,156001.5156250000,,,
1.8479999970,14,177045.6875000000,218057.4062500000,168499.5000000000,169150.1562500000,136154.7343750000,120422.3750000000,132822.2343750000,157717.8750000000,,,
1.8519999969,14,177299.6718750000,219468.7187500000,168929.1875000000,169680.7500000000,136717.7343750000,120940.2343750000,133411.1093750000,156758.7812500000,,,
1.8559999969,14,177678.1875000000,203484.8437500000,169458.2812500000,170376.7031250000,137391.3750000000,121594.2109375000,134157.7812500000,154396.7500000000,,,
1.8599999971,14,177657.6875000000,190039.6875000000,169348.5312500000,170283.0468750000,137240.8437500000,121477.5078125000,134035.5781250000,153653.7500000000,,,
1.8639999970,14,177259.6875000000,200499.2031250000,168709.5000000000,169446.5156250000,136389.2187500000,120677.2109375000,133113.4375000000,155975.7812500000,,,
1.8679999970,14,177058.1093750000,217980.6406250000,168511.0937500000,169154.1718750000,136158.5000000000,120415.0781250000,132810.5625000000,157709.4531250000,,,
1.8719999969,14,177299.4843750000,219548.9531250000,168926.1875000000,169685.6562500000,136703.0468750000,120911.9375000000,133381.0625000000,156763.5781250000,,,
1.8759999969,14,177684.8593750000,203653.9062500000,169461.0000000000,170379.4062500000,137382.0468750000,121576.9375000000,134134.6406250000,154412.2500000000,,,
1.8799999971,14,177657.7500000000,190080.6718750000,169348.6406250000,170279.6875000000,137230.8437500000,121462.6171875000,134013.7187500000,153640.7656250000,,,
1.8839999971,14,177254.3750000000,200383.8125000000,168706.2187500000,169446.4062500000,136378.2187500000,120656.1562500000,133094.7500000000,155943.0625000000,,,
1.8879999970,14,177073.3750000000,217920.6875000000,168525.0468750000,169151.9218750000,136166.8437500000,120419.5859375000,132807.1562500000,157721.1875000000,,,
1.8919999970,14,177324.0312500000,219581.4062500000,168955.0312500000,169686.2500000000,136727.2656250000,120927.9453125000,133389.5781250000,156806.5937500000,,,
1.8959999969,14,177659.4687500000,203734.2343750000,169441.4375000000,170369.0781250000,137364.5000000000,121552.2578125000,134109.6093750000,154419.0312500000,,,
1.8999999969,14,177633.5000000000,190083.8906250000,169331.8750000000,170278.2968750000,137218.6406250000,121440.7578125000,133998.5156250000,153618.7656250000,,,
1.9039999971,14,177230.2500000000,200237.2343750000,168687.9375000000,169443.9843750000,136363.5468750000,120637.4375000000,133078.8437500000,155899.8593750000,,,
1.9079999970,14,177025.8437500000,217805.8437500000,168482.1562500000,169148.2031250000,136125.8593750000,120370.4765625000,132768.2656250000,157670.4062500000,,,
1.9119999970,14,177284.2968750000,219560.6718750000,168910.8750000000,169654.5156250000,136685.0937500000,120894.1250000000,133351.0000000000,156777.8281250000,,,
1.9159999969,14,177648.1250000000,203758.2187500000,169422.4531250000,170341.0625000000,137343.9062500000,121543.9687500000,134087.6406250000,154415.4062500000,,,
1.9199999969,15,177642.2656250000,190063.3437500000,169338.0468750000,170278.6875000000,137221.8906250000,121451.3281250000,133992.7500000000,153621.5000000000,,,
1.9239999969,15,177242.5625000000,200093.6562500000,168699.7812500000,169457.9687500000,136372.8593750000,120642.9921875000,133080.2343750000,155886.8906250000,,,
1.9279999968,15,177038.7812500000,217694.5000000000,168488.0468750000,169155.5468750000,136127.8125000000,120363.5546875000,132762.3593750000,157661.7187500000,,,
1.9319999968,15,177291.5156250000,219576.0468750000,168912.5937500000,169664.2812500000,136685.2031250000,120879.9062500000,133340.1875000000,156779.8906250000,,,
1.9359999967,15,177670.4687500000,203879.2656250000,169442.6562500000,170366.4062500000,137365.5781250000,121551.6406250000,134098.9375000000,154437.7500000000,,,
1.9399999967,15,177696.8750000000,190100.0312500000,169391.7968750000,170299.5937500000,137279.1562500000,121506.4687500000,134042.4687500000,153661.3906250000,,,
1.9439999969,15,177275.9843750000,199972.4687500000,168736.3125000000,169461.4062500000,136413.2812500000,120676.8671875000,133114.3750000000,155902.2187500000,,,
1.9479999968,15,177009.7812500000,217604.5937500000,168458.2500000000,169126.4218750000,136105.1718750000,120352.7187500000,132738.1406250000,157648.3593750000,,,
1.9519999968,15,177258.7968750000,219628.3125000000,168877.9375000000,169647.8593750000,136652.9687500000,120863.8437500000,133310.8437500000,156780.2031250000,,,
1.9559999967,15,177647.2812500000,204017.7500000000,169422.2187500000,170361.2343750000,137340.9531250000,121534.3906250000,134075.0937500000,154439.3437500000,,,
1.9599999967,15,177650.4531250000,190101.9687500000,169347.5625000000,170295.9687500000,137232.6718750000,121463.7421875000,133999.1250000000,153608.7968750000,,,
1.9639999969,15,177248.1250000000,199824.6875000000,168701.7968750000,169463.9531250000,136376.3437500000,120659.5078125000,133082.2187500000,155844.7812500000,,,
1.9679999969,15,177020.3437500000,217507.6875000000,168463.5625000000,169139.9375000000,136101.1250000000,120364.6328125000,132733.5312500000,157644.7656250000,,,
1.9719999968,15,177266.6875000000,219665.7343750000,168883.1718750000,169650.2187500000,136649.6093750000,120872.3203125000,133302.9375000000,156800.1093750000,,,
1.9759999968,15,177644.0937500000,204143.0937500000,169421.0312500000,170352.5312500000,137336.8437500000,121533.0000000000,134068.9687500000,154454.4843750000,,,
1.9799999967,15,177642.0781250000,190128.0156250000,169345.5468750000,170301.5000000000,137232.8281250000,121460.8515625000,133997.5781250000,153598.6250000000,,,
1.9839999967,15,177245.8750000000,199707.4062500000,168705.4218750000,169484.0937500000,136385.0312500000,120664.9062500000,133088.7656250000,155826.0156250000,,,
1.9879999969,15,177018.2812500000,217439.9062500000,168468.9843750000,169145.2187500000,136111.3437500000,120358.5937500000,132741.0468750000,157638.7031250000,,,
1.9919999968,15,177249.5468750000,219700.0937500000,168872.8750000000,169647.4843750000,136645.1562500000,120849.4140625000,133296.9843750000,156793.9687500000,,,
1.9959999968,15,177646.3750000000,204249.2500000000,169427.3593750000,170367.4531250000,137348.4062500000,121534.9843750000,134077.6406250000,154470.3437500000,,,
1.9999999967,15,177661.1250000000,190151.5000000000,169368.2968750000,170323.2500000000,137261.0781250000,121478.5781250000,134027.2656250000,153612.7343750000,,,
2.0039999967,15,177232.3750000000,199593.8750000000,168693.9687500000,169469.2656250000,136382.2812500000,120653.3125000000,133087.9843750000,155802.2968750000,,,
2.0079999969,15,177004.2343750000,217366.3281250000,168453.0156250000,169119.1562500000,136104.3125000000,120352.6406250000,132734.0625000000,157628.5937500000,,,
2.0119999968,15,177245.4062500000,219744.7812500000,168863.4218750000,169624.9843750000,136640.1875000000,120847.7500000000,133290.9531250000,156810.0312500000,,,
2.0159999968,15,177632.6406250000,204379.0156250000,169407.8593750000,170335.5000000000,137330.5625000000,121521.1406250000,134060.5781250000,154481.0468750000,,,
2.0199999968,15,177636.2656250000,190180.9375000000,169339.4687500000,170288.6250000000,137233.9843750000,121461.1406250000,133999.1562500000,153585.4218750000,,,
2.0239999967,15,177245.8125000000,199473.1718750000,168707.4375000000,169472.3750000000,136393.6718750000,120673.2187500000,133095.8125000000,155788.3281250000,,,
2.0279999967,15,177025.5781250000,217292.8437500000,168471.2031250000,169133.9531250000,136117.5156250000,120377.8828125000,132743.0468750000,157641.2812500000,,,
2.0319999969,15,177276.5468750000,219793.0000000000,168892.5000000000,169641.0000000000,136665.0937500000,120877.2031250000,133308.7031250000,156846.1093750000,,,
2.0359999968,15,177656.3750000000,204484.6406250000,169432.4375000000,170349.2031250000,137353.2812500000,121535.8671875000,134073.0781250000,154509.3750000000,,,
2.0399999968,15,177659.8906250000,190206.3281250000,169366.0781250000,170303.1093750000,137261.0156250000,121475.0625000000,134015.5000000000,153599.1875000000,,,
2.0439999967,15,177257.4218750000,199355.7187500000,168716.4375000000,169484.2500000000,136403.1875000000,120669.7265625000,133097.0781250000,155777.3281250000,,,
2.0479999967,16,177025.2500000000,217207.2187500000,168467.7187500000,169143.2656250000,136111.0000000000,120355.0546875000,132729.4843750000,157632.7968750000,,,
2.0519999966,16,177251.7343750000,219839.1875000000,168867.3437500000,169632.2031250000,136634.6406250000,120841.0937500000,133279.6875000000,156842.9375000000,,,
2.0559999966,16,177645.2187500000,204620.7656250000,169420.0156250000,170350.7187500000,137335.7187500000,121529.3515625000,134063.7187500000,154523.9843750000,,,
2.0599999966,16,177675.6406250000,190246.2656250000,169385.2812500000,170327.8125000000,137272.9062500000,121493.3046875000,134039.6562500000,153608.5468750000,,,
2.0639999965,16,177267.5625000000,199252.8906250000,168728.7812500000,169493.9375000000,136410.1093750000,120688.4218750000,133118.4531250000,155765.0937500000,,,
2.0679999965,16,177033.7031250000,217144.1093750000,168473.6718750000,169151.0625000000,136114.0781250000,120372.7578125000,132744.3906250000,157633.6562500000,,,
2.0719999967,16,177269.4687500000,219874.5156250000,168882.1250000000,169637.7031250000,136649.7187500000,120859.0156250000,133301.0625000000,156859.7343750000,,,
2.0759999966,16,177647.8281250000,204700.3125000000,169421.0625000000,170344.7812500000,137341.5156250000,121530.6640625000,134074.6406250000,154527.1718750000,,,
2.0799999966,16,177657.6406250000,190254.9062500000,169363.2343750000,170316.1093750000,137261.2031250000,121480.3203125000,134029.9218750000,153582.0781250000,,,
2.0839999965,16,177252.3125000000,199123.3906250000,168712.7968750000,169491.7031250000,136403.9218750000,120671.3671875000,133111.4218750000,155723.7656250000,,,
2.0879999965,16,177023.1718750000,217050.1718750000,168461.4687500000,169145.7500000000,136109.3593750000,120362.0000000000,132743.1093750000,157618.0468750000,,,
2.0919999967,16,177251.3906250000,219901.0781250000,168861.5156250000,169633.7343750000,136633.3750000000,120849.0859375000,133287.4375000000,156866.8750000000,,,
2.0959999966,16,177631.3750000000,204810.6718750000,169408.6406250000,170339.7187500000,137327.5937500000,121520.9531250000,134062.8281250000,154539.8593750000,,,
2.0999999966,16,177633.4687500000,190272.7968750000,169346.3593750000,170306.4218750000,137242.7812500000,121472.6484375000,134019.5937500000,153564.9687500000,,,
2.1039999966,16,177246.4843750000,198999.9843750000,168714.9687500000,169490.5000000000,136403.2500000000,120684.8281250000,133121.1875000000,155704.0781250000,,,
2.1079999965,16,177028.7968750000,216969.7656250000,168473.8906250000,169146.1562500000,136118.0156250000,120376.1640625000,132758.3437500000,157616.1406250000,,,
2.1119999965,16,177253.5468750000,219936.2812500000,168864.9531250000,169615.2500000000,136635.5000000000,120849.7031250000,133294.0781250000,156874.1093750000,,,
2.1159999967,16,177635.1093750000,204928.4687500000,169407.2968750000,170320.3750000000,137329.5468750000,121525.0625000000,134064.5000000000,154554.2187500000,,,
2.1199999966,16,177672.6562500000,190292.3281250000,169381.3593750000,170309.4062500000,137283.2031250000,121512.2421875000,134058.3281250000,153592.2187500000,,,
2.1239999966,16,177279.9062500000,198882.0468750000,168740.8281250000,169502.2968750000,136433.9531250000,120720.6953125000,133153.5625000000,155721.0781250000,,,
2.1279999965,16,177041.7187500000,216898.8125000000,168478.0937500000,169153.7812500000,136121.5312500000,120389.5234375000,132766.1406250000,157636.5781250000,,,
2.1319999965,16,177242.9375000000,219992.0312500000,168847.5468750000,169603.2656250000,136613.6093750000,120844.9062500000,133278.5000000000,156893.4531250000,,,
2.1359999967,16,177620.6875000000,205066.6093750000,169390.4843750000,170302.6250000000,137307.5000000000,121518.5937500000,134050.3281250000,154569.0468750000,,,
2.1399999966,16,177664.8281250000,190340.6093750000,169376.8593750000,170316.2500000000,137274.2187500000,121506.4453125000,134054.2968750000,153585.0468750000,,,
2.1439999966,16,177287.3125000000,198793.2343750000,168754.7187500000,169503.7500000000,136443.7968750000,120725.3828125000,133163.6718750000,155706.8437500000,,,
2.1479999966,16,177031.4531250000,216834.0781250000,168470.2968750000,169138.1875000000,136114.1562500000,120375.2500000000,132755.6093750000,157619.2812500000,,,
2.1519999965,16,177244.9843750000,220035.0156250000,168852.5937500000,169603.1875000000,136621.3593750000,120829.4531250000,133281.4843750000,156893.7656250000,,,
2.1559999965,16,177656.7500000000,205181.7187500000,169430.3593750000,170340.5156250000,137348.4843750000,121530.5312500000,134083.4843750000,154603.2500000000,,,
2.1599999967,16,177686.2812500000,190388.6718750000,169398.2343750000,170349.4843750000,137298.2500000000,121516.7421875000,134069.3750000000,153604.9531250000,,,
2.1639999966,16,177280.2031250000,198674.3906250000,168746.8593750000,169513.0312500000,136437.8437500000,120721.1718750000,133156.2656250000,155691.2656250000,,,
2.1679999966,16,177019.9531250000,216743.9687500000,168456.8593750000,169124.0781250000,136098.3125000000,120373.1562500000,132750.4218750000,157614.1093750000,,,
2.1719999965,16,177229.8750000000,220050.9531250000,168833.9531250000,169596.3906250000,136599.6093750000,120833.9062500000,133273.0312500000,156903.7031250000,,,
2.1759999965,17,177610.9687500000,205278.7187500000,169377.0156250000,170301.0625000000,137294.4687500000,121507.0078125000,134044.2500000000,154587.3437500000,,,
2.1799999964,17,177641.1406250000,190396.3125000000,169351.9843750000,170288.1406250000,137255.2031250000,121492.1796875000,134043.0625000000,153556.6406250000,,,
2.1839999964,17,177271.7187500000,198534.0781250000,168747.7968750000,169473.8125000000,136442.0312500000,120718.3046875000,133169.1250000000,155648.0156250000,,,
2.1879999964,17,177019.1718750000,216622.4687500000,168463.4843750000,169106.0937500000,136108.9531250000,120368.8437500000,132756.0937500000,157594.5000000000,,,
2.1919999963,17,177217.7031250000,220058.5937500000,168822.3593750000,169577.0312500000,136596.0468750000,120820.5546875000,133262.5937500000,156901.8437500000,,,
2.1959999963,17,177613.2500000000,205380.9375000000,169381.7343750000,170300.0156250000,137306.1562500000,121513.0156250000,134051.6718750000,154608.7968750000,,,
2.1999999965,17,177657.9843750000,190419.9375000000,169375.2500000000,170321.2656250000,137281.7031250000,121512.2109375000,134069.2968750000,153573.4687500000,,,
2.2039999964,17,177266.0937500000,198407.5312500000,168737.4218750000,169516.5468750000,136435.7031250000,120721.9765625000,133169.2500000000,155630.2656250000,,,
2.2079999964,17,177021.6406250000,216540.9843750000,168460.4843750000,169134.8593750000,136105.4218750000,120381.7109375000,132764.4843750000,157591.6875000000,,,
2.2119999963,17,177252.3281250000,220102.7968750000,168852.5156250000,169602.3750000000,136618.3593750000,120862.9531250000,133295.9687500000,156948.1875000000,,,
2.2159999963,17,177623.4375000000,205509.6562500000,169393.5468750000,170308.3906250000,137306.7187500000,121518.8359375000,134067.6406250000,154631.7656250000,,,
2.2199999965,17,177645.2500000000,190458.2500000000,169361.5937500000,170322.6562500000,137262.2500000000,121503.0390625000,134070.5781250000,153552.8125000000,,,
2.2239999964,17,177247.7187500000,198279.4531250000,168720.4375000000,169499.3593750000,136413.6250000000,120711.6015625000,133164.2656250000,155582.4687500000,,,
2.2279999964,17,176996.2031250000,216427.8437500000,168437.6875000000,169098.6875000000,136076.8281250000,120359.2890625000,132747.2031250000,157552.0625000000,,,
2.2319999964,17,177216.7343750000,220096.4375000000,168822.1250000000,169566.9375000000,136586.0468750000,120825.7578125000,133270.7812500000,156915.5468750000,,,
2.2359999963,17,177612.1718750000,205586.6875000000,169381.8906250000,170288.3281250000,137300.2656250000,121515.7812500000,134058.7812500000,154635.1718750000,,,
2.2399999963,17,177658.5000000000,190476.5937500000,169379.0000000000,170318.6562500000,137285.7968750000,121526.5078125000,134083.2187500000,153566.5468750000,,,
2.2439999965,17,177277.8437500000,198153.6875000000,168756.1093750000,169509.3593750000,136458.0156250000,120751.2968750000,133195.2500000000,155597.1406250000,,,
2.2479999964,17,177037.7343750000,216342.5000000000,168482.9531250000,169126.7187500000,136127.1718750000,120399.3125000000,132781.8906250000,157597.0000000000,,,
2.2519999964,17,177223.4375000000,220125.5468750000,168829.0468750000,169569.2968750000,136596.6093750000,120828.3281250000,133270.9843750000,156948.6718750000,,,
2.2559999963,17,177618.9375000000,205693.2500000000,169388.1718750000,170299.4062500000,137308.6250000000,121514.1953125000,134064.6875000000,154658.5468750000,,,
2.2599999963,17,177664.8750000000,190489.1406250000,169382.8906250000,170338.1250000000,137294.0937500000,121523.5859375000,134095.1250000000,153560.9375000000,,,
2.2639999965,17,177273.2343750000,198015.1562500000,168750.7500000000,169514.7187500000,136455.4218750000,120736.1406250000,133202.5468750000,155557.4375000000,,,
2.2679999964,17,177016.2968750000,216218.3437500000,168457.2656250000,169111.8750000000,136105.5781250000,120375.8671875000,132772.7656250000,157553.5468750000,,,
2.2719999964,17,177224.6250000000,220119.0468750000,168829.6250000000,169562.9218750000,136598.7500000000,120825.9921875000,133281.3750000000,156944.5000000000,,,
2.2759999963,17,177615.5625000000,205769.8281250000,169384.9843750000,170289.2031250000,137308.3906250000,121518.2734375000,134068.8437500000,154669.3125000000,,,
2.2799999963,17,177671.5312500000,190502.7187500000,169392.3906250000,170329.1718750000,137305.8593750000,121546.8906250000,134108.2187500000,153574.4843750000,,,
2.2839999963,17,177287.3125000000,197898.7968750000,168763.7031250000,169525.2656250000,136470.6718750000,120762.2656250000,133219.7343750000,155572.0625000000,,,
2.2879999964,17,177030.5937500000,216141.9062500000,168474.6875000000,169122.6406250000,136122.3906250000,120386.7812500000,132795.5625000000,157581.7812500000,,,
2.2919999964,17,177251.7656250000,220171.2812500000,168858.3281250000,169578.2343750000,136624.9843750000,120854.4296875000,133308.6562500000,157003.2343750000,,,
2.2959999964,17,177604.7812500000,205896.5000000000,169367.6562500000,170285.7968750000,137293.6093750000,121517.4453125000,134056.1875000000,154699.2968750000,,,
2.2999999963,17,177646.5625000000,190554.9687500000,169366.0000000000,170324.0000000000,137282.9843750000,121535.5781250000,134090.7500000000,153564.0781250000,,,
2.3039999963,18,177265.8281250000,197807.6875000000,168748.0156250000,169519.1250000000,136456.9531250000,120760.9765625000,133211.4687500000,155543.1718750000,,,
2.3079999962,18,177006.2656250000,216084.9843750000,168448.8593750000,169119.4218750000,136098.9062500000,120390.9921875000,132774.2656250000,157571.3750000000,,,
2.3119999962,18,177203.2812500000,220222.3125000000,168807.6093750000,169561.1250000000,136577.0625000000,120826.3203125000,133267.5312500000,156987.4062500000,,,
2.3159999961,18,177597.5312500000,206030.1250000000,169368.5937500000,170288.0625000000,137290.2031250000,121515.5078125000,134059.2656250000,154710.9375000000,,,
2.3199999961,18,177654.8750000000,190614.7968750000,169379.4062500000,170332.0468750000,137293.7968750000,121551.0000000000,134106.8281250000,153572.5312500000,,,
2.3239999961,18,177293.3437500000,197712.5781250000,168779.8281250000,169547.9062500000,136486.6875000000,120789.9453125000,133246.9531250000,155546.5468750000,,,
2.3279999963,18,177031.3750000000,216002.7968750000,168476.3906250000,169129.2656250000,136120.7343750000,120398.7187500000,132801.6250000000,157576.4218750000,,,
2.3319999962,18,177205.4687500000,220248.0468750000,168809.6250000000,169552.6718750000,136575.1718750000,120816.0468750000,133269.1406250000,156983.3125000000,,,
2.3359999962,18,177587.7968750000,206129.1562500000,169357.8593750000,170262.7343750000,137278.8593750000,121499.9531250000,134049.5000000000,154696.7187500000,,,
2.3399999961,18,177642.6718750000,190646.5937500000,169368.3593750000,170318.7968750000,137284.3593750000,121526.9609375000,134098.5000000000,153532.1875000000,,,
2.3439999961,18,177266.4375000000,197579.5625000000,168752.7656250000,169517.4062500000,136463.9218750000,120754.0078125000,133224.0000000000,155475.7500000000,,,
2.3479999963,18,177005.5468750000,215892.8906250000,168445.6718750000,169095.8437500000,136094.7187500000,120369.7812500000,132774.5625000000,157527.1718750000,,,
2.3519999962,18,177200.4531250000,220277.5468750000,168795.7500000000,169545.7812500000,136562.2968750000,120800.4843750000,133255.4843750000,156975.4218750000,,,
2.3559999962,18,177599.1093750000,206268.0781250000,169360.2031250000,170278.3437500000,137278.3125000000,121498.8281250000,134049.7500000000,154713.8281250000,,,
2.3599999961,18,177665.0781250000,190699.2343750000,169385.0937500000,170344.4843750000,137297.8125000000,121542.9531250000,134117.2812500000,153542.7500000000,,,
2.3639999961,18,177292.2187500000,197488.6093750000,168770.6250000000,169553.7812500000,136478.6718750000,120781.7421875000,133247.6875000000,155479.9843750000,,,
2.3679999961,18,177014.2812500000,215844.9843750000,168443.2812500000,169099.7812500000,136090.9062500000,120385.1484375000,132774.4843750000,157540.0312500000,,,
2.3719999962,18,177189.3281250000,220356.7031250000,168777.9218750000,169530.0156250000,136544.3906250000,120791.7968750000,133236.1562500000,156992.3437500000,,,
2.3759999962,18,177583.0781250000,206438.5312500000,169344.4218750000,170261.9375000000,137264.6093750000,121483.3750000000,134034.1406250000,154726.4375000000,,,
2.3799999962,18,177669.0937500000,190780.0000000000,169394.7968750000,170334.7812500000,137311.3906250000,121550.8359375000,134123.5625000000,153549.0625000000,,,
2.3839999961,18,177283.9843750000,197410.4218750000,168769.4218750000,169530.7343750000,136480.7656250000,120770.3906250000,133240.4218750000,155459.0000000000,,,
2.3879999961,18,177005.0000000000,215780.0468750000,168441.9375000000,169102.7812500000,136088.2812500000,120362.7265625000,132767.9218750000,157522.7812500000,,,
2.3919999963,18,177189.1093750000,220390.2500000000,168789.3125000000,169520.6562500000,136549.9687500000,120773.9375000000,133243.3437500000,156999.7500000000,,,
2.3959999962,18,177591.3437500000,206539.0312500000,169362.0468750000,170269.5468750000,137273.7343750000,121480.0234375000,134046.2031250000,154751.2187500000,,,
2.3999999962,18,177656.4843750000,190805.3750000000,169387.2343750000,170337.2187500000,137298.9687500000,121543.1093750000,134123.6718750000,153545.2500000000,,,
2.4039999961,18,177268.5937500000,197280.6250000000,168756.0625000000,169538.9375000000,136468.1093750000,120769.8046875000,133246.2343750000,155435.1875000000,,,
2.4079999961,18,176990.7656250000,215680.7500000000,168424.6406250000,169093.7500000000,136072.0156250000,120363.2890625000,132770.1406250000,157515.2656250000,,,
2.4119999961,18,177173.4531250000,220388.2343750000,168766.4375000000,169508.4687500000,136528.7031250000,120778.6015625000,133242.8593750000,157004.0625000000,,,
2.4159999962,18,177574.2812500000,206586.2343750000,169332.9218750000,170245.2968750000,137248.6250000000,121486.7578125000,134044.5156250000,154755.9218750000,,,
2.4199999962,18,177639.7968750000,190813.3906250000,169360.5000000000,170324.9687500000,137276.7343750000,121542.4375000000,134119.1093750000,153535.4843750000,,,
2.4239999962,18,177273.1250000000,197153.0156250000,168752.7656250000,169542.2187500000,136467.1406250000,120779.0546875000,133252.9375000000,155422.2812500000,,,
2.4279999961,18,177002.9687500000,215588.9843750000,168430.6250000000,169096.2500000000,136077.6250000000,120363.1015625000,132778.3750000000,157519.0156250000,,,
2.4319999961,19,177202.6093750000,220424.5781250000,168789.0468750000,169532.2968750000,136549.5156250000,120783.2109375000,133256.9062500000,157032.2031250000,,,
2.4359999960,19,177607.1562500000,206727.8750000000,169365.0312500000,170272.7187500000,137278.9843750000,121482.3359375000,134059.9843750000,154783.7343750000,,,
2.4399999960,19,177700.0156250000,190879.8281250000,169426.5625000000,170365.6718750000,137340.6250000000,121566.7968750000,134165.9062500000,153565.5468750000,,,
2.4439999959,19,177323.2187500000,197066.2187500000,168817.6093750000,169571.6875000000,136528.4218750000,120801.5625000000,133291.9687500000,155433.8125000000,,,
2.4479999959,19,176999.1093750000,215504.5468750000,168441.8125000000,169092.8593750000,136087.8750000000,120354.5703125000,132756.5468750000,157503.8125000000,,,
2.4519999959,19,177178.7812500000,220464.4375000000,168775.6875000000,169508.7187500000,136535.6718750000,120771.1718750000,133236.1562500000,157025.0937500000,,,
2.4559999960,19,177585.2968750000,206867.4062500000,169352.0156250000,170258.7343750000,137265.3906250000,121481.9531250000,134064.8750000000,154782.9843750000,,,
2.4599999960,19,177672.8750000000,190939.4843750000,169404.5625000000,170366.7812500000,137321.8593750000,121564.4062500000,134170.8125000000,153537.7968750000,,,
2.4639999960,19,177296.4843750000,196945.8125000000,168786.3125000000,169580.5625000000,136504.5781250000,120802.7109375000,133300.8750000000,155385.3750000000,,,
2.4679999959,19,177007.7656250000,215415.5312500000,168440.0468750000,169107.8281250000,136089.4375000000,120377.4531250000,132800.6875000000,157504.8125000000,,,
2.4719999959,19,177192.6250000000,220532.3281250000,168779.0468750000,169509.5781250000,136540.9218750000,120793.1093750000,133257.7656250000,157062.1093750000,,,
2.4759999961,19,177608.8750000000,207072.2812500000,169371.1093750000,170256.5625000000,137284.7031250000,121508.6171875000,134076.8906250000,154838.4218750000,,,
2.4799999960,19,177668.3750000000,191002.4687500000,169403.1093750000,170349.9375000000,137324.1875000000,121563.9765625000,134162.4843750000,153542.2500000000,,,
2.4839999960,19,177275.2343750000,196822.4062500000,168767.2656250000,169554.3593750000,136491.5781250000,120790.6953125000,133280.4531250000,155352.9843750000,,,
2.4879999959,19,176992.1093750000,215316.2031250000,168425.5625000000,169090.7968750000,136079.1562500000,120366.5859375000,132783.1250000000,157493.0000000000,,,
2.4919999959,19,177168.6718750000,220544.1250000000,168758.7656250000,169493.7187500000,136524.1875000000,120767.3906250000,133233.9843750000,157058.5625000000,,,
2.4959999959,19,177576.4218750000,207156.2031250000,169341.2343750000,170233.0781250000,137260.5625000000,121485.7890625000,134048.1406250000,154836.1406250000,,,
2.4999999960,19,177666.7656250000,191036.7656250000,169401.8593750000,170348.2187500000,137328.5312500000,121582.9453125000,134163.7968750000,153553.4843750000,,,
2.5039999960,19,177313.6250000000,196712.4062500000,168806.3437500000,169576.2031250000,136531.6250000000,120843.9687500000,133318.5937500000,155376.2812500000,,,
2.5079999960,19,177028.5000000000,215221.3906250000,168466.1093750000,169107.2187500000,136113.1718750000,120400.5703125000,132817.9375000000,157519.7968750000,,,
2.5119999959,19,177181.2812500000,220552.1562500000,168767.9375000000,169506.7812500000,136528.1875000000,120777.2343750000,133241.8906250000,157078.7968750000,,,
2.5159999959,19,177573.5312500000,207230.5312500000,169328.1250000000,170256.4531250000,137243.4843750000,121473.4531250000,134038.5312500000,154840.4062500000,,,
2.5199999961,19,177669.2343750000,191052.1406250000,169399.2031250000,170374.8750000000,137321.8281250000,121569.9062500000,134169.5000000000,153535.4062500000,,,
2.5239999960,19,177300.5625000000,196561.7968750000,168790.0625000000,169593.4375000000,136513.9375000000,120819.1015625000,133316.5156250000,155326.1093750000,,,
2.5279999960,19,177010.1250000000,215088.8125000000,168438.4062500000,169108.5468750000,136084.1718750000,120378.5781250000,132804.3437500000,157482.0312500000,,,
2.5319999959,19,177186.8593750000,220566.6406250000,168770.1718750000,169501.0937500000,136521.8593750000,120775.0078125000,133245.5625000000,157087.8281250000,,,
2.5359999959,19,177590.7187500000,207358.4218750000,169346.2812500000,170238.1875000000,137250.8281250000,121477.8515625000,134051.2968750000,154868.1093750000,,,
2.5399999958,19,177696.6093750000,191114.7656250000,169423.1718750000,170361.8906250000,137336.9843750000,121587.0703125000,134184.4375000000,153556.5625000000,,,
2.5439999960,19,177335.1562500000,196474.5000000000,168818.5468750000,169586.8125000000,136533.6093750000,120837.7734375000,133328.4687500000,155331.5468750000,,,
2.5479999960,19,177038.4843750000,215019.7500000000,168458.7968750000,169101.3437500000,136099.5625000000,120387.9921875000,132806.7812500000,157499.7968750000,,,
2.5519999960,19,177218.0781250000,220599.0937500000,168793.8437500000,169500.0156250000,136546.5000000000,120792.6796875000,133255.5468750000,157131.0156250000,,,
2.5559999959,19,177616.6875000000,207459.0000000000,169367.3281250000,170252.4375000000,137278.8593750000,121506.6640625000,134070.1562500000,154920.6093750000,,,
2.5599999959,20,177710.2343750000,191170.3125000000,169440.6406250000,170378.3906250000,137365.3281250000,121618.3203125000,134213.1406250000,153585.1093750000,,,
2.5639999958,20,177316.4375000000,196364.8437500000,168810.4843750000,169596.5781250000,136538.7031250000,120847.0000000000,133347.1406250000,155305.8750000000,,,
2.5679999958,20,176989.0468750000,214907.7656250000,168423.7812500000,169079.4062500000,136076.1250000000,120370.1015625000,132806.2500000000,157453.0937500000,,,
2.5719999957,20,177154.2656250000,220586.9687500000,168745.4375000000,169467.2500000000,136508.2500000000,120760.7343750000,133244.2031250000,157090.5156250000,,,
2.5759999957,20,177564.2500000000,207539.6718750000,169331.3437500000,170210.9375000000,137247.7187500000,121477.5078125000,134058.7343750000,154887.5000000000,,,
2.5799999957,20,177674.4531250000,191188.4218750000,169413.4218750000,170351.5781250000,137341.9375000000,121603.6250000000,134200.2187500000,153541.0156250000,,,
2.5839999958,20,177321.7812500000,196230.9531250000,168818.3437500000,169602.6718750000,136547.9062500000,120859.9765625000,133357.1250000000,155269.3750000000,,,
2.5879999958,20,177018.4218750000,214799.3281250000,168447.6250000000,169103.1406250000,136097.8750000000,120391.2109375000,132816.9218750000,157458.8125000000,,,
2.5919999958,20,177173.7656250000,220619.3906250000,168753.8281250000,169474.5468750000,136514.0312500000,120762.8281250000,133237.6718750000,157114.4687500000,,,
2.5959999957,20,177594.7968750000,207692.0312500000,169351.5937500000,170222.4687500000,137263.4375000000,121490.0859375000,134063.1250000000,154933.1093750000,,,
2.5999999957,20,177689.7187500000,191268.7343750000,169426.1250000000,170372.0937500000,137349.2031250000,121601.3984375000,134204.1562500000,153552.4687500000,,,
2.6039999959,20,177340.7968750000,196136.9062500000,168837.3593750000,169614.4531250000,136561.7656250000,120870.7109375000,133373.2968750000,155260.8437500000,,,
2.6079999958,20,177035.6406250000,214725.6718750000,168464.9062500000,169114.1406250000,136110.3437500000,120399.8984375000,132833.8125000000,157468.1875000000,,,
2.6119999958,20,177178.5468750000,220726.2187500000,168759.8593750000,169474.1406250000,136516.4375000000,120760.7343750000,133242.4062500000,157145.7656250000,,,
2.6159999957,20,177574.5781250000,207965.5312500000,169333.5625000000,170210.0312500000,137246.5312500000,121466.3437500000,134049.4687500000,154951.2656250000,,,
2.6199999957,20,177682.6093750000,191363.8593750000,169423.6562500000,170364.3906250000,137348.8125000000,121592.0859375000,134205.1250000000,153539.9375000000,,,
2.6239999956,20,177342.2968750000,196060.1406250000,168843.8125000000,169615.2187500000,136565.1718750000,120863.5234375000,133379.9218750000,155236.9375000000,,,
2.6279999958,20,177038.4843750000,214665.4843750000,168465.9218750000,169107.3437500000,136105.9218750000,120393.6796875000,132833.2812500000,157461.0937500000,,,
2.6319999958,20,177194.1562500000,220748.1875000000,168771.0468750000,169483.5468750000,136520.2812500000,120762.2421875000,133244.4687500000,157167.3281250000,,,
2.6359999957,20,177589.6718750000,208016.8906250000,169341.3750000000,170214.5625000000,137247.6093750000,121469.5937500000,134049.7500000000,154977.6093750000,,,
2.6399999957,20,177705.9218750000,191425.2343750000,169437.8281250000,170384.7500000000,137358.3906250000,121611.0781250000,134217.7812500000,153574.4375000000,,,
2.6439999957,20,177346.4843750000,195980.2968750000,168843.6250000000,169634.9843750000,136561.2500000000,120864.7812500000,133379.6718750000,155233.7031250000,,,
2.6479999959,20,177025.9531250000,214590.6718750000,168450.4687500000,169107.1562500000,136085.7500000000,120382.0625000000,132818.9375000000,157449.0468750000,,,
2.6519999958,20,177147.8281250000,220746.9531250000,168722.1250000000,169445.1250000000,136471.7187500000,120730.3515625000,133209.0625000000,157141.8281250000,,,
2.6559999958,20,177556.2500000000,208053.1093750000,169312.9062500000,170191.0468750000,137221.0312500000,121457.2500000000,134033.5468750000,154964.8125000000,,,
2.6599999957,20,177688.8906250000,191454.6250000000,169433.1875000000,170380.4531250000,137356.9062500000,121608.3125000000,134219.5000000000,153562.6875000000,,,
2.6639999957,20,177341.2187500000,195863.2500000000,168848.8125000000,169631.3437500000,136575.6406250000,120872.9375000000,133398.4531250000,155211.0312500000,,,
2.6679999956,20,177019.2187500000,214491.1562500000,168446.5625000000,169090.7187500000,136096.2656250000,120392.5546875000,132836.6562500000,157444.7187500000,,,
2.6719999958,20,177144.7968750000,220757.0468750000,168722.0000000000,169454.1093750000,136483.6562500000,120732.2265625000,133225.9062500000,157152.2031250000,,,
2.6759999958,20,177536.4062500000,208137.2187500000,169287.5937500000,170192.0625000000,137209.2812500000,121439.9765625000,134027.0781250000,154964.6718750000,,,
2.6799999957,20,177662.1406250000,191494.7343750000,169397.3437500000,170355.9218750000,137335.6406250000,121598.5781250000,134209.7343750000,153542.4531250000,,,
2.6839999957,20,177315.2031250000,195756.2968750000,168810.6093750000,169622.4375000000,136550.4531250000,120877.2031250000,133387.0000000000,155172.2187500000,,,
2.6879999957,21,176992.4843750000,214395.4375000000,168411.7656250000,169095.4843750000,136065.1250000000,120379.6796875000,132817.5625000000,157411.3281250000,,,
2.6919999956,21,177124.2031250000,220794.8437500000,168695.3125000000,169436.6718750000,136454.7968750000,120725.3593750000,133204.6406250000,157151.5625000000,,,
2.6959999956,21,177521.7812500000,208280.2968750000,169271.8281250000,170177.8906250000,137186.4218750000,121435.6328125000,134011.9843750000,154972.7187500000,,,
2.6999999955,21,177661.8593750000,191569.0781250000,169402.2500000000,170371.2656250000,137329.8750000000,121595.9765625000,134208.1875000000,153539.5625000000,,,
2.7039999955,21,177336.5000000000,195680.6875000000,168843.4375000000,169648.8125000000,136568.2812500000,120881.6250000000,133401.6718750000,155167.2656250000,,,
2.7079999954,21,177014.8437500000,214316.6875000000,168439.7187500000,169113.1875000000,136078.0312500000,120379.5156250000,132815.9843750000,157421.0937500000,,,
2.7119999956,21,177149.9062500000,220830.5625000000,168723.9843750000,169452.6875000000,136471.5937500000,120719.6484375000,133198.2187500000,157179.4843750000,,,
2.7159999956,21,177552.3906250000,208441.8437500000,169302.9531250000,170177.0468750000,137211.6718750000,121436.6796875000,134010.1250000000,155016.7031250000,,,
2.7199999955,21,177687.0625000000,191659.6875000000,169425.8593750000,170357.6875000000,137355.8281250000,121605.1484375000,134210.6250000000,153559.5468750000,,,
2.7239999955,21,177361.5312500000,195586.3281250000,168859.9062500000,169633.6562500000,136593.7656250000,120904.6640625000,133409.2812500000,155168.7031250000,,,
2.7279999955,21,177052.2343750000,214232.2968750000,168471.0000000000,169115.9375000000,136116.2031250000,120411.7265625000,132843.7187500000,157447.0000000000,,,
2.7319999957,21,177165.0000000000,220883.8593750000,168731.9218750000,169445.1406250000,136487.0937500000,120734.6406250000,133212.7656250000,157214.5625000000,,,
2.7359999956,21,177555.0937500000,208612.8125000000,169304.2968750000,170175.4062500000,137218.2343750000,121442.4218750000,134019.2968750000,155045.7812500000,,,
2.7399999956,21,177695.6718750000,191743.7656250000,169437.4218750000,170376.3750000000,137372.6875000000,121621.4062500000,134233.5000000000,153569.3906250000,,,
2.7439999955,21,177366.9687500000,195501.4375000000,168871.3437500000,169652.9375000000,136609.1562500000,120916.4140625000,133435.4062500000,155152.9062500000,,,
2.7479999955,21,177045.6406250000,214153.0468750000,168466.0312500000,169101.6875000000,136113.8437500000,120416.6093750000,132855.2031250000,157431.1875000000,,,
2.7519999954,21,177179.0000000000,220918.3750000000,168749.2187500000,169442.0937500000,136502.1718750000,120753.5468750000,133237.3593750000,157233.0468750000,,,
2.7559999956,21,177560.8906250000,208732.2968750000,169304.0312500000,170174.6562500000,137220.1718750000,121453.7421875000,134027.7031250000,155069.7656250000,,,
2.7599999956,21,177694.8750000000,191799.6718750000,169430.1718750000,170374.9843750000,137370.7187500000,121626.6875000000,134238.8125000000,153567.9062500000,,,
2.7639999955,21,177366.7031250000,195389.3281250000,168865.1718750000,169660.2812500000,136608.2187500000,120923.7343750000,133440.7968750000,155125.8281250000,,,
2.7679999955,21,177030.7500000000,214030.7812500000,168442.3750000000,169111.7656250000,136095.8437500000,120406.8203125000,132841.1093750000,157404.9687500000,,,
2.7719999955,21,177131.1250000000,220903.1250000000,168690.0000000000,169423.2031250000,136450.6406250000,120723.1875000000,133193.9062500000,157204.2656250000,,,
2.7759999956,21,177523.2812500000,208790.0781250000,169267.5312500000,170164.7343750000,137186.0468750000,121434.6406250000,134007.6562500000,155054.7187500000,,,
2.7799999956,21,177660.4531250000,191834.7812500000,169401.9843750000,170375.7031250000,137343.9531250000,121617.7578125000,134223.4375000000,153551.4218750000,,,
2.7839999956,21,177346.2031250000,195278.5000000000,168856.0468750000,169679.1093750000,136598.4375000000,120926.9296875000,133438.4218750000,155100.2656250000,,,
2.7879999955,21,177025.6250000000,213939.3750000000,168450.2656250000,169117.2656250000,136096.4531250000,120418.2500000000,132849.3750000000,157403.9062500000,,,
2.7919999955,21,177144.4843750000,220926.4531250000,168713.0625000000,169421.2500000000,136465.2812500000,120737.7500000000,133210.7500000000,157234.0312500000,,,
2.7959999954,21,177543.7812500000,208931.7968750000,169292.3906250000,170161.9843750000,137205.0937500000,121445.8515625000,134020.1250000000,155092.4062500000,,,
2.7999999956,21,177677.6718750000,191922.0937500000,169414.5468750000,170371.2656250000,137357.7968750000,121632.9140625000,134229.2656250000,153570.8437500000,,,
2.8039999956,21,177351.0156250000,195215.6718750000,168857.1718750000,169664.0156250000,136601.7031250000,120922.6093750000,133437.3906250000,155085.9062500000,,,
2.8079999955,21,177028.1250000000,213880.3125000000,168448.2187500000,169100.4062500000,136095.5937500000,120402.4218750000,132841.7500000000,157395.3125000000,,,
2.8119999955,21,177138.3906250000,220962.6562500000,168702.7656250000,169417.1406250000,136457.9062500000,120721.7109375000,133197.0625000000,157237.5312500000,,,
2.8159999955,22,177534.1718750000,209025.8125000000,169279.8437500000,170153.8125000000,137197.3125000000,121436.8437500000,134005.3593750000,155102.5156250000,,,
2.8199999954,22,177678.2968750000,191987.4218750000,169419.6406250000,170358.0312500000,137363.8593750000,121625.4296875000,134226.0156250000,153570.7343750000,,,
2.8239999954,22,177361.0468750000,195121.7500000000,168869.0000000000,169653.5312500000,136613.7187500000,120933.2812500000,133443.5156250000,155072.8437500000,,,
2.8279999953,22,177028.4687500000,213783.3750000000,168447.9843750000,169089.3437500000,136094.1562500000,120401.3750000000,132836.4531250000,157384.4218750000,,,
2.8319999953,22,177139.9218750000,220988.6875000000,168700.1875000000,169410.3281250000,136454.6718750000,120718.5703125000,133188.7812500000,157248.3125000000,,,
2.8359999952,22,177546.8906250000,209161.2343750000,169285.3437500000,170147.6718750000,137202.9531250000,121448.7812500000,134009.0781250000,155131.5625000000,,,
2.8399999954,22,177678.3750000000,192066.6093750000,169414.5937500000,170366.3750000000,137362.7343750000,121628.9687500000,134231.7812500000,153570.3281250000,,,
2.8439999954,22,177361.5000000000,195037.1562500000,168865.8750000000,169670.5000000000,136616.2656250000,120938.0625000000,133454.4218750000,155048.9531250000,,,
2.8479999953,22,177029.7343750000,213678.6093750000,168445.6718750000,169107.2968750000,136097.1250000000,120411.6484375000,132847.0468750000,157376.5937500000,,,
2.8519999953,22,177137.2187500000,221000.8593750000,168697.2343750000,169411.5937500000,136453.7812500000,120721.3125000000,133195.4843750000,157260.0312500000,,,
2.8559999953,22,177536.1875000000,209282.4687500000,169277.2343750000,170155.5625000000,137194.5000000000,121436.3359375000,134007.0937500000,155138.2187500000,,,
2.8599999954,22,177678.2343750000,192108.0781250000,169422.9375000000,170380.1875000000,137367.2812500000,121625.0000000000,134240.7187500000,153559.1093750000,,,
2.8639999954,22,177358.5156250000,194918.8125000000,168870.5156250000,169682.6250000000,136617.8750000000,120936.0234375000,133462.5781250000,155020.8593750000,,,
2.8679999954,22,177020.7187500000,213559.5468750000,168441.0000000000,169113.2968750000,136085.8125000000,120395.4218750000,132845.8593750000,157349.7968750000,,,
2.8719999953,22,177122.5625000000,221015.9062500000,168685.5156250000,169411.2656250000,136432.2187500000,120696.2812500000,133183.6562500000,157249.8593750000,,,
2.8759999953,22,177520.0937500000,209464.5468750000,169265.9218750000,170156.1718750000,137173.6875000000,121411.3046875000,133993.7968750000,155143.9843750000,,,
2.8799999952,22,177676.1406250000,192199.7187500000,169424.2031250000,170390.4687500000,137365.0625000000,121623.5234375000,134242.5937500000,153557.3125000000,,,
2.8839999954,22,177379.3593750000,194822.8906250000,168893.1406250000,169695.5781250000,136636.8750000000,120956.8593750000,133482.7812500000,155018.5312500000,,,
2.8879999954,22,177053.8281250000,213473.7968750000,168469.4062500000,169122.1875000000,136109.8750000000,120430.2109375000,132867.7812500000,157378.2343750000,,,
2.8919999953,22,177154.6718750000,221055.4687500000,168711.1562500000,169416.1718750000,136454.5000000000,120725.8125000000,133200.0468750000,157299.0468750000,,,
2.8959999953,22,177552.5781250000,209606.4218750000,169290.1718750000,170151.7500000000,137198.7968750000,121437.7812500000,134012.6562500000,155195.7187500000,,,
2.8999999953,22,177718.1250000000,192269.5625000000,169461.3437500000,170391.8281250000,137403.9062500000,121655.4921875000,134277.3281250000,153593.6562500000,,,
2.9039999954,22,177406.0781250000,194742.0312500000,168909.6718750000,169702.2812500000,136657.7968750000,120975.5859375000,133501.0937500000,155022.6093750000,,,
2.9079999954,22,177052.1093750000,213370.5625000000,168458.2031250000,169123.0625000000,136103.4375000000,120423.4531250000,132860.9375000000,157363.8281250000,,,
2.9119999954,22,177135.7656250000,221021.4062500000,168687.7500000000,169403.9218750000,136437.4218750000,120712.6718750000,133187.8906250000,157284.4375000000,,,
2.9159999953,22,177519.8750000000,209571.8593750000,169258.8906250000,170151.3437500000,137173.0625000000,121414.6093750000,133996.7500000000,155165.8593750000,,,
2.9199999953,22,177689.6093750000,192266.1406250000,169436.1250000000,170394.1875000000,137385.4218750000,121640.8281250000,134265.5781250000,153565.4531250000,,,
2.9239999952,22,177413.0156250000,194616.8437500000,168931.6562500000,169724.9218750000,136683.1875000000,120991.8359375000,133531.0000000000,155005.9531250000,,,
2.9279999954,22,177049.8593750000,213251.5468750000,168462.9218750000,169118.3437500000,136112.8750000000,120427.9531250000,132873.3281250000,157355.7343750000,,,
2.9319999954,22,177129.5625000000,221011.2656250000,168679.5156250000,169391.2031250000,136435.0937500000,120706.1562500000,133181.7500000000,157292.7500000000,,,
2.9359999953,22,177523.4531250000,209659.4531250000,169260.4687500000,170130.6093750000,137180.8437500000,121421.2890625000,133997.6562500000,155197.9687500000,,,
2.9399999953,22,177681.4375000000,192338.5781250000,169427.8125000000,170372.5937500000,137384.9375000000,121649.3281250000,134265.9843750000,153583.2031250000,,,
2.9439999952,23,177388.0468750000,194542.5312500000,168905.6718750000,169690.8125000000,136667.2656250000,120995.0312500000,133521.5312500000,154987.8437500000,,,
