Time:250Hz,Epoch,Channel 1,Channel 2,Channel 3,Channel 4,Channel 5,Channel 6,Channel 7,Channel 8,Event Id,Event Date,Event Duration
0.0000000000,0,178338.1250000000,166057.1093750000,193208.4531250000,179232.4531250000,167499.8125000000,141753.7187500000,166232.0937500000,168691.6250000000,,,
0.0040000000,0,178334.2812500000,166052.3593750000,193199.6250000000,179238.7500000000,167489.5937500000,141757.6562500000,166231.0000000000,169309.3125000000,,,
0.0079999999,0,178372.2812500000,166084.9062500000,193239.0000000000,179288.6093750000,167528.2968750000,141797.0625000000,166265.0312500000,169352.0468750000,,,
0.0119999999,0,178383.5781250000,166098.4218750000,193252.8906250000,179280.0625000000,167544.1562500000,141822.0156250000,166288.1562500000,168788.4062500000,,,
0.0159999998,0,178366.3125000000,166086.1093750000,193234.2812500000,179246.1718750000,167528.2031250000,141817.6562500000,166275.1562500000,168394.1718750000,,,
0.0199999998,0,178345.7031250000,166072.9687500000,193206.1718750000,179225.2031250000,167502.4218750000,141811.6562500000,166245.1562500000,168779.2656250000,,,
0.0240000000,0,178355.2812500000,166083.9843750000,193210.9218750000,179243.4218750000,167505.1250000000,141827.4531250000,166241.5937500000,169410.3906250000,,,
0.0279999999,0,178382.1562500000,166103.7031250000,193246.5937500000,179267.5000000000,167537.0937500000,141856.0156250000,166256.1562500000,169400.5625000000,,,
0.0319999999,0,178386.3437500000,166104.3125000000,193257.4843750000,179262.6718750000,167547.8593750000,141868.2500000000,166257.7656250000,168815.7343750000,,,
0.0359999998,0,178393.3125000000,166116.9531250000,193262.4687500000,179275.3281250000,167553.8125000000,141883.3750000000,166257.8437500000,168386.5625000000,,,
0.0399999998,0,178358.2031250000,166089.2656250000,193220.3593750000,179244.1718750000,167514.4375000000,141863.3437500000,166223.2812500000,168726.2656250000,,,
0.0440000000,0,178341.2812500000,166076.2031250000,193196.5312500000,179232.6875000000,167491.9843750000,141851.3593750000,166207.5625000000,169346.8906250000,,,
0.0480000000,0,178364.3437500000,166096.1406250000,193221.7187500000,179248.2656250000,167515.4843750000,141879.8593750000,166233.3281250000,169397.1093750000,,,
0.0519999999,0,178382.4531250000,166112.3437500000,193247.7343750000,179256.4843750000,167539.2500000000,141903.1250000000,166245.5156250000,168821.5000000000,,,
0.0559999999,0,178383.7656250000,166121.1875000000,193249.2500000000,179265.1718750000,167540.6406250000,141911.5468750000,166223.5625000000,168405.3125000000,,,
0.0599999998,0,178382.7031250000,166132.0468750000,193242.0312500000,179259.4531250000,167531.5000000000,141918.2968750000,166224.3750000000,168706.2187500000,,,
0.0639999998,0,178377.2812500000,166123.7343750000,193234.2812500000,179235.2031250000,167521.1093750000,141910.6093750000,166228.1875000000,169243.7656250000,,,
0.0680000000,0,178379.4843750000,166118.5625000000,193238.3750000000,179250.7187500000,167522.8593750000,141911.2500000000,166226.4062500000,169260.5781250000,,,
0.0719999999,0,178398.0156250000,166134.7656250000,193260.0781250000,179287.5312500000,167545.9531250000,141927.0468750000,166231.8281250000,168690.6718750000,,,
0.0759999999,0,178380.2500000000,166123.7968750000,193240.2812500000,179256.5937500000,167531.3906250000,141919.8593750000,166207.7500000000,168247.1562500000,,,
0.0799999998,0,178368.4062500000,166113.4687500000,193220.7812500000,179253.6093750000,167514.2812500000,141904.9375000000,166195.8906250000,168553.4375000000,,,
0.0839999998,0,178370.4843750000,166115.0937500000,193214.9375000000,179270.3437500000,167509.9531250000,141905.6718750000,166197.8437500000,169151.6250000000,,,
0.0880000000,0,178372.6875000000,166112.2656250000,193222.5625000000,179280.1093750000,167515.6093750000,141914.6718750000,166208.0468750000,169187.4843750000,,,
0.0919999999,0,178388.2812500000,166123.4687500000,193248.0625000000,179282.6093750000,167538.2812500000,141926.7187500000,166209.7500000000,168617.0625000000,,,
0.0959999999,0,178375.4843750000,166113.5468750000,193236.0000000000,179265.0937500000,167525.4062500000,141909.8281250000,166167.9687500000,168207.8125000000,,,
0.0999999999,0,178356.6718750000,166101.9531250000,193208.2343750000,179252.7031250000,167497.4531250000,141885.1406250000,166156.5937500000,168560.5781250000,,,
0.1039999998,0,178353.8906250000,166103.2187500000,193200.8906250000,179264.8281250000,167490.8593750000,141883.4375000000,166164.8593750000,169195.8906250000,,,
0.1079999998,0,178351.4218750000,166091.7187500000,193205.9843750000,179243.5468750000,167495.5000000000,141881.4218750000,166166.5781250000,169311.4843750000,,,
0.1120000000,0,178365.8750000000,166100.2968750000,193228.6718750000,179233.8437500000,167515.8593750000,141895.1875000000,166186.9062500000,168742.9218750000,,,
0.1159999999,0,178369.5781250000,166108.0000000000,193230.7343750000,179239.9375000000,167515.8906250000,141897.2187500000,166184.7656250000,168297.0781250000,,,
0.1199999999,0,178355.5312500000,166099.4687500000,193210.4062500000,179227.0781250000,167495.3125000000,141878.4687500000,166168.0468750000,168614.3593750000,,,
0.1239999998,0,178349.4375000000,166093.3437500000,193202.2187500000,179217.0781250000,167487.5000000000,141865.7500000000,166164.2343750000,169221.3750000000,,,
0.1279999998,1,178370.8906250000,166107.2500000000,193227.2500000000,179250.1562500000,167509.2812500000,141875.4375000000,166180.8750000000,169304.4375000000,,,
0.1319999998,1,178369.5312500000,166103.1875000000,193232.3437500000,179250.1562500000,167512.6093750000,141875.2968750000,166182.2031250000,168800.2656250000,,,
0.1359999997,1,178355.7656250000,166091.3437500000,193223.9218750000,179235.0000000000,167504.3750000000,141868.2500000000,166173.1406250000,168390.8281250000,,,
0.1399999997,1,178334.6875000000,166073.5781250000,193196.5156250000,179232.1562500000,167477.7187500000,141838.1250000000,166131.1718750000,168704.2968750000,,,
0.1439999996,1,178332.8593750000,166069.0937500000,193188.3906250000,179250.6093750000,167466.9843750000,141823.7187500000,166108.5312500000,169293.5156250000,,,
0.1479999996,1,178341.8750000000,166070.5781250000,193201.3593750000,179264.3437500000,167476.0781250000,141823.2656250000,166117.1875000000,169360.0156250000,,,
0.1519999998,1,178362.2343750000,166089.9687500000,193228.0781250000,179275.2812500000,167502.0156250000,141846.3437500000,166151.9531250000,168818.1718750000,,,
0.1559999997,1,178357.2968750000,166089.1875000000,193224.6406250000,179260.0468750000,167499.5312500000,141848.0000000000,166165.7968750000,168398.3125000000,,,
0.1599999997,1,178329.8593750000,166069.3750000000,193191.4375000000,179229.2031250000,167468.8906250000,141828.9843750000,166145.0156250000,168708.4218750000,,,
0.1639999996,1,178326.3125000000,166067.4375000000,193184.5781250000,179250.6093750000,167459.4531250000,141819.8125000000,166134.2031250000,169339.5781250000,,,
0.1679999996,1,178362.3906250000,166091.3437500000,193229.7187500000,179299.2031250000,167499.1406250000,141839.5000000000,166175.6093750000,169427.6875000000,,,
0.1719999998,1,178371.2187500000,166094.2343750000,193244.6250000000,179278.9531250000,167512.7812500000,141845.0000000000,166190.6562500000,168888.5937500000,,,
0.1759999997,1,178363.5937500000,166090.8750000000,193236.4687500000,179266.8125000000,167508.1562500000,141842.6406250000,166183.8750000000,168436.7968750000,,,
0.1799999997,1,178331.7656250000,166063.7656250000,193197.6093750000,179213.1562500000,167473.7812500000,141815.6562500000,166139.5156250000,168702.0937500000,,,
0.1839999997,1,178322.0781250000,166053.8125000000,193183.9531250000,179205.0000000000,167458.9375000000,141800.7343750000,166121.7031250000,169308.4062500000,,,
0.1879999996,1,178342.6718750000,166067.2500000000,193208.7656250000,179221.4687500000,167481.4218750000,141815.7656250000,166137.7343750000,169353.7812500000,,,
0.1919999996,1,178362.3437500000,166085.6718750000,193227.8593750000,179230.1718750000,167500.3281250000,141835.5781250000,166158.0468750000,168787.9531250000,,,
0.1959999998,1,178354.0781250000,166081.4687500000,193218.3437500000,179231.1562500000,167491.2656250000,141829.5781250000,166150.0000000000,168332.7500000000,,,
0.1999999997,1,178333.2656250000,166067.6250000000,193189.9687500000,179222.9843750000,167463.9062500000,141809.7812500000,166136.0000000000,168627.7187500000,,,
0.2039999997,1,178323.2343750000,166056.5468750000,193177.8125000000,179212.4062500000,167452.6406250000,141795.4218750000,166130.3906250000,169232.3437500000,,,
0.2079999996,1,178344.7500000000,166070.2812500000,193206.0625000000,179234.8281250000,167479.2187500000,141806.6406250000,166154.4531250000,169298.6406250000,,,
0.2119999996,1,178354.1875000000,166076.5781250000,193222.8437500000,179259.3750000000,167494.2187500000,141813.2656250000,166167.2656250000,168733.2343750000,,,
0.2159999998,1,178345.7031250000,166074.5781250000,193212.9062500000,179263.0781250000,167484.3906250000,141805.2656250000,166154.7500000000,168287.2656250000,,,
0.2199999997,1,178322.2343750000,166060.2500000000,193184.1250000000,179238.0312500000,167457.3281250000,141786.7968750000,166130.2500000000,168601.7812500000,,,
0.2239999997,1,178302.3593750000,166041.7500000000,193163.0937500000,179207.3906250000,167435.2656250000,141769.7812500000,166113.1406250000,169216.0000000000,,,
0.2279999997,1,178311.9062500000,166047.3437500000,193175.7812500000,179233.3906250000,167444.6718750000,141774.3125000000,166122.0156250000,169311.9531250000,,,
0.2319999996,1,178334.5468750000,166069.5625000000,193206.6718750000,179256.5000000000,167473.2187500000,141798.3281250000,166140.3125000000,168768.9531250000,,,
0.2359999996,1,178327.2031250000,166064.5625000000,193203.7031250000,179240.3593750000,167471.4218750000,141798.2968750000,166130.9843750000,168287.8593750000,,,
0.2399999998,1,178299.0156250000,166043.0000000000,193167.0000000000,179233.6562500000,167437.5625000000,141771.9062500000,166094.9375000000,168581.3125000000,,,
0.2439999997,1,178298.9062500000,166040.4531250000,193161.4531250000,179242.1562500000,167431.5625000000,141762.7656250000,166092.7656250000,169179.3125000000,,,
0.2479999997,1,178321.6250000000,166052.0937500000,193187.6562500000,179249.0468750000,167456.3437500000,141776.2968750000,166123.2812500000,169244.9687500000,,,
0.2519999996,1,178339.8906250000,166063.0625000000,193211.7500000000,179263.4843750000,167477.6406250000,141787.5156250000,166152.1093750000,168707.8281250000,,,
0.2559999996,2,178335.5625000000,166060.5937500000,193210.5625000000,179245.0781250000,167476.5937500000,141786.0468750000,166155.7656250000,168255.6875000000,,,
0.2599999995,2,178318.1562500000,166050.5468750000,193187.5000000000,179221.7187500000,167456.1562500000,141771.0156250000,166123.2812500000,168547.0625000000,,,
0.2639999995,2,178314.9375000000,166049.1250000000,193177.2031250000,179217.0781250000,167446.7187500000,141762.8125000000,166104.4843750000,169181.0000000000,,,
0.2679999995,2,178335.0625000000,166062.4218750000,193198.7656250000,179223.1875000000,167466.2656250000,141777.4062500000,166136.9687500000,169295.2656250000,,,
0.2719999994,2,178369.6406250000,166096.0625000000,193241.3281250000,179265.4375000000,167507.5468750000,141809.7031250000,166176.0468750000,168761.3437500000,,,
0.2759999994,2,178366.7656250000,166094.0937500000,193243.8750000000,179264.6093750000,167510.9843750000,141804.7343750000,166158.7968750000,168297.6718750000,,,
0.2799999996,2,178333.5312500000,166065.2187500000,193206.3593750000,179227.1406250000,167474.9218750000,141773.2500000000,166123.4218750000,168533.3750000000,,,
0.2839999995,2,178310.6562500000,166044.7500000000,193175.7500000000,179218.6093750000,167445.0781250000,141751.2500000000,166085.3281250000,169149.0000000000,,,
0.2879999995,2,178326.5625000000,166055.3906250000,193191.3906250000,179250.9218750000,167459.5312500000,141759.5468750000,166094.3906250000,169280.9062500000,,,
0.2919999994,2,178342.2187500000,166065.3125000000,193215.9375000000,179266.7187500000,167478.6562500000,141773.4843750000,166155.4375000000,168751.3906250000,,,
0.2959999994,2,178318.6250000000,166042.7812500000,193193.8281250000,179219.9531250000,167455.9843750000,141758.3593750000,166152.0625000000,168287.0781250000,,,
0.2999999996,2,178288.7656250000,166022.4843750000,193153.7500000000,179208.8437500000,167421.3906250000,141735.9687500000,166108.3906250000,168573.1093750000,,,
0.3039999995,2,178310.4062500000,166046.6718750000,193169.9062500000,179269.6562500000,167437.2656250000,141750.7656250000,166116.1406250000,169188.4843750000,,,
0.3079999995,2,178336.1875000000,166065.7187500000,193198.8125000000,179305.7187500000,167463.5781250000,141766.7812500000,166140.8281250000,169292.7187500000,,,
0.3119999995,2,178334.3281250000,166059.8750000000,193207.7500000000,179283.1875000000,167471.4687500000,141764.0000000000,166139.7031250000,168770.4062500000,,,
0.3159999994,2,178327.7343750000,166059.9062500000,193206.2812500000,179257.5312500000,167470.3906250000,141766.9375000000,166137.3437500000,168308.9531250000,,,
0.3199999994,2,178325.3281250000,166065.2187500000,193199.1406250000,179246.4531250000,167465.4375000000,141767.4843750000,166152.7656250000,168540.0000000000,,,
0.3239999996,2,178314.4531250000,166053.5937500000,193178.9218750000,179256.1093750000,167448.9687500000,141757.0156250000,166134.0156250000,169106.1406250000,,,
0.3279999995,2,178322.7500000000,166058.8593750000,193190.0000000000,179249.4843750000,167458.3750000000,141766.5937500000,166136.2031250000,169220.4218750000,,,
0.3319999995,2,178317.8125000000,166050.8593750000,193191.7343750000,179231.4531250000,167458.9218750000,141767.1093750000,166131.5625000000,168725.8281250000,,,
0.3359999994,2,178312.1875000000,166048.6093750000,193190.9531250000,179221.8281250000,167458.5625000000,141764.3750000000,166139.1093750000,168277.6093750000,,,
0.3399999994,2,178296.0312500000,166037.1093750000,193168.8281250000,179206.7031250000,167439.5781250000,141751.8437500000,166128.6250000000,168541.9375000000,,,
0.3439999996,2,178295.6093750000,166035.5781250000,193169.7968750000,179217.2968750000,167440.3593750000,141746.6875000000,166108.9375000000,169153.4843750000,,,
0.3479999995,2,178319.7500000000,166052.3906250000,193199.5937500000,179245.2968750000,167467.8750000000,141764.7968750000,166114.2968750000,169262.9687500000,,,
0.3519999995,2,178340.2031250000,166069.9062500000,193218.0468750000,179277.8281250000,167486.3281250000,141786.7968750000,166169.7343750000,168754.0000000000,,,
0.3559999994,2,178345.3906250000,166076.9843750000,193219.7968750000,179267.6093750000,167489.8125000000,141794.5156250000,166194.8750000000,168254.8281250000,,,
0.3599999994,2,178308.9062500000,166045.2500000000,193177.8906250000,179196.2968750000,167449.9531250000,141764.5000000000,166154.8593750000,168471.4218750000,,,
0.3639999994,2,178295.9218750000,166031.7343750000,193160.8125000000,179198.6718750000,167432.9843750000,141738.3437500000,166114.5625000000,169059.4218750000,,,
0.3679999996,2,178317.2031250000,166044.2968750000,193182.0468750000,179248.8125000000,167451.3281250000,141730.5781250000,166110.5625000000,169193.6093750000,,,
0.3719999995,2,178344.7656250000,166075.2187500000,193211.0781250000,179292.3593750000,167475.5937500000,141775.9062500000,166158.9531250000,168695.0937500000,,,
0.3759999995,2,178333.6406250000,166072.9687500000,193200.8593750000,179285.2343750000,167467.0625000000,141799.1875000000,166156.5468750000,168209.1562500000,,,
0.3799999994,2,178305.4687500000,166050.1875000000,193167.9687500000,179225.0781250000,167436.7343750000,141768.8281250000,166117.0312500000,168428.3750000000,,,
0.3839999994,3,178297.6718750000,166041.1250000000,193156.7031250000,179215.0156250000,167424.1562500000,141744.8437500000,166098.9531250000,169042.8437500000,,,
0.3879999993,3,178311.8281250000,166046.6250000000,193179.2343750000,179237.8125000000,167444.2656250000,141748.4375000000,166098.6250000000,169207.7500000000,,,
0.3919999993,3,178317.5937500000,166049.7031250000,193196.7031250000,179239.5312500000,167460.1250000000,141757.5625000000,166087.0937500000,168742.7031250000,,,
0.3959999993,3,178309.3437500000,166047.7031250000,193185.9687500000,179219.9218750000,167452.1875000000,141770.0000000000,166131.1718750000,168293.2656250000,,,
0.3999999992,3,178300.0312500000,166047.3437500000,193165.9062500000,179217.1562500000,167433.9375000000,141774.9375000000,166146.5937500000,168494.1406250000,,,
0.4039999992,3,178313.8906250000,166066.4218750000,193171.4843750000,179256.5000000000,167438.0156250000,141770.9062500000,166145.1093750000,169048.1250000000,,,
0.4079999994,3,178331.1093750000,166070.5468750000,193191.8750000000,179272.4687500000,167454.1875000000,141757.7187500000,166154.4531250000,169163.5625000000,,,
0.4119999993,3,178351.5781250000,166084.3437500000,193221.2968750000,179293.1250000000,167481.9062500000,141786.5781250000,166179.7968750000,168662.0000000000,,,
0.4159999993,3,178345.2500000000,166087.2656250000,193216.5937500000,179299.0781250000,167479.2656250000,141791.9375000000,166163.2968750000,168180.2656250000,,,
0.4199999992,3,178295.8750000000,166043.6718750000,193169.0468750000,179205.7656250000,167435.4531250000,141741.3750000000,166103.4843750000,168427.9687500000,,,
0.4239999992,3,178285.0937500000,166028.5937500000,193156.8437500000,179203.3906250000,167421.6562500000,141723.5937500000,166083.5000000000,169041.2812500000,,,
0.4279999994,3,178317.3906250000,166049.1718750000,193188.3906250000,179250.9843750000,167450.4687500000,141756.5312500000,166093.8593750000,169175.7656250000,,,
0.4319999993,3,178335.6250000000,166067.2500000000,193208.2656250000,179275.5781250000,167468.6562500000,141756.4843750000,166132.9687500000,168690.1562500000,,,
0.4359999993,3,178319.6562500000,166062.9843750000,193189.9062500000,179239.6875000000,167450.3593750000,141749.1562500000,166157.4218750000,168237.6406250000,,,
0.4399999992,3,178306.0625000000,166043.1875000000,193174.5468750000,179225.1562500000,167438.0781250000,141734.3281250000,166128.5156250000,168449.1875000000,,,
0.4439999992,3,178296.0937500000,166040.5312500000,193160.0000000000,179217.1875000000,167425.3593750000,141719.9218750000,166098.8750000000,169053.8437500000,,,
0.4479999992,3,178304.1406250000,166032.5937500000,193172.6093750000,179227.5937500000,167435.8437500000,141725.6093750000,166115.8750000000,169216.5937500000,,,
0.4519999993,3,178320.6250000000,166047.5156250000,193193.0312500000,179234.7187500000,167455.6406250000,141749.1406250000,166146.9375000000,168753.5312500000,,,
0.4559999993,3,178332.1406250000,166068.1093750000,193201.8437500000,179249.5000000000,167465.1093750000,141753.4843750000,166152.7656250000,168264.5156250000,,,
0.4599999993,3,178306.4375000000,166043.4375000000,193166.6562500000,179243.8125000000,167428.9843750000,141719.5781250000,166103.4375000000,168478.0468750000,,,
0.4639999992,3,178307.9375000000,166043.8593750000,193164.3750000000,179251.3593750000,167423.9062500000,141724.1562500000,166113.4843750000,169083.5000000000,,,
0.4679999992,3,178318.8593750000,166048.7968750000,193177.3906250000,179245.9687500000,167434.6718750000,141717.3750000000,166130.3125000000,169234.6406250000,,,
0.4719999994,3,178320.8750000000,166046.9687500000,193186.0000000000,179252.1562500000,167440.4375000000,141720.9687500000,166127.8437500000,168761.1562500000,,,
0.4759999993,3,178321.3281250000,166048.6406250000,193189.3281250000,179262.7500000000,167445.2031250000,141725.2343750000,166121.2656250000,168264.1406250000,,,
0.4799999993,3,178293.3750000000,166025.8593750000,193157.5156250000,179224.0781250000,167415.7656250000,141689.0781250000,166090.9062500000,168471.1875000000,,,
0.4839999992,3,178295.9218750000,166031.9218750000,193149.2187500000,179238.2187500000,167408.4062500000,141680.9218750000,166081.9687500000,169089.6250000000,,,
0.4879999992,3,178312.6406250000,166050.1718750000,193170.3281250000,179269.4375000000,167426.8125000000,141689.3437500000,166109.2500000000,169291.1250000000,,,
0.4919999992,3,178335.4375000000,166066.5468750000,193214.0000000000,179297.5468750000,167465.8281250000,141722.9531250000,166126.7187500000,168820.9687500000,,,
0.4959999993,3,178331.5468750000,166066.3906250000,193201.8281250000,179302.0156250000,167454.8437500000,141722.1562500000,166097.8750000000,168333.4687500000,,,
0.4999999993,3,178290.6406250000,166029.1875000000,193156.6562500000,179255.7812500000,167415.5468750000,141694.6093750000,166099.9531250000,168573.4062500000,,,
0.5039999993,3,178285.1718750000,166030.2968750000,193152.2812500000,179237.6718750000,167409.3437500000,141686.1562500000,166099.8437500000,169191.8593750000,,,
0.5079999992,3,178292.1406250000,166035.7656250000,193148.3906250000,179243.0468750000,167405.4375000000,141680.5468750000,166101.4687500000,169388.8750000000,,,
0.5119999992,4,178317.8593750000,166050.3750000000,193184.9531250000,179261.3906250000,167435.9218750000,141717.8593750000,166118.1875000000,168934.6406250000,,,
0.5159999991,4,178307.7343750000,166042.7031250000,193178.9218750000,179267.7187500000,167430.9687500000,141706.7031250000,166100.0781250000,168435.9843750000,,,
0.5199999991,4,178279.4843750000,166023.0781250000,193143.0000000000,179230.7812500000,167400.1406250000,141681.2500000000,166102.2812500000,168639.4843750000,,,
0.5239999990,4,178278.7031250000,166016.6406250000,193138.8750000000,179234.3281250000,167395.7968750000,141681.1406250000,166099.8593750000,169270.9843750000,,,
0.5279999990,4,178277.6093750000,166018.2500000000,193134.4218750000,179233.5468750000,167390.2031250000,141677.7812500000,166082.2656250000,169496.0468750000,,,
0.5319999990,4,178305.5781250000,166036.2187500000,193174.0000000000,179253.8437500000,167426.2968750000,141695.7343750000,166107.4375000000,169020.8750000000,,,
0.5359999991,4,178312.0937500000,166040.1406250000,193181.6562500000,179257.0468750000,167436.2187500000,141704.2656250000,166119.7187500000,168514.0625000000,,,
0.5399999991,4,178301.9843750000,166034.5781250000,193171.1406250000,179227.4375000000,167427.7500000000,141695.3281250000,166120.6875000000,168704.0468750000,,,
0.5439999991,4,178309.0937500000,166045.5000000000,193175.9687500000,179242.7656250000,167430.8125000000,141688.1406250000,166133.2031250000,169319.7187500000,,,
0.5479999990,4,178318.0468750000,166050.8593750000,193186.0781250000,179263.2968750000,167441.8281250000,141697.2343750000,166143.7187500000,169519.8437500000,,,
0.5519999990,4,178337.3593750000,166085.1406250000,193202.0156250000,179257.0937500000,167458.1875000000,141746.7968750000,166146.4531250000,169094.9218750000,,,
0.5559999992,4,178315.6406250000,166042.4062500000,193186.9375000000,179248.8125000000,167444.9062500000,141702.4062500000,166134.6875000000,168629.9218750000,,,
0.5599999991,4,178297.9375000000,166031.2343750000,193157.8593750000,179253.7968750000,167418.7343750000,141680.9531250000,166109.6562500000,168804.8750000000,,,
0.5639999991,4,178299.5156250000,166029.1406250000,193157.0781250000,179253.5625000000,167416.6093750000,141671.3437500000,166115.4843750000,169369.6093750000,,,
0.5679999990,4,178310.4843750000,166032.1406250000,193174.9687500000,179268.6562500000,167430.4843750000,141676.6562500000,166130.1250000000,169545.1718750000,,,
0.5719999990,4,178347.7968750000,166067.2031250000,193226.6093750000,179289.1406250000,167478.1718750000,141710.5156250000,166172.0156250000,169087.3906250000,,,
0.5759999990,4,178349.5781250000,166069.4531250000,193231.6718750000,179276.2812500000,167481.1718750000,141717.5625000000,166171.0312500000,168580.0468750000,,,
0.5799999991,4,178333.6875000000,166055.2656250000,193205.3906250000,179258.7343750000,167457.4687500000,141691.8437500000,166148.8125000000,168746.0000000000,,,
0.5839999991,4,178311.1406250000,166036.3750000000,193170.3125000000,179265.2500000000,167424.5312500000,141672.9531250000,166095.8906250000,169349.1718750000,,,
0.5879999991,4,178330.7187500000,166051.9687500000,193187.8437500000,179278.2343750000,167440.4062500000,141687.4218750000,166129.6093750000,169542.2187500000,,,
0.5919999990,4,178338.0312500000,166053.6718750000,193199.8906250000,179275.8750000000,167452.0468750000,141699.4062500000,166153.7187500000,169088.7812500000,,,
0.5959999990,4,178345.5781250000,166066.3437500000,193213.6562500000,179267.1250000000,167466.6875000000,141709.5781250000,166170.4687500000,168569.7187500000,,,
0.5999999992,4,178328.6718750000,166063.7031250000,193194.9531250000,179230.1406250000,167449.6562500000,141697.4531250000,166154.7500000000,168721.1093750000,,,
0.6039999991,4,178289.3281250000,166020.1562500000,193151.0156250000,179228.1250000000,167409.3750000000,141660.8593750000,166105.9531250000,169322.0000000000,,,
0.6079999991,4,178297.7187500000,166015.3750000000,193166.2812500000,179262.7343750000,167421.0625000000,141649.9687500000,166111.2968750000,169524.0312500000,,,
0.6119999990,4,178309.9062500000,166028.7812500000,193179.9375000000,179285.7343750000,167432.6250000000,141670.2031250000,166125.9375000000,169079.4218750000,,,
0.6159999990,4,178295.3906250000,166021.1093750000,193164.6718750000,179262.2187500000,167417.5781250000,141649.8125000000,166113.4375000000,168598.5781250000,,,
0.6199999989,4,178281.8125000000,166015.2968750000,193153.2968750000,179231.0781250000,167407.3906250000,141652.2500000000,166078.0625000000,168750.8593750000,,,
0.6239999991,4,178284.8750000000,166016.3437500000,193158.5000000000,179232.1718750000,167411.6250000000,141650.0000000000,166075.0312500000,169330.1093750000,,,
0.6279999991,4,178285.2187500000,166010.5781250000,193144.0468750000,179243.0156250000,167398.1875000000,141639.8125000000,166093.3281250000,169556.1562500000,,,
0.6319999991,4,178307.2187500000,166028.0625000000,193167.2500000000,179261.4218750000,167422.2500000000,141673.7343750000,166147.4687500000,169110.8281250000,,,
0.6359999990,4,178321.0625000000,166044.1875000000,193190.8281250000,179261.9531250000,167445.3906250000,141663.5937500000,166173.5000000000,168578.2343750000,,,
0.6399999990,5,178287.5781250000,166012.9375000000,193157.1093750000,179231.3750000000,167409.6406250000,141627.9218750000,166119.2812500000,168728.8906250000,,,
0.6439999989,5,178279.3437500000,166006.8750000000,193141.3593750000,179250.9531250000,167393.2500000000,141623.1250000000,166088.0937500000,169354.3281250000,,,
0.6479999989,5,178322.4218750000,166040.4531250000,193185.6406250000,179307.3281250000,167435.1562500000,141638.7656250000,166131.8906250000,169582.9531250000,,,
0.6519999988,5,178315.6718750000,166027.4218750000,193179.7812500000,179277.4218750000,167429.5156250000,141667.7031250000,166125.1406250000,169129.4687500000,,,
0.6559999988,5,178299.2187500000,166021.9531250000,193166.7968750000,179244.9687500000,167416.4843750000,141657.8906250000,166108.7656250000,168607.0625000000,,,
0.6599999988,5,178295.9843750000,166017.3281250000,193161.7968750000,179244.4843750000,167413.7968750000,141636.8593750000,166109.9218750000,168732.4531250000,,,
0.6639999989,5,178287.5312500000,166008.4062500000,193145.4218750000,179247.4375000000,167399.4843750000,141635.7343750000,166093.4062500000,169319.2343750000,,,
0.6679999989,5,178293.5312500000,166016.5000000000,193148.2812500000,179270.6406250000,167400.0937500000,141639.4062500000,166094.7500000000,169583.6250000000,,,
0.6719999989,5,178320.2812500000,166034.6562500000,193185.1406250000,179289.0156250000,167433.8437500000,141656.4843750000,166135.1718750000,169152.5468750000,,,
0.6759999988,5,178289.0625000000,166007.4687500000,193154.2656250000,179250.8125000000,167405.5468750000,141640.2031250000,166112.9531250000,168655.9062500000,,,
0.6799999988,5,178269.1093750000,165992.7187500000,193135.0156250000,179224.1875000000,167387.9218750000,141611.2968750000,166087.0156250000,168789.1875000000,,,
0.6839999990,5,178268.2500000000,165991.5625000000,193125.9218750000,179219.0937500000,167380.7500000000,141608.8281250000,166061.6406250000,169376.6718750000,,,
0.6879999989,5,178281.0625000000,165999.1718750000,193140.8593750000,179239.9531250000,167393.6250000000,141614.6406250000,166071.7812500000,169599.7500000000,,,
0.6919999989,5,178296.5937500000,166014.8437500000,193163.4687500000,179264.7343750000,167413.3437500000,141638.5781250000,166103.6718750000,169159.9531250000,,,
0.6959999988,5,178316.9531250000,166035.0312500000,193192.1093750000,179283.5937500000,167440.7812500000,141663.2812500000,166134.5468750000,168609.5781250000,,,
0.6999999988,5,178285.8750000000,166015.6718750000,193144.7656250000,179249.2656250000,167397.6250000000,141643.0781250000,166093.9687500000,168713.8906250000,,,
0.7039999987,5,178253.1718750000,165986.1875000000,193102.5312500000,179211.0937500000,167358.6875000000,141603.0625000000,166069.0468750000,169283.2187500000,,,
0.7079999989,5,178262.7187500000,165982.8437500000,193121.0625000000,179239.3593750000,167372.3125000000,141606.1718750000,166077.6875000000,169524.1562500000,,,
0.7119999989,5,178302.9062500000,166013.9218750000,193166.3125000000,179287.6250000000,167415.3906250000,141631.8906250000,166117.4843750000,169082.2343750000,,,
0.7159999989,5,178318.7500000000,166034.4687500000,193189.0625000000,179274.1250000000,167436.5156250000,141660.0625000000,166133.6875000000,168564.7656250000,,,
0.7199999988,5,178286.0781250000,166001.1093750000,193151.5625000000,179248.7343750000,167402.9687500000,141610.0937500000,166077.2812500000,168672.6406250000,,,
0.7239999988,5,178269.7187500000,165987.0000000000,193123.6093750000,179254.0312500000,167378.0156250000,141599.6562500000,166056.4218750000,169243.1250000000,,,
0.7279999990,5,178292.3281250000,166006.5312500000,193145.5000000000,179268.1250000000,167398.2656250000,141619.6093750000,166103.2968750000,169454.5937500000,,,
0.7319999989,5,178314.5156250000,166025.7500000000,193173.7656250000,179287.4531250000,167424.8750000000,141647.2968750000,166139.5156250000,168975.3750000000,,,
0.7359999989,5,178306.3125000000,166021.5468750000,193173.9843750000,179268.3593750000,167426.1406250000,141649.2187500000,166144.3906250000,168428.1093750000,,,
0.7399999988,5,178302.0156250000,166029.4843750000,193168.2656250000,179253.9843750000,167419.1406250000,141656.4375000000,166133.0781250000,168524.9375000000,,,
0.7439999988,5,178307.1406250000,166037.8750000000,193183.6875000000,179245.2343750000,167430.6406250000,141648.5312500000,166129.8281250000,169089.0625000000,,,
0.7479999987,5,178309.5000000000,166027.2656250000,193172.7812500000,179265.2968750000,167425.1406250000,141608.1875000000,166117.9375000000,169311.7343750000,,,
0.7519999989,5,178313.4375000000,166031.8750000000,193167.0000000000,179277.5625000000,167422.8906250000,141644.3437500000,166131.5937500000,168862.0312500000,,,
0.7559999989,5,178306.1250000000,166033.3437500000,193165.4531250000,179266.7031250000,167419.0781250000,141655.0625000000,166109.4218750000,168310.5468750000,,,
0.7599999988,5,178275.9218750000,166000.5781250000,193138.5468750000,179254.1406250000,167392.3437500000,141634.8437500000,166086.9687500000,168402.2187500000,,,
0.7639999988,5,178257.7343750000,165976.7500000000,193119.5625000000,179215.7343750000,167372.6093750000,141602.1718750000,166084.9062500000,168983.4218750000,,,
0.7679999988,6,178291.8750000000,166011.0000000000,193148.2031250000,179242.8750000000,167399.4531250000,141667.4843750000,166116.2343750000,169199.1875000000,,,
0.7719999987,6,178338.6875000000,166059.6406250000,193198.5156250000,179281.9062500000,167447.8125000000,141684.9218750000,166166.6562500000,168746.8906250000,,,
0.7759999987,6,178343.0312500000,166067.1093750000,193211.5000000000,179276.7031250000,167460.5312500000,141675.3437500000,166156.7343750000,168195.7500000000,,,
0.7799999986,6,178285.0312500000,166003.3593750000,193150.9687500000,179232.8281250000,167402.5937500000,141633.3437500000,166087.3906250000,168296.1875000000,,,
0.7839999986,6,178283.5000000000,166003.5468750000,193151.1562500000,179251.9687500000,167400.7656250000,141628.8437500000,166086.2343750000,168927.7812500000,,,
0.7879999985,6,178308.5625000000,166038.7968750000,193164.1093750000,179289.7343750000,167415.5781250000,141648.9218750000,166097.5625000000,169225.6562500000,,,
0.7919999987,6,178296.7500000000,166007.5937500000,193156.1250000000,179265.4062500000,167408.6562500000,141614.5625000000,166093.8593750000,168807.1250000000,,,
0.7959999987,6,178295.2812500000,166004.2187500000,193159.1718750000,179232.7656250000,167412.2656250000,141648.8750000000,166104.4218750000,168237.0781250000,,,
0.7999999986,6,178302.0937500000,166018.4843750000,193157.5937500000,179233.7031250000,167414.6875000000,141648.8437500000,166114.2656250000,168277.3125000000,,,
0.8039999986,6,178310.1093750000,166023.4218750000,193164.5156250000,179253.1250000000,167421.1250000000,141643.7500000000,166107.8125000000,168858.0312500000,,,
0.8079999986,6,178314.2968750000,166029.0000000000,193171.8593750000,179267.1875000000,167430.7187500000,141652.5937500000,166126.7500000000,169164.7968750000,,,
0.8119999988,6,178339.0625000000,166050.3281250000,193216.2031250000,179293.0937500000,167470.0156250000,141656.9531250000,166155.3125000000,168775.7656250000,,,
0.8159999987,6,178331.3281250000,166041.6562500000,193202.0312500000,179282.0625000000,167458.0625000000,141648.3437500000,166134.9531250000,168236.1093750000,,,
0.8199999987,6,178316.8281250000,166037.6718750000,193181.4062500000,179255.2187500000,167442.2812500000,141620.5156250000,166110.0625000000,168323.5000000000,,,
0.8239999986,6,178324.5781250000,166054.0312500000,193195.9218750000,179259.0468750000,167455.6718750000,141689.1250000000,166124.1875000000,168881.5312500000,,,
0.8279999986,6,178331.5156250000,166060.5156250000,193199.4687500000,179273.4062500000,167456.6406250000,141638.2968750000,166135.9218750000,169151.8750000000,,,
0.8319999985,6,178330.9218750000,166059.9531250000,193198.4375000000,179272.9218750000,167453.4687500000,141621.9687500000,166154.4687500000,168794.8750000000,,,
0.8359999987,6,178328.5468750000,166058.6875000000,193193.9375000000,179282.3125000000,167448.6093750000,141653.1562500000,166156.6718750000,168300.6718750000,,,
0.8399999987,6,178285.0937500000,166002.5625000000,193156.5937500000,179235.8750000000,167416.1562500000,141664.7812500000,166115.7500000000,168385.5156250000,,,
0.8439999986,6,178251.8906250000,165976.3437500000,193112.8593750000,179208.4375000000,167374.1562500000,141580.9375000000,166053.0156250000,168972.5468750000,,,
0.8479999986,6,178274.0625000000,165986.5468750000,193152.0156250000,179237.1875000000,167408.5468750000,141604.1875000000,166094.3437500000,169269.5468750000,,,
0.8519999986,6,178309.4687500000,166018.7343750000,193181.9687500000,179284.4062500000,167437.8281250000,141643.2343750000,166155.8906250000,168894.8593750000,,,
0.8559999987,6,178305.7968750000,166025.5937500000,193169.4687500000,179284.8593750000,167430.4375000000,141663.8593750000,166153.0000000000,168361.2343750000,,,
0.8599999987,6,178289.0937500000,166021.0156250000,193147.7500000000,179252.2187500000,167411.1250000000,141655.3437500000,166117.6562500000,168427.2500000000,,,
0.8639999987,6,178267.5468750000,165994.7812500000,193127.7656250000,179233.6250000000,167390.6250000000,141600.2968750000,166086.9843750000,169000.6718750000,,,
0.8679999986,6,178265.0781250000,165984.8281250000,193125.3281250000,179224.1562500000,167389.2656250000,141586.3437500000,166083.8750000000,169305.4843750000,,,
0.8719999986,6,178266.0156250000,165987.5937500000,193135.2812500000,179203.3906250000,167398.6250000000,141556.3593750000,166088.3593750000,168958.9062500000,,,
0.8759999985,6,178272.2656250000,165987.4531250000,193155.3593750000,179206.0468750000,167419.0625000000,141582.8593750000,166106.0312500000,168463.4531250000,,,
0.8799999987,6,178272.3437500000,165995.8281250000,193140.3125000000,179217.1250000000,167407.5468750000,141602.7187500000,166096.9218750000,168519.0781250000,,,
0.8839999987,6,178253.5468750000,165972.4843750000,193112.5781250000,179210.5625000000,167379.3281250000,141607.4843750000,166072.0468750000,169091.2812500000,,,
0.8879999986,6,178279.8125000000,165994.5937500000,193139.9218750000,179250.5781250000,167403.1562500000,141629.5312500000,166101.6875000000,169384.7187500000,,,
0.8919999986,6,178297.0312500000,166009.2656250000,193174.3593750000,179254.3125000000,167431.5625000000,141639.2187500000,166100.0781250000,168990.7812500000,,,
0.8959999986,7,178290.6406250000,166011.2968750000,193170.3281250000,179241.1406250000,167427.0312500000,141630.2812500000,166087.4531250000,168437.1406250000,,,
0.8999999985,7,178268.3750000000,165987.2968750000,193135.7343750000,179243.5000000000,167400.7968750000,141611.4218750000,166128.2656250000,168486.6875000000,,,
0.9039999985,7,178245.3906250000,165966.4218750000,193112.6718750000,179224.7187500000,167374.4531250000,141592.4687500000,166099.0937500000,169068.0468750000,,,
0.9079999984,7,178261.6250000000,165981.5781250000,193118.5156250000,179261.8125000000,167374.4218750000,141610.7343750000,166070.0937500000,169353.5781250000,,,
0.9119999984,7,178279.2500000000,165994.5312500000,193148.1562500000,179264.0625000000,167402.5312500000,141619.1250000000,166109.6093750000,168955.0468750000,,,
0.9159999983,7,178279.1562500000,165998.3125000000,193152.2031250000,179252.4843750000,167407.8125000000,141606.3281250000,166138.7656250000,168414.0000000000,,,
0.9199999985,7,178261.6718750000,165982.6562500000,193134.8281250000,179227.0000000000,167389.9843750000,141635.7031250000,166086.3281250000,168458.9218750000,,,
0.9239999985,7,178266.0781250000,166008.9375000000,193129.0781250000,179227.9062500000,167381.0468750000,141647.1093750000,166066.8437500000,169051.5000000000,,,
0.9279999984,7,178270.7343750000,165995.6406250000,193137.9531250000,179264.3593750000,167387.5625000000,141554.2968750000,166072.8281250000,169373.5781250000,,,
0.9319999984,7,178290.7187500000,165998.6718750000,193169.9531250000,179276.4375000000,167424.3750000000,141634.5468750000,166104.5000000000,168972.3281250000,,,
0.9359999984,7,178301.5312500000,166011.4062500000,193187.7656250000,179269.9687500000,167440.2187500000,141617.3281250000,166116.9062500000,168408.5000000000,,,
0.9399999985,7,178275.2968750000,165999.6093750000,193150.1406250000,179226.2500000000,167401.4843750000,141616.1718750000,166100.8281250000,168470.7500000000,,,
0.9439999985,7,178256.0468750000,166001.6718750000,193121.2812500000,179213.1093750000,167375.5468750000,141571.3593750000,166108.6406250000,169072.2343750000,,,
0.9479999985,7,178281.3906250000,166008.5937500000,193151.6875000000,179258.4375000000,167407.7187500000,141596.4843750000,166194.3593750000,169372.9062500000,,,
0.9519999984,7,178300.8593750000,166016.7187500000,193171.1406250000,179247.4062500000,167424.2031250000,141670.6562500000,166121.8593750000,168959.6875000000,,,
0.9559999984,7,178301.5000000000,166024.1718750000,193188.0937500000,179228.9062500000,167435.5468750000,141634.7031250000,166099.8593750000,168367.1406250000,,,
0.9599999983,7,178277.7656250000,165998.0156250000,193160.8125000000,179228.6875000000,167411.2187500000,141634.6250000000,166086.5156250000,168424.1406250000,,,
0.9639999985,7,178248.2031250000,165975.4062500000,193119.1875000000,179213.3281250000,167368.7343750000,141617.4687500000,166058.0781250000,169004.0781250000,,,
0.9679999985,7,178256.5781250000,165981.6562500000,193129.8281250000,179235.8593750000,167381.3750000000,141611.4062500000,166095.6250000000,169305.1562500000,,,
0.9719999984,7,178276.8281250000,166002.1562500000,193151.6875000000,179252.0312500000,167404.7812500000,141617.7031250000,166121.0781250000,168911.5781250000,33029,0.9758182275,0.0000000000
0.9759999984,7,178276.9687500000,166001.9062500000,193162.0468750000,179236.7187500000,167413.5312500000,141587.0781250000,166120.5468750000,168347.4843750000,,,
0.9799999984,7,178271.3281250000,165995.2031250000,193163.4687500000,179228.1562500000,167420.3437500000,141612.0781250000,166173.2187500000,168387.7968750000,,,
0.9839999985,7,178261.2656250000,166005.1875000000,193122.5625000000,179219.2968750000,167382.1250000000,141557.8593750000,166098.4687500000,168981.1718750000,,,
0.9879999985,7,178256.1562500000,165987.1562500000,193128.7031250000,179226.2031250000,167378.7656250000,141619.2812500000,166058.2187500000,169330.8593750000,,,
0.9919999985,7,178279.4843750000,165999.0937500000,193181.0312500000,179245.9687500000,167436.6562500000,141697.6093750000,166171.9843750000,168965.0312500000,,,
0.9959999984,7,178289.8437500000,166022.4375000000,193179.1562500000,179273.2500000000,167436.0156250000,141631.2031250000,166181.8906250000,168397.5781250000,,,
0.9999999984,7,178247.3750000000,165979.1718750000,193091.7500000000,179258.9218750000,167341.9687500000,141614.5625000000,166017.0625000000,168432.3906250000,,,
1.0039999983,7,178232.9687500000,165974.0156250000,193084.2812500000,179196.0781250000,167338.7812500000,141598.5000000000,166058.4843750000,169008.5625000000,,,
1.0079999985,7,178258.7031250000,165990.5625000000,193132.8593750000,179207.7968750000,167389.7968750000,141618.8593750000,166120.4687500000,169335.3906250000,,,
1.0119999985,7,178271.0625000000,165994.2656250000,193158.2656250000,179220.6406250000,167422.8437500000,141626.1250000000,166122.3437500000,168981.1562500000,,,
1.0159999984,7,178269.2187500000,166009.7500000000,193148.0156250000,179226.7343750000,167410.1562500000,141583.7968750000,166148.9531250000,168424.1406250000,,,
1.0199999984,7,178259.6562500000,166011.6250000000,193147.6093750000,179230.7812500000,167404.9531250000,141593.7187500000,166111.8593750000,168450.9843750000,,,
1.0239999983,8,178248.6718750000,165996.2031250000,193133.9062500000,179223.4375000000,167390.2812500000,141570.2500000000,166115.3437500000,169054.1875000000,,,
1.0279999983,8,178233.1562500000,165972.9218750000,193086.1718750000,179207.0781250000,167346.4843750000,141622.9687500000,166012.8750000000,169386.2968750000,,,
1.0319999983,8,178257.9687500000,165981.5312500000,193156.4687500000,179217.7812500000,167406.4531250000,141604.8281250000,166079.1875000000,169020.7187500000,,,
1.0359999982,8,178280.7968750000,165999.8750000000,193164.3750000000,179239.9531250000,167413.9375000000,141656.2812500000,166124.8437500000,168437.4687500000,,,
1.0399999982,8,178253.0937500000,165998.0156250000,193116.2343750000,179201.4062500000,167365.3906250000,141620.6875000000,166094.4218750000,168428.8593750000,,,
1.0439999981,8,178233.0312500000,165964.9218750000,193091.7500000000,179199.8593750000,167358.0156250000,141611.1406250000,166106.2187500000,168985.5781250000,,,
1.0479999983,8,178248.9375000000,165969.7031250000,193106.4375000000,179247.8437500000,167363.9375000000,141608.4843750000,166043.4843750000,169303.4375000000,,,
1.0519999983,8,178289.8437500000,166015.5625000000,193163.9531250000,179261.5156250000,167420.7187500000,141622.1093750000,166143.3125000000,168955.9687500000,,,
1.0559999982,8,178292.1718750000,166019.9375000000,193180.4375000000,179230.5156250000,167435.0625000000,141644.7656250000,166189.9375000000,168412.5781250000,,,
1.0599999982,8,178270.9218750000,166005.0000000000,193148.0781250000,179230.8125000000,167399.3437500000,141707.7187500000,166085.9687500000,168403.2187500000,,,
1.0639999982,8,178259.8750000000,165992.4687500000,193148.9218750000,179225.3437500000,167406.9062500000,141633.4843750000,166115.1875000000,168977.6562500000,,,
1.0679999983,8,178285.5468750000,166002.9531250000,193195.1718750000,179233.8906250000,167449.6093750000,141638.4687500000,166247.7968750000,169326.8281250000,,,
1.0719999983,8,178303.5937500000,166043.2187500000,193213.3593750000,179250.6875000000,167464.9843750000,141636.6875000000,166265.6875000000,169004.1406250000,,,
1.0759999983,8,178270.0468750000,166014.7656250000,193116.2656250000,179263.6875000000,167358.5781250000,141592.0312500000,165951.7343750000,168455.5468750000,,,
1.0799999982,8,178251.6406250000,165990.6718750000,193109.9218750000,179222.5468750000,167370.8593750000,141641.4218750000,166141.6875000000,168432.7656250000,,,
1.0839999982,8,178241.1562500000,165973.4218750000,193106.6250000000,179219.1406250000,167359.6718750000,141634.6093750000,166049.9218750000,169020.0625000000,,,
1.0879999981,8,178269.6406250000,165988.2812500000,193141.4531250000,179248.8281250000,167388.6093750000,141645.5468750000,166066.1250000000,169387.7500000000,,,
1.0919999983,8,178304.5156250000,166024.2343750000,193192.3281250000,179272.4843750000,167448.6093750000,141700.1562500000,166172.5468750000,169045.1406250000,,,
1.0959999983,8,178305.6093750000,166024.9843750000,193218.0781250000,179247.1250000000,167482.7343750000,141717.5312500000,166267.9062500000,168493.5000000000,,,
1.0999999982,8,178263.9218750000,165991.9375000000,193152.5468750000,179209.6718750000,167405.0781250000,141663.9531250000,166064.1406250000,168537.8125000000,,,
1.1039999982,8,178265.0000000000,166015.9687500000,193108.2656250000,179237.2812500000,167372.5156250000,141707.1250000000,166029.5937500000,169107.4218750000,,,
1.1079999981,8,178298.8750000000,166020.0156250000,193208.7968750000,179277.2187500000,167463.6875000000,141649.6562500000,166128.4375000000,169410.4843750000,,,
1.1119999983,8,178327.6250000000,166061.7031250000,193237.1250000000,179279.5781250000,167493.5156250000,141661.0000000000,166253.6406250000,169059.6250000000,,,
1.1159999983,8,178357.7812500000,166140.8750000000,193241.4843750000,179255.4843750000,167504.7500000000,141651.3906250000,166153.3750000000,168502.6406250000,,,
1.1199999982,8,178277.0625000000,166013.2031250000,193136.6250000000,179229.4375000000,167401.2968750000,141645.0625000000,166103.4375000000,168501.5156250000,,,
1.1239999982,8,178233.6406250000,165954.4375000000,193100.0625000000,179190.2343750000,167367.6718750000,141719.9531250000,166105.9062500000,169096.5312500000,,,
1.1279999982,8,178276.4062500000,165979.0312500000,193186.5312500000,179241.1406250000,167437.3437500000,141693.1093750000,166127.6250000000,169431.0312500000,,,
1.1319999981,8,178301.0468750000,166018.1093750000,193188.7031250000,179266.8906250000,167443.8750000000,141654.1562500000,166116.6250000000,169086.9375000000,,,
1.1359999983,8,178278.2187500000,165999.4687500000,193156.8437500000,179241.8281250000,167419.9218750000,141715.4375000000,166243.7656250000,168544.8906250000,,,
1.1399999983,8,178253.4375000000,165980.0781250000,193116.0937500000,179193.7968750000,167370.4218750000,141730.7343750000,166044.1875000000,168570.5781250000,,,
1.1439999982,8,178279.1562500000,166016.0000000000,193146.1718750000,179228.6093750000,167397.5156250000,141742.3281250000,166153.6250000000,169114.5937500000,,,
1.1479999982,8,178303.7343750000,166040.5312500000,193177.2187500000,179251.8125000000,167417.8750000000,141600.8906250000,166087.2031250000,169463.3906250000,,,
1.1519999981,9,178317.3281250000,166070.1406250000,193178.9687500000,179256.7500000000,167431.5781250000,141693.3906250000,166118.7812500000,169162.7656250000,,,
1.1559999981,9,178315.0781250000,166024.9062500000,193211.1250000000,179252.0000000000,167475.2812500000,141781.2968750000,166192.4062500000,168598.9062500000,,,
1.1599999981,9,178300.3750000000,166035.7656250000,193183.9531250000,179210.0000000000,167433.5468750000,141738.3750000000,166125.1406250000,168564.7031250000,,,
1.1639999980,9,178278.6562500000,165987.9375000000,193208.5781250000,179208.8906250000,167454.3281250000,141688.5937500000,166141.8906250000,169131.0781250000,,,
1.1679999980,9,178286.3437500000,166002.5000000000,193180.6562500000,179247.8906250000,167429.8906250000,141751.5468750000,166141.9218750000,169495.3593750000,,,
1.1719999979,9,178313.5000000000,166046.8906250000,193172.8593750000,179297.2812500000,167431.7656250000,141747.7187500000,166215.2812500000,169159.8125000000,,,
1.1759999981,9,178310.5468750000,166049.6250000000,193194.2031250000,179263.9062500000,167435.2343750000,141729.7187500000,166124.8906250000,168570.4687500000,,,
1.1799999981,9,178255.9687500000,165987.5312500000,193103.7343750000,179216.8593750000,167352.1406250000,141738.6250000000,165980.7031250000,168538.1875000000,,,
1.1839999980,9,178287.9531250000,166031.3906250000,193156.8906250000,179230.2187500000,167409.2343750000,141760.0000000000,166127.7343750000,169106.1093750000,,,
1.1879999980,9,178310.0312500000,166047.0468750000,193196.5312500000,179251.7343750000,167444.5937500000,141769.1093750000,166180.8906250000,169441.6562500000,,,
1.1919999979,9,178322.8750000000,166032.8906250000,193224.5937500000,179280.7500000000,167463.7656250000,141789.8750000000,166180.7031250000,169067.6718750000,,,
1.1959999981,9,178346.5468750000,166061.5156250000,193263.8281250000,179294.1093750000,167511.5625000000,141788.3750000000,166201.3593750000,168464.1875000000,,,
1.1999999981,9,178307.4843750000,166057.2968750000,193170.0156250000,179245.5625000000,167409.7500000000,141727.5468750000,166029.7500000000,168438.7031250000,,,
1.2039999980,9,178306.2500000000,166046.9687500000,193195.3593750000,179230.6250000000,167454.6562500000,141769.1093750000,166241.0781250000,168960.0468750000,,,
1.2079999980,9,178317.4062500000,166067.0937500000,193197.5625000000,179258.7812500000,167441.4218750000,141807.7656250000,166208.4375000000,169331.5468750000,,,
1.2119999980,9,178316.8750000000,166051.0000000000,193143.4531250000,179334.6406250000,167382.0156250000,141876.8906250000,165991.7187500000,169011.4531250000,,,
1.2159999979,9,178294.0781250000,166010.4687500000,193148.2656250000,179241.8125000000,167399.3750000000,141785.1093750000,166150.3125000000,168413.3750000000,,,
1.2199999981,9,178297.8906250000,166012.6406250000,193186.6875000000,179212.4375000000,167431.3125000000,141848.8906250000,166136.5625000000,168385.1875000000,,,
1.2239999981,9,178278.2031250000,166008.2656250000,193164.6250000000,179227.8281250000,167402.0781250000,141754.1718750000,166039.0625000000,168974.6250000000,,,
1.2279999980,9,178278.0937500000,166027.3593750000,193114.5625000000,179270.5937500000,167360.5625000000,141785.6093750000,166027.6406250000,169357.2812500000,,,
1.2319999980,9,178313.5156250000,166046.3281250000,193191.4687500000,179274.0468750000,167432.7343750000,141649.0625000000,166156.6250000000,169032.7812500000,,,
1.2359999979,9,178290.5156250000,166017.1718750000,193178.5625000000,179266.2968750000,167422.7656250000,141767.4062500000,166110.5937500000,168452.3281250000,,,
1.2399999981,9,178241.8750000000,165966.5625000000,193130.7187500000,179219.0156250000,167389.7343750000,141830.8281250000,166085.9687500000,168408.0468750000,,,
1.2439999981,9,178273.3906250000,166027.5468750000,193168.6718750000,179240.5000000000,167412.4531250000,141788.8281250000,166023.6406250000,168975.4062500000,,,
1.2479999980,9,178286.9375000000,166033.8281250000,193161.5312500000,179275.5468750000,167406.8750000000,141799.3437500000,166060.2500000000,169327.7968750000,,,
1.2519999980,9,178267.2812500000,165994.6718750000,193121.5937500000,179269.8593750000,167369.9531250000,141818.8437500000,166043.8906250000,169010.2812500000,,,
1.2559999980,9,178250.4375000000,165981.7187500000,193108.2187500000,179248.6406250000,167350.2656250000,141749.9062500000,166050.7031250000,168422.4375000000,,,
1.2599999979,9,178273.9531250000,166006.5312500000,193165.3125000000,179235.7656250000,167410.7968750000,141809.6406250000,166186.6875000000,168343.7812500000,,,
1.2639999981,9,178247.3437500000,165994.0468750000,193105.6875000000,179220.0781250000,167336.6093750000,141784.4843750000,165919.0781250000,168881.0781250000,,,
1.2679999981,9,178229.8437500000,165969.1562500000,193084.9843750000,179207.5000000000,167329.7343750000,141748.5468750000,166038.0937500000,169254.0625000000,,,
1.2719999980,9,178288.1718750000,166021.2812500000,193175.9062500000,179256.4531250000,167430.1875000000,141827.8281250000,166180.1250000000,168945.0468750000,,,
1.2759999980,9,178255.6093750000,165976.6250000000,193107.4062500000,179271.8281250000,167340.2500000000,141834.0468750000,165969.7187500000,168366.7656250000,,,
1.2799999979,10,178244.0312500000,165966.4531250000,193120.7187500000,179260.3437500000,167357.1250000000,141729.0937500000,166061.9062500000,168323.8281250000,,,
1.2839999979,10,178271.8125000000,166015.9062500000,193183.6562500000,179229.8437500000,167435.8750000000,141622.7500000000,166122.7500000000,168899.0781250000,,,
1.2879999978,10,178311.8281250000,166060.2500000000,193229.6406250000,179258.6718750000,167474.3437500000,141653.8593750000,166218.4687500000,169294.0625000000,,,
1.2919999978,10,178238.4218750000,165959.5312500000,193057.3593750000,179263.5625000000,167286.1562500000,141791.4531250000,165942.1718750000,168931.4687500000,,,
1.2959999978,10,178236.7343750000,165971.2500000000,193079.5625000000,179247.4375000000,167317.7812500000,141773.4843750000,165967.8750000000,168299.2812500000,,,
1.2999999977,10,178268.2500000000,166027.5312500000,193136.4843750000,179253.4531250000,167375.9218750000,141766.8437500000,166044.9375000000,168244.1093750000,,,
1.3039999979,10,178224.4687500000,165978.0156250000,193076.6406250000,179223.1875000000,167308.3281250000,141728.5937500000,166000.5156250000,168875.0156250000,,,
1.3079999979,10,178196.4218750000,165897.7031250000,193064.0937500000,179218.8437500000,167296.7968750000,141778.6875000000,165970.3750000000,169349.7656250000,,,
1.3119999978,10,178298.9531250000,166017.3281250000,193220.6718750000,179280.8281250000,167454.8906250000,141724.7812500000,166121.8906250000,169042.7031250000,,,
1.3159999978,10,178319.1250000000,166064.1093750000,193182.7187500000,179316.6718750000,167420.7500000000,141761.6250000000,166061.7187500000,168398.9687500000,,,
1.3199999977,10,178247.0625000000,165948.4218750000,193115.6406250000,179251.8437500000,167361.7656250000,141856.5625000000,166059.3593750000,168342.7812500000,,,
1.3239999979,10,178248.1250000000,165954.0937500000,193167.7343750000,179200.8437500000,167403.9531250000,141794.4687500000,166035.6562500000,168996.7343750000,,,
1.3279999979,10,178233.8281250000,165971.8750000000,193082.4375000000,179209.4375000000,167311.0156250000,141774.9375000000,165977.4531250000,169467.1093750000,,,
1.3319999978,10,178231.9531250000,165940.3281250000,193091.0000000000,179229.6250000000,167320.9375000000,141718.9375000000,166023.9531250000,169160.6093750000,,,
1.3359999978,10,178272.2500000000,165994.9843750000,193159.8437500000,179241.0000000000,167399.3906250000,141771.7187500000,166185.2187500000,168555.7500000000,,,
1.3399999978,10,178305.1875000000,166032.9218750000,193224.7343750000,179244.3593750000,167447.5468750000,141805.0625000000,166030.7968750000,168517.7656250000,,,
1.3439999977,10,178232.2968750000,165955.1093750000,193083.4062500000,179199.2343750000,167317.0468750000,141751.2500000000,165933.6562500000,169156.3437500000,,,
1.3479999979,10,178215.4062500000,165952.7187500000,193022.2812500000,179210.3437500000,167263.3281250000,141712.0937500000,165946.1718750000,169597.0156250000,,,
1.3519999979,10,178255.2968750000,165979.3593750000,193103.3281250000,179248.8125000000,167341.1718750000,141721.5000000000,166033.6406250000,169263.0468750000,,,
1.3559999978,10,178295.8437500000,166034.8437500000,193181.2500000000,179259.2968750000,167415.0937500000,141721.1093750000,166137.2812500000,168624.0625000000,,,
1.3599999978,10,178283.1093750000,166006.5781250000,193191.9843750000,179237.3750000000,167422.2500000000,141871.8750000000,166109.7031250000,168544.2968750000,,,
1.3639999977,10,178270.6875000000,166025.0625000000,193124.3906250000,179230.2187500000,167357.9062500000,141812.4375000000,166030.5625000000,169156.3750000000,,,
1.3679999979,10,178267.4218750000,166006.2343750000,193142.9531250000,179237.5468750000,167378.6562500000,141810.0937500000,166158.2031250000,169632.7343750000,,,
1.3719999979,10,178310.5781250000,166035.7812500000,193192.5937500000,179279.9218750000,167425.2343750000,141756.8281250000,166127.1718750000,169303.1718750000,,,
1.3759999978,10,178284.9531250000,166011.7812500000,193136.7187500000,179291.2968750000,167360.5000000000,141768.9531250000,165967.6406250000,168643.3750000000,,,
1.3799999978,10,178244.5937500000,165957.9843750000,193111.7343750000,179275.2031250000,167348.8437500000,141883.0781250000,166065.0000000000,168555.0781250000,,,
1.3839999977,10,178261.0625000000,165989.7031250000,193151.0781250000,179252.8906250000,167387.7812500000,141795.0312500000,166024.8437500000,169173.2031250000,,,
1.3879999977,10,178283.1250000000,166011.5156250000,193190.6406250000,179212.5781250000,167416.0468750000,141813.7500000000,166026.6406250000,169648.2343750000,,,
1.3919999979,10,178309.8125000000,166067.0312500000,193161.2968750000,179247.3281250000,167397.9218750000,141810.7968750000,166014.6562500000,169366.8750000000,,,
1.3959999979,10,178306.5156250000,166049.7031250000,193164.0781250000,179252.4531250000,167405.8281250000,141574.8125000000,166162.3593750000,168744.2031250000,,,
1.3999999978,10,178272.6718750000,165995.7500000000,193122.6718750000,179251.6718750000,167339.7656250000,141822.5937500000,165980.8593750000,168652.4375000000,,,
1.4039999978,10,178242.5781250000,165945.2968750000,193101.1875000000,179230.2812500000,167325.9062500000,141805.8906250000,165999.6875000000,169237.2968750000,,,
1.4079999977,11,178288.0468750000,166019.8593750000,193137.7500000000,179247.0625000000,167368.2812500000,141804.5000000000,166051.8593750000,169701.3281250000,,,
1.4119999977,11,178304.6718750000,166027.9531250000,193173.7187500000,179294.5937500000,167410.1250000000,141783.8906250000,166135.4531250000,169381.1406250000,,,
1.4159999976,11,178326.2656250000,166017.9843750000,193231.5937500000,179327.0000000000,167468.1406250000,141828.3125000000,166244.9531250000,168705.8281250000,,,
1.4199999976,11,178302.1562500000,166016.5312500000,193192.3750000000,179287.3281250000,167419.3281250000,141776.2812500000,166108.9062500000,168610.4218750000,,,
1.4239999976,11,178285.1406250000,166005.8593750000,193174.9531250000,179235.5781250000,167397.2500000000,141693.0781250000,166047.5312500000,169227.8593750000,,,
1.4279999975,11,178321.9687500000,166050.9687500000,193220.9531250000,179283.8125000000,167431.6093750000,141773.3593750000,166071.2500000000,169691.3437500000,,,
1.4319999977,11,178319.7656250000,166021.9531250000,193211.3750000000,179351.4218750000,167429.4062500000,141799.9687500000,166092.5937500000,169367.0312500000,,,
1.4359999977,11,178304.2656250000,165999.5468750000,193215.7187500000,179316.1093750000,167441.9062500000,141762.2812500000,166184.0000000000,168712.8750000000,,,
1.4399999976,11,178266.2812500000,165994.7812500000,193090.0781250000,179290.7812500000,167333.0156250000,141774.8281250000,166003.1250000000,168626.2343750000,,,
1.4439999976,11,178242.5156250000,165967.0156250000,193073.9687500000,179255.0000000000,167312.5781250000,141621.2968750000,166025.1093750000,169247.5781250000,,,
1.4479999975,11,178284.5312500000,166011.1875000000,193162.8750000000,179216.4843750000,167403.7968750000,141602.5781250000,166092.5781250000,169738.0156250000,,,
1.4519999977,11,178325.0781250000,166041.4687500000,193241.2031250000,179245.2656250000,167482.1718750000,141856.6406250000,166295.0000000000,169451.9531250000,,,
1.4559999977,11,178302.2343750000,166023.8750000000,193185.9687500000,179260.0000000000,167408.1718750000,141730.2968750000,166056.3593750000,168833.6250000000,,,
1.4599999976,11,178270.8437500000,165986.6718750000,193150.2187500000,179249.7500000000,167371.0156250000,141756.3437500000,166023.8593750000,168722.2031250000,,,
1.4639999976,11,178247.6718750000,165950.6875000000,193136.5156250000,179243.4375000000,167356.2968750000,141663.0000000000,165967.3593750000,169338.8750000000,,,
1.4679999975,11,178233.5312500000,165936.5937500000,193078.5937500000,179268.2500000000,167302.5156250000,141686.7968750000,166019.7187500000,169838.4375000000,,,
1.4719999975,11,178322.9687500000,166032.9531250000,193204.0000000000,179366.4218750000,167436.1406250000,141808.2812500000,166206.8125000000,169540.2812500000,,,
1.4759999977,11,178350.7968750000,166105.2812500000,193199.6250000000,179319.7500000000,167428.9062500000,141721.7968750000,166149.4375000000,168910.7656250000,,,
1.4799999977,11,178294.9375000000,166036.3281250000,193141.1250000000,179221.9062500000,167374.7500000000,141725.1250000000,166137.4687500000,168808.0625000000,,,
1.4839999976,11,178321.5468750000,166059.9843750000,193212.3906250000,179265.7031250000,167439.7343750000,141697.8750000000,166205.6718750000,169427.8125000000,,,
1.4879999976,11,178249.0468750000,165956.6875000000,193110.7812500000,179281.5000000000,167330.5156250000,141661.1875000000,165936.9218750000,169917.0000000000,,,
1.4919999975,11,178246.8750000000,165912.2500000000,193160.5937500000,179264.2343750000,167379.5468750000,141731.5312500000,166037.1875000000,169640.0937500000,,,
1.4959999977,11,178300.3593750000,165990.3281250000,193205.3125000000,179271.2656250000,167438.9531250000,141662.2343750000,166145.7031250000,169005.1562500000,,,
1.4999999977,11,178310.2968750000,166021.9218750000,193234.9687500000,179237.7343750000,167439.0156250000,141777.9375000000,166184.0000000000,168882.9218750000,,,
1.5039999976,11,178231.3906250000,165966.1562500000,193070.7500000000,179220.0781250000,167280.7968750000,141752.1718750000,165932.1250000000,169473.0625000000,,,
1.5079999976,11,178228.6875000000,165937.0781250000,193083.2187500000,179249.2656250000,167313.1093750000,141677.6562500000,166090.7968750000,169925.7187500000,,,
1.5119999975,11,178322.1562500000,166037.2343750000,193218.1875000000,179298.2343750000,167446.3593750000,141745.0781250000,166187.8125000000,169640.1718750000,,,
1.5159999975,11,178333.7656250000,166082.2656250000,193206.2812500000,179281.2343750000,167439.5000000000,141725.8593750000,166105.6093750000,168967.4687500000,,,
1.5199999977,11,178264.6250000000,165964.3906250000,193145.5781250000,179291.6718750000,167373.6406250000,141626.6093750000,166027.5000000000,168838.4843750000,,,
1.5239999976,11,178254.5156250000,165973.5000000000,193123.7968750000,179299.7656250000,167355.7812500000,141617.2812500000,166007.8593750000,169453.2968750000,,,
1.5279999976,11,178293.2656250000,166029.1093750000,193159.0156250000,179353.2500000000,167388.7968750000,141763.1406250000,166180.9531250000,169950.1250000000,,,
1.5319999976,11,178314.5937500000,166001.9062500000,193225.0468750000,179387.4531250000,167437.5156250000,141796.6875000000,166229.7656250000,169659.1093750000,,,
1.5359999975,12,178349.4375000000,166040.5937500000,193246.2968750000,179356.7968750000,167455.7031250000,141899.9062500000,166116.2500000000,169028.6562500000,,,
1.5399999975,12,178273.1250000000,165986.9531250000,193099.1250000000,179335.1250000000,167330.4062500000,141697.3906250000,165963.2656250000,168892.6406250000,,,
1.5439999974,12,178251.2656250000,166003.8437500000,193098.7656250000,179200.5781250000,167335.9687500000,141697.4531250000,166050.5156250000,169473.7343750000,,,
1.5479999974,12,178286.2187500000,166059.0468750000,193179.5937500000,179151.5312500000,167403.3593750000,141660.4843750000,166089.0312500000,169986.1718750000,,,
1.5519999973,12,178286.4531250000,165975.0156250000,193179.8750000000,179280.7187500000,167408.7812500000,141677.7031250000,166133.4218750000,169714.2968750000,,,
1.5559999973,12,178316.3125000000,166024.6875000000,193215.6406250000,179290.1718750000,167445.9062500000,141742.9062500000,166193.5312500000,169055.5312500000,,,
1.5599999975,12,178281.7343750000,166074.7656250000,193116.8281250000,179190.9218750000,167324.4843750000,141684.8906250000,166006.8437500000,168910.6093750000,,,
1.5639999975,12,178177.6093750000,165875.1718750000,193046.2500000000,179115.0937500000,167259.3281250000,141632.8125000000,165934.7187500000,169489.2343750000,,,
1.5679999974,12,178208.1093750000,165915.2031250000,193089.5468750000,179200.8437500000,167302.2187500000,141746.0156250000,165955.4531250000,170002.9687500000,,,
1.5719999974,12,178315.7500000000,166009.7500000000,193201.1250000000,179363.5468750000,167421.5312500000,141782.5468750000,166180.6562500000,169742.3906250000,,,
1.5759999973,12,178335.0312500000,166048.0937500000,193185.5625000000,179326.2500000000,167423.4843750000,141693.0000000000,166137.9218750000,169091.8750000000,,,
1.5799999975,12,178272.7031250000,165989.7343750000,193135.8906250000,179249.4531250000,167373.1093750000,141709.6562500000,166106.1718750000,168925.7812500000,,,
1.5839999975,12,178242.1718750000,165928.4687500000,193125.6250000000,179239.2812500000,167355.6718750000,141713.6718750000,166094.7187500000,169501.9062500000,,,
1.5879999974,12,178287.9531250000,166008.1875000000,193175.5156250000,179283.4062500000,167402.6093750000,141652.4687500000,166178.2656250000,170034.5937500000,,,
1.5919999974,12,178416.3593750000,166128.6406250000,193358.5781250000,179425.8125000000,167575.4375000000,141792.6093750000,166252.6718750000,169780.9375000000,,,
1.5959999973,12,178320.2500000000,166004.9687500000,193208.9062500000,179379.6250000000,167426.5156250000,141813.3750000000,166066.0156250000,169124.2500000000,,,
1.5999999973,12,178244.3281250000,165944.7031250000,193117.2031250000,179241.4843750000,167351.2187500000,141770.5625000000,166135.0781250000,168979.5468750000,,,
1.6039999975,12,178313.3281250000,166081.5468750000,193181.3906250000,179241.8906250000,167408.0312500000,141723.0625000000,166173.3906250000,169568.8437500000,,,
1.6079999974,12,178290.7187500000,166016.7968750000,193134.8281250000,179299.4687500000,167366.4843750000,141744.3125000000,166062.9062500000,170040.1406250000,,,
1.6119999974,12,178288.0937500000,165951.8125000000,193167.9531250000,179339.6250000000,167394.9687500000,141838.6875000000,166126.5312500000,169771.0625000000,,,
1.6159999974,12,178323.6406250000,166029.4062500000,193229.7500000000,179338.5312500000,167454.3281250000,141727.6562500000,166252.0312500000,169152.0312500000,,,
1.6199999973,12,178319.5312500000,166070.6562500000,193198.3125000000,179310.6875000000,167437.8125000000,141696.7968750000,166177.8125000000,169019.4218750000,,,
1.6239999975,12,178249.9062500000,165962.6406250000,193134.0625000000,179215.0937500000,167377.3437500000,141810.1875000000,166178.3437500000,169604.6250000000,,,
1.6279999975,12,178280.9843750000,165996.7656250000,193190.7968750000,179239.3437500000,167431.0000000000,141784.8281250000,166202.1875000000,170141.9531250000,,,
1.6319999974,12,178305.3906250000,166022.1562500000,193194.6875000000,179304.8593750000,167424.5625000000,141807.5000000000,166122.1562500000,169918.5781250000,,,
1.6359999974,12,178324.0625000000,166037.9843750000,193194.2031250000,179349.6875000000,167413.9375000000,141784.2968750000,166114.6718750000,169295.1250000000,,,
1.6399999973,12,178286.7500000000,165995.7500000000,193145.8906250000,179286.0625000000,167374.5937500000,141801.7343750000,166164.6406250000,169130.7656250000,,,
1.6439999973,12,178254.5625000000,165952.9062500000,193146.0000000000,179256.7812500000,167383.0312500000,141767.7812500000,166196.0312500000,169718.7343750000,,,
1.6479999975,12,178330.9531250000,166055.0000000000,193289.0937500000,179259.0468750000,167509.9843750000,141846.0468750000,166264.1562500000,170273.3593750000,,,
1.6519999974,12,178330.3906250000,166030.8593750000,193216.4687500000,179281.1093750000,167451.8125000000,141897.8906250000,166193.6875000000,170037.1875000000,,,
1.6559999974,12,178280.2656250000,165999.1562500000,193140.1562500000,179245.6718750000,167381.3437500000,141867.6406250000,166137.9218750000,169390.8906250000,,,
1.6599999974,12,178280.3906250000,166018.1406250000,193105.0781250000,179324.3125000000,167343.6093750000,141845.9687500000,166090.5625000000,169222.3906250000,,,
1.6639999973,13,178226.8125000000,165934.8593750000,193075.5937500000,179234.0781250000,167309.2187500000,141791.7500000000,166103.4843750000,169780.9375000000,,,
1.6679999973,13,178242.2500000000,165968.2968750000,193125.3281250000,179193.6406250000,167363.2343750000,141843.0312500000,166206.8125000000,170325.6875000000,,,
1.6719999972,13,178315.9375000000,166075.5625000000,193197.1250000000,179265.8437500000,167427.0781250000,141852.0781250000,166175.5781250000,170134.0468750000,,,
1.6759999972,13,178324.8437500000,166053.3906250000,193190.8593750000,179265.1718750000,167428.1718750000,141808.7031250000,166267.2343750000,169488.9218750000,,,
1.6799999971,13,178295.0156250000,166042.1406250000,193158.7968750000,179226.4687500000,167402.8281250000,141938.2031250000,166181.6718750000,169291.2343750000,,,
1.6839999971,13,178305.3125000000,166031.5000000000,193211.7187500000,179219.3593750000,167472.1718750000,141965.5000000000,166233.3593750000,169904.7187500000,,,
1.6879999973,13,178277.7343750000,165992.8437500000,193149.0937500000,179205.0625000000,167395.0468750000,141890.5937500000,166111.4531250000,170470.3125000000,,,
1.6919999972,13,178340.6718750000,166046.0312500000,193254.9531250000,179264.0156250000,167483.7812500000,141836.8906250000,166309.0468750000,170217.2656250000,,,
1.6959999972,13,178392.0781250000,166121.4531250000,193294.8437500000,179329.1406250000,167529.0781250000,141852.9062500000,166245.5937500000,169533.3906250000,,,
1.6999999972,13,178274.6250000000,166009.4687500000,193097.8281250000,179271.7343750000,167332.9843750000,142029.5781250000,166033.5625000000,169299.6093750000,,,
1.7039999971,13,178239.7343750000,165938.8281250000,193102.4531250000,179203.1875000000,167339.6875000000,141983.5781250000,166084.0156250000,169854.1562500000,,,
1.7079999973,13,178300.1406250000,166045.2812500000,193168.7187500000,179237.7343750000,167425.2343750000,141949.5781250000,166303.3906250000,170402.2656250000,,,
1.7119999973,13,178354.2343750000,166119.8437500000,193241.8906250000,179309.5625000000,167472.2656250000,141877.7656250000,166174.9687500000,170198.6250000000,,,
1.7159999972,13,178298.2343750000,165972.5937500000,193185.4375000000,179314.3906250000,167412.2968750000,141907.2187500000,166178.1406250000,169565.3281250000,,,
1.7199999972,13,178314.3281250000,166023.3437500000,193208.1250000000,179279.2500000000,167453.5468750000,141896.4687500000,166207.0781250000,169373.6406250000,,,
1.7239999971,13,178277.1562500000,165999.7968750000,193162.7656250000,179241.3437500000,167399.9531250000,141919.8906250000,166129.3750000000,169934.2968750000,,,
1.7279999971,13,178304.7031250000,166034.3125000000,193158.5312500000,179275.6875000000,167409.3281250000,142036.8593750000,166296.2656250000,170465.7812500000,,,
1.7319999973,13,178345.2187500000,166050.1875000000,193229.6406250000,179316.5000000000,167466.2968750000,142107.5781250000,166227.7500000000,170252.1875000000,,,
1.7359999972,13,178364.5312500000,166102.7343750000,193239.9375000000,179309.7500000000,167477.2812500000,142108.4375000000,166150.8281250000,169608.2812500000,,,
1.7399999972,13,178307.1406250000,166045.5312500000,193178.2500000000,179262.4531250000,167414.6093750000,141961.5312500000,166212.2031250000,169404.7187500000,,,
1.7439999972,13,178305.2031250000,166047.4531250000,193210.0000000000,179253.2031250000,167449.6406250000,141873.3437500000,166310.4687500000,169966.3593750000,,,
1.7479999971,13,178279.3281250000,165995.2656250000,193131.8437500000,179286.3593750000,167364.4687500000,141852.3125000000,166079.4843750000,170550.1093750000,,,
1.7519999973,13,178304.6406250000,166011.6718750000,193150.7031250000,179302.1875000000,167398.5625000000,141844.5625000000,166184.8906250000,170362.5156250000,,,
1.7559999973,13,178301.7656250000,166009.6875000000,193185.8906250000,179279.7031250000,167426.8281250000,142184.9375000000,166113.8437500000,169753.2968750000,,,
1.7599999972,13,178314.5625000000,166028.3281250000,193234.0937500000,179266.0468750000,167466.1250000000,142108.0468750000,166126.2812500000,169605.0625000000,,,
1.7639999972,13,178291.5000000000,166022.3281250000,193181.2031250000,179230.8125000000,167429.9531250000,141992.2187500000,166282.5781250000,170175.4843750000,,,
1.7679999971,13,178336.9687500000,166078.1093750000,193233.8281250000,179276.7031250000,167489.6562500000,142050.0781250000,166341.1562500000,170769.5468750000,,,
1.7719999971,13,178294.0000000000,166051.7187500000,193151.5781250000,179274.0468750000,167398.0312500000,141887.8593750000,166177.1718750000,170597.4687500000,,,
1.7759999973,13,178281.7343750000,165994.1093750000,193148.6093750000,179258.1406250000,167370.8281250000,142037.0937500000,166069.7500000000,169928.3125000000,,,
1.7799999972,13,178288.6250000000,165986.7343750000,193154.0781250000,179258.2500000000,167394.5156250000,142013.9531250000,166109.5781250000,169723.3437500000,,,
1.7839999972,13,178257.9218750000,165978.7187500000,193102.6875000000,179258.5937500000,167344.5781250000,141897.9375000000,166072.2343750000,170310.4062500000,,,
1.7879999971,13,178268.8281250000,165985.9218750000,193123.3750000000,179265.4375000000,167367.5312500000,142062.5781250000,166146.1406250000,170857.4843750000,,,
1.7919999971,14,178342.0937500000,166066.9531250000,193236.8281250000,179286.2812500000,167477.6406250000,142035.2656250000,166238.4062500000,170641.2031250000,,,
1.7959999971,14,178387.2343750000,166168.0000000000,193264.9687500000,179315.5625000000,167506.2343750000,141938.9843750000,166318.0625000000,170009.7187500000,,,
1.7999999970,14,178322.6093750000,166038.6875000000,193215.5312500000,179286.5468750000,167446.8750000000,142038.2500000000,166222.5312500000,169798.0937500000,,,
1.8039999970,14,178236.1406250000,165939.2812500000,193119.2968750000,179206.5625000000,167353.0781250000,141988.7031250000,166027.6406250000,170329.2343750000,,,
1.8079999969,14,178237.2656250000,165972.0625000000,193098.7187500000,179203.6406250000,167333.3125000000,141994.3750000000,166085.5156250000,170895.2500000000,,,
1.8119999969,14,178320.6562500000,166029.2656250000,193188.2968750000,179281.8281250000,167418.3125000000,141994.1250000000,166104.8750000000,170710.8281250000,,,
1.8159999971,14,178363.1718750000,166050.5937500000,193245.6562500000,179331.6406250000,167478.7968750000,142003.6250000000,166228.6718750000,170066.4218750000,,,
1.8199999970,14,178286.0312500000,165977.6718750000,193136.7812500000,179289.1406250000,167368.0937500000,142025.8906250000,166142.6406250000,169832.0000000000,,,
1.8239999970,14,178267.8906250000,165994.0000000000,193165.1093750000,179229.6875000000,167404.7343750000,141980.4218750000,166136.0156250000,170400.8125000000,,,
1.8279999970,14,178335.8437500000,166078.9375000000,193238.7343750000,179272.9218750000,167465.6406250000,141858.4062500000,166243.7656250000,170985.8125000000,,,
1.8319999969,14,178348.2500000000,166076.8593750000,193197.9062500000,179315.7031250000,167442.2656250000,141996.4843750000,166208.6875000000,170793.3906250000,,,
1.8359999971,14,178363.6250000000,166094.8281250000,193216.2812500000,179332.2031250000,167450.0937500000,142186.2187500000,166225.5781250000,170138.7656250000,,,
1.8399999971,14,178339.0000000000,166059.5781250000,193211.1093750000,179311.4843750000,167430.6250000000,141994.0000000000,166129.6718750000,169915.1250000000,,,
1.8439999970,14,178294.5312500000,166015.3437500000,193163.1406250000,179290.8593750000,167392.7656250000,141915.6406250000,166081.0937500000,170469.8281250000,,,
1.8479999970,14,178267.4375000000,165968.7656250000,193126.0156250000,179280.4375000000,167373.3593750000,141975.5156250000,166169.7343750000,171028.1562500000,,,
1.8519999969,14,178254.2500000000,165942.7500000000,193111.4062500000,179258.7031250000,167355.8125000000,142063.1093750000,166138.1406250000,170872.1875000000,,,
1.8559999969,14,178309.2500000000,166014.3593750000,193194.0937500000,179287.4843750000,167432.7968750000,141972.7187500000,166303.3906250000,170220.0625000000,,,
1.8599999971,14,178344.3593750000,166096.4843750000,193247.1562500000,179289.0468750000,167479.4843750000,141956.8906250000,166116.2343750000,170018.8437500000,,,
1.8639999970,14,178289.8906250000,166008.6250000000,193162.9062500000,179264.9843750000,167401.0937500000,142089.1875000000,166093.6093750000,170623.6562500000,,,
1.8679999970,14,178292.4687500000,166004.6406250000,193157.5937500000,179280.8593750000,167397.8750000000,142089.9843750000,166198.0156250000,171263.2343750000,,,
1.8719999969,14,178342.9218750000,166100.9375000000,193230.4375000000,179317.1562500000,167460.6093750000,141949.9843750000,166125.1406250000,171188.6562500000,,,
1.8759999969,14,178312.4687500000,166023.5000000000,193157.6718750000,179313.0156250000,167390.0937500000,141944.5625000000,166210.4843750000,170581.6562500000,,,
1.8799999971,14,178289.6562500000,166005.0468750000,193119.2656250000,179300.5156250000,167367.4843750000,142005.2343750000,166189.5625000000,170360.0156250000,,,
1.8839999971,14,178264.0937500000,165964.2343750000,193152.5781250000,179242.7968750000,167404.1406250000,142043.7187500000,166279.1718750000,170920.7343750000,,,
1.8879999970,14,178278.1093750000,165982.2812500000,193166.4375000000,179234.3750000000,167408.3593750000,141929.8281250000,166197.1562500000,171509.6875000000,,,
1.8919999970,14,178351.6562500000,166059.8437500000,193256.5156250000,179309.3750000000,167500.4062500000,141936.0312500000,166317.4531250000,171386.1562500000,,,
1.8959999969,14,178355.6093750000,166083.5000000000,193248.5468750000,179314.7968750000,167498.2656250000,142093.8750000000,166308.1875000000,170800.6250000000,,,
1.8999999969,14,178278.4843750000,165983.4062500000,193177.6875000000,179242.5312500000,167428.1562500000,142085.1875000000,166124.6250000000,170576.0937500000,,,
1.9039999971,14,178259.8437500000,166005.9375000000,193123.5781250000,179231.1093750000,167369.6562500000,141909.7656250000,166131.5156250000,171132.0625000000,,,
1.9079999970,14,178261.1875000000,165952.0156250000,193190.8593750000,179235.1875000000,167435.8750000000,141939.2812500000,166343.6250000000,171723.7343750000,,,
1.9119999970,14,178325.5937500000,166048.6406250000,193205.7968750000,179298.9687500000,167447.7031250000,142078.2656250000,166249.7968750000,171605.4531250000,,,
1.9159999969,14,178345.0625000000,166092.7031250000,193204.3125000000,179295.7187500000,167435.8281250000,141895.5000000000,166221.5312500000,171027.5468750000,,,
1.9199999969,15,178298.6875000000,165987.6718750000,193200.1562500000,179242.6875000000,167445.1875000000,141857.5468750000,166231.2187500000,170812.0312500000,,,
1.9239999969,15,178221.2500000000,165890.6875000000,193107.3750000000,179216.4843750000,167368.8125000000,142062.7031250000,166143.0468750000,171410.2343750000,,,
1.9279999968,15,178262.0156250000,165946.7968750000,193185.9687500000,179277.1093750000,167422.3593750000,142006.3906250000,166199.2187500000,172110.8906250000,,,
1.9319999968,15,178344.0781250000,166062.9843750000,193267.7500000000,179319.2500000000,167503.4375000000,142019.6875000000,166278.0937500000,172102.9687500000,,,
1.9359999967,15,178363.8125000000,166118.8593750000,193230.5000000000,179334.2656250000,167487.2343750000,141920.7187500000,166332.6250000000,171592.2812500000,,,
1.9399999967,15,178251.7500000000,165962.7500000000,193089.2812500000,179261.2031250000,167337.3906250000,142027.5781250000,166158.7968750000,171467.1562500000,,,
1.9439999969,15,178198.0312500000,165901.8906250000,193052.6718750000,179197.9062500000,167292.4375000000,141954.4375000000,166027.0937500000,172141.0000000000,,,
1.9479999968,15,178244.1562500000,165958.3281250000,193126.7187500000,179215.6562500000,167366.5937500000,141983.0468750000,166208.8437500000,172865.5468750000,,,
1.9519999968,15,178282.6718750000,165991.7656250000,193172.8593750000,179238.7187500000,167429.8437500000,141971.5625000000,166246.9062500000,172829.7500000000,,,
1.9559999967,15,178322.9687500000,166020.5312500000,193237.6562500000,179265.9218750000,167465.1718750000,142016.7656250000,166207.2656250000,172231.9062500000,,,
1.9599999967,15,178286.0625000000,165975.7343750000,193178.8281250000,179249.0468750000,167416.6093750000,141961.5937500000,166137.1562500000,171976.6406250000,,,
1.9639999969,15,178238.2031250000,165962.4062500000,193075.4687500000,179235.4218750000,167334.0312500000,141962.5312500000,166168.6406250000,172490.3593750000,,,
1.9679999969,15,178270.7343750000,166013.7656250000,193140.2343750000,179257.3593750000,167383.3906250000,141920.0937500000,166189.5000000000,173101.0156250000,,,
1.9719999968,15,178292.1250000000,165977.5781250000,193191.7343750000,179283.2500000000,167421.7968750000,141877.1093750000,166220.6250000000,172959.9062500000,,,
1.9759999968,15,178287.0156250000,165979.6250000000,193162.3125000000,179267.6875000000,167410.8750000000,142006.9218750000,166163.0312500000,172300.5781250000,,,
1.9799999967,15,178264.7812500000,165966.3437500000,193148.9531250000,179234.4531250000,167385.6406250000,141971.3281250000,166131.2500000000,172017.9531250000,,,
1.9839999967,15,178270.8437500000,165963.2656250000,193196.5625000000,179220.6406250000,167422.5781250000,142011.1250000000,166220.3750000000,172553.6718750000,,,
1.9879999969,15,178288.4218750000,166015.5937500000,193160.7500000000,179265.2968750000,167404.3906250000,141939.9687500000,166164.2343750000,173149.7031250000,,,
1.9919999968,15,178261.8125000000,165941.9843750000,193141.0625000000,179275.6093750000,167388.4062500000,142013.7656250000,166145.5937500000,172980.5312500000,,,
1.9959999968,15,178293.2500000000,166003.7031250000,193181.1718750000,179282.8125000000,167405.8281250000,142037.9062500000,166244.0156250000,172301.1093750000,,,
1.9999999967,15,178283.4218750000,166005.9375000000,193152.4687500000,179250.5468750000,167393.9218750000,141949.1718750000,166152.2812500000,171968.0000000000,,,
2.0039999967,15,178260.0156250000,165999.9531250000,193117.3281250000,179226.4687500000,167364.6875000000,142013.7031250000,166140.2031250000,172459.3281250000,,,
2.0079999969,15,178247.3750000000,165946.5312500000,193131.1250000000,179246.4531250000,167377.5937500000,141956.0156250000,166115.1562500000,173026.3281250000,,,
2.0119999968,15,178249.8125000000,165947.9531250000,193114.8125000000,179264.3125000000,167354.6875000000,141819.0312500000,165976.4843750000,172852.7812500000,,,
2.0159999968,15,178235.9218750000,165915.0625000000,193128.5468750000,179232.5468750000,167359.9218750000,141994.3125000000,166137.5781250000,172170.1562500000,,,
2.0199999968,15,178231.5000000000,165908.6718750000,193116.9062500000,179230.7031250000,167346.4843750000,142043.8593750000,166078.0937500000,171839.9218750000,,,
2.0239999967,15,178264.6250000000,166031.1250000000,193116.4687500000,179228.9843750000,167365.2812500000,141955.3750000000,166217.4218750000,172306.2343750000,,,
2.0279999967,15,178231.4687500000,165951.5156250000,193082.9687500000,179221.9843750000,167316.7343750000,141826.1406250000,166078.2187500000,172824.8437500000,,,
2.0319999969,15,178243.4687500000,165942.7187500000,193084.5000000000,179262.1875000000,167305.7343750000,141919.9687500000,165909.3750000000,172651.1875000000,,,
2.0359999968,15,178237.4531250000,165902.7812500000,193112.7500000000,179248.5468750000,167336.2343750000,141986.4843750000,165999.0156250000,171948.3125000000,,,
2.0399999968,15,178257.1875000000,165933.7031250000,193166.7968750000,179216.2656250000,167392.4218750000,141988.8750000000,166027.5000000000,171575.5156250000,,,
2.0439999967,15,178242.5468750000,165934.5625000000,193143.5156250000,179203.2343750000,167383.5468750000,142043.6718750000,166121.1875000000,171994.4531250000,,,
2.0479999967,16,178252.8750000000,165978.3906250000,193108.4062500000,179234.6718750000,167353.1250000000,141967.7656250000,166159.4843750000,172510.9843750000,,,
2.0519999966,16,178278.2812500000,166009.5781250000,193141.6875000000,179274.7656250000,167377.7031250000,141802.4843750000,166077.2343750000,172319.5625000000,,,
2.0559999966,16,178263.6250000000,165954.9531250000,193145.7343750000,179260.9843750000,167370.8906250000,141950.6718750000,166045.4687500000,171591.4218750000,,,
2.0599999966,16,178230.5000000000,165937.8125000000,193066.9843750000,179238.0781250000,167294.8437500000,142034.6250000000,166062.3750000000,171216.8437500000,,,
2.0639999965,16,178234.8593750000,165960.4375000000,193100.6718750000,179214.0937500000,167329.3125000000,141986.1875000000,166020.0468750000,171628.2500000000,,,
2.0679999965,16,178244.2187500000,165959.1093750000,193108.4531250000,179230.4375000000,167329.4375000000,141854.1718750000,166023.2031250000,172142.0312500000,,,
2.0719999967,16,178214.7343750000,165882.0156250000,193083.7812500000,179200.6406250000,167297.6093750000,141938.8750000000,165970.9062500000,171944.8593750000,,,
2.0759999966,16,178226.6250000000,165901.8906250000,193099.1718750000,179207.9062500000,167317.0000000000,142003.4843750000,166000.8593750000,171243.5937500000,,,
2.0799999966,16,178262.0156250000,165967.9531250000,193146.6562500000,179249.3437500000,167363.0781250000,141975.5312500000,166014.4375000000,170894.5312500000,,,
2.0839999965,16,178248.1250000000,165979.2500000000,193096.2968750000,179256.6093750000,167317.1562500000,141991.5468750000,166003.5781250000,171329.4531250000,,,
2.0879999965,16,178237.1250000000,165955.1875000000,193114.3593750000,179251.2187500000,167342.9843750000,141898.2968750000,166151.9843750000,171843.1406250000,,,
2.0919999967,16,178253.0312500000,165940.0312500000,193156.6875000000,179247.0625000000,167382.3906250000,141916.7500000000,166045.7656250000,171663.1250000000,,,
2.0959999966,16,178230.4843750000,165942.8437500000,193068.4687500000,179233.1093750000,167285.3750000000,141942.5937500000,165914.0468750000,170978.0312500000,,,
2.0999999966,16,178230.7500000000,165956.1562500000,193074.8437500000,179234.0625000000,167305.6562500000,141909.0781250000,166032.6718750000,170634.1093750000,,,
2.1039999966,16,178206.5312500000,165908.0937500000,193060.5000000000,179227.9375000000,167288.9375000000,141960.9531250000,165964.9843750000,171044.2812500000,,,
2.1079999965,16,178194.4062500000,165891.8593750000,193026.2187500000,179226.1718750000,167255.3281250000,141933.2656250000,165936.7343750000,171558.0000000000,,,
2.1119999965,16,178236.5937500000,165926.6250000000,193074.5468750000,179256.7968750000,167303.8906250000,141947.0468750000,166013.4531250000,171384.6718750000,,,
2.1159999967,16,178269.5937500000,165965.7500000000,193119.1875000000,179238.9843750000,167346.2656250000,141921.7343750000,166034.3593750000,170687.4843750000,,,
2.1199999966,16,178286.1875000000,165980.2968750000,193162.3593750000,179242.1875000000,167390.7656250000,142015.3125000000,166099.7656250000,170320.9375000000,,,
2.1239999966,16,178268.7031250000,165977.5312500000,193129.5156250000,179247.6562500000,167357.9531250000,142017.3593750000,166073.3593750000,170786.2968750000,,,
2.1279999965,16,178246.1718750000,165960.9062500000,193083.9062500000,179262.9375000000,167306.0625000000,141969.4218750000,165904.9218750000,171413.9375000000,,,
2.1319999965,16,178259.6093750000,165961.0625000000,193091.5000000000,179278.6406250000,167318.1250000000,141964.7343750000,165998.2656250000,171309.4218750000,,,
2.1359999967,16,178297.8281250000,166019.7500000000,193148.9843750000,179287.1562500000,167369.0000000000,142000.5625000000,166035.9531250000,170681.7968750000,,,
2.1399999966,16,178247.0000000000,165930.2187500000,193100.1875000000,179244.6250000000,167322.6562500000,141964.8125000000,166032.1406250000,170358.4062500000,,,
2.1439999966,16,178225.4062500000,165917.9062500000,193071.5156250000,179241.7500000000,167298.0625000000,141965.6093750000,165980.5937500000,170801.7187500000,,,
2.1479999966,16,178243.4062500000,165947.3281250000,193096.7031250000,179264.3906250000,167327.1093750000,141968.8906250000,166003.5000000000,171371.8906250000,,,
2.1519999965,16,178275.9687500000,165981.3437500000,193123.1562500000,179302.1562500000,167349.7031250000,141976.9843750000,166039.9687500000,171243.8906250000,,,
2.1559999965,16,178294.0781250000,165998.8750000000,193138.0468750000,179317.2343750000,167359.5937500000,142037.8125000000,166064.5625000000,170562.7187500000,,,
2.1599999967,16,178287.2343750000,165985.6875000000,193142.8906250000,179282.0156250000,167364.8750000000,142023.7343750000,166061.1093750000,170163.2187500000,,,
2.1639999966,16,178254.7812500000,165954.5468750000,193107.0625000000,179258.8906250000,167329.6093750000,141985.8906250000,166014.4843750000,170600.5937500000,,,
2.1679999966,16,178266.6562500000,165966.3437500000,193118.3593750000,179303.0937500000,167337.1406250000,141980.9531250000,166037.8593750000,171211.6250000000,,,
2.1719999965,16,178293.0000000000,165987.6718750000,193147.4218750000,179346.5000000000,167364.2343750000,142001.5000000000,166067.4062500000,171088.7187500000,,,
2.1759999965,17,178280.9843750000,165983.4062500000,193130.9843750000,179314.1406250000,167352.0625000000,142006.6562500000,166034.9531250000,170399.2343750000,,,
2.1799999964,17,178256.7968750000,165964.2031250000,193106.3593750000,179312.1562500000,167328.3750000000,141980.0781250000,166031.0625000000,170046.4375000000,,,
2.1839999964,17,178233.0312500000,165948.1875000000,193076.4843750000,179280.1093750000,167299.2656250000,141958.9687500000,166003.9843750000,170511.3437500000,,,
2.1879999964,17,178230.4531250000,165945.2968750000,193072.4375000000,179273.4531250000,167296.5000000000,141947.3281250000,165994.3750000000,171110.0468750000,,,
2.1919999963,17,178264.4375000000,165977.4843750000,193113.1406250000,179307.2031250000,167335.9843750000,141990.8281250000,166021.5000000000,171023.2031250000,,,
2.1959999963,17,178312.2343750000,166017.8750000000,193174.0937500000,179325.4687500000,167393.3125000000,142044.9218750000,166075.0000000000,170332.7343750000,,,
2.1999999965,17,178306.4687500000,166015.1875000000,193163.8437500000,179316.7812500000,167386.5000000000,142028.1875000000,166077.6250000000,169923.0000000000,,,
2.2039999964,17,178278.9687500000,165991.4531250000,193129.2187500000,179300.3593750000,167353.4531250000,141990.3750000000,166039.8125000000,170355.7812500000,,,
2.2079999964,17,178275.3593750000,165993.7812500000,193114.5937500000,179301.4531250000,167337.9687500000,141989.5468750000,166020.5312500000,170940.6718750000,,,
2.2119999963,17,178274.2812500000,165979.2500000000,193115.9687500000,179305.6406250000,167338.3750000000,141991.6562500000,166032.0312500000,170827.1250000000,,,
2.2159999963,17,178290.8281250000,165989.2812500000,193146.1093750000,179302.6718750000,167369.3281250000,142026.1562500000,166060.5156250000,170143.2187500000,,,
2.2199999965,17,178291.9062500000,165993.5781250000,193161.9687500000,179298.9843750000,167383.8437500000,142029.4531250000,166055.2031250000,169770.1406250000,,,
2.2239999964,17,178262.0781250000,165970.4531250000,193124.5156250000,179290.5156250000,167345.2187500000,141993.0312500000,166000.2500000000,170217.0312500000,,,
2.2279999964,17,178255.8750000000,165968.6562500000,193095.3906250000,179302.0156250000,167321.6093750000,141970.1406250000,166003.1406250000,170832.7031250000,,,
2.2319999964,17,178302.5312500000,166015.4375000000,193154.5156250000,179337.0468750000,167375.3125000000,141998.3906250000,166030.3125000000,170730.3593750000,,,
2.2359999963,17,178305.7500000000,165991.4531250000,193172.3906250000,179334.3750000000,167392.3750000000,142037.1562500000,166069.0156250000,170033.5468750000,,,
2.2399999963,17,178290.6406250000,165986.0625000000,193153.3750000000,179295.9687500000,167377.1093750000,142021.0000000000,166079.5312500000,169650.1406250000,,,
2.2439999965,17,178260.0937500000,165967.9062500000,193115.2187500000,179262.1093750000,167342.1093750000,141957.7343750000,166039.4062500000,170087.2187500000,,,
2.2479999964,17,178267.7968750000,165975.8750000000,193119.2968750000,179282.7187500000,167342.9843750000,141965.4843750000,166009.6406250000,170713.9843750000,,,
2.2519999964,17,178314.9687500000,166023.6406250000,193171.1406250000,179318.8125000000,167390.5156250000,142004.6875000000,166048.2031250000,170634.5468750000,,,
2.2559999963,17,178319.2812500000,166030.6093750000,193178.7500000000,179343.7812500000,167397.3125000000,141991.4375000000,166077.0468750000,169990.8593750000,,,
2.2599999963,17,178282.5625000000,165967.9062500000,193147.7968750000,179319.8281250000,167365.9531250000,141979.7500000000,166059.7187500000,169609.7031250000,,,
2.2639999965,17,178258.1562500000,165955.6250000000,193120.0937500000,179293.1718750000,167339.5000000000,141939.9218750000,166033.2187500000,170020.6406250000,,,
2.2679999964,17,178243.5468750000,165949.6562500000,193094.7812500000,179254.4375000000,167318.4687500000,141925.1718750000,166027.5781250000,170627.8906250000,,,
2.2719999964,17,178283.2656250000,165984.3906250000,193141.5312500000,179306.8281250000,167361.3125000000,141949.1406250000,166060.5781250000,170584.9687500000,,,
2.2759999963,17,178303.2500000000,166001.5156250000,193161.4062500000,179330.7500000000,167380.7812500000,141955.5625000000,166041.5000000000,169956.5156250000,,,
2.2799999963,17,178305.9531250000,166013.9531250000,193165.2968750000,179316.2968750000,167386.1718750000,141966.4687500000,166050.0000000000,169563.4843750000,,,
2.2839999963,17,178288.1406250000,166000.9687500000,193145.3125000000,179273.2187500000,167368.6093750000,141958.5937500000,166062.5000000000,169965.8125000000,,,
2.2879999964,17,178293.4843750000,166012.1093750000,193152.3281250000,179274.6718750000,167375.7187500000,141955.9062500000,166067.7031250000,170561.1093750000,,,
2.2919999964,17,178288.1718750000,165991.0781250000,193152.1718750000,179301.5937500000,167376.2968750000,141938.0625000000,166030.5625000000,170506.5156250000,,,
2.2959999964,17,178301.4531250000,165999.2812500000,193174.4375000000,179319.5156250000,167395.0468750000,141943.0312500000,166042.1718750000,169857.3750000000,,,
2.2999999963,17,178285.8750000000,165983.7812500000,193165.7656250000,179307.4218750000,167383.2812500000,141921.8906250000,166058.9687500000,169451.7500000000,,,
2.3039999963,18,178250.9687500000,165954.2812500000,193110.8437500000,179281.7656250000,167332.6562500000,141887.7031250000,166049.1718750000,169880.8906250000,,,
2.3079999962,18,178256.9062500000,165963.3437500000,193112.6718750000,179298.3437500000,167333.8125000000,141885.3437500000,166039.5156250000,170505.5781250000,,,
2.3119999962,18,178291.8437500000,165993.0312500000,193155.0937500000,179324.4687500000,167373.1093750000,141912.5000000000,166068.8125000000,170444.2656250000,,,
2.3159999961,18,178305.9062500000,166003.0312500000,193180.1250000000,179331.9531250000,167394.8437500000,141922.3281250000,166086.1093750000,169795.2343750000,,,
2.3199999961,18,178280.3437500000,165978.3593750000,193163.6875000000,179295.0468750000,167377.8906250000,141895.5312500000,166048.2812500000,169412.5781250000,,,
2.3239999961,18,178246.1250000000,165950.7031250000,193132.6250000000,179262.9687500000,167352.8593750000,141864.0625000000,165987.9687500000,169837.7656250000,,,
2.3279999963,18,178243.9218750000,165951.2500000000,193121.5781250000,179276.3750000000,167346.3750000000,141855.9375000000,166024.8125000000,170467.6875000000,,,
2.3319999962,18,178281.0156250000,165987.5625000000,193149.4843750000,179322.7031250000,167370.7500000000,141884.3125000000,166084.7656250000,170417.4218750000,,,
2.3359999962,18,178321.6250000000,166028.8125000000,193194.7656250000,179352.8750000000,167409.1093750000,141927.2343750000,166081.0625000000,169775.3750000000,,,
2.3399999961,18,178312.5625000000,166018.2812500000,193194.1562500000,179317.3125000000,167409.2968750000,141915.9375000000,166080.2031250000,169385.1406250000,,,
2.3439999961,18,178260.5156250000,165972.1093750000,193133.0000000000,179276.5468750000,167352.5625000000,141862.2968750000,166047.5625000000,169822.6093750000,,,
2.3479999963,18,178240.2656250000,165953.6093750000,193109.7656250000,179276.4375000000,167330.1718750000,141832.3125000000,166030.9843750000,170426.8125000000,,,
2.3519999962,18,178268.8281250000,165978.6250000000,193138.4375000000,179322.8125000000,167356.1406250000,141856.6406250000,166051.0000000000,170355.2187500000,,,
2.3559999962,18,178301.7187500000,166005.8593750000,193176.5781250000,179348.4531250000,167391.8906250000,141875.2187500000,166081.8437500000,169699.5000000000,,,
2.3599999961,18,178291.8437500000,165999.7656250000,193167.0000000000,179334.1250000000,167383.4687500000,141869.4843750000,166068.3750000000,169301.6406250000,,,
2.3639999961,18,178242.9531250000,165961.4062500000,193113.9218750000,179277.8281250000,167332.8437500000,141825.6562500000,166011.1718750000,169742.8906250000,,,
2.3679999961,18,178241.7500000000,165954.0312500000,193111.8593750000,179287.4531250000,167333.0156250000,141812.4531250000,166004.0000000000,170358.5937500000,,,
2.3719999962,18,178268.0781250000,165976.3437500000,193139.8437500000,179296.5468750000,167360.9843750000,141837.6718750000,166046.0312500000,170325.3906250000,,,
2.3759999962,18,178303.0000000000,166005.5937500000,193181.2500000000,179328.4687500000,167400.7343750000,141871.6562500000,166092.4375000000,169662.0312500000,,,
2.3799999962,18,178295.0468750000,166003.0312500000,193172.5312500000,179322.1875000000,167393.1406250000,141864.0156250000,166082.8281250000,169254.5468750000,,,
2.3839999961,18,178269.6875000000,165988.9062500000,193138.7656250000,179304.2812500000,167361.3906250000,141841.3750000000,166050.7031250000,169658.2656250000,,,
2.3879999961,18,178257.6718750000,165981.7187500000,193124.4062500000,179278.7343750000,167346.3750000000,141826.5937500000,166036.5625000000,170302.2187500000,,,
2.3919999963,18,178273.6406250000,165983.8593750000,193148.6562500000,179313.8281250000,167369.0937500000,141828.8281250000,166058.0000000000,170301.8906250000,,,
2.3959999962,18,178304.2343750000,166009.5312500000,193185.9218750000,179346.0156250000,167403.4687500000,141848.1406250000,166082.5625000000,169671.9218750000,,,
2.3999999962,18,178304.5625000000,166012.0312500000,193187.6093750000,179319.9375000000,167405.5625000000,141847.9531250000,166068.8281250000,169271.0156250000,,,
2.4039999961,18,178270.6093750000,165979.0000000000,193147.4531250000,179302.0781250000,167369.5468750000,141815.0312500000,166044.6718750000,169679.3593750000,,,
2.4079999961,18,178272.1875000000,165981.1718750000,193143.8281250000,179309.8593750000,167367.3906250000,141812.8437500000,166061.7500000000,170303.2968750000,,,
2.4119999961,18,178295.0625000000,165998.9062500000,193171.8125000000,179337.2343750000,167391.7500000000,141825.7968750000,166091.8125000000,170280.8437500000,,,
2.4159999962,18,178300.1875000000,166002.0156250000,193182.6406250000,179344.7500000000,167400.1718750000,141828.4218750000,166097.4062500000,169673.9843750000,,,
2.4199999962,18,178287.2968750000,165988.0781250000,193173.7187500000,179318.6718750000,167392.6093750000,141814.6562500000,166082.4843750000,169301.4375000000,,,
2.4239999962,18,178277.8437500000,165986.1093750000,193155.0781250000,179306.2343750000,167378.1250000000,141798.3750000000,166051.7968750000,169668.0625000000,,,
2.4279999961,18,178279.2968750000,165993.0937500000,193147.2656250000,179297.2812500000,167372.0156250000,141792.5625000000,166053.8906250000,170299.0000000000,,,
2.4319999961,19,178319.1562500000,166031.3437500000,193187.2031250000,179335.7656250000,167408.2500000000,141817.0468750000,166100.5937500000,170287.8437500000,,,
2.4359999960,19,178347.3750000000,166056.1718750000,193222.0156250000,179359.5000000000,167442.2343750000,141848.1406250000,166137.8125000000,169631.8593750000,,,
2.4399999960,19,178312.5000000000,166015.7187500000,193192.2187500000,179318.1406250000,167415.3593750000,141820.5625000000,166107.1875000000,169194.7031250000,,,
2.4439999959,19,178277.7187500000,165986.1406250000,193148.4531250000,179296.8750000000,167374.9843750000,141782.2343750000,166063.0625000000,169551.2812500000,,,
2.4479999959,19,178284.6406250000,165999.7343750000,193146.5468750000,179302.6875000000,167374.3125000000,141790.7812500000,166065.2343750000,170153.0937500000,,,
2.4519999959,19,178326.7968750000,166037.6718750000,193195.2187500000,179349.1562500000,167419.2968750000,141825.9218750000,166109.6250000000,170108.1093750000,,,
2.4559999960,19,178338.5937500000,166042.4375000000,193214.5312500000,179372.4531250000,167438.4531250000,141832.0468750000,166134.0937500000,169460.7031250000,,,
2.4599999960,19,178322.5937500000,166029.7343750000,193200.4062500000,179335.1718750000,167425.5000000000,141823.8125000000,166123.9843750000,169032.1875000000,,,
2.4639999960,19,178288.0937500000,165999.0468750000,193166.5781250000,179277.8593750000,167393.9218750000,141797.0937500000,166094.6562500000,169398.5000000000,,,
2.4679999959,19,178265.0781250000,165973.3125000000,193140.0000000000,179267.1875000000,167366.9375000000,141767.9843750000,166065.7500000000,170014.2343750000,,,
2.4719999959,19,178289.9687500000,165997.8906250000,193165.9531250000,179319.3281250000,167390.1718750000,141787.2500000000,166083.7187500000,170016.9687500000,,,
2.4759999961,19,178301.7656250000,166002.8750000000,193192.2500000000,179324.7968750000,167414.9062500000,141796.1562500000,166108.1250000000,169430.7656250000,,,
2.4799999960,19,178284.9531250000,165988.9062500000,193182.1093750000,179296.0156250000,167404.9687500000,141784.5156250000,166091.4687500000,169043.3281250000,,,
2.4839999960,19,178260.2031250000,165975.1406250000,193148.0781250000,179283.3281250000,167375.4687500000,141765.6562500000,166037.3750000000,169435.4375000000,,,
2.4879999959,19,178253.7812500000,165969.3281250000,193135.2187500000,179264.3437500000,167365.1406250000,141763.3750000000,166027.5781250000,170085.2812500000,,,
2.4919999959,19,178299.8906250000,166009.6406250000,193179.6406250000,179316.7968750000,167401.8593750000,141792.1562500000,166101.3437500000,170116.9375000000,,,
2.4959999959,19,178320.7343750000,166017.2343750000,193208.7656250000,179382.9687500000,167425.0937500000,141794.9687500000,166137.5468750000,169491.3125000000,,,
2.4999999960,19,178293.3437500000,165987.0781250000,193181.2812500000,179371.0312500000,167401.0312500000,141766.8593750000,166109.8125000000,169038.4375000000,,,
2.5039999960,19,178253.5156250000,165953.0468750000,193136.4843750000,179279.0937500000,167360.1093750000,141728.2343750000,166070.0156250000,169384.6406250000,,,
2.5079999960,19,178226.5312500000,165932.9531250000,193100.7031250000,179240.1250000000,167327.8281250000,141705.5781250000,166039.7656250000,170034.7187500000,,,
2.5119999959,19,178262.1250000000,165966.2968750000,193140.3437500000,179292.0937500000,167363.6093750000,141734.9218750000,166073.6562500000,170066.8593750000,,,
2.5159999959,19,178274.2812500000,165977.3906250000,193159.7656250000,179305.0000000000,167380.0781250000,141743.7500000000,166087.8437500000,169483.4531250000,,,
2.5199999961,19,178282.0625000000,165989.5000000000,193169.3437500000,179326.3750000000,167388.4843750000,141747.0937500000,166082.4843750000,169052.6250000000,,,
2.5239999960,19,178262.2968750000,165978.1406250000,193143.2500000000,179294.1093750000,167364.0156250000,141727.7812500000,166052.8281250000,169406.0625000000,,,
2.5279999960,19,178244.0000000000,165957.8437500000,193114.9375000000,179264.0937500000,167338.5625000000,141706.1875000000,166031.9062500000,170063.7500000000,,,
2.5319999959,19,178272.9062500000,165976.9687500000,193146.6562500000,179298.1406250000,167369.0000000000,141725.8750000000,166058.4843750000,170118.5156250000,,,
2.5359999959,19,178305.5312500000,166002.2656250000,193188.5468750000,179323.5312500000,167409.8281250000,141751.3125000000,166105.1250000000,169509.0625000000,,,
2.5399999958,19,178293.8906250000,165990.9687500000,193181.9218750000,179300.2031250000,167405.2500000000,141740.7656250000,166107.5937500000,169068.3281250000,,,
2.5439999960,19,178268.4375000000,165969.8125000000,193151.4531250000,179289.3437500000,167378.1250000000,141717.0312500000,166072.4218750000,169434.3593750000,,,
2.5479999960,19,178275.9375000000,165976.4843750000,193161.4218750000,179299.1562500000,167386.3906250000,141714.9062500000,166055.8750000000,170058.9218750000,,,
2.5519999960,19,178290.9687500000,165990.8281250000,193175.4218750000,179322.2500000000,167399.4843750000,141729.8437500000,166080.5000000000,170102.6093750000,,,
2.5559999959,19,178293.1875000000,165993.1093750000,193180.8281250000,179330.8593750000,167405.6250000000,141736.8281250000,166100.0000000000,169529.9062500000,,,
2.5599999959,20,178294.5312500000,165996.5468750000,193185.7500000000,179331.5468750000,167410.7656250000,141739.9843750000,166109.8750000000,169116.8906250000,,,
2.5639999958,20,178271.2187500000,165980.3281250000,193157.7031250000,179297.8906250000,167383.3593750000,141719.4687500000,166096.1875000000,169482.3125000000,,,
2.5679999958,20,178281.8125000000,165985.0468750000,193168.4062500000,179302.9062500000,167391.0625000000,141719.1406250000,166101.7500000000,170080.7500000000,,,
2.5719999957,20,178319.5625000000,166015.1562500000,193202.0312500000,179362.2656250000,167425.3281250000,141749.5312500000,166125.3281250000,170095.7656250000,,,
2.5759999957,20,178322.2968750000,166021.7656250000,193208.7343750000,179353.8750000000,167432.8750000000,141761.2500000000,166133.8437500000,169515.0156250000,,,
2.5799999957,20,178287.0156250000,165994.4218750000,193178.7343750000,179283.9687500000,167404.2187500000,141736.7656250000,166113.0937500000,169086.4062500000,,,
2.5839999958,20,178239.9531250000,165951.4062500000,193127.6250000000,179253.3906250000,167354.9218750000,141690.6406250000,166068.1875000000,169417.7031250000,,,
2.5879999958,20,178234.4218750000,165949.1875000000,193118.2500000000,179264.3593750000,167344.9687500000,141680.9531250000,166051.7500000000,170066.5781250000,,,
2.5919999958,20,178254.0781250000,165963.7656250000,193138.4375000000,179273.8906250000,167363.3750000000,141700.0156250000,166063.9843750000,170143.7500000000,,,
2.5959999957,20,178288.6562500000,165987.8281250000,193179.8281250000,179318.8906250000,167403.3593750000,141723.3281250000,166107.5156250000,169522.4218750000,,,
2.5999999957,20,178294.4843750000,165993.2500000000,193189.0625000000,179311.5156250000,167413.7500000000,141723.9218750000,166124.5468750000,169041.9062500000,,,
2.6039999959,20,178272.9062500000,165977.6093750000,193161.6093750000,179279.3906250000,167390.5937500000,141704.7187500000,166103.8906250000,169373.0156250000,,,
2.6079999958,20,178281.7343750000,165991.8593750000,193168.4843750000,179268.5000000000,167397.8125000000,141711.9375000000,166103.0312500000,170010.0781250000,,,
2.6119999958,20,178297.0000000000,165996.9843750000,193189.7031250000,179305.6406250000,167419.5937500000,141714.1562500000,166093.0312500000,170069.2187500000,,,
2.6159999957,20,178311.7812500000,166009.7968750000,193211.1562500000,179321.8437500000,167441.3750000000,141728.1875000000,166118.5000000000,169504.8437500000,,,
2.6199999957,20,178306.6562500000,166018.5156250000,193200.7812500000,179302.7812500000,167431.6406250000,141735.5937500000,166136.3750000000,169065.9062500000,,,
2.6239999956,20,178283.0781250000,166007.4062500000,193174.1093750000,179269.5625000000,167404.5781250000,141723.9531250000,166121.2968750000,169366.5312500000,,,
2.6279999958,20,178277.9062500000,166002.9843750000,193166.6875000000,179276.8437500000,167393.3593750000,141711.2656250000,166108.7656250000,169983.4375000000,,,
2.6319999958,20,178310.5156250000,166027.3593750000,193198.7656250000,179313.4531250000,167423.5625000000,141733.0625000000,166131.1093750000,170041.3125000000,,,
2.6359999957,20,178326.4218750000,166031.6093750000,193223.1718750000,179325.6250000000,167446.1718750000,141744.4687500000,166128.2656250000,169463.1718750000,,,
2.6399999957,20,178319.2656250000,166026.6406250000,193217.5937500000,179315.3281250000,167443.1718750000,141745.4375000000,166118.6718750000,168988.0625000000,,,
2.6439999957,20,178293.1406250000,166006.9218750000,193181.8593750000,179295.6093750000,167410.5312500000,141721.4531250000,166121.1562500000,169298.5156250000,,,
2.6479999959,20,178281.2812500000,165996.2031250000,193165.5000000000,179277.0781250000,167393.3593750000,141703.5625000000,166112.6093750000,169973.8593750000,,,
2.6519999958,20,178315.0781250000,166023.1875000000,193202.9687500000,179334.8281250000,167429.3906250000,141736.6093750000,166134.4687500000,170058.5468750000,,,
2.6559999958,20,178335.7812500000,166039.7031250000,193229.0156250000,179357.0312500000,167457.5000000000,141763.1406250000,166154.5781250000,169451.4687500000,,,
2.6599999957,20,178307.7343750000,166011.5625000000,193203.3437500000,179317.9531250000,167436.5937500000,141742.0000000000,166137.1250000000,168995.6562500000,,,
2.6639999957,20,178281.2031250000,165991.3906250000,193177.0937500000,179269.9218750000,167410.3125000000,141716.0156250000,166118.4531250000,169324.8750000000,,,
2.6679999956,20,178274.2812500000,165989.6250000000,193165.7656250000,179250.6562500000,167399.0000000000,141706.3750000000,166098.9843750000,169965.3906250000,,,
2.6719999958,20,178295.4218750000,166002.4687500000,193185.5625000000,179287.3750000000,167418.6562500000,141712.3281250000,166123.9531250000,170036.2031250000,,,
2.6759999958,20,178320.6093750000,166024.7656250000,193212.9843750000,179317.6093750000,167442.9062500000,141739.9843750000,166152.2031250000,169464.0468750000,,,
2.6799999957,20,178318.0468750000,166027.6562500000,193215.2031250000,179318.8125000000,167443.5156250000,141750.9375000000,166144.3906250000,169009.4531250000,,,
2.6839999957,20,178294.7968750000,166006.4687500000,193190.8593750000,179301.8125000000,167420.2656250000,141720.4062500000,166108.7968750000,169333.5937500000,,,
2.6879999957,21,178284.3906250000,165990.6406250000,193172.3906250000,179298.4062500000,167404.7656250000,141701.0156250000,166096.2968750000,169968.8750000000,,,
2.6919999956,21,178296.5468750000,165992.8437500000,193182.7812500000,179300.5937500000,167414.3593750000,141703.2187500000,166123.4687500000,170036.5937500000,,,
2.6959999956,21,178322.5312500000,166019.1250000000,193214.7812500000,179316.4531250000,167442.0937500000,141730.6875000000,166149.0312500000,169470.2031250000,,,
2.6999999955,21,178313.9218750000,166019.4062500000,193207.7812500000,179289.2812500000,167436.0937500000,141727.1718750000,166133.1250000000,169014.1406250000,,,
2.7039999955,21,178288.5000000000,165999.3593750000,193177.1718750000,179278.8437500000,167407.6250000000,141697.2656250000,166119.6406250000,169310.9218750000,,,
2.7079999954,21,178276.0781250000,165983.2187500000,193159.5312500000,179288.6093750000,167388.6875000000,141678.2187500000,166101.2656250000,169964.1250000000,,,
2.7119999956,21,178316.3906250000,166014.3593750000,193204.7187500000,179341.9375000000,167427.4843750000,141706.4375000000,166130.2343750000,170065.5468750000,,,
2.7159999956,21,178341.3906250000,166035.1406250000,193237.7031250000,179353.2812500000,167458.8125000000,141730.5156250000,166158.5312500000,169495.0000000000,,,
2.7199999955,21,178328.8125000000,166032.2812500000,193224.7031250000,179320.7500000000,167450.2187500000,141732.6406250000,166162.7031250000,169015.1562500000,,,
2.7239999955,21,178295.0937500000,166007.4375000000,193188.2031250000,179277.1562500000,167413.9062500000,141710.0312500000,166134.5937500000,169289.3281250000,,,
2.7279999955,21,178293.2968750000,166007.5156250000,193180.4218750000,179315.4375000000,167404.1406250000,141701.2343750000,166111.6093750000,169925.8437500000,,,
2.7319999957,21,178323.6562500000,166026.3437500000,193215.9843750000,179366.1562500000,167437.7500000000,141715.5468750000,166113.8125000000,170036.0156250000,,,
2.7359999956,21,178347.5781250000,166046.3593750000,193251.8125000000,179343.0937500000,167472.0781250000,141745.0000000000,166151.6875000000,169458.6093750000,,,
2.7399999956,21,178319.6406250000,166029.1562500000,193219.0625000000,179272.9218750000,167444.1875000000,141734.0625000000,166152.7343750000,168968.2968750000,,,
2.7439999955,21,178290.8593750000,166006.7187500000,193179.6093750000,179290.6250000000,167408.0312500000,141714.6093750000,166135.1406250000,169274.1875000000,,,
2.7479999955,21,178285.4062500000,165996.8750000000,193175.3281250000,179295.4531250000,167401.8437500000,141702.5937500000,166126.2031250000,169933.7343750000,,,
2.7519999954,21,178290.3281250000,165987.0000000000,193187.2812500000,179277.2343750000,167412.6718750000,141706.5937500000,166126.8281250000,170039.0625000000,,,
2.7559999956,21,178304.2656250000,165996.7968750000,193203.7187500000,179294.7500000000,167429.3281250000,141717.7187500000,166134.8125000000,169432.5625000000,,,
2.7599999956,21,178286.2968750000,165980.0312500000,193184.0625000000,179273.4843750000,167411.2031250000,141699.5937500000,166123.2031250000,168945.2343750000,,,
2.7639999955,21,178273.5625000000,165971.3125000000,193168.1093750000,179270.5000000000,167396.6875000000,141685.4531250000,166105.5000000000,169263.1093750000,,,
2.7679999955,21,178281.3593750000,165982.0937500000,193169.5312500000,179293.3125000000,167398.6406250000,141690.9843750000,166105.7656250000,169900.0468750000,,,
2.7719999955,21,178296.4062500000,165997.4843750000,193182.5312500000,179296.9843750000,167410.3437500000,141702.3281250000,166124.2968750000,170033.0312500000,,,
2.7759999956,21,178329.9843750000,166026.2656250000,193224.3281250000,179310.3593750000,167448.0781250000,141725.2812500000,166164.9062500000,169473.6250000000,,,
2.7799999956,21,178332.5156250000,166035.3125000000,193231.2187500000,179311.6718750000,167450.9687500000,141729.8437500000,166169.7343750000,168955.0468750000,,,
2.7839999956,21,178308.3437500000,166012.6875000000,193201.2812500000,179311.2187500000,167422.4062500000,141707.1250000000,166140.2343750000,169184.6250000000,,,
2.7879999955,21,178290.5625000000,165999.4687500000,193173.2343750000,179312.7812500000,167396.6562500000,141686.3437500000,166114.4375000000,169810.4843750000,,,
2.7919999955,21,178304.6718750000,166008.5937500000,193193.4843750000,179335.8125000000,167411.5468750000,141691.2187500000,166130.6562500000,169936.1718750000,,,
2.7959999954,21,178344.2031250000,166040.7187500000,193238.2500000000,179379.8125000000,167453.3125000000,141722.7656250000,166169.9531250000,169361.0781250000,,,
2.7999999956,21,178330.2656250000,166026.5625000000,193227.9531250000,179339.1406250000,167444.3750000000,141715.4218750000,166163.9218750000,168820.2187500000,,,
2.8039999956,21,178294.4531250000,165996.7968750000,193184.2031250000,179295.9375000000,167406.4531250000,141682.8281250000,166123.3906250000,169094.2031250000,,,
2.8079999955,21,178276.2343750000,165978.6562500000,193163.5000000000,179280.7500000000,167387.4375000000,141658.5000000000,166087.5781250000,169780.3125000000,,,
2.8119999955,21,178316.7968750000,166015.5937500000,193204.0781250000,179325.0625000000,167425.8437500000,141694.2500000000,166121.1093750000,169941.1093750000,,,
2.8159999955,22,178346.3750000000,166042.7656250000,193239.0468750000,179353.9218750000,167456.2812500000,141723.7343750000,166172.7968750000,169381.1250000000,,,
2.8199999954,22,178332.1406250000,166031.6093750000,193226.6562500000,179348.3750000000,167447.0312500000,141717.2343750000,166177.3281250000,168870.4062500000,,,
2.8239999954,22,178298.6406250000,166003.3906250000,193187.0156250000,179312.5625000000,167412.7343750000,141692.2500000000,166138.8125000000,169152.3593750000,,,
2.8279999953,22,178311.4843750000,166019.0000000000,193196.7500000000,179316.8281250000,167421.4687500000,141703.4843750000,166145.1093750000,169814.2500000000,,,
2.8319999953,22,178346.8281250000,166047.8906250000,193233.5781250000,179359.2343750000,167456.6875000000,141732.0000000000,166182.2968750000,169948.9375000000,,,
2.8359999952,22,178339.8125000000,166035.8437500000,193229.2031250000,179326.9375000000,167456.3906250000,141731.1093750000,166177.2500000000,169419.1875000000,,,
2.8399999954,22,178316.4687500000,166012.6093750000,193215.0781250000,179271.3437500000,167444.1406250000,141714.2187500000,166161.6406250000,168934.2031250000,,,
2.8439999954,22,178290.4531250000,165991.9843750000,193187.7656250000,179265.0937500000,167418.2812500000,141689.7968750000,166133.2656250000,169188.3281250000,,,
2.8479999953,22,178273.8281250000,165971.7343750000,193166.9843750000,179282.4375000000,167397.2031250000,141664.6718750000,166113.9531250000,169835.9687500000,,,
2.8519999953,22,178295.0156250000,165985.6875000000,193191.5156250000,179306.4218750000,167417.4218750000,141674.2187500000,166132.5312500000,170001.0625000000,,,
2.8559999953,22,178322.5625000000,166018.2968750000,193218.0000000000,179329.3593750000,167444.8125000000,141709.4843750000,166149.8437500000,169465.0937500000,,,
2.8599999954,22,178320.8906250000,166021.7812500000,193212.1718750000,179327.9062500000,167440.7031250000,141718.6562500000,166141.7031250000,168928.3906250000,,,
2.8639999954,22,178291.6406250000,165995.1875000000,193180.6562500000,179315.2500000000,167410.9375000000,141686.8593750000,166134.3125000000,169163.7343750000,,,
2.8679999954,22,178286.2187500000,165992.0937500000,193175.0312500000,179306.1875000000,167404.0937500000,141678.0312500000,166136.4531250000,169807.0312500000,,,
2.8719999953,22,178312.9843750000,166018.7812500000,193205.2812500000,179301.4843750000,167431.9375000000,141702.2812500000,166145.2968750000,169947.2812500000,,,
2.8759999953,22,178325.3437500000,166023.8281250000,193219.9531250000,179318.8125000000,167445.9375000000,141710.2187500000,166153.6406250000,169395.9531250000,,,
2.8799999952,22,178316.4687500000,166018.7812500000,193212.9218750000,179321.4218750000,167437.8593750000,141701.9531250000,166161.7656250000,168884.6406250000,,,
2.8839999954,22,178315.6093750000,166024.6250000000,193209.9687500000,179318.0625000000,167434.0000000000,141699.7343750000,166168.6093750000,169114.9843750000,,,
2.8879999954,22,178318.5312500000,166029.4062500000,193213.1093750000,179307.4218750000,167436.1406250000,141696.7812500000,166166.6250000000,169744.2343750000,,,
2.8919999953,22,178328.6562500000,166033.9375000000,193219.6093750000,179334.6093750000,167443.7656250000,141706.0625000000,166173.9687500000,169883.8437500000,,,
2.8959999953,22,178339.0312500000,166037.1093750000,193232.6093750000,179349.5781250000,167458.7500000000,141720.0625000000,166185.1093750000,169340.5156250000,,,
2.8999999953,22,178345.0625000000,166045.5000000000,193242.3750000000,179332.1718750000,167471.3125000000,141733.1406250000,166183.8750000000,168807.3750000000,,,
2.9039999954,22,178323.7656250000,166027.6406250000,193215.3125000000,179304.7812500000,167447.2812500000,141716.6250000000,166154.0000000000,169048.9062500000,,,
2.9079999954,22,178316.7656250000,166021.7656250000,193200.1562500000,179301.4531250000,167431.6875000000,141706.8281250000,166157.3437500000,169751.7812500000,,,
2.9119999954,22,178349.5156250000,166051.7187500000,193233.8437500000,179330.4843750000,167462.1093750000,141724.6406250000,166194.6562500000,169923.1406250000,,,
2.9159999953,22,178360.0625000000,166051.4218750000,193248.2500000000,179359.3906250000,167479.2656250000,141731.0000000000,166205.1406250000,169358.5625000000,,,
2.9199999953,22,178333.4218750000,166030.7500000000,193225.3125000000,179313.0781250000,167458.2968750000,141716.7812500000,166175.6875000000,168846.4687500000,,,
2.9239999952,22,178304.5312500000,166007.4062500000,193197.2031250000,179302.8281250000,167429.3906250000,141693.9843750000,166144.8750000000,169088.9687500000,,,
2.9279999954,22,178289.5937500000,165989.7031250000,193183.5312500000,179314.5781250000,167412.7500000000,141672.2656250000,166134.3281250000,169752.3125000000,,,
2.9319999954,22,178298.8281250000,165991.5000000000,193196.4375000000,179315.5625000000,167422.8906250000,141678.9687500000,166151.5312500000,169952.7812500000,,,
2.9359999953,22,178326.9062500000,166013.0156250000,193233.9218750000,179319.7500000000,167461.8125000000,141708.3906250000,166174.2187500000,169430.7187500000,,,
2.9399999953,22,178324.8750000000,166013.7187500000,193236.3906250000,179291.8906250000,167464.2500000000,141709.9687500000,166171.8281250000,168902.8593750000,,,
2.9439999952,23,178302.2031250000,165998.5937500000,193207.8906250000,179274.0156250000,167435.6093750000,141693.9843750000,166162.5781250000,169125.5937500000,,,
