Time:250Hz,Epoch,Channel 1,Channel 2,Channel 3,Channel 4,Channel 5,Channel 6,Channel 7,Channel 8,Event Id,Event Date,Event Duration
0.0000000000,0,108716.2734375000,98004.0703125000,164584.3593750000,146777.8750000000,0.0000000000,0.0000000000,0.0000000000,0.0000000000,,,
0.0040000000,0,108711.2890625000,98006.3750000000,164580.2031250000,146778.5937500000,0.0000000000,0.0000000000,0.0000000000,0.0000000000,,,
0.0079999999,0,108724.2421875000,98015.2031250000,164582.4531250000,146786.5625000000,0.0000000000,0.0000000000,0.0000000000,0.0000000000,,,
0.0119999999,0,108734.3828125000,98010.5078125000,164567.3281250000,146782.6406250000,0.0000000000,0.0000000000,0.0000000000,0.0000000000,,,
0.0159999998,0,108738.7031250000,98020.2421875000,164571.5937500000,146784.5781250000,0.0000000000,0.0000000000,0.0000000000,0.0000000000,,,
0.0199999998,0,108721.3203125000,98021.7187500000,164542.9531250000,146776.0156250000,0.0000000000,0.0000000000,0.0000000000,0.0000000000,,,
0.0240000000,0,108714.2343750000,98028.0781250000,164521.5000000000,146779.6718750000,0.0000000000,0.0000000000,0.0000000000,0.0000000000,,,
0.0279999999,0,108719.8437500000,98029.7656250000,164526.1406250000,146775.8125000000,0.0000000000,0.0000000000,0.0000000000,0.0000000000,,,
0.0319999999,0,108728.1328125000,98025.5234375000,164538.8750000000,146776.3750000000,0.0000000000,0.0000000000,0.0000000000,0.0000000000,,,
0.0359999998,0,108722.8515625000,98005.8671875000,164522.8125000000,146771.3593750000,0.0000000000,0.0000000000,0.0000000000,0.0000000000,,,
0.0399999998,0,108699.7812500000,97988.5937500000,164506.4218750000,146757.4062500000,0.0000000000,0.0000000000,0.0000000000,0.0000000000,,,
0.0440000000,0,108699.9140625000,97995.0312500000,164528.0937500000,146768.9218750000,0.0000000000,0.0000000000,0.0000000000,0.0000000000,,,
0.0480000000,0,108712.9765625000,98014.6640625000,164569.8281250000,146785.7812500000,0.0000000000,0.0000000000,0.0000000000,0.0000000000,,,
0.0519999999,0,108725.5312500000,98020.7265625000,164591.1718750000,146785.2500000000,0.0000000000,0.0000000000,0.0000000000,0.0000000000,33029,0.0530493939,0.0000000000
0.0559999999,0,108733.5000000000,98023.5156250000,164603.7500000000,146793.5312500000,0.0000000000,0.0000000000,0.0000000000,0.0000000000,,,
0.0599999998,0,108731.4609375000,98027.2734375000,164623.5312500000,146798.6875000000,0.0000000000,0.0000000000,0.0000000000,0.0000000000,,,
0.0639999998,0,108708.1796875000,98015.9531250000,164646.2968750000,146783.6718750000,0.0000000000,0.0000000000,0.0000000000,0.0000000000,,,
0.0680000000,0,108714.0000000000,98019.0078125000,164685.2187500000,146784.2500000000,0.0000000000,0.0000000000,0.0000000000,0.0000000000,,,
0.0719999999,0,108738.3515625000,98031.9062500000,164720.7343750000,146793.0000000000,0.0000000000,0.0000000000,0.0000000000,0.0000000000,,,
0.0759999999,0,108741.8125000000,98032.7656250000,164737.7812500000,146790.6875000000,0.0000000000,0.0000000000,0.0000000000,0.0000000000,,,
0.0799999998,0,108731.6953125000,98018.9843750000,164717.5312500000,146785.5937500000,0.0000000000,0.0000000000,0.0000000000,0.0000000000,,,
0.0839999998,0,108721.9062500000,98014.1250000000,164709.8437500000,146783.5312500000,0.0000000000,0.0000000000,0.0000000000,0.0000000000,,,
0.0880000000,0,108723.2500000000,98005.4062500000,164724.4218750000,146785.5468750000,0.0000000000,0.0000000000,0.0000000000,0.0000000000,,,
0.0919999999,0,108728.6718750000,98000.5312500000,164735.2343750000,146784.1562500000,0.0000000000,0.0000000000,0.0000000000,0.0000000000,,,
0.0959999999,0,108728.1875000000,97992.7265625000,164743.7343750000,146782.8593750000,0.0000000000,0.0000000000,0.0000000000,0.0000000000,,,
0.0999999999,0,108719.6796875000,97981.9375000000,164748.4062500000,146786.6718750000,0.0000000000,0.0000000000,0.0000000000,0.0000000000,,,
0.1039999998,0,108718.9609375000,97982.3671875000,164753.3906250000,146789.9687500000,0.0000000000,0.0000000000,0.0000000000,0.0000000000,,,
0.1079999998,0,108733.0937500000,97985.8046875000,164766.0781250000,146799.6250000000,0.0000000000,0.0000000000,0.0000000000,0.0000000000,,,
0.1120000000,0,108756.3203125000,98009.7578125000,164766.7343750000,146810.5468750000,0.0000000000,0.0000000000,0.0000000000,0.0000000000,,,
0.1159999999,0,108768.8515625000,98009.0312500000,164756.1093750000,146819.2656250000,0.0000000000,0.0000000000,0.0000000000,0.0000000000,,,
0.1199999999,0,108770.8046875000,98002.1875000000,164718.8281250000,146821.0781250000,0.0000000000,0.0000000000,0.0000000000,0.0000000000,,,
0.1239999998,0,108764.8281250000,98001.7109375000,164702.2968750000,146821.2187500000,0.0000000000,0.0000000000,0.0000000000,0.0000000000,,,
0.1279999998,1,108759.7812500000,97999.8593750000,164727.4375000000,146819.9375000000,0.0000000000,0.0000000000,0.0000000000,0.0000000000,,,
0.1319999998,1,108765.6328125000,97998.9218750000,164741.5156250000,146804.5156250000,0.0000000000,0.0000000000,0.0000000000,0.0000000000,,,
0.1359999997,1,108767.3203125000,98002.2734375000,164734.7031250000,146785.7812500000,0.0000000000,0.0000000000,0.0000000000,0.0000000000,,,
0.1399999997,1,108759.2421875000,98006.7500000000,164727.0781250000,146806.9687500000,0.0000000000,0.0000000000,0.0000000000,0.0000000000,,,
0.1439999996,1,108751.0625000000,98009.5156250000,164738.0312500000,146818.9062500000,0.0000000000,0.0000000000,0.0000000000,0.0000000000,,,
0.1479999996,1,108755.6250000000,98016.1406250000,164751.4375000000,146817.3281250000,0.0000000000,0.0000000000,0.0000000000,0.0000000000,,,
0.1519999998,1,108770.7265625000,98036.6015625000,164776.8125000000,146821.2500000000,0.0000000000,0.0000000000,0.0000000000,0.0000000000,,,
0.1559999997,1,108771.5546875000,98042.3984375000,164795.0312500000,146824.2968750000,0.0000000000,0.0000000000,0.0000000000,0.0000000000,,,
0.1599999997,1,108766.1640625000,98029.6875000000,164780.9218750000,146817.9218750000,0.0000000000,0.0000000000,0.0000000000,0.0000000000,,,
0.1639999996,1,108758.9765625000,98017.5859375000,164762.1875000000,146812.5625000000,0.0000000000,0.0000000000,0.0000000000,0.0000000000,,,
0.1679999996,1,108768.1250000000,98032.1015625000,164768.2343750000,146825.0312500000,0.0000000000,0.0000000000,0.0000000000,0.0000000000,,,
0.1719999998,1,108786.9296875000,98050.6562500000,164785.0937500000,146828.5156250000,0.0000000000,0.0000000000,0.0000000000,0.0000000000,,,
0.1759999997,1,108777.0312500000,98041.5625000000,164791.7500000000,146808.2031250000,0.0000000000,0.0000000000,0.0000000000,0.0000000000,,,
0.1799999997,1,108749.0781250000,98019.5703125000,164769.7656250000,146792.9687500000,0.0000000000,0.0000000000,0.0000000000,0.0000000000,,,
0.1839999997,1,108729.9843750000,98017.6640625000,164744.3906250000,146794.7187500000,0.0000000000,0.0000000000,0.0000000000,0.0000000000,,,
0.1879999996,1,108732.9609375000,98027.4609375000,164763.1875000000,146797.5312500000,0.0000000000,0.0000000000,0.0000000000,0.0000000000,,,
0.1919999996,1,108747.0390625000,98026.0390625000,164760.6093750000,146796.2968750000,0.0000000000,0.0000000000,0.0000000000,0.0000000000,,,
0.1959999998,1,108749.2656250000,98018.6093750000,164731.6406250000,146788.7031250000,0.0000000000,0.0000000000,0.0000000000,0.0000000000,,,
0.1999999997,1,108733.5468750000,98006.4531250000,164703.5156250000,146782.4843750000,0.0000000000,0.0000000000,0.0000000000,0.0000000000,,,
0.2039999997,1,108728.8828125000,97999.5390625000,164683.2031250000,146776.5625000000,0.0000000000,0.0000000000,0.0000000000,0.0000000000,,,
0.2079999996,1,108733.2812500000,98003.0234375000,164692.3281250000,146781.5156250000,0.0000000000,0.0000000000,0.0000000000,0.0000000000,,,
0.2119999996,1,108746.1328125000,98014.6640625000,164711.0156250000,146795.4218750000,0.0000000000,0.0000000000,0.0000000000,0.0000000000,,,
0.2159999998,1,108744.7890625000,98024.3750000000,164716.2968750000,146807.2656250000,0.0000000000,0.0000000000,0.0000000000,0.0000000000,,,
0.2199999997,1,108739.7421875000,98014.6328125000,164718.2656250000,146813.8750000000,0.0000000000,0.0000000000,0.0000000000,0.0000000000,,,
0.2239999997,1,108741.7031250000,98013.6718750000,164729.8437500000,146818.1875000000,0.0000000000,0.0000000000,0.0000000000,0.0000000000,,,
0.2279999997,1,108744.9765625000,97990.4453125000,164747.4218750000,146824.5468750000,0.0000000000,0.0000000000,0.0000000000,0.0000000000,,,
0.2319999996,1,108748.5156250000,97947.2578125000,164765.7031250000,146820.0625000000,0.0000000000,0.0000000000,0.0000000000,0.0000000000,,,
0.2359999996,1,108745.9921875000,97918.3203125000,164759.0312500000,146814.4062500000,0.0000000000,0.0000000000,0.0000000000,0.0000000000,,,
0.2399999998,1,108731.2968750000,97886.0000000000,164749.5156250000,146802.7968750000,0.0000000000,0.0000000000,0.0000000000,0.0000000000,,,
0.2439999997,1,108715.9296875000,97862.9843750000,164749.3437500000,146789.5937500000,0.0000000000,0.0000000000,0.0000000000,0.0000000000,,,
0.2479999997,1,108714.7734375000,97870.1718750000,164756.2656250000,146792.4687500000,0.0000000000,0.0000000000,0.0000000000,0.0000000000,,,
0.2519999996,1,108731.5625000000,97911.0468750000,164775.3906250000,146794.8593750000,0.0000000000,0.0000000000,0.0000000000,0.0000000000,,,
0.2559999996,2,108734.3281250000,97929.7421875000,164766.3750000000,146791.7656250000,0.0000000000,0.0000000000,0.0000000000,0.0000000000,,,
0.2599999995,2,108719.8984375000,97925.9921875000,164746.2031250000,146783.4531250000,0.0000000000,0.0000000000,0.0000000000,0.0000000000,,,
0.2639999995,2,108709.7031250000,97926.4687500000,164747.5000000000,146779.1562500000,0.0000000000,0.0000000000,0.0000000000,0.0000000000,,,
0.2679999995,2,108720.8593750000,97900.9140625000,164753.1875000000,146781.9843750000,0.0000000000,0.0000000000,0.0000000000,0.0000000000,,,
0.2719999994,2,108739.5546875000,97877.1484375000,164774.2968750000,146786.9687500000,0.0000000000,0.0000000000,0.0000000000,0.0000000000,,,
0.2759999994,2,108740.3906250000,97856.4921875000,164763.4531250000,146790.3750000000,0.0000000000,0.0000000000,0.0000000000,0.0000000000,,,
0.2799999996,2,108734.5156250000,97833.4531250000,164715.6562500000,146793.9375000000,0.0000000000,0.0000000000,0.0000000000,0.0000000000,,,
0.2839999995,2,108723.7890625000,97819.4218750000,164704.8437500000,146791.0156250000,0.0000000000,0.0000000000,0.0000000000,0.0000000000,,,
0.2879999995,2,108727.7265625000,97829.2421875000,164702.8906250000,146802.6250000000,0.0000000000,0.0000000000,0.0000000000,0.0000000000,,,
0.2919999994,2,108737.5234375000,97866.8750000000,164701.0468750000,146801.2968750000,0.0000000000,0.0000000000,0.0000000000,0.0000000000,,,
0.2959999994,2,108728.0234375000,97883.1015625000,164681.6718750000,146788.7656250000,0.0000000000,0.0000000000,0.0000000000,0.0000000000,,,
0.2999999996,2,108707.7187500000,97872.6406250000,164648.5781250000,146771.7812500000,0.0000000000,0.0000000000,0.0000000000,0.0000000000,,,
0.3039999995,2,108690.8750000000,97846.6250000000,164627.6562500000,146769.2968750000,0.0000000000,0.0000000000,0.0000000000,0.0000000000,,,
0.3079999995,2,108692.1640625000,97811.7031250000,164624.2968750000,146770.5312500000,0.0000000000,0.0000000000,0.0000000000,0.0000000000,,,
0.3119999995,2,108712.6796875000,97804.8593750000,164647.8593750000,146781.3906250000,0.0000000000,0.0000000000,0.0000000000,0.0000000000,,,
0.3159999994,2,108716.3281250000,97792.8203125000,164654.5000000000,146790.0781250000,0.0000000000,0.0000000000,0.0000000000,0.0000000000,,,
0.3199999994,2,108706.5937500000,97774.8437500000,164642.5625000000,146783.0781250000,0.0000000000,0.0000000000,0.0000000000,0.0000000000,,,
0.3239999996,2,108681.2734375000,97745.1562500000,164612.5000000000,146763.8125000000,0.0000000000,0.0000000000,0.0000000000,0.0000000000,,,
0.3279999995,2,108686.1015625000,97736.1953125000,164615.3125000000,146769.9843750000,0.0000000000,0.0000000000,0.0000000000,0.0000000000,,,
0.3319999995,2,108704.9296875000,97732.1718750000,164632.0781250000,146765.2968750000,0.0000000000,0.0000000000,0.0000000000,0.0000000000,,,
0.3359999994,2,108705.7109375000,97728.4453125000,164653.0000000000,146764.9531250000,0.0000000000,0.0000000000,0.0000000000,0.0000000000,,,
0.3399999994,2,108696.9140625000,97724.5859375000,164669.6562500000,146769.3750000000,0.0000000000,0.0000000000,0.0000000000,0.0000000000,,,
0.3439999996,2,108690.3125000000,97718.9531250000,164685.1875000000,146765.5625000000,0.0000000000,0.0000000000,0.0000000000,0.0000000000,,,
0.3479999995,2,108693.9062500000,97713.1328125000,164697.3437500000,146765.6406250000,0.0000000000,0.0000000000,0.0000000000,0.0000000000,,,
0.3519999995,2,108707.3203125000,97703.9843750000,164708.0156250000,146770.6562500000,0.0000000000,0.0000000000,0.0000000000,0.0000000000,,,
0.3559999994,2,108708.4687500000,97686.1718750000,164706.6718750000,146761.5937500000,0.0000000000,0.0000000000,0.0000000000,0.0000000000,,,
0.3599999994,2,108700.9062500000,97685.0703125000,164677.6718750000,146759.7343750000,0.0000000000,0.0000000000,0.0000000000,0.0000000000,,,
0.3639999994,2,108701.3359375000,97701.1093750000,164632.0781250000,146766.7187500000,0.0000000000,0.0000000000,0.0000000000,0.0000000000,,,
0.3679999996,2,108713.5390625000,97714.3906250000,164634.0625000000,146778.7656250000,0.0000000000,0.0000000000,0.0000000000,0.0000000000,,,
0.3719999995,2,108729.3125000000,97722.5937500000,164676.7968750000,146782.5156250000,0.0000000000,0.0000000000,0.0000000000,0.0000000000,,,
0.3759999995,2,108732.7734375000,97719.9453125000,164704.2343750000,146783.4843750000,0.0000000000,0.0000000000,0.0000000000,0.0000000000,,,
0.3799999994,2,108728.9062500000,97711.7578125000,164706.3750000000,146786.2968750000,0.0000000000,0.0000000000,0.0000000000,0.0000000000,,,
0.3839999994,3,108721.0234375000,97700.9218750000,164702.7343750000,146788.8125000000,0.0000000000,0.0000000000,0.0000000000,0.0000000000,,,
0.3879999993,3,108724.3203125000,97694.8125000000,164692.4531250000,146791.6562500000,0.0000000000,0.0000000000,0.0000000000,0.0000000000,,,
0.3919999993,3,108730.3281250000,97688.5625000000,164702.7812500000,146786.0312500000,0.0000000000,0.0000000000,0.0000000000,0.0000000000,,,
0.3959999993,3,108731.5625000000,97687.1093750000,164717.3281250000,146784.7343750000,0.0000000000,0.0000000000,0.0000000000,0.0000000000,,,
0.3999999992,3,108725.9296875000,97684.0781250000,164757.1562500000,146792.2812500000,0.0000000000,0.0000000000,0.0000000000,0.0000000000,,,
0.4039999992,3,108713.4296875000,97670.6718750000,164751.3125000000,146788.4375000000,0.0000000000,0.0000000000,0.0000000000,0.0000000000,,,
0.4079999994,3,108708.2031250000,97656.8046875000,164715.2500000000,146779.9062500000,0.0000000000,0.0000000000,0.0000000000,0.0000000000,,,
0.4119999993,3,108722.6562500000,97673.4062500000,164733.1406250000,146788.9843750000,0.0000000000,0.0000000000,0.0000000000,0.0000000000,,,
0.4159999993,3,108722.8515625000,97670.8593750000,164739.5625000000,146789.9218750000,0.0000000000,0.0000000000,0.0000000000,0.0000000000,,,
0.4199999992,3,108714.3984375000,97656.9140625000,164723.4375000000,146780.1250000000,0.0000000000,0.0000000000,0.0000000000,0.0000000000,,,
0.4239999992,3,108707.8828125000,97643.5781250000,164712.8437500000,146780.0937500000,0.0000000000,0.0000000000,0.0000000000,0.0000000000,,,
0.4279999994,3,108719.4140625000,97660.4218750000,164720.0000000000,146793.6406250000,0.0000000000,0.0000000000,0.0000000000,0.0000000000,,,
0.4319999993,3,108727.5390625000,97695.1875000000,164739.5625000000,146791.5781250000,0.0000000000,0.0000000000,0.0000000000,0.0000000000,,,
0.4359999993,3,108720.2187500000,97714.3906250000,164735.7968750000,146782.1406250000,0.0000000000,0.0000000000,0.0000000000,0.0000000000,,,
0.4399999992,3,108709.4921875000,97728.6328125000,164726.0156250000,146779.3750000000,0.0000000000,0.0000000000,0.0000000000,0.0000000000,,,
0.4439999992,3,108701.5000000000,97740.6250000000,164703.5625000000,146780.6562500000,0.0000000000,0.0000000000,0.0000000000,0.0000000000,,,
0.4479999992,3,108716.6484375000,97766.4765625000,164704.2812500000,146788.5156250000,0.0000000000,0.0000000000,0.0000000000,0.0000000000,,,
0.4519999993,3,108733.8203125000,97786.1953125000,164708.6093750000,146793.0000000000,0.0000000000,0.0000000000,0.0000000000,0.0000000000,,,
0.4559999993,3,108738.5390625000,97790.2968750000,164707.7500000000,146788.8437500000,0.0000000000,0.0000000000,0.0000000000,0.0000000000,,,
0.4599999993,3,108733.6875000000,97790.8828125000,164713.5468750000,146789.4375000000,0.0000000000,0.0000000000,0.0000000000,0.0000000000,,,
0.4639999992,3,108725.1250000000,97789.6796875000,164721.5625000000,146789.4375000000,0.0000000000,0.0000000000,0.0000000000,0.0000000000,,,
0.4679999992,3,108734.2734375000,97797.7812500000,164723.9531250000,146800.6718750000,0.0000000000,0.0000000000,0.0000000000,0.0000000000,,,
0.4719999994,3,108758.9531250000,97816.0468750000,164736.2343750000,146818.4531250000,0.0000000000,0.0000000000,0.0000000000,0.0000000000,,,
0.4759999993,3,108760.8515625000,97809.7968750000,164736.9843750000,146814.8281250000,0.0000000000,0.0000000000,0.0000000000,0.0000000000,,,
0.4799999993,3,108750.9296875000,97794.6718750000,164732.5625000000,146808.9843750000,0.0000000000,0.0000000000,0.0000000000,0.0000000000,,,
0.4839999992,3,108734.8359375000,97772.8359375000,164722.5781250000,146793.5625000000,0.0000000000,0.0000000000,0.0000000000,0.0000000000,,,
0.4879999992,3,108736.2343750000,97770.3671875000,164716.4375000000,146796.2187500000,0.0000000000,0.0000000000,0.0000000000,0.0000000000,,,
0.4919999992,3,108745.1640625000,97778.5468750000,164725.4531250000,146800.9062500000,0.0000000000,0.0000000000,0.0000000000,0.0000000000,,,
0.4959999993,3,108747.6562500000,97780.5859375000,164727.8593750000,146801.3750000000,0.0000000000,0.0000000000,0.0000000000,0.0000000000,,,
0.4999999993,3,108737.9218750000,97776.2656250000,164715.1250000000,146793.8281250000,0.0000000000,0.0000000000,0.0000000000,0.0000000000,,,
0.5039999993,3,108724.4609375000,97769.2968750000,164689.1093750000,146794.5625000000,0.0000000000,0.0000000000,0.0000000000,0.0000000000,,,
0.5079999992,3,108725.8750000000,97765.1406250000,164674.5937500000,146789.8906250000,0.0000000000,0.0000000000,0.0000000000,0.0000000000,,,
0.5119999992,4,108742.7734375000,97779.1640625000,164675.4218750000,146799.0156250000,0.0000000000,0.0000000000,0.0000000000,0.0000000000,,,
0.5159999991,4,108753.4765625000,97792.9765625000,164685.6406250000,146803.7031250000,0.0000000000,0.0000000000,0.0000000000,0.0000000000,,,
0.5199999991,4,108748.8125000000,97793.2968750000,164685.0781250000,146806.8906250000,0.0000000000,0.0000000000,0.0000000000,0.0000000000,,,
0.5239999990,4,108733.7656250000,97781.9531250000,164663.9218750000,146792.4062500000,0.0000000000,0.0000000000,0.0000000000,0.0000000000,,,
0.5279999990,4,108724.9921875000,97782.5156250000,164664.7500000000,146790.6718750000,0.0000000000,0.0000000000,0.0000000000,0.0000000000,,,
0.5319999990,4,108724.2421875000,97774.2578125000,164675.9375000000,146788.7031250000,0.0000000000,0.0000000000,0.0000000000,0.0000000000,,,
0.5359999991,4,108724.6718750000,97765.7031250000,164686.9375000000,146776.4843750000,0.0000000000,0.0000000000,0.0000000000,0.0000000000,,,
0.5399999991,4,108721.5078125000,97768.8906250000,164707.3437500000,146774.4062500000,0.0000000000,0.0000000000,0.0000000000,0.0000000000,,,
0.5439999991,4,108715.3359375000,97772.1953125000,164714.7187500000,146782.0000000000,0.0000000000,0.0000000000,0.0000000000,0.0000000000,,,
0.5479999990,4,108719.6796875000,97774.8437500000,164721.5000000000,146789.0312500000,0.0000000000,0.0000000000,0.0000000000,0.0000000000,,,
0.5519999990,4,108738.0859375000,97787.5625000000,164743.5000000000,146799.2187500000,0.0000000000,0.0000000000,0.0000000000,0.0000000000,,,
0.5559999992,4,108750.3437500000,97789.4140625000,164750.2656250000,146805.6562500000,0.0000000000,0.0000000000,0.0000000000,0.0000000000,,,
0.5599999991,4,108735.5625000000,97775.8125000000,164746.5781250000,146805.5781250000,0.0000000000,0.0000000000,0.0000000000,0.0000000000,,,
0.5639999991,4,108716.9765625000,97764.0937500000,164732.9531250000,146793.6250000000,0.0000000000,0.0000000000,0.0000000000,0.0000000000,,,
0.5679999990,4,108714.3437500000,97765.6171875000,164716.2187500000,146783.6718750000,0.0000000000,0.0000000000,0.0000000000,0.0000000000,,,
0.5719999990,4,108729.6640625000,97777.5859375000,164719.1406250000,146785.3281250000,0.0000000000,0.0000000000,0.0000000000,0.0000000000,,,
0.5759999990,4,108734.0859375000,97781.2812500000,164710.8906250000,146787.7500000000,0.0000000000,0.0000000000,0.0000000000,0.0000000000,,,
0.5799999991,4,108733.3046875000,97778.2031250000,164705.2187500000,146795.6093750000,0.0000000000,0.0000000000,0.0000000000,0.0000000000,,,
0.5839999991,4,108729.0937500000,97764.8984375000,164703.5156250000,146796.1718750000,0.0000000000,0.0000000000,0.0000000000,0.0000000000,,,
0.5879999991,4,108729.8984375000,97761.6484375000,164700.2343750000,146796.8906250000,0.0000000000,0.0000000000,0.0000000000,0.0000000000,,,
0.5919999990,4,108748.4062500000,97768.2734375000,164701.5781250000,146800.9687500000,0.0000000000,0.0000000000,0.0000000000,0.0000000000,,,
0.5959999990,4,108754.0937500000,97772.2734375000,164704.7187500000,146802.6250000000,0.0000000000,0.0000000000,0.0000000000,0.0000000000,,,
0.5999999992,4,108746.3671875000,97767.3359375000,164709.0312500000,146800.7812500000,0.0000000000,0.0000000000,0.0000000000,0.0000000000,,,
0.6039999991,4,108736.0703125000,97765.8906250000,164708.9843750000,146793.7812500000,0.0000000000,0.0000000000,0.0000000000,0.0000000000,,,
0.6079999991,4,108738.0546875000,97778.7890625000,164730.3281250000,146795.5000000000,0.0000000000,0.0000000000,0.0000000000,0.0000000000,,,
0.6119999990,4,108750.5546875000,97794.2968750000,164756.0000000000,146799.4062500000,0.0000000000,0.0000000000,0.0000000000,0.0000000000,,,
0.6159999990,4,108760.2109375000,97808.3203125000,164768.8125000000,146802.4218750000,0.0000000000,0.0000000000,0.0000000000,0.0000000000,,,
0.6199999989,4,108752.8906250000,97795.7109375000,164758.0312500000,146798.9062500000,0.0000000000,0.0000000000,0.0000000000,0.0000000000,,,
0.6239999991,4,108737.6796875000,97783.5937500000,164739.1875000000,146796.5625000000,0.0000000000,0.0000000000,0.0000000000,0.0000000000,,,
0.6279999991,4,108730.2812500000,97769.8281250000,164743.5781250000,146784.8750000000,0.0000000000,0.0000000000,0.0000000000,0.0000000000,,,
0.6319999991,4,108746.3203125000,97761.4921875000,164763.0000000000,146791.5000000000,0.0000000000,0.0000000000,0.0000000000,0.0000000000,,,
0.6359999990,4,108757.8515625000,97759.7968750000,164778.9531250000,146798.6562500000,0.0000000000,0.0000000000,0.0000000000,0.0000000000,,,
0.6399999990,5,108751.7343750000,97754.9218750000,164775.9062500000,146802.2812500000,0.0000000000,0.0000000000,0.0000000000,0.0000000000,,,
0.6439999989,5,108742.6953125000,97742.8203125000,164767.2656250000,146797.0781250000,0.0000000000,0.0000000000,0.0000000000,0.0000000000,,,
0.6479999989,5,108740.8750000000,97734.0468750000,164756.9375000000,146793.7812500000,0.0000000000,0.0000000000,0.0000000000,0.0000000000,,,
0.6519999988,5,108749.6171875000,97730.6953125000,164747.5781250000,146796.7500000000,0.0000000000,0.0000000000,0.0000000000,0.0000000000,,,
0.6559999988,5,108753.1562500000,97725.2500000000,164735.3437500000,146797.4062500000,0.0000000000,0.0000000000,0.0000000000,0.0000000000,,,
0.6599999988,5,108743.4218750000,97717.1250000000,164717.0781250000,146797.2656250000,0.0000000000,0.0000000000,0.0000000000,0.0000000000,,,
0.6639999989,5,108721.5859375000,97703.5546875000,164688.9375000000,146784.6562500000,0.0000000000,0.0000000000,0.0000000000,0.0000000000,,,
0.6679999989,5,108719.7656250000,97696.4765625000,164686.0781250000,146786.1093750000,0.0000000000,0.0000000000,0.0000000000,0.0000000000,,,
0.6719999989,5,108732.8515625000,97702.4531250000,164700.9375000000,146795.0625000000,0.0000000000,0.0000000000,0.0000000000,0.0000000000,,,
0.6759999988,5,108734.7812500000,97699.2343750000,164699.7812500000,146794.5312500000,0.0000000000,0.0000000000,0.0000000000,0.0000000000,,,
0.6799999988,5,108716.5703125000,97679.2031250000,164689.3437500000,146785.0156250000,0.0000000000,0.0000000000,0.0000000000,0.0000000000,,,
0.6839999990,5,108705.9218750000,97675.0937500000,164662.2500000000,146786.0000000000,0.0000000000,0.0000000000,0.0000000000,0.0000000000,,,
0.6879999989,5,108709.5156250000,97677.0546875000,164677.1718750000,146783.9062500000,0.0000000000,0.0000000000,0.0000000000,0.0000000000,,,
0.6919999989,5,108724.6484375000,97682.9531250000,164710.9375000000,146783.4531250000,0.0000000000,0.0000000000,0.0000000000,0.0000000000,,,
0.6959999988,5,108731.8046875000,97681.3203125000,164715.1250000000,146784.4218750000,0.0000000000,0.0000000000,0.0000000000,0.0000000000,,,
0.6999999988,5,108733.1718750000,97679.9531250000,164719.6875000000,146791.1562500000,0.0000000000,0.0000000000,0.0000000000,0.0000000000,,,
0.7039999987,5,108731.4296875000,97674.1562500000,164739.9843750000,146793.9375000000,0.0000000000,0.0000000000,0.0000000000,0.0000000000,,,
0.7079999989,5,108734.7031250000,97673.4843750000,164767.9843750000,146793.8125000000,0.0000000000,0.0000000000,0.0000000000,0.0000000000,,,
0.7119999989,5,108746.2890625000,97676.3046875000,164800.7187500000,146799.5468750000,0.0000000000,0.0000000000,0.0000000000,0.0000000000,,,
0.7159999989,5,108738.8046875000,97658.0625000000,164787.9687500000,146789.1875000000,0.0000000000,0.0000000000,0.0000000000,0.0000000000,,,
0.7199999988,5,108728.7500000000,97650.7656250000,164768.6875000000,146789.2500000000,0.0000000000,0.0000000000,0.0000000000,0.0000000000,,,
0.7239999988,5,108709.5156250000,97636.6328125000,164739.7968750000,146779.9062500000,0.0000000000,0.0000000000,0.0000000000,0.0000000000,,,
0.7279999990,5,108708.5781250000,97630.5156250000,164737.5781250000,146782.4062500000,0.0000000000,0.0000000000,0.0000000000,0.0000000000,,,
0.7319999989,5,108732.9609375000,97643.0937500000,164766.6406250000,146795.2031250000,0.0000000000,0.0000000000,0.0000000000,0.0000000000,,,
0.7359999989,5,108739.7734375000,97650.1484375000,164761.7187500000,146795.3125000000,0.0000000000,0.0000000000,0.0000000000,0.0000000000,,,
0.7399999988,5,108723.9765625000,97647.4921875000,164744.0937500000,146786.4843750000,0.0000000000,0.0000000000,0.0000000000,0.0000000000,,,
0.7439999988,5,108721.5625000000,97648.8906250000,164747.0156250000,146789.7812500000,0.0000000000,0.0000000000,0.0000000000,0.0000000000,,,
0.7479999987,5,108729.8984375000,97653.4218750000,164747.0156250000,146797.6093750000,0.0000000000,0.0000000000,0.0000000000,0.0000000000,,,
0.7519999989,5,108740.4140625000,97657.1484375000,164753.0468750000,146807.8593750000,0.0000000000,0.0000000000,0.0000000000,0.0000000000,,,
0.7559999989,5,108732.1250000000,97641.4062500000,164747.1718750000,146795.9843750000,0.0000000000,0.0000000000,0.0000000000,0.0000000000,,,
0.7599999988,5,108709.4609375000,97617.4531250000,164730.7656250000,146774.5781250000,0.0000000000,0.0000000000,0.0000000000,0.0000000000,,,
0.7639999988,5,108695.5468750000,97622.4140625000,164720.7500000000,146769.7968750000,0.0000000000,0.0000000000,0.0000000000,0.0000000000,,,
0.7679999988,6,108697.0156250000,97637.0312500000,164732.1250000000,146766.6093750000,0.0000000000,0.0000000000,0.0000000000,0.0000000000,,,
0.7719999987,6,108706.2421875000,97646.6640625000,164734.3750000000,146762.1093750000,0.0000000000,0.0000000000,0.0000000000,0.0000000000,,,
0.7759999987,6,108716.5468750000,97661.2265625000,164738.4062500000,146767.3125000000,0.0000000000,0.0000000000,0.0000000000,0.0000000000,,,
0.7799999986,6,108714.4531250000,97665.7890625000,164731.6406250000,146773.0468750000,0.0000000000,0.0000000000,0.0000000000,0.0000000000,,,
0.7839999986,6,108704.7734375000,97665.6250000000,164727.4062500000,146771.2500000000,0.0000000000,0.0000000000,0.0000000000,0.0000000000,,,
0.7879999985,6,108711.4453125000,97683.8125000000,164722.2343750000,146780.2812500000,0.0000000000,0.0000000000,0.0000000000,0.0000000000,,,
0.7919999987,6,108723.3281250000,97700.7890625000,164758.0156250000,146789.8906250000,0.0000000000,0.0000000000,0.0000000000,0.0000000000,,,
0.7959999987,6,108727.1406250000,97703.3906250000,164783.3906250000,146779.5625000000,0.0000000000,0.0000000000,0.0000000000,0.0000000000,,,
0.7999999986,6,108708.7968750000,97684.6953125000,164773.5625000000,146764.5625000000,0.0000000000,0.0000000000,0.0000000000,0.0000000000,,,
0.8039999986,6,108691.3828125000,97665.2812500000,164764.4687500000,146761.1875000000,0.0000000000,0.0000000000,0.0000000000,0.0000000000,,,
0.8079999986,6,108699.7578125000,97663.1328125000,164728.7968750000,146770.7343750000,0.0000000000,0.0000000000,0.0000000000,0.0000000000,,,
0.8119999988,6,108721.0000000000,97669.4609375000,164697.2343750000,146782.1093750000,0.0000000000,0.0000000000,0.0000000000,0.0000000000,,,
0.8159999987,6,108728.5078125000,97668.1250000000,164672.3437500000,146776.5937500000,0.0000000000,0.0000000000,0.0000000000,0.0000000000,,,
0.8199999987,6,108709.3593750000,97653.3984375000,164630.9062500000,146763.0937500000,0.0000000000,0.0000000000,0.0000000000,0.0000000000,,,
0.8239999986,6,108698.8437500000,97654.5000000000,164620.0937500000,146766.5625000000,0.0000000000,0.0000000000,0.0000000000,0.0000000000,,,
0.8279999986,6,108708.1250000000,97666.0000000000,164621.3281250000,146780.2812500000,0.0000000000,0.0000000000,0.0000000000,0.0000000000,,,
0.8319999985,6,108721.9609375000,97672.2265625000,164615.0000000000,146792.6718750000,0.0000000000,0.0000000000,0.0000000000,0.0000000000,,,
0.8359999987,6,108732.6406250000,97671.1562500000,164615.1875000000,146792.9531250000,0.0000000000,0.0000000000,0.0000000000,0.0000000000,,,
0.8399999987,6,108727.5156250000,97663.8593750000,164624.9218750000,146787.2031250000,0.0000000000,0.0000000000,0.0000000000,0.0000000000,,,
0.8439999986,6,108705.1718750000,97649.6718750000,164636.5937500000,146784.3437500000,0.0000000000,0.0000000000,0.0000000000,0.0000000000,,,
0.8479999986,6,108708.6015625000,97662.0312500000,164632.0781250000,146795.8437500000,0.0000000000,0.0000000000,0.0000000000,0.0000000000,,,
0.8519999986,6,108715.8437500000,97669.2500000000,164619.7500000000,146793.8906250000,0.0000000000,0.0000000000,0.0000000000,0.0000000000,,,
0.8559999987,6,108711.3437500000,97659.2968750000,164593.9375000000,146783.4843750000,0.0000000000,0.0000000000,0.0000000000,0.0000000000,,,
0.8599999987,6,108700.2890625000,97653.0468750000,164583.9375000000,146776.1562500000,0.0000000000,0.0000000000,0.0000000000,0.0000000000,,,
0.8639999987,6,108691.3828125000,97649.3984375000,164575.3281250000,146773.1250000000,0.0000000000,0.0000000000,0.0000000000,0.0000000000,,,
0.8679999986,6,108700.4218750000,97659.0312500000,164585.7812500000,146785.4687500000,0.0000000000,0.0000000000,0.0000000000,0.0000000000,,,
0.8719999986,6,108718.3437500000,97666.1640625000,164597.6406250000,146796.2812500000,0.0000000000,0.0000000000,0.0000000000,0.0000000000,,,
0.8759999985,6,108722.8515625000,97659.9921875000,164614.4531250000,146791.0937500000,0.0000000000,0.0000000000,0.0000000000,0.0000000000,,,
0.8799999987,6,108716.6796875000,97655.5937500000,164676.3437500000,146789.0781250000,0.0000000000,0.0000000000,0.0000000000,0.0000000000,,,
0.8839999987,6,108701.9296875000,97645.9921875000,164699.9375000000,146786.0312500000,0.0000000000,0.0000000000,0.0000000000,0.0000000000,,,
0.8879999986,6,108691.3046875000,97630.1406250000,164695.7812500000,146781.7656250000,0.0000000000,0.0000000000,0.0000000000,0.0000000000,,,
0.8919999986,6,108704.7421875000,97637.0078125000,164720.3593750000,146797.5000000000,0.0000000000,0.0000000000,0.0000000000,0.0000000000,,,
0.8959999986,7,108723.7890625000,97645.3203125000,164735.7187500000,146799.3281250000,0.0000000000,0.0000000000,0.0000000000,0.0000000000,,,
0.8999999985,7,108712.2500000000,97631.9140625000,164683.9062500000,146784.8437500000,0.0000000000,0.0000000000,0.0000000000,0.0000000000,,,
0.9039999985,7,108694.8203125000,97616.1640625000,164635.7812500000,146775.8281250000,0.0000000000,0.0000000000,0.0000000000,0.0000000000,,,
0.9079999984,7,108693.0468750000,97622.0703125000,164667.0312500000,146779.1406250000,0.0000000000,0.0000000000,0.0000000000,0.0000000000,,,
0.9119999984,7,108710.1093750000,97644.2500000000,164665.3906250000,146791.3125000000,0.0000000000,0.0000000000,0.0000000000,0.0000000000,,,
0.9159999983,7,108718.3437500000,97648.0312500000,164671.5625000000,146789.0781250000,0.0000000000,0.0000000000,0.0000000000,0.0000000000,,,
0.9199999985,7,108710.0546875000,97637.0859375000,164668.3437500000,146789.0781250000,0.0000000000,0.0000000000,0.0000000000,0.0000000000,,,
0.9239999985,7,108693.9062500000,97624.4843750000,164649.1406250000,146784.2343750000,0.0000000000,0.0000000000,0.0000000000,0.0000000000,,,
0.9279999984,7,108693.7421875000,97621.3203125000,164644.1250000000,146782.2656250000,0.0000000000,0.0000000000,0.0000000000,0.0000000000,,,
0.9319999984,7,108711.9843750000,97628.9062500000,164669.6093750000,146793.5312500000,0.0000000000,0.0000000000,0.0000000000,0.0000000000,,,
0.9359999984,7,108723.8906250000,97630.8906250000,164676.8125000000,146802.9843750000,0.0000000000,0.0000000000,0.0000000000,0.0000000000,,,
0.9399999985,7,108720.4843750000,97626.0625000000,164678.1093750000,146805.3437500000,0.0000000000,0.0000000000,0.0000000000,0.0000000000,,,
0.9439999985,7,108715.8984375000,97627.1406250000,164687.0625000000,146808.7968750000,0.0000000000,0.0000000000,0.0000000000,0.0000000000,,,
0.9479999985,7,108712.3906250000,97626.4140625000,164704.5468750000,146806.5468750000,0.0000000000,0.0000000000,0.0000000000,0.0000000000,,,
0.9519999984,7,108720.9140625000,97633.2265625000,164719.2187500000,146800.0781250000,0.0000000000,0.0000000000,0.0000000000,0.0000000000,,,
0.9559999984,7,108719.4453125000,97637.9453125000,164718.9843750000,146788.8437500000,0.0000000000,0.0000000000,0.0000000000,0.0000000000,,,
0.9599999983,7,108712.5234375000,97645.0312500000,164719.2812500000,146781.6875000000,0.0000000000,0.0000000000,0.0000000000,0.0000000000,,,
0.9639999985,7,108708.0937500000,97653.5859375000,164732.5625000000,146783.6406250000,0.0000000000,0.0000000000,0.0000000000,0.0000000000,,,
0.9679999985,7,108712.6562500000,97666.1093750000,164755.6562500000,146785.9218750000,0.0000000000,0.0000000000,0.0000000000,0.0000000000,,,
0.9719999984,7,108735.1093750000,97681.4765625000,164768.6875000000,146795.0625000000,0.0000000000,0.0000000000,0.0000000000,0.0000000000,,,
0.9759999984,7,108742.9375000000,97677.7500000000,164753.6718750000,146792.4375000000,0.0000000000,0.0000000000,0.0000000000,0.0000000000,,,
0.9799999984,7,108731.8046875000,97671.0703125000,164727.2500000000,146782.0312500000,0.0000000000,0.0000000000,0.0000000000,0.0000000000,,,
0.9839999985,7,108716.3828125000,97671.0468750000,164702.1406250000,146778.2187500000,0.0000000000,0.0000000000,0.0000000000,0.0000000000,,,
0.9879999985,7,108713.3281250000,97671.2890625000,164666.5000000000,146776.3437500000,0.0000000000,0.0000000000,0.0000000000,0.0000000000,,,
0.9919999985,7,108721.1875000000,97666.9453125000,164636.5312500000,146777.7187500000,0.0000000000,0.0000000000,0.0000000000,0.0000000000,,,
0.9959999984,7,108723.7343750000,97659.8046875000,164617.5937500000,146766.2031250000,0.0000000000,0.0000000000,0.0000000000,0.0000000000,,,
0.9999999984,7,108722.3906250000,97650.7968750000,164618.8906250000,146772.2187500000,0.0000000000,0.0000000000,0.0000000000,0.0000000000,,,
1.0039999983,7,108719.4921875000,97641.3828125000,164630.0156250000,146777.4687500000,0.0000000000,0.0000000000,0.0000000000,0.0000000000,,,
1.0079999985,7,108726.0156250000,97638.8593750000,164641.0156250000,146785.7812500000,0.0000000000,0.0000000000,0.0000000000,0.0000000000,,,
1.0119999985,7,108745.3281250000,97638.3515625000,164660.3437500000,146796.1406250000,0.0000000000,0.0000000000,0.0000000000,0.0000000000,,,
1.0159999984,7,108748.9453125000,97628.4765625000,164650.3437500000,146792.3906250000,0.0000000000,0.0000000000,0.0000000000,0.0000000000,,,
1.0199999984,7,108731.4296875000,97611.4765625000,164631.7812500000,146784.5312500000,0.0000000000,0.0000000000,0.0000000000,0.0000000000,,,
1.0239999983,8,108711.0703125000,97594.8984375000,164618.8281250000,146780.2343750000,0.0000000000,0.0000000000,0.0000000000,0.0000000000,,,
1.0279999983,8,108713.1093750000,97601.3359375000,164604.1093750000,146790.5000000000,0.0000000000,0.0000000000,0.0000000000,0.0000000000,,,
1.0319999983,8,108733.6875000000,97625.3437500000,164606.4687500000,146802.2500000000,0.0000000000,0.0000000000,0.0000000000,0.0000000000,,,
1.0359999982,8,108741.0859375000,97630.9765625000,164616.6562500000,146795.9843750000,0.0000000000,0.0000000000,0.0000000000,0.0000000000,,,
1.0399999982,8,108730.2265625000,97619.8437500000,164622.3125000000,146792.0625000000,0.0000000000,0.0000000000,0.0000000000,0.0000000000,,,
1.0439999981,8,108720.9140625000,97615.6875000000,164651.8750000000,146791.6406250000,0.0000000000,0.0000000000,0.0000000000,0.0000000000,,,
1.0479999983,8,108718.9609375000,97606.4843750000,164653.2187500000,146794.0000000000,0.0000000000,0.0000000000,0.0000000000,0.0000000000,,,
1.0519999983,8,108722.6562500000,97598.0390625000,164645.3906250000,146790.5000000000,0.0000000000,0.0000000000,0.0000000000,0.0000000000,,,
1.0559999982,8,108727.9687500000,97596.2109375000,164668.4218750000,146788.0625000000,0.0000000000,0.0000000000,0.0000000000,0.0000000000,,,
1.0599999982,8,108719.6328125000,97595.6250000000,164657.8281250000,146787.2343750000,0.0000000000,0.0000000000,0.0000000000,0.0000000000,,,
1.0639999982,8,108706.1406250000,97588.8125000000,164655.6562500000,146784.7343750000,0.0000000000,0.0000000000,0.0000000000,0.0000000000,,,
1.0679999983,8,108707.7968750000,97587.9218750000,164653.5312500000,146783.7812500000,0.0000000000,0.0000000000,0.0000000000,0.0000000000,,,
1.0719999983,8,108723.0078125000,97592.9687500000,164653.7031250000,146790.4531250000,0.0000000000,0.0000000000,0.0000000000,0.0000000000,,,
1.0759999983,8,108735.9921875000,97593.8281250000,164667.7812500000,146796.0000000000,0.0000000000,0.0000000000,0.0000000000,0.0000000000,,,
1.0799999982,8,108732.5000000000,97586.0468750000,164661.0468750000,146789.9687500000,0.0000000000,0.0000000000,0.0000000000,0.0000000000,,,
1.0839999982,8,108721.6953125000,97575.2343750000,164620.4062500000,146785.3281250000,0.0000000000,0.0000000000,0.0000000000,0.0000000000,,,
1.0879999981,8,108724.1328125000,97575.7968750000,164607.6250000000,146787.7500000000,0.0000000000,0.0000000000,0.0000000000,0.0000000000,,,
1.0919999983,8,108741.8125000000,97587.6015625000,164632.4375000000,146801.5000000000,0.0000000000,0.0000000000,0.0000000000,0.0000000000,,,
1.0959999983,8,108739.7968750000,97584.1406250000,164631.4843750000,146800.6406250000,0.0000000000,0.0000000000,0.0000000000,0.0000000000,,,
1.0999999982,8,108721.8281250000,97570.3828125000,164613.5468750000,146777.0625000000,0.0000000000,0.0000000000,0.0000000000,0.0000000000,,,
1.1039999982,8,108704.8203125000,97561.3125000000,164596.2968750000,146766.5625000000,0.0000000000,0.0000000000,0.0000000000,0.0000000000,,,
1.1079999981,8,108706.2734375000,97562.8984375000,164606.8125000000,146767.5468750000,0.0000000000,0.0000000000,0.0000000000,0.0000000000,,,
1.1119999983,8,108727.3515625000,97572.3671875000,164609.3281250000,146777.3906250000,0.0000000000,0.0000000000,0.0000000000,0.0000000000,,,
1.1159999983,8,108739.1328125000,97572.0703125000,164601.3437500000,146781.6562500000,0.0000000000,0.0000000000,0.0000000000,0.0000000000,,,
1.1199999982,8,108731.4843750000,97553.2421875000,164592.9687500000,146775.9687500000,0.0000000000,0.0000000000,0.0000000000,0.0000000000,,,
1.1239999982,8,108715.9843750000,97540.4453125000,164622.3750000000,146773.1562500000,0.0000000000,0.0000000000,0.0000000000,0.0000000000,,,
1.1279999982,8,108711.1796875000,97548.4453125000,164655.7343750000,146775.4843750000,0.0000000000,0.0000000000,0.0000000000,0.0000000000,,,
1.1319999981,8,108721.0546875000,97565.3671875000,164661.6718750000,146783.9843750000,0.0000000000,0.0000000000,0.0000000000,0.0000000000,,,
1.1359999983,8,108731.2187500000,97568.7421875000,164670.9531250000,146787.9531250000,0.0000000000,0.0000000000,0.0000000000,0.0000000000,,,
1.1399999983,8,108732.2890625000,97556.4609375000,164659.3593750000,146794.0937500000,0.0000000000,0.0000000000,0.0000000000,0.0000000000,,,
1.1439999982,8,108717.1093750000,97548.6328125000,164640.7500000000,146797.9843750000,0.0000000000,0.0000000000,0.0000000000,0.0000000000,,,
1.1479999982,8,108716.0859375000,97558.6093750000,164624.4843750000,146801.7187500000,0.0000000000,0.0000000000,0.0000000000,0.0000000000,,,
1.1519999981,9,108728.5312500000,97568.9609375000,164623.6875000000,146800.9062500000,0.0000000000,0.0000000000,0.0000000000,0.0000000000,,,
1.1559999981,9,108735.0781250000,97568.3984375000,164634.0156250000,146794.0156250000,0.0000000000,0.0000000000,0.0000000000,0.0000000000,,,
1.1599999981,9,108726.5234375000,97560.7812500000,164629.7187500000,146790.1562500000,0.0000000000,0.0000000000,0.0000000000,0.0000000000,,,
1.1639999980,9,108709.6484375000,97544.8203125000,164610.5156250000,146779.7031250000,0.0000000000,0.0000000000,0.0000000000,0.0000000000,,,
1.1679999980,9,108709.5703125000,97548.9531250000,164626.7968750000,146778.5156250000,0.0000000000,0.0000000000,0.0000000000,0.0000000000,,,
1.1719999979,9,108724.3750000000,97566.8671875000,164639.3281250000,146782.1875000000,0.0000000000,0.0000000000,0.0000000000,0.0000000000,,,
1.1759999981,9,108730.0390625000,97569.8750000000,164642.5468750000,146784.8281250000,0.0000000000,0.0000000000,0.0000000000,0.0000000000,,,
1.1799999981,9,108716.2734375000,97548.9531250000,164626.7656250000,146775.1406250000,0.0000000000,0.0000000000,0.0000000000,0.0000000000,,,
1.1839999980,9,108694.8750000000,97530.6015625000,164593.1093750000,146762.9843750000,0.0000000000,0.0000000000,0.0000000000,0.0000000000,,,
1.1879999980,9,108697.5000000000,97532.6171875000,164593.4843750000,146769.6718750000,0.0000000000,0.0000000000,0.0000000000,0.0000000000,,,
1.1919999979,9,108715.3359375000,97545.3828125000,164621.7343750000,146776.2343750000,0.0000000000,0.0000000000,0.0000000000,0.0000000000,,,
1.1959999981,9,108727.6250000000,97551.9296875000,164624.4687500000,146783.3437500000,0.0000000000,0.0000000000,0.0000000000,0.0000000000,,,
1.1999999981,9,108719.8671875000,97547.2343750000,164616.4218750000,146784.3906250000,0.0000000000,0.0000000000,0.0000000000,0.0000000000,,,
1.2039999980,9,108710.1640625000,97543.1875000000,164606.1718750000,146792.5468750000,0.0000000000,0.0000000000,0.0000000000,0.0000000000,,,
1.2079999980,9,108715.6875000000,97536.5312500000,164606.6562500000,146790.0312500000,0.0000000000,0.0000000000,0.0000000000,0.0000000000,,,
1.2119999980,9,108728.3437500000,97533.4218750000,164616.4687500000,146790.0312500000,0.0000000000,0.0000000000,0.0000000000,0.0000000000,,,
1.2159999979,9,108739.2109375000,97527.5468750000,164632.3750000000,146794.4531250000,0.0000000000,0.0000000000,0.0000000000,0.0000000000,,,
1.2199999981,9,108736.6640625000,97520.3593750000,164644.9062500000,146792.1093750000,0.0000000000,0.0000000000,0.0000000000,0.0000000000,,,
1.2239999981,9,108733.2578125000,97505.5234375000,164659.5468750000,146790.9843750000,0.0000000000,0.0000000000,0.0000000000,0.0000000000,,,
1.2279999980,9,108743.9296875000,97502.1718750000,164672.6093750000,146799.2187500000,0.0000000000,0.0000000000,0.0000000000,0.0000000000,,,
1.2319999980,9,108759.2734375000,97531.9453125000,164683.5312500000,146808.0781250000,0.0000000000,0.0000000000,0.0000000000,0.0000000000,,,
1.2359999979,9,108758.0078125000,97544.8750000000,164687.0625000000,146799.6250000000,0.0000000000,0.0000000000,0.0000000000,0.0000000000,,,
1.2399999981,9,108742.0781250000,97545.9453125000,164681.1718750000,146793.4062500000,0.0000000000,0.0000000000,0.0000000000,0.0000000000,,,
1.2439999981,9,108726.0937500000,97539.0546875000,164655.9531250000,146792.0937500000,0.0000000000,0.0000000000,0.0000000000,0.0000000000,,,
1.2479999980,9,108724.2421875000,97534.8984375000,164639.4843750000,146793.0312500000,0.0000000000,0.0000000000,0.0000000000,0.0000000000,,,
1.2519999980,9,108727.4843750000,97528.6484375000,164624.2500000000,146789.7031250000,0.0000000000,0.0000000000,0.0000000000,0.0000000000,,,
1.2559999980,9,108726.8750000000,97529.3203125000,164619.5312500000,146783.7812500000,0.0000000000,0.0000000000,0.0000000000,0.0000000000,,,
1.2599999979,9,108724.3515625000,97523.3906250000,164615.7968750000,146783.8750000000,0.0000000000,0.0000000000,0.0000000000,0.0000000000,,,
1.2639999981,9,108721.2656250000,97524.1640625000,164603.7343750000,146786.7187500000,0.0000000000,0.0000000000,0.0000000000,0.0000000000,,,
1.2679999981,9,108726.3593750000,97535.8359375000,164597.6875000000,146794.0000000000,0.0000000000,0.0000000000,0.0000000000,0.0000000000,,,
1.2719999980,9,108732.4765625000,97535.5156250000,164619.6875000000,146798.1562500000,0.0000000000,0.0000000000,0.0000000000,0.0000000000,,,
1.2759999980,9,108732.9609375000,97526.5781250000,164619.5625000000,146791.9062500000,0.0000000000,0.0000000000,0.0000000000,0.0000000000,,,
1.2799999979,10,108723.3828125000,97513.0937500000,164604.5312500000,146781.7343750000,0.0000000000,0.0000000000,0.0000000000,0.0000000000,,,
1.2839999979,10,108715.8203125000,97512.5234375000,164605.2812500000,146784.0625000000,0.0000000000,0.0000000000,0.0000000000,0.0000000000,,,
1.2879999978,10,108724.9140625000,97516.5468750000,164626.8281250000,146798.6875000000,0.0000000000,0.0000000000,0.0000000000,0.0000000000,,,
1.2919999978,10,108734.3046875000,97516.6328125000,164639.0781250000,146794.5625000000,0.0000000000,0.0000000000,0.0000000000,0.0000000000,,,
1.2959999978,10,108744.8671875000,97518.0234375000,164651.0468750000,146792.6562500000,0.0000000000,0.0000000000,0.0000000000,0.0000000000,,,
1.2999999977,10,108744.2500000000,97508.8515625000,164648.2500000000,146799.6875000000,0.0000000000,0.0000000000,0.0000000000,0.0000000000,,,
1.3039999979,10,108732.4531250000,97496.3515625000,164632.7500000000,146798.9218750000,0.0000000000,0.0000000000,0.0000000000,0.0000000000,,,
1.3079999979,10,108732.8515625000,97502.0156250000,164629.0781250000,146799.2500000000,0.0000000000,0.0000000000,0.0000000000,0.0000000000,,,
1.3119999978,10,108753.7500000000,97518.8593750000,164652.8125000000,146813.2812500000,0.0000000000,0.0000000000,0.0000000000,0.0000000000,,,
1.3159999978,10,108766.2968750000,97525.8046875000,164673.0156250000,146813.5156250000,0.0000000000,0.0000000000,0.0000000000,0.0000000000,,,
1.3199999977,10,108754.8203125000,97512.1250000000,164674.2187500000,146802.7968750000,0.0000000000,0.0000000000,0.0000000000,0.0000000000,,,
1.3239999979,10,108735.7500000000,97491.0703125000,164657.8593750000,146794.9843750000,0.0000000000,0.0000000000,0.0000000000,0.0000000000,,,
1.3279999979,10,108738.8046875000,97493.5078125000,164652.6875000000,146803.8593750000,0.0000000000,0.0000000000,0.0000000000,0.0000000000,,,
1.3319999978,10,108760.2343750000,97510.4375000000,164674.5468750000,146818.9843750000,0.0000000000,0.0000000000,0.0000000000,0.0000000000,,,
1.3359999978,10,108760.8515625000,97510.9140625000,164676.4687500000,146816.1250000000,0.0000000000,0.0000000000,0.0000000000,0.0000000000,,,
1.3399999978,10,108747.2578125000,97503.7578125000,164661.3437500000,146814.2656250000,0.0000000000,0.0000000000,0.0000000000,0.0000000000,,,
1.3439999977,10,108736.3671875000,97505.0468750000,164645.8437500000,146809.2031250000,0.0000000000,0.0000000000,0.0000000000,0.0000000000,,,
1.3479999979,10,108737.7890625000,97508.4531250000,164643.6718750000,146811.1093750000,0.0000000000,0.0000000000,0.0000000000,0.0000000000,,,
1.3519999979,10,108741.3515625000,97507.5390625000,164659.2500000000,146814.4843750000,0.0000000000,0.0000000000,0.0000000000,0.0000000000,,,
1.3559999978,10,108747.2031250000,97505.7656250000,164679.3437500000,146805.9531250000,0.0000000000,0.0000000000,0.0000000000,0.0000000000,,,
1.3599999978,10,108736.7656250000,97494.6640625000,164680.2500000000,146795.8125000000,0.0000000000,0.0000000000,0.0000000000,0.0000000000,,,
1.3639999977,10,108718.8750000000,97483.3750000000,164671.2656250000,146793.0625000000,0.0000000000,0.0000000000,0.0000000000,0.0000000000,,,
1.3679999979,10,108719.8203125000,97480.9843750000,164685.6406250000,146795.2812500000,0.0000000000,0.0000000000,0.0000000000,0.0000000000,,,
1.3719999979,10,108733.6562500000,97479.9687500000,164703.0468750000,146801.8593750000,0.0000000000,0.0000000000,0.0000000000,0.0000000000,,,
1.3759999978,10,108745.1640625000,97484.0703125000,164704.6562500000,146800.3281250000,0.0000000000,0.0000000000,0.0000000000,0.0000000000,,,
1.3799999978,10,108745.6718750000,97484.1796875000,164699.5312500000,146796.3593750000,0.0000000000,0.0000000000,0.0000000000,0.0000000000,,,
1.3839999977,10,108747.7890625000,97480.6875000000,164719.1406250000,146803.0937500000,0.0000000000,0.0000000000,0.0000000000,0.0000000000,,,
1.3879999977,10,108745.5156250000,97478.8359375000,164728.7968750000,146802.9062500000,0.0000000000,0.0000000000,0.0000000000,0.0000000000,,,
1.3919999979,10,108752.4062500000,97489.4062500000,164740.9531250000,146801.3437500000,0.0000000000,0.0000000000,0.0000000000,0.0000000000,,,
1.3959999979,10,108760.0781250000,97496.5390625000,164752.0625000000,146795.0625000000,0.0000000000,0.0000000000,0.0000000000,0.0000000000,,,
1.3999999978,10,108753.9375000000,97494.5000000000,164751.4062500000,146799.2812500000,0.0000000000,0.0000000000,0.0000000000,0.0000000000,,,
1.4039999978,10,108737.6796875000,97478.5937500000,164741.1093750000,146801.3125000000,0.0000000000,0.0000000000,0.0000000000,0.0000000000,,,
1.4079999977,11,108734.3515625000,97469.8515625000,164741.8593750000,146803.9218750000,0.0000000000,0.0000000000,0.0000000000,0.0000000000,,,
1.4119999977,11,108741.4062500000,97464.5937500000,164744.0156250000,146807.5312500000,0.0000000000,0.0000000000,0.0000000000,0.0000000000,,,
1.4159999976,11,108748.7578125000,97459.0937500000,164740.6093750000,146808.4531250000,0.0000000000,0.0000000000,0.0000000000,0.0000000000,,,
1.4199999976,11,108747.0390625000,97449.2031250000,164731.3437500000,146801.9062500000,0.0000000000,0.0000000000,0.0000000000,0.0000000000,,,
1.4239999976,11,108733.1171875000,97442.8125000000,164712.1718750000,146794.1250000000,0.0000000000,0.0000000000,0.0000000000,0.0000000000,,,
1.4279999975,11,108731.9687500000,97447.2656250000,164700.7500000000,146800.2500000000,0.0000000000,0.0000000000,0.0000000000,0.0000000000,,,
1.4319999977,11,108746.4218750000,97456.4453125000,164692.8125000000,146814.8281250000,0.0000000000,0.0000000000,0.0000000000,0.0000000000,,,
1.4359999977,11,108753.9609375000,97455.6875000000,164694.3906250000,146806.8906250000,0.0000000000,0.0000000000,0.0000000000,0.0000000000,,,
1.4399999976,11,108751.6250000000,97452.5546875000,164695.7500000000,146805.0468750000,0.0000000000,0.0000000000,0.0000000000,0.0000000000,,,
1.4439999976,11,108739.7968750000,97446.4921875000,164694.2500000000,146803.6562500000,0.0000000000,0.0000000000,0.0000000000,0.0000000000,,,
1.4479999975,11,108738.3750000000,97450.2421875000,164699.5625000000,146802.8750000000,0.0000000000,0.0000000000,0.0000000000,0.0000000000,,,
1.4519999977,11,108753.0468750000,97461.3750000000,164710.0781250000,146811.1875000000,0.0000000000,0.0000000000,0.0000000000,0.0000000000,,,
1.4559999977,11,108757.1015625000,97459.9843750000,164708.7968750000,146810.4375000000,0.0000000000,0.0000000000,0.0000000000,0.0000000000,,,
1.4599999976,11,108740.3359375000,97443.6484375000,164687.6875000000,146794.8281250000,0.0000000000,0.0000000000,0.0000000000,0.0000000000,,,
1.4639999976,11,108732.0781250000,97431.7890625000,164684.8593750000,146790.1875000000,0.0000000000,0.0000000000,0.0000000000,0.0000000000,,,
1.4679999975,11,108735.1093750000,97430.9062500000,164690.3125000000,146791.7187500000,0.0000000000,0.0000000000,0.0000000000,0.0000000000,,,
1.4719999975,11,108748.9453125000,97435.0625000000,164700.0156250000,146803.4375000000,0.0000000000,0.0000000000,0.0000000000,0.0000000000,,,
1.4759999977,11,108753.2109375000,97435.0625000000,164697.3906250000,146804.1093750000,0.0000000000,0.0000000000,0.0000000000,0.0000000000,,,
1.4799999977,11,108744.0390625000,97434.6328125000,164675.0781250000,146799.5781250000,0.0000000000,0.0000000000,0.0000000000,0.0000000000,,,
1.4839999976,11,108737.2265625000,97438.7421875000,164659.3125000000,146802.3593750000,0.0000000000,0.0000000000,0.0000000000,0.0000000000,,,
1.4879999976,11,108754.5546875000,97465.9062500000,164678.8281250000,146827.4687500000,0.0000000000,0.0000000000,0.0000000000,0.0000000000,,,
1.4919999975,11,108760.0468750000,97470.4140625000,164701.4687500000,146826.9375000000,0.0000000000,0.0000000000,0.0000000000,0.0000000000,,,
1.4959999977,11,108758.9765625000,97473.1796875000,164707.1093750000,146825.6093750000,0.0000000000,0.0000000000,0.0000000000,0.0000000000,,,
1.4999999977,11,108750.1562500000,97468.5156250000,164704.2343750000,146819.9062500000,0.0000000000,0.0000000000,0.0000000000,0.0000000000,,,
1.5039999976,11,108731.9140625000,97446.8671875000,164691.7812500000,146808.3437500000,0.0000000000,0.0000000000,0.0000000000,0.0000000000,,,
1.5079999976,11,108724.3203125000,97433.7734375000,164681.2968750000,146804.1875000000,0.0000000000,0.0000000000,0.0000000000,0.0000000000,,,
1.5119999975,11,108733.6562500000,97434.9843750000,164672.8750000000,146805.2031250000,0.0000000000,0.0000000000,0.0000000000,0.0000000000,,,
1.5159999975,11,108744.9765625000,97443.3515625000,164669.8437500000,146806.8125000000,0.0000000000,0.0000000000,0.0000000000,0.0000000000,,,
1.5199999977,11,108744.0937500000,97446.9218750000,164687.3281250000,146809.0156250000,0.0000000000,0.0000000000,0.0000000000,0.0000000000,,,
1.5239999976,11,108740.4453125000,97444.1015625000,164689.1875000000,146817.0000000000,0.0000000000,0.0000000000,0.0000000000,0.0000000000,,,
1.5279999976,11,108742.3750000000,97441.9296875000,164681.6406250000,146827.1250000000,0.0000000000,0.0000000000,0.0000000000,0.0000000000,,,
1.5319999976,11,108751.1171875000,97444.9921875000,164687.0625000000,146821.5468750000,0.0000000000,0.0000000000,0.0000000000,0.0000000000,,,
1.5359999975,12,108754.7109375000,97443.6718750000,164686.6875000000,146813.4062500000,0.0000000000,0.0000000000,0.0000000000,0.0000000000,,,
1.5399999975,12,108751.6796875000,97444.7500000000,164673.9218750000,146806.8750000000,0.0000000000,0.0000000000,0.0000000000,0.0000000000,,,
1.5439999974,12,108746.9843750000,97445.5234375000,164670.8125000000,146809.9531250000,0.0000000000,0.0000000000,0.0000000000,0.0000000000,,,
1.5479999974,12,108749.0000000000,97447.3750000000,164667.7031250000,146813.3593750000,0.0000000000,0.0000000000,0.0000000000,0.0000000000,,,
1.5519999973,12,108754.9296875000,97442.0625000000,164669.2343750000,146813.8125000000,0.0000000000,0.0000000000,0.0000000000,0.0000000000,,,
1.5559999973,12,108763.6406250000,97440.3515625000,164672.9843750000,146814.3750000000,0.0000000000,0.0000000000,0.0000000000,0.0000000000,,,
1.5599999975,12,108755.3593750000,97433.6953125000,164666.4687500000,146808.8750000000,0.0000000000,0.0000000000,0.0000000000,0.0000000000,,,
1.5639999975,12,108746.8828125000,97434.0156250000,164663.8125000000,146806.1406250000,0.0000000000,0.0000000000,0.0000000000,0.0000000000,,,
1.5679999974,12,108748.4921875000,97435.7656250000,164668.9687500000,146811.4062500000,0.0000000000,0.0000000000,0.0000000000,0.0000000000,,,
1.5719999974,12,108755.8906250000,97436.5156250000,164676.9218750000,146818.6406250000,0.0000000000,0.0000000000,0.0000000000,0.0000000000,,,
1.5759999973,12,108767.8281250000,97438.8437500000,164676.4687500000,146817.1406250000,0.0000000000,0.0000000000,0.0000000000,0.0000000000,,,
1.5799999975,12,108767.6406250000,97437.0781250000,164673.6250000000,146814.4375000000,0.0000000000,0.0000000000,0.0000000000,0.0000000000,,,
1.5839999975,12,108758.4687500000,97430.4531250000,164681.8593750000,146820.3593750000,0.0000000000,0.0000000000,0.0000000000,0.0000000000,,,
1.5879999974,12,108745.9140625000,97423.3203125000,164683.5781250000,146814.2500000000,0.0000000000,0.0000000000,0.0000000000,0.0000000000,,,
1.5919999974,12,108748.1406250000,97425.6484375000,164677.8437500000,146810.1718750000,0.0000000000,0.0000000000,0.0000000000,0.0000000000,,,
1.5959999973,12,108757.0468750000,97428.6250000000,164682.7187500000,146816.6093750000,0.0000000000,0.0000000000,0.0000000000,0.0000000000,,,
1.5999999973,12,108753.2343750000,97424.5468750000,164684.8125000000,146815.7656250000,0.0000000000,0.0000000000,0.0000000000,0.0000000000,,,
1.6039999975,12,108747.2578125000,97428.1718750000,164683.5000000000,146824.0312500000,0.0000000000,0.0000000000,0.0000000000,0.0000000000,,,
1.6079999974,12,108744.0390625000,97427.1796875000,164684.7812500000,146828.5156250000,0.0000000000,0.0000000000,0.0000000000,0.0000000000,,,
1.6119999974,12,108747.8984375000,97419.9375000000,164686.4531250000,146822.4531250000,0.0000000000,0.0000000000,0.0000000000,0.0000000000,,,
1.6159999974,12,108750.1562500000,97391.5625000000,164679.6875000000,146817.4687500000,0.0000000000,0.0000000000,0.0000000000,0.0000000000,,,
1.6199999973,12,108742.5390625000,97362.7265625000,164671.5312500000,146804.2343750000,0.0000000000,0.0000000000,0.0000000000,0.0000000000,,,
1.6239999975,12,108729.9531250000,97341.6171875000,164651.2031250000,146792.7343750000,0.0000000000,0.0000000000,0.0000000000,0.0000000000,,,
1.6279999975,12,108729.0156250000,97339.8984375000,164660.6718750000,146795.8437500000,0.0000000000,0.0000000000,0.0000000000,0.0000000000,,,
1.6319999974,12,108742.3437500000,97342.4218750000,164664.4062500000,146804.8281250000,0.0000000000,0.0000000000,0.0000000000,0.0000000000,,,
1.6359999974,12,108756.1328125000,97343.1171875000,164643.4218750000,146813.8125000000,0.0000000000,0.0000000000,0.0000000000,0.0000000000,,,
1.6399999973,12,108751.4375000000,97329.3359375000,164666.5468750000,146811.8906250000,0.0000000000,0.0000000000,0.0000000000,0.0000000000,,,
1.6439999973,12,108734.7812500000,97312.6718750000,164673.8906250000,146806.1250000000,0.0000000000,0.0000000000,0.0000000000,0.0000000000,,,
1.6479999975,12,108731.5937500000,97310.3984375000,164639.1093750000,146809.0625000000,0.0000000000,0.0000000000,0.0000000000,0.0000000000,,,
1.6519999974,12,108747.1484375000,97321.5000000000,164630.3125000000,146816.8750000000,0.0000000000,0.0000000000,0.0000000000,0.0000000000,,,
1.6559999974,12,108764.4765625000,97336.2500000000,164640.9375000000,146819.6406250000,0.0000000000,0.0000000000,0.0000000000,0.0000000000,,,
1.6599999974,12,108754.1484375000,97342.5859375000,164625.4218750000,146802.7968750000,0.0000000000,0.0000000000,0.0000000000,0.0000000000,,,
1.6639999973,13,108736.3125000000,97344.4062500000,164604.9375000000,146795.5468750000,0.0000000000,0.0000000000,0.0000000000,0.0000000000,,,
1.6679999973,13,108739.8281250000,97358.3515625000,164601.7656250000,146802.7656250000,0.0000000000,0.0000000000,0.0000000000,0.0000000000,,,
1.6719999972,13,108763.4062500000,97379.2187500000,164621.6718750000,146817.2812500000,0.0000000000,0.0000000000,0.0000000000,0.0000000000,,,
1.6759999972,13,108773.2968750000,97385.9531250000,164626.0781250000,146820.8906250000,0.0000000000,0.0000000000,0.0000000000,0.0000000000,,,
1.6799999971,13,108769.0859375000,97385.5000000000,164629.7968750000,146828.6406250000,0.0000000000,0.0000000000,0.0000000000,0.0000000000,,,
1.6839999971,13,108749.8046875000,97373.5625000000,164614.8593750000,146819.3437500000,0.0000000000,0.0000000000,0.0000000000,0.0000000000,,,
1.6879999973,13,108740.1250000000,97371.7890625000,164592.1406250000,146812.0468750000,0.0000000000,0.0000000000,0.0000000000,0.0000000000,,,
1.6919999972,13,108752.2187500000,97381.8750000000,164591.4687500000,146816.6250000000,0.0000000000,0.0000000000,0.0000000000,0.0000000000,,,
1.6959999972,13,108758.3046875000,97379.1171875000,164594.6875000000,146806.2812500000,0.0000000000,0.0000000000,0.0000000000,0.0000000000,,,
1.6999999972,13,108748.7343750000,97368.9453125000,164588.0937500000,146797.4218750000,0.0000000000,0.0000000000,0.0000000000,0.0000000000,,,
1.7039999971,13,108738.6171875000,97367.5781250000,164588.6250000000,146804.6406250000,0.0000000000,0.0000000000,0.0000000000,0.0000000000,,,
1.7079999973,13,108731.1093750000,97368.5703125000,164594.1875000000,146814.6406250000,0.0000000000,0.0000000000,0.0000000000,0.0000000000,,,
1.7119999973,13,108735.8281250000,97374.0156250000,164600.1406250000,146813.5468750000,0.0000000000,0.0000000000,0.0000000000,0.0000000000,,,
1.7159999972,13,108747.3125000000,97387.1328125000,164613.3125000000,146804.3750000000,0.0000000000,0.0000000000,0.0000000000,0.0000000000,,,
1.7199999972,13,108744.6562500000,97394.8593750000,164619.9375000000,146806.5468750000,0.0000000000,0.0000000000,0.0000000000,0.0000000000,,,
1.7239999971,13,108731.3515625000,97386.0078125000,164618.0312500000,146802.1250000000,0.0000000000,0.0000000000,0.0000000000,0.0000000000,,,
1.7279999971,13,108731.2968750000,97382.9531250000,164631.2968750000,146807.4531250000,0.0000000000,0.0000000000,0.0000000000,0.0000000000,,,
1.7319999973,13,108746.3984375000,97386.4062500000,164641.7343750000,146818.7187500000,0.0000000000,0.0000000000,0.0000000000,0.0000000000,,,
1.7359999972,13,108752.1875000000,97378.6328125000,164638.4375000000,146815.0781250000,0.0000000000,0.0000000000,0.0000000000,0.0000000000,,,
1.7399999972,13,108743.1484375000,97361.1953125000,164623.4687500000,146803.7812500000,0.0000000000,0.0000000000,0.0000000000,0.0000000000,,,
1.7439999972,13,108734.6484375000,97351.9687500000,164618.7500000000,146801.2031250000,0.0000000000,0.0000000000,0.0000000000,0.0000000000,,,
1.7479999971,13,108734.6484375000,97350.8671875000,164611.1562500000,146804.7187500000,0.0000000000,0.0000000000,0.0000000000,0.0000000000,,,
1.7519999973,13,108747.7109375000,97353.8750000000,164635.9687500000,146809.5000000000,0.0000000000,0.0000000000,0.0000000000,0.0000000000,,,
1.7559999973,13,108767.3203125000,97366.6953125000,164655.5468750000,146816.0625000000,0.0000000000,0.0000000000,0.0000000000,0.0000000000,,,
1.7599999972,13,108767.1328125000,97365.7578125000,164641.1718750000,146814.7812500000,0.0000000000,0.0000000000,0.0000000000,0.0000000000,,,
1.7639999972,13,108747.7109375000,97348.0000000000,164611.7187500000,146797.5625000000,0.0000000000,0.0000000000,0.0000000000,0.0000000000,,,
1.7679999971,13,108736.9531250000,97343.4687500000,164604.2187500000,146786.7187500000,0.0000000000,0.0000000000,0.0000000000,0.0000000000,,,
1.7719999971,13,108746.6640625000,97355.0546875000,164616.9218750000,146788.2500000000,0.0000000000,0.0000000000,0.0000000000,0.0000000000,,,
1.7759999973,13,108756.7500000000,97357.8671875000,164626.0000000000,146791.0468750000,0.0000000000,0.0000000000,0.0000000000,0.0000000000,,,
1.7799999972,13,108754.7968750000,97356.3984375000,164622.4843750000,146798.2031250000,0.0000000000,0.0000000000,0.0000000000,0.0000000000,,,
1.7839999972,13,108743.7656250000,97348.0234375000,164616.6562500000,146807.2187500000,0.0000000000,0.0000000000,0.0000000000,0.0000000000,,,
1.7879999971,13,108741.4062500000,97345.4531250000,164623.1250000000,146808.4843750000,0.0000000000,0.0000000000,0.0000000000,0.0000000000,,,
1.7919999971,14,108756.1093750000,97356.1796875000,164640.6718750000,146820.6250000000,0.0000000000,0.0000000000,0.0000000000,0.0000000000,,,
1.7959999971,14,108768.3671875000,97358.1953125000,164649.1093750000,146826.3906250000,0.0000000000,0.0000000000,0.0000000000,0.0000000000,,,
1.7999999970,14,108751.4921875000,97339.8750000000,164617.8125000000,146816.5781250000,0.0000000000,0.0000000000,0.0000000000,0.0000000000,,,
1.8039999970,14,108728.1562500000,97321.6640625000,164594.9062500000,146810.5156250000,0.0000000000,0.0000000000,0.0000000000,0.0000000000,,,
1.8079999969,14,108721.0546875000,97318.4140625000,164596.6250000000,146805.2031250000,0.0000000000,0.0000000000,0.0000000000,0.0000000000,,,
1.8119999969,14,108735.1093750000,97331.5078125000,164609.3125000000,146811.4843750000,0.0000000000,0.0000000000,0.0000000000,0.0000000000,,,
1.8159999971,14,108756.4296875000,97349.0703125000,164619.3437500000,146815.2343750000,0.0000000000,0.0000000000,0.0000000000,0.0000000000,,,
1.8199999970,14,108756.9921875000,97350.2265625000,164617.7031250000,146815.9062500000,0.0000000000,0.0000000000,0.0000000000,0.0000000000,,,
1.8239999970,14,108749.2968750000,97348.5625000000,164606.2031250000,146820.2031250000,0.0000000000,0.0000000000,0.0000000000,0.0000000000,,,
1.8279999970,14,108740.6328125000,97344.1953125000,164596.0781250000,146818.2343750000,0.0000000000,0.0000000000,0.0000000000,0.0000000000,,,
1.8319999969,14,108745.1875000000,97347.3828125000,164597.2187500000,146812.4218750000,0.0000000000,0.0000000000,0.0000000000,0.0000000000,,,
1.8359999971,14,108754.8437500000,97347.1953125000,164593.0625000000,146810.4375000000,0.0000000000,0.0000000000,0.0000000000,0.0000000000,,,
1.8399999971,14,108749.5390625000,97336.6015625000,164583.4218750000,146807.1406250000,0.0000000000,0.0000000000,0.0000000000,0.0000000000,,,
1.8439999970,14,108739.5312500000,97322.2500000000,164568.2500000000,146804.8593750000,0.0000000000,0.0000000000,0.0000000000,0.0000000000,,,
1.8479999970,14,108733.8437500000,97313.2656250000,164561.4843750000,146801.3437500000,0.0000000000,0.0000000000,0.0000000000,0.0000000000,,,
1.8519999969,14,108746.7734375000,97319.7578125000,164581.6875000000,146804.1250000000,0.0000000000,0.0000000000,0.0000000000,0.0000000000,,,
1.8559999969,14,108758.7109375000,97321.1796875000,164598.6562500000,146804.3750000000,0.0000000000,0.0000000000,0.0000000000,0.0000000000,,,
1.8599999971,14,108758.2812500000,97317.6406250000,164595.7343750000,146805.8437500000,0.0000000000,0.0000000000,0.0000000000,0.0000000000,,,
1.8639999970,14,108748.5156250000,97306.6406250000,164583.4218750000,146801.6406250000,0.0000000000,0.0000000000,0.0000000000,0.0000000000,,,
1.8679999970,14,108746.5859375000,97303.6875000000,164576.8593750000,146799.7343750000,0.0000000000,0.0000000000,0.0000000000,0.0000000000,,,
1.8719999969,14,108759.4609375000,97317.2109375000,164594.2812500000,146807.2187500000,0.0000000000,0.0000000000,0.0000000000,0.0000000000,,,
1.8759999969,14,108774.6718750000,97325.3359375000,164611.3750000000,146812.0937500000,0.0000000000,0.0000000000,0.0000000000,0.0000000000,,,
1.8799999971,14,108774.2109375000,97322.9218750000,164606.7343750000,146811.1875000000,0.0000000000,0.0000000000,0.0000000000,0.0000000000,,,
1.8839999971,14,108760.6171875000,97312.3828125000,164582.3593750000,146807.1406250000,0.0000000000,0.0000000000,0.0000000000,0.0000000000,,,
1.8879999970,14,108750.7187500000,97310.7734375000,164565.5625000000,146808.3906250000,0.0000000000,0.0000000000,0.0000000000,0.0000000000,,,
1.8919999970,14,108755.6484375000,97320.3437500000,164565.1093750000,146808.9531250000,0.0000000000,0.0000000000,0.0000000000,0.0000000000,,,
1.8959999969,14,108764.7734375000,97323.8906250000,164563.1406250000,146806.3906250000,0.0000000000,0.0000000000,0.0000000000,0.0000000000,,,
1.8999999969,14,108759.5156250000,97315.2734375000,164556.2500000000,146806.3906250000,0.0000000000,0.0000000000,0.0000000000,0.0000000000,,,
1.9039999971,14,108739.6953125000,97295.5625000000,164539.6250000000,146803.0000000000,0.0000000000,0.0000000000,0.0000000000,0.0000000000,,,
1.9079999970,14,108734.3046875000,97290.0625000000,164544.7187500000,146810.1875000000,0.0000000000,0.0000000000,0.0000000000,0.0000000000,,,
1.9119999970,14,108748.5156250000,97303.3125000000,164559.7343750000,146824.4062500000,0.0000000000,0.0000000000,0.0000000000,0.0000000000,,,
1.9159999969,14,108757.3671875000,97300.2812500000,164568.9218750000,146828.9218750000,0.0000000000,0.0000000000,0.0000000000,0.0000000000,,,
1.9199999969,15,108743.6875000000,97271.8828125000,164555.9062500000,146819.7500000000,0.0000000000,0.0000000000,0.0000000000,0.0000000000,,,
1.9239999969,15,108728.1562500000,97249.2109375000,164541.7187500000,146803.8125000000,0.0000000000,0.0000000000,0.0000000000,0.0000000000,,,
1.9279999968,15,108724.5937500000,97251.5234375000,164546.0937500000,146801.6406250000,0.0000000000,0.0000000000,0.0000000000,0.0000000000,,,
1.9319999968,15,108739.0234375000,97260.6171875000,164567.6250000000,146814.7812500000,0.0000000000,0.0000000000,0.0000000000,0.0000000000,,,
1.9359999967,15,108755.0312500000,97262.7578125000,164585.3593750000,146816.5000000000,0.0000000000,0.0000000000,0.0000000000,0.0000000000,,,
1.9399999967,15,108755.2187500000,97256.0000000000,164584.8437500000,146811.1875000000,0.0000000000,0.0000000000,0.0000000000,0.0000000000,,,
1.9439999969,15,108738.8593750000,97242.9687500000,164578.3593750000,146806.8750000000,0.0000000000,0.0000000000,0.0000000000,0.0000000000,,,
1.9479999968,15,108734.3046875000,97244.4687500000,164595.1718750000,146812.3593750000,0.0000000000,0.0000000000,0.0000000000,0.0000000000,,,
1.9519999968,15,108748.9687500000,97249.6171875000,164599.3593750000,146817.2812500000,0.0000000000,0.0000000000,0.0000000000,0.0000000000,,,
1.9559999967,15,108767.2656250000,97250.6328125000,164586.5156250000,146822.0468750000,0.0000000000,0.0000000000,0.0000000000,0.0000000000,,,
1.9599999967,15,108761.6562500000,97239.1562500000,164564.0937500000,146805.4687500000,0.0000000000,0.0000000000,0.0000000000,0.0000000000,,,
1.9639999969,15,108748.8125000000,97228.3984375000,164546.6562500000,146800.4531250000,0.0000000000,0.0000000000,0.0000000000,0.0000000000,,,
1.9679999969,15,108757.6093750000,97238.2187500000,164567.2500000000,146815.6718750000,0.0000000000,0.0000000000,0.0000000000,0.0000000000,,,
1.9719999968,15,108772.7890625000,97254.8750000000,164592.0937500000,146825.7812500000,0.0000000000,0.0000000000,0.0000000000,0.0000000000,,,
1.9759999968,15,108787.8671875000,97264.5312500000,164595.6250000000,146830.2343750000,0.0000000000,0.0000000000,0.0000000000,0.0000000000,,,
1.9799999967,15,108783.1718750000,97253.4218750000,164571.0625000000,146825.4218750000,0.0000000000,0.0000000000,0.0000000000,0.0000000000,,,
1.9839999967,15,108769.6250000000,97240.2265625000,164550.2812500000,146823.8750000000,0.0000000000,0.0000000000,0.0000000000,0.0000000000,,,
1.9879999969,15,108760.0781250000,97235.3984375000,164537.8750000000,146825.6406250000,0.0000000000,0.0000000000,0.0000000000,0.0000000000,,,
1.9919999968,15,108768.1250000000,97242.5625000000,164540.5156250000,146830.5000000000,0.0000000000,0.0000000000,0.0000000000,0.0000000000,,,
1.9959999968,15,108771.5000000000,97245.8593750000,164539.4843750000,146826.0937500000,0.0000000000,0.0000000000,0.0000000000,0.0000000000,,,
1.9999999967,15,108763.3203125000,97242.9140625000,164531.3437500000,146813.9531250000,0.0000000000,0.0000000000,0.0000000000,0.0000000000,,,
2.0039999967,15,108748.2500000000,97238.6718750000,164520.3906250000,146813.1718750000,0.0000000000,0.0000000000,0.0000000000,0.0000000000,,,
2.0079999969,15,108749.7500000000,97249.3750000000,164526.1406250000,146834.0937500000,0.0000000000,0.0000000000,0.0000000000,0.0000000000,,,
2.0119999968,15,108762.3828125000,97257.5000000000,164536.0781250000,146830.3906250000,0.0000000000,0.0000000000,0.0000000000,0.0000000000,,,
2.0159999968,15,108765.8203125000,97254.4453125000,164532.2500000000,146822.7500000000,0.0000000000,0.0000000000,0.0000000000,0.0000000000,,,
2.0199999968,15,108758.0390625000,97244.7656250000,164523.8750000000,146820.0156250000,0.0000000000,0.0000000000,0.0000000000,0.0000000000,,,
2.0239999967,15,108740.9531250000,97231.7812500000,164509.1875000000,146814.7812500000,0.0000000000,0.0000000000,0.0000000000,0.0000000000,,,
2.0279999967,15,108732.9062500000,97232.6953125000,164502.1250000000,146821.0000000000,0.0000000000,0.0000000000,0.0000000000,0.0000000000,,,
2.0319999969,15,108742.1562500000,97243.7968750000,164508.4375000000,146827.8437500000,0.0000000000,0.0000000000,0.0000000000,0.0000000000,,,
2.0359999968,15,108755.5468750000,97254.3906250000,164520.6093750000,146815.6093750000,0.0000000000,0.0000000000,0.0000000000,0.0000000000,,,
2.0399999968,15,108755.4609375000,97257.5546875000,164523.7500000000,146813.6250000000,0.0000000000,0.0000000000,0.0000000000,0.0000000000,,,
2.0439999967,15,108743.7187500000,97255.6796875000,164519.2968750000,146811.7187500000,0.0000000000,0.0000000000,0.0000000000,0.0000000000,,,
2.0479999967,16,108746.1328125000,97257.8281250000,164524.5781250000,146822.5937500000,0.0000000000,0.0000000000,0.0000000000,0.0000000000,,,
2.0519999966,16,108751.0390625000,97253.2656250000,164529.0312500000,146823.0937500000,0.0000000000,0.0000000000,0.0000000000,0.0000000000,,,
2.0559999966,16,108754.3359375000,97245.8359375000,164524.4218750000,146810.1718750000,0.0000000000,0.0000000000,0.0000000000,0.0000000000,,,
2.0599999966,16,108750.9296875000,97242.5859375000,164521.7812500000,146807.2500000000,0.0000000000,0.0000000000,0.0000000000,0.0000000000,,,
2.0639999965,16,108742.8046875000,97241.9687500000,164521.0625000000,146810.1406250000,0.0000000000,0.0000000000,0.0000000000,0.0000000000,,,
2.0679999965,16,108738.1875000000,97240.7656250000,164517.1718750000,146815.7968750000,0.0000000000,0.0000000000,0.0000000000,0.0000000000,,,
2.0719999967,16,108760.1562500000,97250.2343750000,164533.6406250000,146834.7343750000,0.0000000000,0.0000000000,0.0000000000,0.0000000000,,,
2.0759999966,16,108777.3515625000,97258.3593750000,164543.5937500000,146838.4843750000,0.0000000000,0.0000000000,0.0000000000,0.0000000000,,,
2.0799999966,16,108773.4609375000,97254.7109375000,164533.7187500000,146830.1562500000,0.0000000000,0.0000000000,0.0000000000,0.0000000000,,,
2.0839999965,16,108758.8984375000,97251.1718750000,164517.6250000000,146821.9375000000,0.0000000000,0.0000000000,0.0000000000,0.0000000000,,,
2.0879999965,16,108757.3125000000,97249.1328125000,164516.2343750000,146824.2500000000,0.0000000000,0.0000000000,0.0000000000,0.0000000000,,,
2.0919999967,16,108773.9687500000,97257.3437500000,164538.0468750000,146835.9687500000,0.0000000000,0.0000000000,0.0000000000,0.0000000000,,,
2.0959999966,16,108787.8906250000,97269.5703125000,164552.1718750000,146846.9687500000,0.0000000000,0.0000000000,0.0000000000,0.0000000000,,,
2.0999999966,16,108776.7578125000,97260.9921875000,164542.0156250000,146836.2656250000,0.0000000000,0.0000000000,0.0000000000,0.0000000000,,,
2.1039999966,16,108754.0156250000,97242.8828125000,164516.6406250000,146827.0625000000,0.0000000000,0.0000000000,0.0000000000,0.0000000000,,,
2.1079999965,16,108739.8828125000,97230.4687500000,164504.5625000000,146830.3906250000,0.0000000000,0.0000000000,0.0000000000,0.0000000000,,,
2.1119999965,16,108741.0312500000,97229.1250000000,164518.4375000000,146822.4843750000,0.0000000000,0.0000000000,0.0000000000,0.0000000000,,,
2.1159999967,16,108748.1953125000,97225.4765625000,164516.4218750000,146817.4062500000,0.0000000000,0.0000000000,0.0000000000,0.0000000000,,,
2.1199999966,16,108745.6718750000,97210.0546875000,164496.3593750000,146807.0000000000,0.0000000000,0.0000000000,0.0000000000,0.0000000000,,,
2.1239999966,16,108733.6015625000,97201.7968750000,164479.4687500000,146802.6250000000,0.0000000000,0.0000000000,0.0000000000,0.0000000000,,,
2.1279999965,16,108725.9609375000,97204.1562500000,164458.4375000000,146802.3906250000,0.0000000000,0.0000000000,0.0000000000,0.0000000000,,,
2.1319999965,16,108735.9921875000,97216.1953125000,164463.6875000000,146811.7031250000,0.0000000000,0.0000000000,0.0000000000,0.0000000000,,,
2.1359999967,16,108747.2031250000,97222.7421875000,164486.2031250000,146816.5468750000,0.0000000000,0.0000000000,0.0000000000,0.0000000000,,,
2.1399999966,16,108749.2109375000,97219.6796875000,164500.3281250000,146819.5312500000,0.0000000000,0.0000000000,0.0000000000,0.0000000000,,,
2.1439999966,16,108732.8281250000,97203.2421875000,164481.6406250000,146811.3750000000,0.0000000000,0.0000000000,0.0000000000,0.0000000000,,,
2.1479999966,16,108721.3750000000,97196.5625000000,164448.7500000000,146808.4218750000,0.0000000000,0.0000000000,0.0000000000,0.0000000000,,,
2.1519999965,16,108730.0937500000,97203.4296875000,164457.3906250000,146813.5937500000,0.0000000000,0.0000000000,0.0000000000,0.0000000000,,,
2.1559999965,16,108742.9375000000,97208.7421875000,164473.1875000000,146820.8750000000,0.0000000000,0.0000000000,0.0000000000,0.0000000000,,,
2.1599999967,16,108742.5078125000,97202.4921875000,164475.1718750000,146825.2968750000,0.0000000000,0.0000000000,0.0000000000,0.0000000000,,,
2.1639999966,16,108734.6250000000,97198.6562500000,164471.7656250000,146822.2343750000,0.0000000000,0.0000000000,0.0000000000,0.0000000000,,,
2.1679999966,16,108733.7109375000,97208.8750000000,164471.7968750000,146826.5312500000,0.0000000000,0.0000000000,0.0000000000,0.0000000000,,,
2.1719999965,16,108741.9687500000,97218.2343750000,164480.2968750000,146829.6093750000,0.0000000000,0.0000000000,0.0000000000,0.0000000000,,,
2.1759999965,17,108757.1250000000,97227.9140625000,164491.2656250000,146832.7500000000,0.0000000000,0.0000000000,0.0000000000,0.0000000000,,,
2.1799999964,17,108761.0937500000,97229.1015625000,164493.2968750000,146834.0937500000,0.0000000000,0.0000000000,0.0000000000,0.0000000000,,,
2.1839999964,17,108742.4296875000,97213.3828125000,164479.5937500000,146826.3750000000,0.0000000000,0.0000000000,0.0000000000,0.0000000000,,,
2.1879999964,17,108730.2500000000,97201.0703125000,164471.0937500000,146822.1250000000,0.0000000000,0.0000000000,0.0000000000,0.0000000000,,,
2.1919999963,17,108738.2968750000,97200.6406250000,164480.0312500000,146826.3125000000,0.0000000000,0.0000000000,0.0000000000,0.0000000000,,,
2.1959999963,17,108753.8828125000,97202.5156250000,164500.4062500000,146833.2812500000,0.0000000000,0.0000000000,0.0000000000,0.0000000000,,,
2.1999999965,17,108758.0625000000,97200.4765625000,164492.8437500000,146838.3281250000,0.0000000000,0.0000000000,0.0000000000,0.0000000000,,,
2.2039999964,17,108754.3359375000,97191.0078125000,164488.7500000000,146832.6718750000,0.0000000000,0.0000000000,0.0000000000,0.0000000000,,,
2.2079999964,17,108747.2031250000,97180.3906250000,164489.3125000000,146832.2187500000,0.0000000000,0.0000000000,0.0000000000,0.0000000000,,,
2.2119999963,17,108752.4843750000,97188.3281250000,164490.7812500000,146832.1406250000,0.0000000000,0.0000000000,0.0000000000,0.0000000000,,,
2.2159999963,17,108765.7109375000,97197.3125000000,164490.7343750000,146832.3281250000,0.0000000000,0.0000000000,0.0000000000,0.0000000000,,,
2.2199999965,17,108765.5468750000,97186.2343750000,164482.3906250000,146831.9687500000,0.0000000000,0.0000000000,0.0000000000,0.0000000000,,,
2.2239999964,17,108754.6015625000,97169.9531250000,164478.2500000000,146829.4843750000,0.0000000000,0.0000000000,0.0000000000,0.0000000000,,,
2.2279999964,17,108748.6796875000,97166.4140625000,164490.3593750000,146834.0468750000,0.0000000000,0.0000000000,0.0000000000,0.0000000000,,,
2.2319999964,17,108749.8828125000,97168.1562500000,164508.1406250000,146839.2187500000,0.0000000000,0.0000000000,0.0000000000,0.0000000000,,,
2.2359999963,17,108750.6875000000,97164.6171875000,164515.6250000000,146829.8593750000,0.0000000000,0.0000000000,0.0000000000,0.0000000000,,,
2.2399999963,17,108745.5156250000,97155.6015625000,164493.5156250000,146820.5468750000,0.0000000000,0.0000000000,0.0000000000,0.0000000000,,,
2.2439999965,17,108732.1250000000,97137.5234375000,164477.3125000000,146807.2656250000,0.0000000000,0.0000000000,0.0000000000,0.0000000000,,,
2.2479999964,17,108721.8046875000,97120.8984375000,164471.6875000000,146802.9218750000,0.0000000000,0.0000000000,0.0000000000,0.0000000000,,,
2.2519999964,17,108728.5312500000,97123.5546875000,164478.4218750000,146809.3593750000,0.0000000000,0.0000000000,0.0000000000,0.0000000000,,,
2.2559999963,17,108742.3750000000,97140.0781250000,164480.0000000000,146815.9843750000,0.0000000000,0.0000000000,0.0000000000,0.0000000000,,,
2.2599999963,17,108745.9921875000,97150.2421875000,164461.3593750000,146821.5937500000,0.0000000000,0.0000000000,0.0000000000,0.0000000000,,,
2.2639999965,17,108737.7343750000,97144.6875000000,164447.7656250000,146821.7031250000,0.0000000000,0.0000000000,0.0000000000,0.0000000000,,,
2.2679999964,17,108735.6953125000,97136.0234375000,164459.2968750000,146823.0468750000,0.0000000000,0.0000000000,0.0000000000,0.0000000000,,,
2.2719999964,17,108743.3437500000,97142.2187500000,164472.1406250000,146823.4687500000,0.0000000000,0.0000000000,0.0000000000,0.0000000000,,,
2.2759999963,17,108754.7421875000,97152.1484375000,164489.0625000000,146819.5312500000,0.0000000000,0.0000000000,0.0000000000,0.0000000000,,,
2.2799999963,17,108759.9453125000,97154.9609375000,164505.8281250000,146822.0156250000,0.0000000000,0.0000000000,0.0000000000,0.0000000000,,,
2.2839999963,17,108749.0234375000,97142.0859375000,164501.7187500000,146819.9531250000,0.0000000000,0.0000000000,0.0000000000,0.0000000000,,,
2.2879999964,17,108744.0625000000,97137.6093750000,164511.4843750000,146820.3593750000,0.0000000000,0.0000000000,0.0000000000,0.0000000000,,,
2.2919999964,17,108758.7343750000,97143.4843750000,164520.0156250000,146824.2500000000,0.0000000000,0.0000000000,0.0000000000,0.0000000000,,,
2.2959999964,17,108781.1875000000,97140.6953125000,164503.7968750000,146831.5937500000,0.0000000000,0.0000000000,0.0000000000,0.0000000000,,,
2.2999999963,17,108783.0078125000,97136.2968750000,164514.6875000000,146829.2968750000,0.0000000000,0.0000000000,0.0000000000,0.0000000000,,,
2.3039999963,18,108767.8281250000,97129.7500000000,164512.0000000000,146825.5625000000,0.0000000000,0.0000000000,0.0000000000,0.0000000000,,,
2.3079999962,18,108754.7656250000,97120.3593750000,164519.1875000000,146823.4375000000,0.0000000000,0.0000000000,0.0000000000,0.0000000000,,,
2.3119999962,18,108758.2031250000,97121.8906250000,164541.1875000000,146825.8281250000,0.0000000000,0.0000000000,0.0000000000,0.0000000000,,,
2.3159999961,18,108785.3437500000,97151.2578125000,164565.1562500000,146839.5937500000,0.0000000000,0.0000000000,0.0000000000,0.0000000000,,,
2.3199999961,18,108802.6953125000,97165.6875000000,164579.2343750000,146854.1875000000,0.0000000000,0.0000000000,0.0000000000,0.0000000000,,,
2.3239999961,18,108786.1250000000,97138.2500000000,164577.3125000000,146841.8125000000,0.0000000000,0.0000000000,0.0000000000,0.0000000000,,,
2.3279999963,18,108768.1250000000,97108.2343750000,164559.1718750000,146828.3750000000,0.0000000000,0.0000000000,0.0000000000,0.0000000000,,,
2.3319999962,18,108766.9453125000,97095.8984375000,164558.7968750000,146831.8437500000,0.0000000000,0.0000000000,0.0000000000,0.0000000000,,,
2.3359999962,18,108773.6718750000,97097.0781250000,164573.7187500000,146828.0000000000,0.0000000000,0.0000000000,0.0000000000,0.0000000000,,,
2.3399999961,18,108770.9375000000,97095.2812500000,164572.3437500000,146827.3125000000,0.0000000000,0.0000000000,0.0000000000,0.0000000000,,,
2.3439999961,18,108760.4765625000,97078.2500000000,164560.6250000000,146829.6406250000,0.0000000000,0.0000000000,0.0000000000,0.0000000000,,,
2.3479999963,18,108749.8828125000,97059.1015625000,164568.8125000000,146822.7500000000,0.0000000000,0.0000000000,0.0000000000,0.0000000000,,,
2.3519999962,18,108749.8828125000,97046.0625000000,164578.0625000000,146825.3281250000,0.0000000000,0.0000000000,0.0000000000,0.0000000000,,,
2.3559999962,18,108754.5546875000,97037.6718750000,164573.8750000000,146825.3750000000,0.0000000000,0.0000000000,0.0000000000,0.0000000000,,,
2.3599999961,18,108752.1093750000,97023.0234375000,164568.4062500000,146815.7656250000,0.0000000000,0.0000000000,0.0000000000,0.0000000000,,,
2.3639999961,18,108737.3828125000,97004.9687500000,164562.7656250000,146806.7343750000,0.0000000000,0.0000000000,0.0000000000,0.0000000000,,,
2.3679999961,18,108728.7500000000,97001.5390625000,164577.7187500000,146808.2031250000,0.0000000000,0.0000000000,0.0000000000,0.0000000000,,,
2.3719999962,18,108738.9375000000,97015.6718750000,164618.5937500000,146818.7187500000,0.0000000000,0.0000000000,0.0000000000,0.0000000000,,,
2.3759999962,18,108758.2500000000,97026.0000000000,164654.2968750000,146827.1406250000,0.0000000000,0.0000000000,0.0000000000,0.0000000000,,,
2.3799999962,18,108762.6796875000,97016.8046875000,164667.7812500000,146827.3125000000,0.0000000000,0.0000000000,0.0000000000,0.0000000000,,,
2.3839999961,18,108753.4218750000,97002.7500000000,164673.0625000000,146828.1718750000,0.0000000000,0.0000000000,0.0000000000,0.0000000000,,,
2.3879999961,18,108751.0078125000,97002.5859375000,164692.5625000000,146831.4062500000,0.0000000000,0.0000000000,0.0000000000,0.0000000000,,,
2.3919999963,18,108764.9609375000,97008.3281250000,164714.2968750000,146833.0937500000,0.0000000000,0.0000000000,0.0000000000,0.0000000000,,,
2.3959999962,18,108774.3437500000,97013.3984375000,164724.5937500000,146830.3437500000,0.0000000000,0.0000000000,0.0000000000,0.0000000000,,,
2.3999999962,18,108776.4140625000,97017.2578125000,164723.9687500000,146829.3750000000,0.0000000000,0.0000000000,0.0000000000,0.0000000000,,,
2.4039999961,18,108765.2265625000,97015.6171875000,164712.7656250000,146822.4218750000,0.0000000000,0.0000000000,0.0000000000,0.0000000000,,,
2.4079999961,18,108752.2968750000,97016.9062500000,164710.1875000000,146815.3906250000,0.0000000000,0.0000000000,0.0000000000,0.0000000000,,,
2.4119999961,18,108750.8515625000,97019.0234375000,164720.6718750000,146815.9375000000,0.0000000000,0.0000000000,0.0000000000,0.0000000000,,,
2.4159999962,18,108763.5625000000,97022.6718750000,164729.6093750000,146817.2812500000,0.0000000000,0.0000000000,0.0000000000,0.0000000000,,,
2.4199999962,18,108771.6875000000,97023.6953125000,164724.5156250000,146825.0000000000,0.0000000000,0.0000000000,0.0000000000,0.0000000000,,,
2.4239999962,18,108768.1250000000,97022.5156250000,164716.7812500000,146825.6406250000,0.0000000000,0.0000000000,0.0000000000,0.0000000000,,,
2.4279999961,18,108760.2109375000,97018.2187500000,164713.0781250000,146825.3281250000,0.0000000000,0.0000000000,0.0000000000,0.0000000000,,,
2.4319999961,19,108773.5937500000,97036.7265625000,164728.1562500000,146844.3437500000,0.0000000000,0.0000000000,0.0000000000,0.0000000000,,,
2.4359999960,19,108791.9687500000,97056.5234375000,164742.5000000000,146845.6250000000,0.0000000000,0.0000000000,0.0000000000,0.0000000000,,,
2.4399999960,19,108786.1250000000,97058.1328125000,164739.3437500000,146841.7968750000,0.0000000000,0.0000000000,0.0000000000,0.0000000000,,,
2.4439999959,19,108771.9062500000,97050.4609375000,164724.7812500000,146841.8125000000,0.0000000000,0.0000000000,0.0000000000,0.0000000000,,,
2.4479999959,19,108761.7421875000,97038.9062500000,164719.1406250000,146831.3906250000,0.0000000000,0.0000000000,0.0000000000,0.0000000000,,,
2.4519999959,19,108766.4843750000,97041.9843750000,164720.4375000000,146830.0156250000,0.0000000000,0.0000000000,0.0000000000,0.0000000000,,,
2.4559999960,19,108767.2421875000,97042.8437500000,164717.1093750000,146827.5468750000,0.0000000000,0.0000000000,0.0000000000,0.0000000000,,,
2.4599999960,19,108770.0546875000,97042.6875000000,164720.1406250000,146826.5781250000,0.0000000000,0.0000000000,0.0000000000,0.0000000000,,,
2.4639999960,19,108765.8984375000,97032.4140625000,164716.0937500000,146826.8750000000,0.0000000000,0.0000000000,0.0000000000,0.0000000000,,,
2.4679999959,19,108752.7265625000,97018.0859375000,164712.2187500000,146823.3593750000,0.0000000000,0.0000000000,0.0000000000,0.0000000000,,,
2.4719999959,19,108756.4531250000,97017.3359375000,164717.4531250000,146829.0781250000,0.0000000000,0.0000000000,0.0000000000,0.0000000000,,,
2.4759999961,19,108774.9609375000,97028.6015625000,164732.9531250000,146833.6093750000,0.0000000000,0.0000000000,0.0000000000,0.0000000000,,,
2.4799999960,19,108771.2656250000,97028.3593750000,164732.8750000000,146825.4531250000,0.0000000000,0.0000000000,0.0000000000,0.0000000000,,,
2.4839999960,19,108757.9296875000,97023.0781250000,164720.0312500000,146820.4375000000,0.0000000000,0.0000000000,0.0000000000,0.0000000000,,,
2.4879999959,19,108752.3515625000,97022.7031250000,164715.7656250000,146822.2343750000,0.0000000000,0.0000000000,0.0000000000,0.0000000000,,,
2.4919999959,19,108762.7343750000,97032.2265625000,164709.1406250000,146835.2187500000,0.0000000000,0.0000000000,0.0000000000,0.0000000000,,,
2.4959999959,19,108780.4921875000,97043.0078125000,164704.0468750000,146848.3125000000,0.0000000000,0.0000000000,0.0000000000,0.0000000000,,,
2.4999999960,19,108781.5078125000,97034.9609375000,164693.2656250000,146842.5468750000,0.0000000000,0.0000000000,0.0000000000,0.0000000000,,,
2.5039999960,19,108770.5937500000,97021.9765625000,164675.3750000000,146829.5312500000,0.0000000000,0.0000000000,0.0000000000,0.0000000000,,,
2.5079999960,19,108758.7656250000,97010.1250000000,164662.9531250000,146826.3750000000,0.0000000000,0.0000000000,0.0000000000,0.0000000000,,,
2.5119999959,19,108753.1875000000,97000.8671875000,164659.3906250000,146821.9687500000,0.0000000000,0.0000000000,0.0000000000,0.0000000000,,,
2.5159999959,19,108760.5625000000,96998.3984375000,164675.6406250000,146822.8593750000,0.0000000000,0.0000000000,0.0000000000,0.0000000000,,,
2.5199999961,19,108760.0000000000,96999.9843750000,164690.2812500000,146819.9375000000,0.0000000000,0.0000000000,0.0000000000,0.0000000000,,,
2.5239999960,19,108751.4921875000,97005.1093750000,164690.1250000000,146819.0937500000,0.0000000000,0.0000000000,0.0000000000,0.0000000000,,,
2.5279999960,19,108753.8515625000,97017.1796875000,164717.9843750000,146831.0312500000,0.0000000000,0.0000000000,0.0000000000,0.0000000000,,,
2.5319999959,19,108766.8359375000,97023.1328125000,164732.6093750000,146838.4687500000,0.0000000000,0.0000000000,0.0000000000,0.0000000000,,,
2.5359999959,19,108778.0468750000,97018.1171875000,164731.8906250000,146826.4218750000,0.0000000000,0.0000000000,0.0000000000,0.0000000000,,,
2.5399999958,19,108777.4062500000,97016.6953125000,164735.6406250000,146826.6093750000,0.0000000000,0.0000000000,0.0000000000,0.0000000000,,,
2.5439999960,19,108767.7187500000,97015.8046875000,164741.8125000000,146830.0156250000,0.0000000000,0.0000000000,0.0000000000,0.0000000000,,,
2.5479999960,19,108763.6953125000,97014.6015625000,164745.7500000000,146835.6718750000,0.0000000000,0.0000000000,0.0000000000,0.0000000000,,,
2.5519999960,19,108768.5000000000,97021.6562500000,164745.8906250000,146840.9843750000,0.0000000000,0.0000000000,0.0000000000,0.0000000000,,,
2.5559999959,19,108776.4375000000,97021.7109375000,164743.6875000000,146837.3125000000,0.0000000000,0.0000000000,0.0000000000,0.0000000000,,,
2.5599999959,20,108773.8671875000,97009.3437500000,164732.1562500000,146824.7812500000,0.0000000000,0.0000000000,0.0000000000,0.0000000000,,,
2.5639999958,20,108767.4531250000,97002.4218750000,164720.0781250000,146826.6875000000,0.0000000000,0.0000000000,0.0000000000,0.0000000000,,,
2.5679999958,20,108754.4453125000,97002.1328125000,164708.3906250000,146824.7812500000,0.0000000000,0.0000000000,0.0000000000,0.0000000000,,,
2.5719999957,20,108750.1250000000,96999.5000000000,164708.1250000000,146817.3281250000,0.0000000000,0.0000000000,0.0000000000,0.0000000000,,,
2.5759999957,20,108759.1953125000,96994.0546875000,164731.1406250000,146822.1093750000,0.0000000000,0.0000000000,0.0000000000,0.0000000000,,,
2.5799999957,20,108754.3125000000,96985.0156250000,164721.1562500000,146820.1250000000,0.0000000000,0.0000000000,0.0000000000,0.0000000000,,,
2.5839999958,20,108739.8281250000,96979.0078125000,164704.0468750000,146818.7031250000,0.0000000000,0.0000000000,0.0000000000,0.0000000000,,,
2.5879999958,20,108736.0156250000,96985.4218750000,164701.7968750000,146824.9218750000,0.0000000000,0.0000000000,0.0000000000,0.0000000000,,,
2.5919999958,20,108746.0468750000,97008.2187500000,164712.3593750000,146842.2812500000,0.0000000000,0.0000000000,0.0000000000,0.0000000000,,,
2.5959999957,20,108751.2812500000,97013.0156250000,164708.2812500000,146838.1093750000,0.0000000000,0.0000000000,0.0000000000,0.0000000000,,,
2.5999999957,20,108748.5937500000,97009.2343750000,164670.8593750000,146831.1093750000,0.0000000000,0.0000000000,0.0000000000,0.0000000000,,,
2.6039999959,20,108738.2968750000,97003.3906250000,164647.4531250000,146827.8750000000,0.0000000000,0.0000000000,0.0000000000,0.0000000000,,,
2.6079999958,20,108732.7734375000,97000.1718750000,164634.6250000000,146833.0937500000,0.0000000000,0.0000000000,0.0000000000,0.0000000000,,,
2.6119999958,20,108742.0234375000,97003.9765625000,164621.2656250000,146840.5312500000,0.0000000000,0.0000000000,0.0000000000,0.0000000000,,,
2.6159999957,20,108761.9531250000,97018.4921875000,164626.9843750000,146851.0937500000,0.0000000000,0.0000000000,0.0000000000,0.0000000000,,,
2.6199999957,20,108766.9140625000,97015.4609375000,164622.7187500000,146847.0000000000,0.0000000000,0.0000000000,0.0000000000,0.0000000000,,,
2.6239999956,20,108756.1640625000,97001.5390625000,164600.7031250000,146843.0000000000,0.0000000000,0.0000000000,0.0000000000,0.0000000000,,,
2.6279999958,20,108751.9531250000,96998.8593750000,164592.3906250000,146843.8593750000,0.0000000000,0.0000000000,0.0000000000,0.0000000000,,,
2.6319999958,20,108761.4218750000,97009.0781250000,164602.3906250000,146845.5781250000,0.0000000000,0.0000000000,0.0000000000,0.0000000000,,,
2.6359999957,20,108771.5312500000,97014.5468750000,164610.4375000000,146849.0000000000,0.0000000000,0.0000000000,0.0000000000,0.0000000000,,,
2.6399999957,20,108770.2421875000,97009.9062500000,164605.4687500000,146851.4687500000,0.0000000000,0.0000000000,0.0000000000,0.0000000000,,,
2.6439999957,20,108758.3359375000,96995.9609375000,164596.9375000000,146844.8437500000,0.0000000000,0.0000000000,0.0000000000,0.0000000000,,,
2.6479999959,20,108741.2500000000,96979.9218750000,164590.3750000000,146828.5156250000,0.0000000000,0.0000000000,0.0000000000,0.0000000000,,,
2.6519999958,20,108737.0937500000,96980.0781250000,164601.3125000000,146824.7656250000,0.0000000000,0.0000000000,0.0000000000,0.0000000000,,,
2.6559999958,20,108743.0156250000,96983.6250000000,164602.9062500000,146821.2968750000,0.0000000000,0.0000000000,0.0000000000,0.0000000000,,,
2.6599999957,20,108748.7343750000,96986.9765625000,164589.8437500000,146824.8906250000,0.0000000000,0.0000000000,0.0000000000,0.0000000000,,,
2.6639999957,20,108743.9843750000,96976.1640625000,164563.1718750000,146828.0312500000,0.0000000000,0.0000000000,0.0000000000,0.0000000000,,,
2.6679999956,20,108732.3125000000,96963.5625000000,164545.6406250000,146826.0937500000,0.0000000000,0.0000000000,0.0000000000,0.0000000000,,,
2.6719999958,20,108736.7968750000,96967.0703125000,164563.3125000000,146832.6718750000,0.0000000000,0.0000000000,0.0000000000,0.0000000000,,,
2.6759999958,20,108760.1562500000,96977.1875000000,164583.6093750000,146845.1406250000,0.0000000000,0.0000000000,0.0000000000,0.0000000000,,,
2.6799999957,20,108765.9531250000,96974.5546875000,164580.1875000000,146844.4687500000,0.0000000000,0.0000000000,0.0000000000,0.0000000000,,,
2.6839999957,20,108734.6250000000,96954.5234375000,164536.6718750000,146824.1718750000,0.0000000000,0.0000000000,0.0000000000,0.0000000000,,,
2.6879999957,21,108721.4296875000,96951.5390625000,164525.7343750000,146820.3125000000,0.0000000000,0.0000000000,0.0000000000,0.0000000000,,,
2.6919999956,21,108727.9687500000,96962.3281250000,164540.5937500000,146829.0781250000,0.0000000000,0.0000000000,0.0000000000,0.0000000000,,,
2.6959999956,21,108743.6875000000,96972.0078125000,164543.9375000000,146833.7968750000,0.0000000000,0.0000000000,0.0000000000,0.0000000000,,,
2.6999999955,21,108748.6484375000,96956.3671875000,164540.8906250000,146832.8125000000,0.0000000000,0.0000000000,0.0000000000,0.0000000000,,,
2.7039999955,21,108737.8671875000,96940.5703125000,164544.5000000000,146824.1406250000,0.0000000000,0.0000000000,0.0000000000,0.0000000000,,,
2.7079999954,21,108732.8515625000,96936.9765625000,164547.8125000000,146827.9531250000,0.0000000000,0.0000000000,0.0000000000,0.0000000000,,,
2.7119999956,21,108749.7265625000,96950.1250000000,164573.1875000000,146844.0937500000,0.0000000000,0.0000000000,0.0000000000,0.0000000000,,,
2.7159999956,21,108775.7421875000,96966.7500000000,164605.0468750000,146860.3281250000,0.0000000000,0.0000000000,0.0000000000,0.0000000000,,,
2.7199999955,21,108769.7890625000,96948.7812500000,164598.0468750000,146841.3593750000,0.0000000000,0.0000000000,0.0000000000,0.0000000000,,,
2.7239999955,21,108740.5468750000,96920.7265625000,164578.0000000000,146825.1093750000,0.0000000000,0.0000000000,0.0000000000,0.0000000000,,,
2.7279999955,21,108721.4296875000,96911.9765625000,164553.7343750000,146820.3125000000,0.0000000000,0.0000000000,0.0000000000,0.0000000000,,,
2.7319999957,21,108724.9375000000,96920.9375000000,164528.3125000000,146819.3437500000,0.0000000000,0.0000000000,0.0000000000,0.0000000000,,,
2.7359999956,21,108738.2734375000,96934.2421875000,164534.4531250000,146818.6093750000,0.0000000000,0.0000000000,0.0000000000,0.0000000000,,,
2.7399999956,21,108739.8828125000,96935.3984375000,164545.0468750000,146820.8750000000,0.0000000000,0.0000000000,0.0000000000,0.0000000000,,,
2.7439999955,21,108737.3828125000,96940.7578125000,164543.9375000000,146827.0312500000,0.0000000000,0.0000000000,0.0000000000,0.0000000000,,,
2.7479999955,21,108733.9218750000,96948.9375000000,164539.1406250000,146827.5156250000,0.0000000000,0.0000000000,0.0000000000,0.0000000000,,,
2.7519999954,21,108744.6796875000,96958.1953125000,164540.4062500000,146838.5937500000,0.0000000000,0.0000000000,0.0000000000,0.0000000000,,,
2.7559999956,21,108760.1328125000,96962.2187500000,164553.9687500000,146838.8750000000,0.0000000000,0.0000000000,0.0000000000,0.0000000000,,,
2.7599999956,21,108756.2968750000,96953.1015625000,164548.6718750000,146835.1718750000,0.0000000000,0.0000000000,0.0000000000,0.0000000000,,,
2.7639999955,21,108748.7578125000,96951.5156250000,164540.6406250000,146832.4375000000,0.0000000000,0.0000000000,0.0000000000,0.0000000000,,,
2.7679999955,21,108743.9062500000,96946.4218750000,164538.8437500000,146840.2031250000,0.0000000000,0.0000000000,0.0000000000,0.0000000000,,,
2.7719999955,21,108755.3828125000,96949.8281250000,164558.7031250000,146848.7031250000,0.0000000000,0.0000000000,0.0000000000,0.0000000000,,,
2.7759999956,21,108770.9140625000,96959.0781250000,164591.4687500000,146847.5625000000,0.0000000000,0.0000000000,0.0000000000,0.0000000000,,,
2.7799999956,21,108771.0703125000,96965.1171875000,164589.5468750000,146842.1875000000,0.0000000000,0.0000000000,0.0000000000,0.0000000000,,,
2.7839999956,21,108762.4375000000,96969.5390625000,164567.3125000000,146846.7031250000,0.0000000000,0.0000000000,0.0000000000,0.0000000000,,,
2.7879999955,21,108763.5078125000,96974.2578125000,164556.3906250000,146856.9687500000,0.0000000000,0.0000000000,0.0000000000,0.0000000000,,,
2.7919999955,21,108752.9453125000,96960.8750000000,164544.2968750000,146848.0468750000,0.0000000000,0.0000000000,0.0000000000,0.0000000000,,,
2.7959999954,21,108747.3125000000,96942.3984375000,164539.6250000000,146838.4843750000,0.0000000000,0.0000000000,0.0000000000,0.0000000000,,,
2.7999999956,21,108743.4453125000,96927.6406250000,164539.6718750000,146827.7656250000,0.0000000000,0.0000000000,0.0000000000,0.0000000000,,,
2.8039999956,21,108739.9296875000,96917.1015625000,164520.5781250000,146830.0156250000,0.0000000000,0.0000000000,0.0000000000,0.0000000000,,,
2.8079999955,21,108731.6484375000,96906.7265625000,164494.8281250000,146831.9687500000,0.0000000000,0.0000000000,0.0000000000,0.0000000000,,,
2.8119999955,21,108728.0781250000,96893.1796875000,164498.2656250000,146829.2968750000,0.0000000000,0.0000000000,0.0000000000,0.0000000000,,,
2.8159999955,22,108728.2109375000,96882.5546875000,164518.9687500000,146824.1718750000,0.0000000000,0.0000000000,0.0000000000,0.0000000000,,,
2.8199999954,22,108733.4453125000,96882.4453125000,164540.4531250000,146824.2187500000,0.0000000000,0.0000000000,0.0000000000,0.0000000000,,,
2.8239999954,22,108715.5234375000,96861.8515625000,164529.9218750000,146810.0000000000,0.0000000000,0.0000000000,0.0000000000,0.0000000000,,,
2.8279999953,22,108695.0859375000,96846.3984375000,164498.6406250000,146803.7812500000,0.0000000000,0.0000000000,0.0000000000,0.0000000000,,,
2.8319999953,22,108700.2656250000,96846.4296875000,164507.1406250000,146809.8750000000,0.0000000000,0.0000000000,0.0000000000,0.0000000000,,,
2.8359999952,22,108720.9140625000,96861.3437500000,164525.8906250000,146825.2343750000,0.0000000000,0.0000000000,0.0000000000,0.0000000000,,,
2.8399999954,22,108738.7265625000,96882.6093750000,164530.6093750000,146837.6875000000,0.0000000000,0.0000000000,0.0000000000,0.0000000000,,,
2.8439999954,22,108737.4140625000,96887.7890625000,164529.7500000000,146845.2187500000,0.0000000000,0.0000000000,0.0000000000,0.0000000000,,,
2.8479999953,22,108731.2968750000,96878.1328125000,164526.0312500000,146838.7031250000,0.0000000000,0.0000000000,0.0000000000,0.0000000000,,,
2.8519999953,22,108735.7734375000,96878.5625000000,164525.9687500000,146831.3906250000,0.0000000000,0.0000000000,0.0000000000,0.0000000000,,,
2.8559999953,22,108750.8750000000,96881.4843750000,164552.2812500000,146836.7187500000,0.0000000000,0.0000000000,0.0000000000,0.0000000000,,,
2.8599999954,22,108753.1015625000,96869.9531250000,164564.4687500000,146827.6562500000,0.0000000000,0.0000000000,0.0000000000,0.0000000000,,,
2.8639999954,22,108745.2187500000,96856.5390625000,164564.0937500000,146832.2968750000,0.0000000000,0.0000000000,0.0000000000,0.0000000000,,,
2.8679999954,22,108731.1328125000,96838.5703125000,164566.7656250000,146823.7187500000,0.0000000000,0.0000000000,0.0000000000,0.0000000000,,,
2.8719999953,22,108744.3046875000,96838.0078125000,164587.6875000000,146830.7968750000,0.0000000000,0.0000000000,0.0000000000,0.0000000000,,,
2.8759999953,22,108762.9765625000,96838.3828125000,164600.1093750000,146835.7812500000,0.0000000000,0.0000000000,0.0000000000,0.0000000000,,,
2.8799999952,22,108761.4218750000,96839.6953125000,164611.9062500000,146826.8437500000,0.0000000000,0.0000000000,0.0000000000,0.0000000000,,,
2.8839999954,22,108745.4609375000,96832.5078125000,164592.3281250000,146825.1875000000,0.0000000000,0.0000000000,0.0000000000,0.0000000000,,,
2.8879999954,22,108735.6953125000,96825.1562500000,164578.3593750000,146830.2343750000,0.0000000000,0.0000000000,0.0000000000,0.0000000000,,,
2.8919999953,22,108738.8906250000,96819.7421875000,164585.1718750000,146840.1250000000,0.0000000000,0.0000000000,0.0000000000,0.0000000000,,,
2.8959999953,22,108761.1484375000,96835.6171875000,164596.0781250000,146852.4062500000,0.0000000000,0.0000000000,0.0000000000,0.0000000000,,,
2.8999999953,22,108763.9140625000,96836.8281250000,164586.5156250000,146845.9531250000,0.0000000000,0.0000000000,0.0000000000,0.0000000000,,,
2.9039999954,22,108742.8593750000,96814.3750000000,164577.0468750000,146824.9218750000,0.0000000000,0.0000000000,0.0000000000,0.0000000000,,,
2.9079999954,22,108723.8125000000,96787.6093750000,164572.2656250000,146813.8437500000,0.0000000000,0.0000000000,0.0000000000,0.0000000000,,,
2.9119999954,22,108730.2500000000,96753.1406250000,164564.2500000000,146819.2656250000,0.0000000000,0.0000000000,0.0000000000,0.0000000000,,,
2.9159999953,22,108756.2421875000,96750.1640625000,164568.2656250000,146834.0468750000,0.0000000000,0.0000000000,0.0000000000,0.0000000000,,,
2.9199999953,22,108761.7421875000,96740.8828125000,164570.2500000000,146836.6406250000,0.0000000000,0.0000000000,0.0000000000,0.0000000000,,,
2.9239999952,22,108744.7890625000,96718.1093750000,164562.8750000000,146830.5312500000,0.0000000000,0.0000000000,0.0000000000,0.0000000000,,,
2.9279999954,22,108730.7343750000,96702.8984375000,164563.9843750000,146826.6406250000,0.0000000000,0.0000000000,0.0000000000,0.0000000000,,,
2.9319999954,22,108734.8906250000,96700.6796875000,164569.4531250000,146828.9218750000,0.0000000000,0.0000000000,0.0000000000,0.0000000000,,,
2.9359999953,22,108750.9609375000,96708.9609375000,164583.9062500000,146836.5937500000,0.0000000000,0.0000000000,0.0000000000,0.0000000000,,,
2.9399999953,22,108759.8125000000,96709.3125000000,164588.0468750000,146838.1718750000,0.0000000000,0.0000000000,0.0000000000,0.0000000000,,,
2.9439999952,23,108738.7812500000,96690.4843750000,164552.0468750000,146828.5156250000,0.0000000000,0.0000000000,0.0000000000,0.0000000000,,,
2.9479999952,23,108725.1250000000,96675.0312500000,164512.6718750000,146827.9218750000,0.0000000000,0.0000000000,0.0000000000,0.0000000000,,,
2.9519999952,23,108731.0859375000,96685.3046875000,164501.7500000000,146833.2343750000,0.0000000000,0.0000000000,0.0000000000,0.0000000000,,,
2.9559999951,23,108741.6796875000,96719.7734375000,164504.7343750000,146833.3437500000,0.0000000000,0.0000000000,0.0000000000,0.0000000000,,,
2.9599999951,23,108745.7578125000,96713.6562500000,164501.0781250000,146832.5625000000,0.0000000000,0.0000000000,0.0000000000,0.0000000000,,,
2.9639999950,23,108736.3125000000,96680.8281250000,164479.1718750000,146827.8750000000,0.0000000000,0.0000000000,0.0000000000,0.0000000000,,,
2.9679999952,23,108720.7031250000,96664.1718750000,164454.5156250000,146819.5625000000,0.0000000000,0.0000000000,0.0000000000,0.0000000000,,,
2.9719999952,23,108730.4687500000,96663.3125000000,164475.1250000000,146827.2500000000,0.0000000000,0.0000000000,0.0000000000,0.0000000000,,,
2.9759999951,23,108747.7421875000,96665.8593750000,164507.8437500000,146830.2031250000,0.0000000000,0.0000000000,0.0000000000,0.0000000000,,,
2.9799999951,23,108750.9609375000,96660.8203125000,164511.8906250000,146833.4531250000,0.0000000000,0.0000000000,0.0000000000,0.0000000000,,,
2.9839999950,23,108747.5000000000,96648.6171875000,164509.8593750000,146843.6093750000,0.0000000000,0.0000000000,0.0000000000,0.0000000000,,,
2.9879999952,23,108740.0156250000,96635.9296875000,164514.2812500000,146848.2500000000,0.0000000000,0.0000000000,0.0000000000,0.0000000000,,,
2.9919999952,23,108728.6406250000,96621.6015625000,164526.4218750000,146841.7968750000,0.0000000000,0.0000000000,0.0000000000,0.0000000000,,,
2.9959999952,23,108740.9531250000,96635.3125000000,164535.5156250000,146846.4062500000,0.0000000000,0.0000000000,0.0000000000,0.0000000000,,,
2.9999999951,23,108737.2500000000,96630.6953125000,164501.8125000000,146835.4375000000,0.0000000000,0.0000000000,0.0000000000,0.0000000000,,,
3.0039999951,23,108720.3281250000,96622.0859375000,164464.5468750000,146830.7343750000,0.0000000000,0.0000000000,0.0000000000,0.0000000000,,,
3.0079999950,23,108710.6953125000,96611.2812500000,164467.9843750000,146832.6718750000,0.0000000000,0.0000000000,0.0000000000,0.0000000000,,,
3.0119999952,23,108712.0625000000,96601.1406250000,164498.3125000000,146835.0781250000,0.0000000000,0.0000000000,0.0000000000,0.0000000000,,,
3.0159999952,23,108727.8125000000,96609.7734375000,164513.2656250000,146840.5312500000,0.0000000000,0.0000000000,0.0000000000,0.0000000000,,,
3.0199999951,23,108730.4140625000,96606.5546875000,164505.0781250000,146831.2812500000,0.0000000000,0.0000000000,0.0000000000,0.0000000000,,,
3.0239999951,23,108724.1328125000,96594.5937500000,164499.5000000000,146826.0468750000,0.0000000000,0.0000000000,0.0000000000,0.0000000000,,,
3.0279999950,23,108710.7265625000,96580.8359375000,164498.0781250000,146822.9687500000,0.0000000000,0.0000000000,0.0000000000,0.0000000000,,,
3.0319999952,23,108710.1093750000,96576.4375000000,164509.5625000000,146815.6718750000,0.0000000000,0.0000000000,0.0000000000,0.0000000000,,,
3.0359999952,23,108728.0000000000,96584.1328125000,164521.9218750000,146824.4062500000,0.0000000000,0.0000000000,0.0000000000,0.0000000000,,,
3.0399999951,23,108739.5312500000,96592.6875000000,164529.0312500000,146830.2500000000,0.0000000000,0.0000000000,0.0000000000,0.0000000000,,,
3.0439999951,23,108731.4296875000,96592.9296875000,164532.1406250000,146834.1718750000,0.0000000000,0.0000000000,0.0000000000,0.0000000000,,,
3.0479999951,23,108724.5078125000,96597.7578125000,164540.7031250000,146831.5468750000,0.0000000000,0.0000000000,0.0000000000,0.0000000000,,,
3.0519999950,23,108729.8750000000,96616.4531250000,164551.8281250000,146836.3750000000,0.0000000000,0.0000000000,0.0000000000,0.0000000000,,,
3.0559999952,23,108736.7968750000,96625.0390625000,164568.1093750000,146830.2812500000,0.0000000000,0.0000000000,0.0000000000,0.0000000000,,,
3.0599999952,23,108749.0234375000,96633.0312500000,164573.2343750000,146835.1718750000,0.0000000000,0.0000000000,0.0000000000,0.0000000000,,,
3.0639999951,23,108739.7421875000,96628.0390625000,164549.6093750000,146831.8593750000,0.0000000000,0.0000000000,0.0000000000,0.0000000000,,,
3.0679999951,23,108725.3984375000,96639.1171875000,164529.7812500000,146830.3437500000,0.0000000000,0.0000000000,0.0000000000,0.0000000000,,,
3.0719999950,24,108726.2031250000,96676.5078125000,164532.1406250000,146831.2968750000,0.0000000000,0.0000000000,0.0000000000,0.0000000000,,,
3.0759999950,24,108740.0937500000,96696.0390625000,164525.3593750000,146833.8281250000,0.0000000000,0.0000000000,0.0000000000,0.0000000000,,,
3.0799999950,24,108743.5000000000,96697.9687500000,164509.8281250000,146831.3281250000,0.0000000000,0.0000000000,0.0000000000,0.0000000000,,,
3.0839999949,24,108732.5859375000,96695.2812500000,164502.0156250000,146830.8281250000,0.0000000000,0.0000000000,0.0000000000,0.0000000000,,,
3.0879999949,24,108725.1796875000,96695.9531250000,164499.1718750000,146832.7187500000,0.0000000000,0.0000000000,0.0000000000,0.0000000000,,,
3.0919999948,24,108726.3046875000,96703.7578125000,164501.7500000000,146836.5625000000,0.0000000000,0.0000000000,0.0000000000,0.0000000000,,,
3.0959999950,24,108727.8359375000,96703.3281250000,164494.1562500000,146832.2187500000,0.0000000000,0.0000000000,0.0000000000,0.0000000000,,,
3.0999999950,24,108723.4921875000,96701.1015625000,164489.3281250000,146828.5937500000,0.0000000000,0.0000000000,0.0000000000,0.0000000000,,,
3.1039999949,24,108716.2265625000,96698.7734375000,164510.6250000000,146823.2343750000,0.0000000000,0.0000000000,0.0000000000,0.0000000000,,,
3.1079999949,24,108713.5156250000,96713.2265625000,164543.0625000000,146824.6718750000,0.0000000000,0.0000000000,0.0000000000,0.0000000000,,,
3.1119999948,24,108720.1953125000,96728.5937500000,164555.9375000000,146830.8281250000,0.0000000000,0.0000000000,0.0000000000,0.0000000000,,,
3.1159999950,24,108730.7343750000,96726.3437500000,164560.5468750000,146831.0156250000,0.0000000000,0.0000000000,0.0000000000,0.0000000000,,,
3.1199999950,24,108745.2421875000,96729.5390625000,164577.9531250000,146844.0781250000,0.0000000000,0.0000000000,0.0000000000,0.0000000000,,,
3.1239999949,24,108738.1093750000,96716.7968750000,164572.3750000000,146839.4375000000,0.0000000000,0.0000000000,0.0000000000,0.0000000000,,,
3.1279999949,24,108720.7812500000,96692.8203125000,164540.6406250000,146827.6875000000,0.0000000000,0.0000000000,0.0000000000,0.0000000000,,,
3.1319999949,24,108718.1015625000,96660.5468750000,164525.6718750000,146824.3281250000,0.0000000000,0.0000000000,0.0000000000,0.0000000000,,,
3.1359999948,24,108736.2031250000,96646.4921875000,164536.5468750000,146829.7187500000,0.0000000000,0.0000000000,0.0000000000,0.0000000000,,,
3.1399999950,24,108741.6796875000,96629.1953125000,164530.3437500000,146828.1718750000,0.0000000000,0.0000000000,0.0000000000,0.0000000000,,,
3.1439999950,24,108728.2109375000,96594.6250000000,164508.4375000000,146821.9375000000,0.0000000000,0.0000000000,0.0000000000,0.0000000000,,,
3.1479999949,24,108721.5859375000,96570.9609375000,164503.9843750000,146820.8750000000,0.0000000000,0.0000000000,0.0000000000,0.0000000000,,,
3.1519999949,24,108724.1328125000,96567.2109375000,164519.3750000000,146821.5468750000,0.0000000000,0.0000000000,0.0000000000,0.0000000000,,,
3.1559999948,24,108738.9375000000,96584.6953125000,164524.9062500000,146830.2812500000,0.0000000000,0.0000000000,0.0000000000,0.0000000000,,,
3.1599999950,24,108747.2265625000,96591.8046875000,164528.1718750000,146836.9687500000,0.0000000000,0.0000000000,0.0000000000,0.0000000000,,,
3.1639999950,24,108741.7343750000,96588.5859375000,164531.2812500000,146829.5937500000,0.0000000000,0.0000000000,0.0000000000,0.0000000000,,,
3.1679999949,24,108731.7812500000,96576.1640625000,164527.5781250000,146826.6562500000,0.0000000000,0.0000000000,0.0000000000,0.0000000000,,,
3.1719999949,24,108725.5312500000,96576.2500000000,164525.5156250000,146820.5937500000,0.0000000000,0.0000000000,0.0000000000,0.0000000000,,,
3.1759999949,24,108736.7968750000,96592.2890625000,164539.8125000000,146824.5468750000,0.0000000000,0.0000000000,0.0000000000,0.0000000000,,,
3.1799999948,24,108745.9921875000,96599.2343750000,164575.2187500000,146824.5937500000,0.0000000000,0.0000000000,0.0000000000,0.0000000000,,,
3.1839999950,24,108744.7109375000,96594.3828125000,164602.9062500000,146828.5156250000,0.0000000000,0.0000000000,0.0000000000,0.0000000000,,,
3.1879999950,24,108735.5859375000,96594.0312500000,164595.3281250000,146823.3593750000,0.0000000000,0.0000000000,0.0000000000,0.0000000000,,,
3.1919999949,24,108732.1562500000,96611.0937500000,164601.0937500000,146822.4218750000,0.0000000000,0.0000000000,0.0000000000,0.0000000000,,,
3.1959999949,24,108742.9921875000,96611.1171875000,164646.4375000000,146824.2031250000,0.0000000000,0.0000000000,0.0000000000,0.0000000000,,,
3.1999999948,25,108755.0859375000,96610.3906250000,164670.3906250000,146833.0000000000,0.0000000000,0.0000000000,0.0000000000,0.0000000000,,,
3.2039999948,25,108741.8359375000,96627.8515625000,164676.7343750000,146831.5937500000,0.0000000000,0.0000000000,0.0000000000,0.0000000000,,,
3.2079999947,25,108720.5937500000,96649.4218750000,164668.5000000000,146819.0781250000,0.0000000000,0.0000000000,0.0000000000,0.0000000000,,,
3.2119999947,25,108719.8984375000,96661.2734375000,164666.0937500000,146822.5625000000,0.0000000000,0.0000000000,0.0000000000,0.0000000000,,,
3.2159999947,25,108731.0312500000,96674.4687500000,164665.9843750000,146822.9843750000,0.0000000000,0.0000000000,0.0000000000,0.0000000000,,,
3.2199999946,25,108728.9375000000,96678.0625000000,164652.4375000000,146825.8281250000,0.0000000000,0.0000000000,0.0000000000,0.0000000000,,,
3.2239999948,25,108723.2500000000,96674.3906250000,164615.0468750000,146820.1406250000,0.0000000000,0.0000000000,0.0000000000,0.0000000000,,,
3.2279999948,25,108718.4765625000,96677.1015625000,164595.3593750000,146825.4062500000,0.0000000000,0.0000000000,0.0000000000,0.0000000000,,,
3.2319999947,25,108714.8515625000,96676.8828125000,164603.6562500000,146822.8750000000,0.0000000000,0.0000000000,0.0000000000,0.0000000000,,,
3.2359999947,25,108718.8515625000,96665.5937500000,164596.0781250000,146813.6562500000,0.0000000000,0.0000000000,0.0000000000,0.0000000000,,,
3.2399999946,25,108714.3437500000,96664.9453125000,164600.3281250000,146805.2343750000,0.0000000000,0.0000000000,0.0000000000,0.0000000000,,,
3.2439999948,25,108687.7109375000,96650.9218750000,164641.0625000000,146781.8125000000,0.0000000000,0.0000000000,0.0000000000,0.0000000000,,,
3.2479999948,25,108657.6718750000,96621.1718750000,164636.5937500000,146757.0312500000,0.0000000000,0.0000000000,0.0000000000,0.0000000000,,,
3.2519999947,25,108663.1171875000,96625.2812500000,164635.7500000000,146766.9531250000,0.0000000000,0.0000000000,0.0000000000,0.0000000000,,,
3.2559999947,25,108706.8593750000,96666.1796875000,164696.0781250000,146806.2500000000,0.0000000000,0.0000000000,0.0000000000,0.0000000000,,,
3.2599999947,25,108750.7734375000,96706.2578125000,164743.0468750000,146839.5937500000,0.0000000000,0.0000000000,0.0000000000,0.0000000000,,,
3.2639999946,25,108766.7812500000,96725.8906250000,164763.6718750000,146851.8437500000,0.0000000000,0.0000000000,0.0000000000,0.0000000000,,,
3.2679999948,25,108763.0000000000,96731.4140625000,164757.0156250000,146855.9531250000,0.0000000000,0.0000000000,0.0000000000,0.0000000000,,,
3.2719999948,25,108761.1250000000,96730.5000000000,164749.6718750000,146857.3750000000,0.0000000000,0.0000000000,0.0000000000,0.0000000000,,,
3.2759999947,25,108769.3281250000,96732.8906250000,164759.7343750000,146847.7968750000,0.0000000000,0.0000000000,0.0000000000,0.0000000000,,,
3.2799999947,25,108776.4921875000,96730.7421875000,164765.5937500000,146850.5156250000,0.0000000000,0.0000000000,0.0000000000,0.0000000000,,,
3.2839999946,25,108771.2343750000,96724.6562500000,164763.6093750000,146846.7500000000,0.0000000000,0.0000000000,0.0000000000,0.0000000000,,,
3.2879999948,25,108763.0781250000,96728.0078125000,164771.8281250000,146849.7812500000,0.0000000000,0.0000000000,0.0000000000,0.0000000000,,,
3.2919999948,25,108778.7734375000,96744.7734375000,164811.1718750000,146866.6562500000,0.0000000000,0.0000000000,0.0000000000,0.0000000000,,,
3.2959999947,25,108783.2265625000,96733.8281250000,164819.0625000000,146862.9843750000,0.0000000000,0.0000000000,0.0000000000,0.0000000000,,,
3.2999999947,25,108770.3203125000,96704.4062500000,164817.0937500000,146851.2031250000,0.0000000000,0.0000000000,0.0000000000,0.0000000000,,,
3.3039999946,25,108755.3828125000,96681.1250000000,164798.3281250000,146836.8281250000,0.0000000000,0.0000000000,0.0000000000,0.0000000000,,,
3.3079999946,25,108739.7421875000,96673.5078125000,164785.4531250000,146836.6718750000,0.0000000000,0.0000000000,0.0000000000,0.0000000000,,,
3.3119999948,25,108735.4531250000,96672.0859375000,164790.9687500000,146835.2187500000,0.0000000000,0.0000000000,0.0000000000,0.0000000000,,,
3.3159999948,25,108749.9921875000,96676.2968750000,164790.1406250000,146840.1562500000,0.0000000000,0.0000000000,0.0000000000,0.0000000000,,,
3.3199999947,25,108758.2031250000,96677.3671875000,164769.5781250000,146842.4843750000,0.0000000000,0.0000000000,0.0000000000,0.0000000000,,,
3.3239999947,25,108745.2421875000,96679.9687500000,164743.9843750000,146834.1718750000,0.0000000000,0.0000000000,0.0000000000,0.0000000000,,,
3.3279999946,26,108732.0781250000,96680.5859375000,164751.6875000000,146833.6406250000,0.0000000000,0.0000000000,0.0000000000,0.0000000000,,,
3.3319999946,26,108733.5468750000,96686.0546875000,164762.8125000000,146839.0625000000,0.0000000000,0.0000000000,0.0000000000,0.0000000000,,,
3.3359999945,26,108751.1953125000,96694.7500000000,164786.3125000000,146845.9687500000,0.0000000000,0.0000000000,0.0000000000,0.0000000000,,,
3.3399999945,26,108757.2343750000,96694.9375000000,164786.6093750000,146841.8125000000,0.0000000000,0.0000000000,0.0000000000,0.0000000000,,,
3.3439999945,26,108748.7812500000,96679.4062500000,164777.1093750000,146833.7656250000,0.0000000000,0.0000000000,0.0000000000,0.0000000000,,,
3.3479999944,26,108736.8750000000,96667.5234375000,164782.6093750000,146823.9531250000,0.0000000000,0.0000000000,0.0000000000,0.0000000000,,,
3.3519999946,26,108738.5625000000,96670.4765625000,164771.4218750000,146833.3750000000,0.0000000000,0.0000000000,0.0000000000,0.0000000000,,,
3.3559999946,26,108751.3046875000,96682.3281250000,164764.6562500000,146841.2812500000,0.0000000000,0.0000000000,0.0000000000,0.0000000000,,,
3.3599999945,26,108754.4140625000,96677.6640625000,164779.5468750000,146839.4531250000,0.0000000000,0.0000000000,0.0000000000,0.0000000000,,,
3.3639999945,26,108749.8593750000,96662.6171875000,164822.0625000000,146843.0312500000,0.0000000000,0.0000000000,0.0000000000,0.0000000000,,,
3.3679999944,26,108733.4687500000,96642.0390625000,164832.2500000000,146838.8437500000,0.0000000000,0.0000000000,0.0000000000,0.0000000000,,,
3.3719999946,26,108730.4687500000,96632.0625000000,164803.9375000000,146838.0312500000,0.0000000000,0.0000000000,0.0000000000,0.0000000000,,,
3.3759999946,26,108739.8828125000,96633.2421875000,164767.0156250000,146833.0000000000,0.0000000000,0.0000000000,0.0000000000,0.0000000000,,,
3.3799999945,26,108740.6328125000,96635.6015625000,164733.5468750000,146824.0312500000,0.0000000000,0.0000000000,0.0000000000,0.0000000000,,,
