Time:250Hz,Epoch,Channel 1,Channel 2,Channel 3,Channel 4,Channel 5,Channel 6,Channel 7,Channel 8,Event Id,Event Date,Event Duration
0.0000000000,0,194995.2500000000,189863.9687500000,197273.4218750000,182569.0937500000,185132.5000000000,161987.0468750000,169913.3750000000,45371.5039062500,,,
0.0040000000,0,194988.0468750000,189870.2968750000,197261.9843750000,182559.2656250000,185119.5468750000,161979.8593750000,169902.2187500000,45364.5820312500,,,
0.0079999999,0,194992.8906250000,189882.2343750000,197261.2343750000,182540.9531250000,185116.6718750000,161980.9843750000,169903.1562500000,45364.0468750000,,,
0.0119999999,0,195011.4062500000,189888.7343750000,197278.8906250000,182579.4218750000,185134.0312500000,161989.7031250000,169900.5000000000,45375.7929687500,,,
0.0159999998,0,195009.2500000000,189871.5312500000,197278.8281250000,182600.6875000000,185142.1093750000,161994.6875000000,169923.5781250000,45376.7851562500,,,
0.0199999998,0,194976.6406250000,189844.1250000000,197253.2968750000,182550.3437500000,185120.9375000000,161976.9687500000,169902.4687500000,45355.5703125000,,,
0.0240000000,0,194966.7656250000,189851.3437500000,197236.0781250000,182544.9531250000,185096.8593750000,161965.0781250000,169878.7031250000,45347.0664062500,,,
0.0279999999,0,194986.5937500000,189878.5937500000,197241.2500000000,182571.2656250000,185093.9843750000,161976.7968750000,169865.3437500000,45358.5468750000,,,
0.0319999999,0,195004.7500000000,189883.4218750000,197267.0781250000,182606.6875000000,185118.6562500000,161980.0781250000,169886.2343750000,45365.0117187500,,,
0.0359999998,0,195015.7500000000,189879.9062500000,197286.1093750000,182616.7187500000,185138.3750000000,161998.6406250000,169906.7500000000,45380.1914062500,,,
0.0399999998,0,195014.8125000000,189880.5468750000,197284.8437500000,182599.3750000000,185138.9062500000,162007.3437500000,169914.0781250000,45390.9218750000,,,
0.0440000000,0,195004.0781250000,189876.4531250000,197273.4375000000,182552.5312500000,185123.6250000000,161989.3281250000,169915.9218750000,45372.6835937500,,,
0.0480000000,0,195006.1250000000,189883.0781250000,197269.6093750000,182552.8593750000,185116.9531250000,161985.5937500000,169899.4062500000,45367.8828125000,,,
0.0519999999,0,195014.6250000000,189881.6718750000,197277.7031250000,182593.1718750000,185130.1406250000,161990.5312500000,169902.2187500000,45372.4414062500,,,
0.0559999999,0,195013.3593750000,189868.3437500000,197283.9843750000,182605.4062500000,185138.1875000000,161992.6718750000,169901.5468750000,45371.3945312500,,,
0.0599999998,0,194991.0468750000,189852.6562500000,197258.5625000000,182579.2500000000,185114.7968750000,161987.5000000000,169877.7031250000,45359.7265625000,,,
0.0639999998,0,194985.0156250000,189863.5156250000,197248.6250000000,182539.7968750000,185103.8281250000,161982.4062500000,169885.2968750000,45356.5898437500,,,
0.0680000000,0,194985.2968750000,189872.7656250000,197244.3437500000,182533.1406250000,185094.3281250000,161970.7343750000,169876.7656250000,45349.0546875000,,,
0.0719999999,0,195008.4843750000,189883.9062500000,197276.9843750000,182570.8593750000,185126.8437500000,161978.0156250000,169899.9062500000,45362.4648437500,,,
0.0759999999,0,195000.2656250000,189864.8281250000,197278.2656250000,182581.5000000000,185132.4687500000,161972.4218750000,169902.5625000000,45360.9609375000,,,
0.0799999998,0,194986.8125000000,189851.5312500000,197259.9531250000,182570.3437500000,185115.3593750000,161972.2968750000,169892.8281250000,45357.9843750000,,,
0.0839999998,0,194990.7812500000,189871.0312500000,197259.0156250000,182571.7187500000,185110.4531250000,161977.3125000000,169893.0937500000,45365.8984375000,,,
0.0880000000,0,195011.9687500000,189897.1718750000,197277.0156250000,182593.3906250000,185124.0312500000,161980.8750000000,169891.3593750000,45380.4062500000,,,
0.0919999999,0,195015.2031250000,189891.7812500000,197284.5000000000,182585.5781250000,185133.8906250000,161989.3593750000,169901.1718750000,45380.3554687500,,,
0.0959999999,0,195006.1250000000,189874.7031250000,197279.3125000000,182588.2187500000,185132.0781250000,161986.8593750000,169892.9687500000,45374.1328125000,,,
0.0999999999,0,194994.3750000000,189861.4843750000,197271.7812500000,182589.5781250000,185125.6875000000,161978.9218750000,169883.3125000000,45370.2695312500,,,
0.1039999998,0,195001.0781250000,189883.9531250000,197275.4843750000,182583.8593750000,185124.1562500000,161989.8437500000,169879.3125000000,45380.3828125000,,,
0.1079999998,0,195000.7187500000,189886.8281250000,197264.8125000000,182568.6250000000,185112.0312500000,161985.2187500000,169874.6718750000,45370.5117187500,,,
0.1120000000,0,194997.4218750000,189876.2031250000,197266.8750000000,182565.8125000000,185119.4062500000,161976.4843750000,169879.4687500000,45357.6640625000,,,
0.1159999999,0,194995.6562500000,189863.5156250000,197269.4687500000,182591.4375000000,185124.4531250000,161980.9531250000,169886.9843750000,45361.1484375000,,,
0.1199999999,0,194998.5468750000,189864.5937500000,197276.1562500000,182607.1250000000,185131.7031250000,161989.3750000000,169905.1718750000,45374.3476562500,,,
0.1239999998,0,194994.2343750000,189880.0156250000,197261.1093750000,182594.2968750000,185113.0625000000,161981.9218750000,169882.1093750000,45373.4335937500,,,
0.1279999998,1,195000.2187500000,189897.8281250000,197263.7656250000,182598.0000000000,185113.2656250000,161973.0468750000,169887.8906250000,45373.7031250000,,,
0.1319999998,1,195018.7500000000,189903.5937500000,197291.5937500000,182601.5468750000,185142.0781250000,161998.7187500000,169914.6406250000,45387.4335937500,,,
0.1359999997,1,194997.7031250000,189869.7343750000,197279.8750000000,182554.7656250000,185135.4218750000,161993.8906250000,169902.1718750000,45370.7265625000,,,
0.1399999997,1,194966.6093750000,189837.1562500000,197250.7812500000,182531.7812500000,185109.8125000000,161966.3750000000,169875.2656250000,45349.1601562500,,,
0.1439999996,1,194960.7656250000,189844.9375000000,197236.1093750000,182529.7968750000,185093.8750000000,161957.4843750000,169850.0781250000,45344.5195312500,,,
0.1479999996,1,194982.3281250000,189875.1250000000,197251.0937500000,182532.4218750000,185104.4687500000,161966.6093750000,169861.4531250000,45359.7031250000,,,
0.1519999998,1,195004.0000000000,189883.7343750000,197270.8906250000,182556.8281250000,185120.9218750000,161991.3125000000,169879.9843750000,45373.5429687500,,,
0.1559999997,1,195006.4062500000,189870.9218750000,197277.8125000000,182570.7812500000,185131.0781250000,161987.4531250000,169889.0312500000,45376.2773437500,,,
0.1599999997,1,195000.8906250000,189869.6875000000,197271.4375000000,182560.4218750000,185126.9843750000,161994.5781250000,169890.5781250000,45384.2148437500,,,
0.1639999996,1,195005.5312500000,189892.6718750000,197264.9062500000,182557.3125000000,185115.5000000000,162002.2343750000,169874.0000000000,45395.0546875000,,,
0.1679999996,1,195010.9218750000,189908.5000000000,197266.0937500000,182554.9531250000,185112.4375000000,162000.9375000000,169873.4375000000,45394.0859375000,,,
0.1719999998,1,195025.4218750000,189918.4687500000,197287.1250000000,182575.6875000000,185135.3125000000,162007.8125000000,169885.0000000000,45404.6835937500,,,
0.1759999997,1,195029.0468750000,189902.9687500000,197300.5937500000,182594.8125000000,185155.2812500000,162020.1406250000,169897.7656250000,45408.9726562500,,,
0.1799999997,1,195011.8906250000,189879.5312500000,197288.2500000000,182573.1406250000,185146.8593750000,162000.1875000000,169894.2500000000,45397.1445312500,,,
0.1839999997,1,195010.4687500000,189890.2812500000,197283.1718750000,182570.7031250000,185136.6875000000,161990.1250000000,169888.4843750000,45394.5976562500,,,
0.1879999996,1,195017.5156250000,189909.0000000000,197283.3906250000,182576.3281250000,185129.4687500000,161989.0625000000,169878.9062500000,45392.7460937500,,,
0.1919999996,1,195021.8281250000,189905.1406250000,197294.0156250000,182601.9687500000,185138.2187500000,161982.3281250000,169890.0625000000,45386.6835937500,,,
0.1959999998,1,195023.3437500000,189892.1562500000,197303.2187500000,182603.8437500000,185150.2812500000,161989.2656250000,169901.6250000000,45392.2109375000,,,
0.1999999997,1,195011.2656250000,189881.1718750000,197293.6093750000,182602.7812500000,185139.0000000000,161990.0781250000,169881.2187500000,45389.6601562500,,,
0.2039999997,1,195000.7187500000,189889.2343750000,197261.2343750000,182597.1406250000,185103.1875000000,161984.2031250000,169846.5937500000,45381.1328125000,,,
0.2079999996,1,194991.0156250000,189885.1093750000,197241.7343750000,182552.1875000000,185083.8750000000,161966.4218750000,169838.6562500000,45361.7656250000,,,
0.2119999996,1,195002.9062500000,189888.3750000000,197264.3281250000,182552.6718750000,185107.7656250000,161969.0156250000,169854.9062500000,45367.2382812500,,,
0.2159999998,1,194999.0156250000,189872.9531250000,197267.0781250000,182551.1250000000,185117.8593750000,161967.7031250000,169860.5156250000,45365.3867187500,,,
0.2199999997,1,194986.5937500000,189859.8750000000,197256.0312500000,182543.9843750000,185107.2343750000,161971.8593750000,169850.1093750000,45363.8320312500,,,
0.2239999997,1,194989.2656250000,189872.0781250000,197252.2500000000,182548.0625000000,185101.6562500000,161973.4218750000,169851.3593750000,45368.6054687500,,,
0.2279999997,1,195004.9062500000,189895.8125000000,197264.9375000000,182571.7187500000,185112.6250000000,161975.7812500000,169852.7656250000,45379.9257812500,,,
0.2319999996,1,195018.7187500000,189895.4687500000,197285.2968750000,182583.4687500000,185131.5625000000,161981.7031250000,169871.0468750000,45384.3789062500,,,
0.2359999996,1,195017.2187500000,189881.4843750000,197289.2656250000,182591.5156250000,185135.4531250000,161987.2656250000,169873.0937500000,45386.4179687500,,,
0.2399999998,1,194993.0312500000,189868.2187500000,197262.0937500000,182570.5937500000,185105.0625000000,161983.8750000000,169846.0312500000,45376.4648437500,,,
0.2439999997,1,194988.4375000000,189875.1250000000,197251.8437500000,182574.5000000000,185090.5000000000,161970.0156250000,169831.2812500000,45369.8671875000,,,
0.2479999997,1,194999.5937500000,189895.8906250000,197252.9843750000,182579.2343750000,185089.8593750000,161972.2656250000,169828.2500000000,45371.0742187500,,,
0.2519999996,1,195008.0000000000,189894.6250000000,197264.0625000000,182589.7656250000,185103.9843750000,161978.7343750000,169841.7656250000,45374.3710937500,,,
0.2559999996,2,194999.5156250000,189875.2968750000,197267.1875000000,182581.0468750000,185110.1875000000,161977.6093750000,169848.7968750000,45371.7695312500,,,
0.2599999995,2,194981.7343750000,189853.3281250000,197259.5468750000,182541.3750000000,185103.3750000000,161970.9218750000,169848.8906250000,45364.7695312500,,,
0.2639999995,2,194989.5468750000,189878.6250000000,197259.0937500000,182539.0000000000,185097.7968750000,161979.1406250000,169832.9687500000,45374.5351562500,,,
0.2679999995,2,195002.0625000000,189896.3281250000,197259.5781250000,182564.7656250000,185092.3750000000,161976.3750000000,169834.1250000000,45379.1484375000,,,
0.2719999994,2,195023.4687500000,189902.2968750000,197282.4843750000,182595.7812500000,185114.9375000000,161996.4843750000,169860.0625000000,45394.1679687500,,,
0.2759999994,2,195017.3750000000,189878.7812500000,197293.8593750000,182575.6562500000,185132.6093750000,161985.9531250000,169876.4687500000,45387.1679687500,,,
0.2799999996,2,195009.5312500000,189870.6718750000,197289.1875000000,182553.9062500000,185129.3437500000,161986.9062500000,169874.0625000000,45388.3203125000,,,
0.2839999995,2,195009.8125000000,189888.9218750000,197277.3906250000,182574.9843750000,185114.1562500000,161984.7343750000,169848.5781250000,45391.5937500000,,,
0.2879999995,2,195013.3281250000,189905.2187500000,197276.2031250000,182590.4843750000,185107.6093750000,161974.8906250000,169848.6562500000,45388.3203125000,,,
0.2919999994,2,195017.5156250000,189901.2031250000,197287.0625000000,182585.6718750000,185120.7031250000,161983.6093750000,169857.2968750000,45389.0976562500,,,
0.2959999994,2,195014.3281250000,189877.6250000000,197295.1718750000,182592.9062500000,185136.7187500000,161995.2500000000,169877.4375000000,45388.1328125000,,,
0.2999999996,2,195015.7812500000,189873.4687500000,197299.8125000000,182612.4375000000,185145.1093750000,162004.2187500000,169894.3593750000,45396.7695312500,,,
0.3039999995,2,195013.7656250000,189884.4375000000,197294.2812500000,182585.2343750000,185139.4531250000,162005.2656250000,169893.7656250000,45394.9726562500,,,
0.3079999995,2,195015.4843750000,189893.2968750000,197284.3906250000,182576.8125000000,185128.0000000000,162002.1250000000,169872.8750000000,45384.6992187500,,,
0.3119999995,2,195026.3437500000,189891.8906250000,197290.4531250000,182606.1875000000,185135.1250000000,162001.9375000000,169881.8281250000,45385.3437500000,,,
0.3159999994,2,195032.8593750000,189885.4843750000,197307.9843750000,182594.9218750000,185158.3593750000,162011.7031250000,169907.6093750000,45398.4062500000,,,
0.3199999994,2,195020.9843750000,189870.5156250000,197295.7343750000,182570.7500000000,185146.0468750000,162015.1875000000,169897.1250000000,45394.8125000000,,,
0.3239999996,2,195013.3281250000,189887.7968750000,197276.3906250000,182553.8281250000,185121.4843750000,161999.0312500000,169877.2187500000,45395.5351562500,,,
0.3279999995,2,195020.0625000000,189916.1093750000,197276.3125000000,182549.7500000000,185118.0781250000,162002.9062500000,169870.5468750000,45402.6718750000,,,
0.3319999995,2,195034.4375000000,189927.0312500000,197292.8125000000,182570.7500000000,185137.7812500000,162021.6250000000,169913.1562500000,45414.1250000000,,,
0.3359999994,2,195035.5625000000,189913.4531250000,197308.2343750000,182590.8125000000,185153.7187500000,162017.3593750000,169934.7500000000,45418.4414062500,,,
0.3399999994,2,195021.1093750000,189902.1875000000,197293.5625000000,182579.3906250000,185143.0468750000,162004.3437500000,169922.0625000000,45419.3554687500,,,
0.3439999996,2,195023.2343750000,189917.4375000000,197289.4531250000,182570.5156250000,185135.6718750000,162010.2500000000,169918.0468750000,45423.9687500000,,,
0.3479999995,2,195020.5781250000,189926.4687500000,197283.6406250000,182556.0781250000,185127.2187500000,162027.2812500000,169915.4375000000,45416.8593750000,,,
0.3519999995,2,195021.5468750000,189918.5312500000,197290.5625000000,182558.5781250000,185136.5468750000,162029.6875000000,169922.4687500000,45411.3085937500,,,
0.3559999994,2,195016.2031250000,189895.0937500000,197288.8125000000,182550.2656250000,185138.3437500000,162028.4843750000,169917.8906250000,45404.1445312500,,,
0.3599999994,2,195007.3750000000,189885.7031250000,197282.4218750000,182540.5468750000,185135.6875000000,162042.7812500000,169928.5937500000,45406.3984375000,,,
0.3639999994,2,195000.4531250000,189893.8281250000,197266.1250000000,182537.7812500000,185113.5937500000,162038.6718750000,169902.4062500000,45402.3203125000,,,
0.3679999996,2,195025.4062500000,189919.0937500000,197283.0781250000,182578.0937500000,185124.4531250000,162058.5781250000,169916.3593750000,45417.6914062500,,,
0.3719999995,2,195055.1718750000,189931.9062500000,197316.9531250000,182593.9218750000,185159.7812500000,162091.3906250000,169952.6250000000,45438.7187500000,,,
0.3759999995,2,195071.2187500000,189932.6406250000,197345.1093750000,182601.6718750000,185191.1562500000,162123.2187500000,169978.7500000000,45458.7812500000,,,
0.3799999994,2,195077.4843750000,189941.4375000000,197351.8750000000,182624.1250000000,185197.4062500000,162143.1250000000,169980.7500000000,45473.5078125000,,,
0.3839999994,3,195068.3437500000,189951.2031250000,197336.2656250000,182589.3906250000,185181.4062500000,162147.3125000000,169957.7656250000,45469.4570312500,,,
0.3879999993,3,195061.7500000000,189962.4062500000,197318.2031250000,182590.8906250000,185158.7343750000,162146.5000000000,169942.2656250000,45460.8750000000,,,
0.3919999993,3,195070.1093750000,189968.5312500000,197318.3125000000,182609.1562500000,185159.0312500000,162173.8125000000,169942.2187500000,45470.7460937500,,,
0.3959999993,3,195050.9687500000,189939.5781250000,197311.9375000000,182590.2187500000,185158.2500000000,162177.8593750000,169937.7343750000,45457.7617187500,,,
0.3999999992,3,195029.7812500000,189923.5781250000,197294.9531250000,182570.1406250000,185140.9218750000,162180.1406250000,169913.7031250000,45451.1367187500,,,
0.4039999992,3,195036.0468750000,189950.0781250000,197294.4687500000,182588.8281250000,185136.1250000000,162195.1562500000,169903.8593750000,45464.7890625000,,,
0.4079999994,3,195022.4531250000,189954.0156250000,197270.9687500000,182543.4218750000,185111.9531250000,162188.7812500000,169872.3125000000,45450.5195312500,,,
0.4119999993,3,195022.3125000000,189945.1562500000,197275.1093750000,182542.2656250000,185119.5781250000,162209.2656250000,169876.7187500000,45446.6328125000,,,
0.4159999993,3,195014.8593750000,189925.7500000000,197274.6250000000,182563.2187500000,185121.4843750000,162214.2343750000,169867.4062500000,45441.1875000000,,,
0.4199999992,3,195002.8437500000,189915.1562500000,197266.1406250000,182565.6562500000,185114.0156250000,162223.2187500000,169848.9531250000,45444.0312500000,,,
0.4239999992,3,195011.8906250000,189941.3281250000,197264.6718750000,182561.7343750000,185110.1875000000,162237.7500000000,169839.8906250000,45460.7656250000,,,
0.4279999994,3,195020.6875000000,189954.5312500000,197268.0000000000,182545.8125000000,185108.2500000000,162242.6406250000,169817.7343750000,45461.2500000000,,,
0.4319999993,3,195031.5937500000,189953.1093750000,197278.0312500000,182562.5625000000,185119.2500000000,162255.6406250000,169822.2343750000,45463.0195312500,,,
0.4359999993,3,195042.2968750000,189949.7968750000,197299.2500000000,182585.1875000000,185143.6093750000,162274.3593750000,169831.6718750000,45475.7343750000,,,
0.4399999992,3,195025.1406250000,189925.7187500000,197282.5625000000,182564.4687500000,185125.6093750000,162271.1406250000,169811.9843750000,45464.0117187500,,,
0.4439999992,3,195013.3281250000,189930.1093750000,197254.2343750000,182562.5625000000,185093.5312500000,162262.2656250000,169780.7500000000,45453.7109375000,,,
0.4479999992,3,195006.1718750000,189937.0156250000,197237.9843750000,182552.1875000000,185072.6406250000,162243.5781250000,169746.3906250000,45437.6445312500,,,
0.4519999993,3,195018.7500000000,189942.7500000000,197250.7812500000,182555.4375000000,185084.8593750000,162256.8281250000,169737.6406250000,45446.2812500000,,,
0.4559999993,3,195018.5625000000,189930.0937500000,197264.7812500000,182542.3437500000,185103.0468750000,162263.5625000000,169752.7656250000,45452.2929687500,,,
0.4599999993,3,195008.7500000000,189920.3593750000,197264.8281250000,182551.0312500000,185102.4687500000,162260.8750000000,169748.2812500000,45455.5625000000,,,
0.4639999992,3,194998.4218750000,189928.3437500000,197244.4218750000,182547.2500000000,185078.1875000000,162249.2031250000,169721.9687500000,45451.2187500000,,,
0.4679999992,3,194996.5937500000,189943.5468750000,197234.5468750000,182531.8281250000,185062.6250000000,162230.8125000000,169699.6093750000,45442.6875000000,,,
0.4719999994,3,195017.1875000000,189954.0468750000,197262.3125000000,182551.9531250000,185086.2031250000,162234.6093750000,169712.4062500000,45451.8085937500,,,
0.4759999993,3,195012.2031250000,189931.8281250000,197259.4218750000,182565.8125000000,185085.9375000000,162241.7500000000,169704.2187500000,45450.4140625000,,,
0.4799999993,3,194987.3906250000,189911.9375000000,197235.0000000000,182562.1406250000,185064.2187500000,162230.1875000000,169682.2031250000,45440.4882812500,,,
0.4839999992,3,194982.4375000000,189925.7656250000,197220.5468750000,182543.6875000000,185047.8750000000,162227.5000000000,169669.4843750000,45441.1328125000,,,
0.4879999992,3,194988.3906250000,189943.0781250000,197216.5000000000,182531.2656250000,185039.2187500000,162217.9843750000,169656.3750000000,45437.4570312500,,,
0.4919999992,3,195000.8125000000,189942.3750000000,197233.6875000000,182547.9843750000,185055.5468750000,162213.5000000000,169664.1718750000,45437.8593750000,,,
0.4959999993,3,194999.7343750000,189929.3437500000,197239.1875000000,182552.1406250000,185064.7031250000,162214.2343750000,169665.8125000000,45441.0000000000,,,
0.4999999993,3,195001.2968750000,189916.2812500000,197247.4843750000,182559.4062500000,185074.4062500000,162216.2968750000,169686.9531250000,45448.5898437500,,,
0.5039999993,3,194996.7812500000,189922.3437500000,197235.0312500000,182544.8437500000,185059.4062500000,162216.3750000000,169669.3750000000,45446.8476562500,,,
0.5079999992,3,194999.3593750000,189939.6093750000,197225.5625000000,182538.7031250000,185045.4062500000,162211.9531250000,169657.4687500000,45446.4453125000,,,
0.5119999992,4,195005.3593750000,189933.8437500000,197240.7187500000,182550.8437500000,185061.1250000000,162206.1562500000,169673.0312500000,45442.2578125000,,,
0.5159999991,4,195018.4218750000,189929.6406250000,197262.8437500000,182584.7500000000,185083.0156250000,162201.1875000000,169690.0781250000,45448.3750000000,,,
0.5199999991,4,194986.4062500000,189898.7812500000,197227.5156250000,182547.7656250000,185050.7812500000,162180.2187500000,169653.2500000000,45427.5078125000,,,
0.5239999990,4,194986.0468750000,189916.8593750000,197224.2812500000,182532.9843750000,185047.0781250000,162185.0937500000,169656.8281250000,45436.0625000000,,,
0.5279999990,4,194989.5937500000,189933.6562500000,197219.0000000000,182531.6718750000,185037.2343750000,162167.7968750000,169643.5468750000,45429.8398437500,,,
0.5319999990,4,194988.3593750000,189925.7968750000,197220.3906250000,182532.9531250000,185035.7343750000,162152.6718750000,169628.9062500000,45419.4335937500,,,
0.5359999991,4,194990.7500000000,189915.0625000000,197235.7812500000,182534.4843750000,185053.5312500000,162162.9531250000,169640.8437500000,45425.5234375000,,,
0.5399999991,4,194993.8281250000,189911.4531250000,197248.0468750000,182535.5937500000,185063.7343750000,162165.4375000000,169640.1406250000,45432.4140625000,,,
0.5439999991,4,194986.4062500000,189911.6406250000,197228.5625000000,182506.0000000000,185041.7031250000,162159.3593750000,169632.6562500000,45425.4414062500,,,
0.5479999990,4,194995.3125000000,189930.8437500000,197226.6406250000,182515.1562500000,185032.4843750000,162154.6562500000,169630.5156250000,45424.5312500000,,,
0.5519999990,4,195017.7812500000,189945.3593750000,197251.5000000000,182548.1718750000,185057.0312500000,162168.7656250000,169643.1250000000,45439.4687500000,,,
0.5559999992,4,195023.7656250000,189938.3437500000,197267.0000000000,182568.7656250000,185076.6250000000,162177.0625000000,169660.8281250000,45447.0351562500,,,
0.5599999991,4,195003.5156250000,189918.0468750000,197251.8750000000,182557.2343750000,185066.7343750000,162169.5468750000,169656.6562500000,45438.2617187500,,,
0.5639999991,4,194978.5468750000,189913.4062500000,197220.6562500000,182529.9531250000,185034.6562500000,162143.1562500000,169619.7500000000,45418.6289062500,,,
0.5679999990,4,194964.5937500000,189917.3437500000,197196.2500000000,182509.7031250000,185010.6718750000,162136.2812500000,169610.3906250000,45410.0742187500,,,
0.5719999990,4,194986.8593750000,189930.9218750000,197225.2187500000,182551.8906250000,185039.0468750000,162158.5156250000,169640.9687500000,45429.3046875000,,,
0.5759999990,4,194995.9218750000,189923.4375000000,197244.9375000000,182585.5781250000,185060.8593750000,162172.5468750000,169657.1406250000,45441.0781250000,,,
0.5799999991,4,194966.2812500000,189892.7343750000,197218.8593750000,182563.6718750000,185033.2812500000,162147.6250000000,169631.7968750000,45423.1093750000,,,
0.5839999991,4,194963.2500000000,189900.9843750000,197212.3906250000,182553.1562500000,185024.6250000000,162140.3281250000,169631.3125000000,45423.0546875000,,,
0.5879999991,4,194965.0468750000,189914.6093750000,197200.3281250000,182556.2968750000,185008.5781250000,162135.1562500000,169624.2343750000,45416.9414062500,,,
0.5919999990,4,194979.3750000000,189922.5312500000,197218.0625000000,182571.3125000000,185025.5312500000,162146.1093750000,169635.5625000000,45424.6367187500,,,
0.5959999990,4,194975.5937500000,189898.7812500000,197228.1875000000,182568.0937500000,185037.3437500000,162147.5781250000,169635.3593750000,45418.9765625000,,,
0.5999999992,4,194959.8437500000,189881.2187500000,197219.6406250000,182559.8593750000,185028.2968750000,162133.0625000000,169635.0468750000,45407.6054687500,,,
0.6039999991,4,194948.7500000000,189883.9062500000,197196.0625000000,182548.2968750000,185003.2812500000,162121.3125000000,169628.7968750000,45398.2968750000,,,
0.6079999991,4,194950.2187500000,189894.6875000000,197190.7187500000,182571.0468750000,184992.3281250000,162115.9843750000,169616.7812500000,45394.5429687500,,,
0.6119999990,4,194969.7968750000,189904.2812500000,197214.4375000000,182590.6562500000,185016.4375000000,162134.8593750000,169635.7187500000,45409.1875000000,,,
0.6159999990,4,194965.0312500000,189888.3281250000,197226.4531250000,182560.8750000000,185034.4687500000,162139.5000000000,169655.0312500000,45410.4218750000,,,
0.6199999989,4,194951.4843750000,189872.2343750000,197213.7031250000,182531.5312500000,185023.4375000000,162134.4843750000,169632.2500000000,45406.8828125000,,,
0.6239999991,4,194946.7656250000,189884.0312500000,197198.9531250000,182523.2187500000,185004.7500000000,162118.6093750000,169612.0000000000,45401.7031250000,,,
0.6279999991,4,194955.8750000000,189906.2656250000,197201.3437500000,182530.0156250000,185002.9218750000,162118.5781250000,169609.9375000000,45402.1054687500,,,
0.6319999991,4,194972.1562500000,189919.9843750000,197212.8750000000,182557.8437500000,185014.4843750000,162132.9531250000,169621.3906250000,45412.5937500000,,,
0.6359999990,4,194971.2187500000,189905.3593750000,197222.6093750000,182568.9218750000,185025.1875000000,162132.7968750000,169624.2968750000,45412.3007812500,,,
0.6399999990,5,194952.7343750000,189882.2968750000,197207.2500000000,182565.5937500000,185009.1406250000,162116.2500000000,169619.1406250000,45401.6523437500,,,
0.6439999989,5,194942.1406250000,189890.7968750000,197188.4375000000,182538.9375000000,184986.4218750000,162112.2187500000,169602.1093750000,45399.9062500000,,,
0.6479999989,5,194957.6250000000,189916.5937500000,197199.3281250000,182532.0000000000,184991.9218750000,162120.9375000000,169607.4375000000,45409.1093750000,,,
0.6519999988,5,194971.7031250000,189911.5781250000,197210.1093750000,182580.6406250000,185003.1875000000,162119.5156250000,169609.2500000000,45406.5312500000,,,
0.6559999988,5,194980.7500000000,189901.1718750000,197225.7500000000,182624.0156250000,185023.0156250000,162130.0625000000,169616.1406250000,45415.7851562500,,,
0.6599999988,5,194952.9218750000,189876.4531250000,197204.4843750000,182586.3906250000,185006.0937500000,162117.5156250000,169610.2812500000,45402.9101562500,,,
0.6639999989,5,194934.4531250000,189880.3593750000,197180.0781250000,182517.4843750000,184981.7343750000,162107.3437500000,169601.1406250000,45392.4492187500,,,
0.6679999989,5,194933.0000000000,189891.9218750000,197175.2968750000,182510.3750000000,184974.4062500000,162108.2812500000,169604.2500000000,45389.7421875000,,,
0.6719999989,5,194946.4843750000,189896.8906250000,197197.1406250000,182539.5312500000,184998.3593750000,162125.4531250000,169626.4375000000,45400.6328125000,,,
0.6759999988,5,194952.7343750000,189889.5937500000,197209.4218750000,182558.2500000000,185015.3750000000,162124.0468750000,169630.5937500000,45408.6796875000,,,
0.6799999988,5,194940.5312500000,189869.1250000000,197198.2812500000,182554.1718750000,185005.6875000000,162108.6250000000,169624.2343750000,45400.8750000000,,,
0.6839999990,5,194940.3750000000,189879.3437500000,197186.0781250000,182554.2812500000,184988.5781250000,162103.0000000000,169608.0625000000,45402.2148437500,,,
0.6879999989,5,194957.4375000000,189904.2656250000,197197.6718750000,182556.7031250000,184996.5625000000,162106.9218750000,169620.2656250000,45410.8242187500,,,
0.6919999989,5,194977.2500000000,189912.5468750000,197224.3281250000,182565.0156250000,185022.3437500000,162117.5937500000,169642.6562500000,45419.3281250000,,,
0.6959999988,5,194987.2812500000,189904.9375000000,197240.5781250000,182587.2968750000,185040.5312500000,162136.6875000000,169658.4531250000,45430.6171875000,,,
0.6999999988,5,194966.0781250000,189886.0468750000,197218.8125000000,182564.2812500000,185020.4687500000,162130.4375000000,169626.0937500000,45422.2226562500,,,
0.7039999987,5,194961.9218750000,189896.1562500000,197214.5625000000,182538.1093750000,185012.0937500000,162121.1875000000,169628.0937500000,45417.9335937500,,,
0.7079999989,5,194947.8281250000,189892.0781250000,197193.0312500000,182521.9062500000,184985.4375000000,162089.4531250000,169599.3750000000,45391.4062500000,,,
0.7119999989,5,194954.6718750000,189896.2187500000,197195.8437500000,182545.4531250000,184989.3750000000,162092.2968750000,169588.9687500000,45392.5585937500,,,
0.7159999989,5,194968.3593750000,189893.2343750000,197218.8593750000,182574.7187500000,185017.1406250000,162109.4062500000,169630.8125000000,45411.5234375000,,,
0.7199999988,5,194950.1718750000,189872.1875000000,197207.8593750000,182573.6718750000,185003.6250000000,162105.7343750000,169617.3750000000,45402.3203125000,,,
0.7239999988,5,194943.8906250000,189882.3125000000,197197.0000000000,182573.7812500000,184988.7343750000,162101.9843750000,169602.6250000000,45399.5859375000,,,
0.7279999990,5,194938.6875000000,189892.8906250000,197184.8281250000,182548.8125000000,184971.9531250000,162096.1250000000,169587.3281250000,45389.8476562500,,,
0.7319999989,5,194944.4843750000,189893.1562500000,197194.2968750000,182521.1093750000,184982.5625000000,162089.0312500000,169588.7812500000,45386.5507812500,,,
0.7359999989,5,194938.4531250000,189869.1562500000,197190.8906250000,182506.4843750000,184984.7343750000,162092.8593750000,169604.1250000000,45382.2304687500,,,
0.7399999988,5,194912.5625000000,189840.3125000000,197164.6250000000,182487.1718750000,184961.5625000000,162073.5156250000,169579.5468750000,45367.1328125000,,,
0.7439999988,5,194916.7968750000,189857.2343750000,197163.1250000000,182501.9062500000,184958.2656250000,162073.5468750000,169577.1093750000,45376.8398437500,,,
0.7479999987,5,194919.9843750000,189870.8593750000,197155.5000000000,182486.3437500000,184948.0156250000,162066.4687500000,169564.6875000000,45371.8242187500,,,
0.7519999989,5,194929.2500000000,189865.0000000000,197170.4531250000,182483.7343750000,184963.3593750000,162068.5000000000,169570.8593750000,45369.7851562500,,,
0.7559999989,5,194943.7500000000,189854.3750000000,197197.4062500000,182516.3593750000,184994.6562500000,162082.5625000000,169594.5937500000,45383.1171875000,,,
0.7599999988,5,194940.4531250000,189851.6875000000,197190.4531250000,182512.3281250000,184989.1406250000,162098.4375000000,169592.2343750000,45395.6171875000,,,
0.7639999988,5,194926.3281250000,189857.9062500000,197171.4687500000,182501.0937500000,184968.1406250000,162079.7656250000,169568.9531250000,45386.6835937500,,,
0.7679999988,6,194923.5625000000,189866.5468750000,197160.8125000000,182488.0312500000,184955.6875000000,162066.8125000000,169569.7656250000,45374.2382812500,,,
0.7719999987,6,194933.1406250000,189868.2656250000,197173.0781250000,182494.6875000000,184968.2187500000,162075.5000000000,169590.4062500000,45377.8046875000,,,
0.7759999987,6,194939.7031250000,189859.3593750000,197193.1718750000,182508.6875000000,184989.9375000000,162089.2968750000,169614.8281250000,45385.2109375000,,,
0.7799999986,6,194925.5937500000,189840.9062500000,197179.5156250000,182525.0156250000,184976.9843750000,162074.2656250000,169599.0468750000,45374.0234375000,,,
0.7839999986,6,194919.1562500000,189848.5000000000,197163.1562500000,182526.8437500000,184958.6406250000,162053.5312500000,169586.2500000000,45366.3515625000,,,
0.7879999985,6,194936.7343750000,189877.5468750000,197171.9531250000,182524.3281250000,184962.4531250000,162063.5156250000,169591.6406250000,45376.8125000000,,,
0.7919999987,6,194955.5625000000,189885.1406250000,197189.5937500000,182547.1718750000,184978.9687500000,162076.5468750000,169597.0625000000,45384.9414062500,,,
0.7959999987,6,194962.4531250000,189871.8593750000,197202.9218750000,182561.3437500000,184991.3906250000,162078.8281250000,169602.6406250000,45391.2695312500,,,
0.7999999986,6,194941.3125000000,189849.3281250000,197193.4843750000,182504.8281250000,184986.7031250000,162071.1093750000,169600.0625000000,45385.5585937500,,,
0.8039999986,6,194948.9062500000,189872.0781250000,197198.6406250000,182510.5625000000,184989.4062500000,162084.3593750000,169600.6562500000,45403.2070312500,,,
0.8079999986,6,194964.8437500000,189905.9531250000,197199.5000000000,182524.4218750000,184986.0000000000,162091.5156250000,169606.2656250000,45414.4726562500,,,
0.8119999988,6,194973.9062500000,189914.6718750000,197208.9843750000,182540.7968750000,184994.6406250000,162090.4218750000,169616.5625000000,45416.1093750000,,,
0.8159999987,6,194984.0468750000,189907.8281250000,197229.6718750000,182586.2812500000,185013.5937500000,162102.5937500000,169633.5625000000,45421.5273437500,,,
0.8199999987,6,194956.2343750000,189875.7500000000,197202.8750000000,182533.0156250000,184991.6093750000,162097.3437500000,169613.6093750000,45407.4179687500,,,
0.8239999986,6,194939.5156250000,189877.6562500000,197174.0156250000,182490.9218750000,184962.8750000000,162085.4062500000,169587.1406250000,45398.8632812500,,,
0.8279999986,6,194946.9687500000,189899.4843750000,197176.1875000000,182518.6562500000,184959.6406250000,162088.4375000000,169578.0156250000,45397.4921875000,,,
0.8319999985,6,194965.4843750000,189909.6562500000,197201.0000000000,182549.5312500000,184983.8281250000,162100.8593750000,169605.9218750000,45403.5273437500,,,
0.8359999987,6,194956.0625000000,189884.4062500000,197203.4062500000,182543.7343750000,184990.2187500000,162094.5156250000,169622.0937500000,45394.8125000000,,,
0.8399999987,6,194935.4375000000,189856.5937500000,197191.0468750000,182496.0000000000,184977.3906250000,162081.2500000000,169605.9687500000,45383.7343750000,,,
0.8439999986,6,194916.2031250000,189849.2812500000,197157.8906250000,182480.4218750000,184942.1250000000,162071.1875000000,169573.2812500000,45368.3906250000,,,
0.8479999986,6,194927.9843750000,189877.9687500000,197159.8437500000,182501.6250000000,184941.4687500000,162071.5312500000,169579.6875000000,45376.6523437500,,,
0.8519999986,6,194947.3750000000,189885.8906250000,197185.2812500000,182528.7500000000,184968.1875000000,162079.7656250000,169608.4062500000,45385.6132812500,,,
0.8559999987,6,194955.4531250000,189876.6562500000,197205.5000000000,182544.6250000000,184993.7812500000,162092.8125000000,169634.1562500000,45395.5351562500,,,
0.8599999987,6,194940.3281250000,189862.9062500000,197195.8750000000,182535.7968750000,184986.9687500000,162088.6718750000,169621.0156250000,45393.2812500000,,,
0.8639999987,6,194925.4375000000,189865.2031250000,197169.0468750000,182515.3125000000,184958.0000000000,162075.9687500000,169602.4062500000,45385.1562500000,,,
0.8679999986,6,194938.3125000000,189887.3125000000,197178.1093750000,182522.5312500000,184961.7187500000,162074.0625000000,169599.9843750000,45389.0703125000,,,
0.8719999986,6,194940.9062500000,189885.0000000000,197181.7968750000,182519.9218750000,184961.9062500000,162061.4843750000,169581.2968750000,45378.3710937500,,,
0.8759999985,6,194934.9531250000,189864.6406250000,197183.2343750000,182524.7812500000,184967.9531250000,162060.2656250000,169585.3437500000,45374.9648437500,,,
0.8799999987,6,194931.0625000000,189850.5312500000,197185.0156250000,182531.7187500000,184971.2812500000,162062.5468750000,169608.7343750000,45378.7187500000,,,
0.8839999987,6,194921.2500000000,189850.7500000000,197171.6562500000,182509.9531250000,184954.2187500000,162049.1406250000,169588.2187500000,45371.5312500000,,,
0.8879999986,6,194928.3281250000,189864.5312500000,197173.2656250000,182502.8906250000,184952.2031250000,162047.2031250000,169581.9375000000,45369.5195312500,,,
0.8919999986,6,194942.7968750000,189870.7343750000,197184.7968750000,182526.3593750000,184964.0937500000,162045.5937500000,169591.7500000000,45374.6953125000,,,
0.8959999986,7,194964.5468750000,189871.4375000000,197219.3906250000,182562.5937500000,185001.9843750000,162065.2031250000,169631.5312500000,45394.0078125000,,,
0.8999999985,7,194962.6406250000,189865.5781250000,197222.7968750000,182556.1093750000,185006.9687500000,162074.1406250000,169625.7343750000,45403.7421875000,,,
0.9039999985,7,194961.0000000000,189882.2968750000,197216.3593750000,182542.9062500000,184999.0625000000,162066.9531250000,169607.2500000000,45408.7578125000,,,
0.9079999984,7,194972.2968750000,189905.2812500000,197213.5000000000,182564.2031250000,184991.0468750000,162068.9375000000,169623.4843750000,45412.9960937500,,,
0.9119999984,7,194977.2812500000,189912.9531250000,197217.2031250000,182578.7656250000,184992.7343750000,162069.1250000000,169621.3906250000,45412.5390625000,,,
0.9159999983,7,194961.6250000000,189893.6093750000,197211.9375000000,182548.5937500000,184993.2343750000,162066.6250000000,169614.1718750000,45403.8515625000,,,
0.9199999985,7,194949.0625000000,189879.6406250000,197202.5781250000,182553.0156250000,184984.8125000000,162069.6093750000,169604.2500000000,45403.5546875000,,,
0.9239999985,7,194941.6875000000,189887.1718750000,197185.2812500000,182538.0625000000,184967.8125000000,162072.0000000000,169601.7656250000,45404.4140625000,,,
0.9279999984,7,194929.6718750000,189888.4375000000,197169.3125000000,182496.0312500000,184951.1250000000,162057.5312500000,169594.6718750000,45388.8554687500,,,
0.9319999984,7,194947.1875000000,189895.8125000000,197191.8750000000,182520.2187500000,184975.7500000000,162069.9218750000,169620.9062500000,45398.5117187500,,,
0.9359999984,7,194955.8593750000,189887.9062500000,197206.3281250000,182529.6093750000,184993.8281250000,162082.7968750000,169627.7968750000,45409.4296875000,,,
0.9399999985,7,194938.2031250000,189862.0937500000,197191.5781250000,182517.7187500000,184982.5625000000,162073.9218750000,169623.0312500000,45399.1289062500,,,
0.9439999985,7,194942.9218750000,189877.3281250000,197196.1406250000,182517.1093750000,184985.4062500000,162084.9218750000,169635.9375000000,45409.3476562500,,,
0.9479999985,7,194951.0468750000,189903.9687500000,197191.9843750000,182509.7343750000,184979.2187500000,162087.9531250000,169632.2812500000,45412.4335937500,,,
0.9519999984,7,194952.8437500000,189898.6562500000,197189.4843750000,182528.7968750000,184973.2031250000,162080.6250000000,169617.3906250000,45401.7851562500,,,
0.9559999984,7,194955.6406250000,189875.1562500000,197204.7187500000,182548.8906250000,184989.3281250000,162064.5156250000,169640.0937500000,45395.6445312500,,,
0.9599999983,7,194945.7187500000,189859.2187500000,197203.5781250000,182541.0000000000,184989.2968750000,162069.3906250000,169635.2656250000,45397.6289062500,,,
0.9639999985,7,194954.4843750000,189884.2187500000,197206.3906250000,182536.8750000000,184986.5625000000,162082.9375000000,169634.9687500000,45413.2109375000,,,
0.9679999985,7,194962.3750000000,189908.5468750000,197205.6406250000,182543.1250000000,184981.9843750000,162088.6250000000,169630.6718750000,45416.5390625000,,,
0.9719999984,7,194970.5781250000,189911.2812500000,197218.3750000000,182555.2812500000,184993.3750000000,162083.4687500000,169639.9531250000,45413.7460937500,,,
0.9759999984,7,194969.6406250000,189893.7500000000,197219.0156250000,182568.2812500000,184995.6875000000,162082.3125000000,169645.3125000000,45414.1250000000,,,
0.9799999984,7,194955.5625000000,189875.3125000000,197206.9843750000,182553.9062500000,184986.0312500000,162082.4531250000,169636.1718750000,45412.4335937500,,,
0.9839999985,7,194950.1093750000,189882.4843750000,197202.3437500000,182534.5625000000,184978.6562500000,162070.1093750000,169620.7968750000,45407.6875000000,,,
0.9879999985,7,194969.6718750000,189916.1718750000,197215.2343750000,182547.7968750000,184985.0000000000,162081.4375000000,169636.2187500000,45421.8476562500,,,
0.9919999985,7,194982.8906250000,189925.4531250000,197221.4687500000,182567.0156250000,184993.6406250000,162086.4531250000,169646.6093750000,45426.3007812500,,,
0.9959999984,7,194983.4531250000,189903.6093750000,197229.1250000000,182589.1250000000,185007.3437500000,162084.9687500000,169646.5468750000,45425.7382812500,,,
0.9999999984,7,194971.6562500000,189882.9375000000,197226.3437500000,182560.9375000000,185009.3593750000,162090.5781250000,169650.6562500000,45428.0976562500,33029,1.0013990044,0.0000000000
1.0039999983,7,194967.6250000000,189899.6406250000,197209.4218750000,182543.5000000000,184987.1250000000,162086.6875000000,169630.3750000000,45431.1835937500,,,
1.0079999985,7,194966.2031250000,189912.8750000000,197197.3750000000,182554.3593750000,184968.4843750000,162070.9218750000,169619.9375000000,45422.4375000000,,,
1.0119999985,7,194978.5156250000,189915.3593750000,197213.5156250000,182573.7343750000,184986.2656250000,162074.0781250000,169637.7031250000,45428.5820312500,,,
1.0159999984,7,194989.8125000000,189910.7031250000,197235.5468750000,182581.2343750000,185016.1718750000,162101.8125000000,169671.5468750000,45447.8906250000,,,
1.0199999984,7,194974.3125000000,189891.9218750000,197227.7656250000,182581.3437500000,185014.1875000000,162105.8906250000,169658.1093750000,45447.8125000000,,,
1.0239999983,8,194952.6562500000,189886.7187500000,197200.9375000000,182559.5937500000,184986.0781250000,162091.8437500000,169645.7500000000,45434.7500000000,,,
1.0279999983,8,194953.1406250000,189899.4531250000,197196.8125000000,182545.3437500000,184975.6718750000,162085.4843750000,169655.8125000000,45429.8125000000,,,
1.0319999983,8,194963.3437500000,189904.4218750000,197204.4218750000,182546.4218750000,184982.1875000000,162090.3593750000,169646.4218750000,45432.3085937500,,,
1.0359999982,8,194963.7187500000,189889.6406250000,197219.2812500000,182554.2812500000,185002.0156250000,162092.7031250000,169670.6406250000,45432.3359375000,,,
1.0399999982,8,194961.6718750000,189884.8906250000,197228.9375000000,182580.0000000000,185013.3125000000,162098.9531250000,169681.1562500000,45438.1835937500,,,
1.0439999981,8,194958.7031250000,189895.3593750000,197217.9687500000,182572.9531250000,184999.4062500000,162092.1875000000,169660.5312500000,45435.6328125000,,,
1.0479999983,8,194945.1250000000,189889.7968750000,197194.7187500000,182504.3593750000,184970.2812500000,162069.6250000000,169636.5781250000,45411.0664062500,,,
1.0519999983,8,194947.2187500000,189883.0156250000,197198.8750000000,182504.1562500000,184974.5156250000,162072.5312500000,169640.0937500000,45403.0976562500,,,
1.0559999982,8,194950.2812500000,189871.1093750000,197213.8906250000,182524.6406250000,184994.3906250000,162072.9843750000,169657.8437500000,45404.4687500000,,,
1.0599999982,8,194939.4843750000,189854.5000000000,197205.2656250000,182535.9843750000,184991.0625000000,162070.8906250000,169653.9218750000,45404.2539062500,,,
1.0639999982,8,194916.0781250000,189848.2031250000,197176.0312500000,182510.6406250000,184959.4687500000,162050.4531250000,169626.4843750000,45388.4531250000,,,
1.0679999983,8,194933.2656250000,189881.8906250000,197184.4531250000,182517.1406250000,184963.2343750000,162052.8437500000,169636.5781250000,45401.3281250000,,,
1.0719999983,8,194950.9687500000,189898.1250000000,197194.9062500000,182533.1718750000,184971.6250000000,162063.4687500000,169622.5000000000,45409.9648437500,,,
1.0759999983,8,194952.0468750000,189883.5468750000,197202.6562500000,182541.8437500000,184981.9218750000,162065.9531250000,169652.9843750000,45407.9257812500,,,
1.0799999982,8,194946.6875000000,189869.2031250000,197206.5781250000,182544.3593750000,184988.3906250000,162061.3906250000,169654.3281250000,45410.5546875000,,,
1.0839999982,8,194935.7343750000,189871.6250000000,197181.2812500000,182528.0781250000,184956.9531250000,162052.7031250000,169595.4531250000,45406.2656250000,,,
1.0879999981,8,194940.2187500000,189892.3281250000,197175.2968750000,182522.0937500000,184948.0937500000,162046.1875000000,169604.6093750000,45406.6406250000,,,
1.0919999983,8,194951.9062500000,189899.1562500000,197191.8281250000,182544.9531250000,184963.5000000000,162054.1562500000,169616.4375000000,45408.8398437500,,,
1.0959999983,8,194965.2968750000,189892.6718750000,197215.3437500000,182571.5625000000,184992.8437500000,162064.5312500000,169647.0156250000,45421.5000000000,,,
1.0999999982,8,194962.7187500000,189883.5312500000,197219.2031250000,182569.2187500000,184997.9375000000,162072.5312500000,169652.7187500000,45427.8828125000,,,
1.1039999982,8,194950.2187500000,189885.7031250000,197199.2812500000,182541.2812500000,184975.8593750000,162065.7500000000,169635.8750000000,45424.9843750000,,,
1.1079999981,8,194951.0000000000,189903.4062500000,197192.8437500000,182534.3281250000,184964.9218750000,162062.3437500000,169629.6875000000,45424.1015625000,,,
1.1119999983,8,194954.4062500000,189901.8125000000,197199.0156250000,182530.6718750000,184972.6406250000,162061.7500000000,169639.2500000000,45421.2851562500,,,
1.1159999983,8,194951.4062500000,189884.4062500000,197207.0000000000,182540.3281250000,184984.8125000000,162067.4843750000,169654.2812500000,45422.5195312500,,,
1.1199999982,8,194946.4687500000,189875.6093750000,197206.9843750000,182549.1093750000,184987.0000000000,162071.2968750000,169652.7187500000,45428.8203125000,,,
1.1239999982,8,194934.9062500000,189874.6562500000,197191.4687500000,182534.9218750000,184971.2812500000,162065.5625000000,169623.8125000000,45420.9375000000,,,
1.1279999982,8,194925.5781250000,189883.7656250000,197173.3906250000,182525.6093750000,184947.2187500000,162038.1406250000,169607.4687500000,45405.6210937500,,,
1.1319999981,8,194934.1875000000,189888.5937500000,197187.1250000000,182512.0312500000,184962.3750000000,162048.3593750000,169636.8437500000,45405.5390625000,,,
1.1359999983,8,194931.5468750000,189867.9218750000,197193.1875000000,182514.3750000000,184972.5156250000,162051.5468750000,169640.0000000000,45401.1132812500,,,
1.1399999983,8,194920.6562500000,189843.1250000000,197191.0781250000,182527.2656250000,184969.6093750000,162040.7187500000,169636.1406250000,45396.4218750000,,,
1.1439999982,8,194936.8906250000,189872.4218750000,197202.3593750000,182548.0312500000,184978.0000000000,162053.5312500000,169655.1093750000,45417.3164062500,,,
1.1479999982,8,194932.9218750000,189885.7031250000,197182.7343750000,182515.7343750000,184957.8437500000,162036.3750000000,169635.3593750000,45405.5937500000,,,
1.1519999981,9,194945.3593750000,189896.0781250000,197194.0781250000,182521.5000000000,184968.1562500000,162048.5000000000,169643.5781250000,45408.3828125000,,,
1.1559999981,9,194952.5468750000,189887.0625000000,197215.6093750000,182552.9375000000,184991.2812500000,162051.0156250000,169658.0625000000,45411.7109375000,,,
1.1599999981,9,194937.6875000000,189862.6875000000,197209.6093750000,182521.2031250000,184988.8750000000,162048.7656250000,169650.5156250000,45404.7343750000,,,
1.1639999980,9,194925.0312500000,189869.5312500000,197180.2656250000,182518.2031250000,184957.1406250000,162050.1875000000,169628.3125000000,45402.3476562500,,,
1.1679999980,9,194938.1250000000,189895.1718750000,197184.3437500000,182540.3281250000,184953.8906250000,162054.3906250000,169629.0625000000,45412.0039062500,,,
1.1719999979,9,194966.9062500000,189914.3437500000,197211.8281250000,182562.4062500000,184981.9843750000,162072.9843750000,169650.7968750000,45430.9140625000,,,
1.1759999981,9,194967.9531250000,189901.4687500000,197221.2500000000,182558.1718750000,184996.6250000000,162078.4843750000,169659.7812500000,45432.5781250000,,,
1.1799999981,9,194945.6875000000,189870.6250000000,197206.7968750000,182539.2812500000,184986.0781250000,162048.2031250000,169645.3750000000,45416.3476562500,,,
1.1839999980,9,194943.5156250000,189880.2812500000,197202.0156250000,182529.3906250000,184981.2031250000,162050.9375000000,169650.8437500000,45423.7773437500,,,
1.1879999980,9,194958.3437500000,189909.8906250000,197207.6406250000,182541.2812500000,184984.2343750000,162058.2656250000,169663.6093750000,45433.4335937500,,,
1.1919999979,9,194963.2500000000,189908.5781250000,197211.0312500000,182528.5312500000,184989.8593750000,162058.6562500000,169668.3906250000,45430.3515625000,,,
1.1959999981,9,194965.6718750000,189894.7968750000,197223.5000000000,182552.8906250000,185005.8281250000,162062.2812500000,169665.1093750000,45434.2656250000,,,
1.1999999981,9,194945.2031250000,189870.2031250000,197202.3437500000,182547.8750000000,184988.3125000000,162057.1093750000,169643.3125000000,45428.3125000000,,,
1.2039999980,9,194921.8906250000,189858.8750000000,197182.6562500000,182492.8593750000,184969.8750000000,162044.6562500000,169646.1562500000,45415.6796875000,,,
1.2079999980,9,194925.8437500000,189879.6718750000,197176.5625000000,182498.2187500000,184956.7343750000,162044.2031250000,169647.3593750000,45414.2031250000,,,
1.2119999980,9,194937.4843750000,189886.6718750000,197189.9687500000,182520.5468750000,184968.7343750000,162046.4375000000,169659.5000000000,45413.2382812500,,,
1.2159999979,9,194954.1093750000,189886.1250000000,197213.2812500000,182540.3281250000,184995.1406250000,162061.0000000000,169674.3593750000,45427.1328125000,,,
1.2199999981,9,194941.6562500000,189868.3437500000,197210.2187500000,182514.3906250000,184996.0312500000,162055.5781250000,169673.0312500000,45423.5117187500,,,
1.2239999981,9,194924.2343750000,189865.9062500000,197181.7187500000,182493.9062500000,184967.5156250000,162042.4375000000,169661.5781250000,45413.3203125000,,,
1.2279999980,9,194922.4375000000,189879.1875000000,197170.7968750000,182495.1093750000,184953.2812500000,162031.5468750000,169653.0468750000,45407.2304687500,,,
1.2319999980,9,194941.3437500000,189896.9062500000,197192.3125000000,182515.9218750000,184971.7343750000,162052.5781250000,169659.1093750000,45418.2812500000,,,
1.2359999979,9,194950.7031250000,189885.2187500000,197215.4843750000,182532.0000000000,184998.0468750000,162061.2031250000,169687.6718750000,45423.0546875000,,,
1.2399999981,9,194939.7343750000,189863.5156250000,197210.1406250000,182557.9843750000,184993.0000000000,162055.9843750000,169676.8125000000,45419.9960937500,,,
1.2439999981,9,194947.7031250000,189881.4062500000,197207.6718750000,182590.7031250000,184987.5625000000,162062.0156250000,169676.3750000000,45431.0742187500,,,
1.2479999980,9,194951.2187500000,189906.5156250000,197205.8437500000,182549.9062500000,184982.8281250000,162059.4687500000,169674.0937500000,45429.4648437500,,,
1.2519999980,9,194938.4687500000,189896.7812500000,197190.9687500000,182485.0000000000,184966.2343750000,162036.9062500000,169654.7343750000,45409.4843750000,,,
1.2559999980,9,194919.2187500000,189869.0625000000,197167.5000000000,182480.8125000000,184945.6093750000,162032.0468750000,169633.2812500000,45396.2617187500,,,
1.2599999979,9,194906.7343750000,189849.0937500000,197164.5781250000,182500.4218750000,184945.9531250000,162032.4375000000,169624.5000000000,45394.9179687500,,,
1.2639999981,9,194893.7812500000,189844.5781250000,197149.4687500000,182495.8593750000,184930.8750000000,162026.0468750000,169622.0312500000,45388.2929687500,,,
1.2679999981,9,194909.3906250000,189871.1562500000,197158.5156250000,182516.9218750000,184932.6562500000,162033.2812500000,169632.1718750000,45399.9609375000,,,
1.2719999980,9,194930.0781250000,189883.8281250000,197173.7968750000,182519.3906250000,184946.3593750000,162049.1406250000,169644.3750000000,45413.6679687500,,,
1.2759999980,9,194920.4531250000,189849.8437500000,197176.5937500000,182480.3281250000,184956.7656250000,162047.5312500000,169660.4218750000,45406.2109375000,,,
1.2799999979,10,194914.8437500000,189830.0937500000,197186.2968750000,182485.2500000000,184970.7187500000,162043.3437500000,169667.1562500000,45412.3515625000,,,
1.2839999979,10,194904.1093750000,189825.0781250000,197164.2968750000,182490.7968750000,184947.5625000000,162031.5156250000,169625.1406250000,45408.7304687500,,,
1.2879999978,10,194907.4062500000,189846.3437500000,197154.7031250000,182491.6718750000,184935.3125000000,162027.6250000000,169619.7500000000,45408.2226562500,,,
1.2919999978,10,194925.2500000000,189860.7031250000,197172.3281250000,182511.3125000000,184951.4531250000,162042.6718750000,169643.8437500000,45418.3867187500,,,
1.2959999978,10,194915.0312500000,189834.3906250000,197172.2500000000,182517.4531250000,184954.8906250000,162036.1250000000,169645.0781250000,45407.2851562500,,,
1.2999999977,10,194905.0468750000,189814.8125000000,197170.9062500000,182516.5156250000,184955.0781250000,162038.6562500000,169642.2656250000,45404.8437500000,,,
1.3039999979,10,194897.2187500000,189820.2343750000,197155.2031250000,182490.9843750000,184939.1718750000,162038.2500000000,169633.1875000000,45403.2617187500,,,
1.3079999979,10,194886.4062500000,189828.9687500000,197127.3125000000,182468.9843750000,184908.5156250000,162023.7968750000,169609.7500000000,45388.8281250000,,,
1.3119999978,10,194903.5468750000,189842.8437500000,197151.5156250000,182492.9687500000,184932.4062500000,162024.6562500000,169631.3906250000,45393.8984375000,,,
1.3159999978,10,194911.8125000000,189835.2187500000,197169.7812500000,182521.7500000000,184953.0625000000,162026.2031250000,169656.7500000000,45394.4882812500,,,
1.3199999977,10,194886.4687500000,189810.2812500000,197140.8593750000,182517.6093750000,184930.9375000000,162020.2031250000,169622.1718750000,45380.3281250000,,,
1.3239999979,10,194882.4687500000,189821.4531250000,197132.3125000000,182508.7656250000,184922.6406250000,162023.8437500000,169627.4531250000,45384.2695312500,,,
1.3279999979,10,194894.0312500000,189848.6250000000,197140.2968750000,182480.1406250000,184925.7500000000,162024.8593750000,169638.7812500000,45391.1093750000,,,
1.3319999978,10,194917.7187500000,189875.7812500000,197166.6406250000,182505.7656250000,184947.8281250000,162041.7656250000,169657.6250000000,45408.1406250000,,,
1.3359999978,10,194931.3437500000,189876.8437500000,197192.2500000000,182535.9062500000,184974.7343750000,162056.3593750000,169676.1562500000,45421.7421875000,,,
1.3399999978,10,194924.0156250000,189868.7187500000,197193.9375000000,182544.5156250000,184980.2031250000,162064.6093750000,169680.5312500000,45425.4140625000,,,
1.3439999977,10,194895.8281250000,189862.6562500000,197152.7500000000,182494.0156250000,184940.0781250000,162044.5781250000,169636.4062500000,45406.2656250000,,,
1.3479999979,10,194909.6093750000,189887.7187500000,197163.6875000000,182506.2656250000,184947.9687500000,162050.2343750000,169658.9375000000,45412.8085937500,,,
1.3519999979,10,194921.6562500000,189891.8125000000,197171.1093750000,182548.2968750000,184950.4062500000,162041.6562500000,169652.6093750000,45407.4726562500,,,
1.3559999978,10,194931.7343750000,189883.6875000000,197187.5312500000,182538.1093750000,184973.9843750000,162056.2187500000,169668.2187500000,45417.0742187500,,,
1.3599999978,10,194913.3593750000,189853.5156250000,197181.6250000000,182512.0312500000,184974.5000000000,162044.5000000000,169672.3593750000,45409.3476562500,,,
1.3639999977,10,194898.7500000000,189851.8437500000,197151.3281250000,182496.0468750000,184939.4375000000,162035.6718750000,169649.5312500000,45403.9296875000,,,
1.3679999979,10,194907.6875000000,189882.8906250000,197148.7187500000,182493.1250000000,184932.4687500000,162035.4531250000,169646.0468750000,45408.9453125000,,,
1.3719999979,10,194912.0312500000,189881.7500000000,197158.1562500000,182481.2187500000,184942.3125000000,162032.7031250000,169651.4375000000,45404.1171875000,,,
1.3759999978,10,194916.5000000000,189865.5312500000,197169.1093750000,182495.8125000000,184956.4687500000,162044.1718750000,169652.5937500000,45410.7187500000,,,
1.3799999978,10,194912.9062500000,189857.5156250000,197179.3750000000,182509.8125000000,184970.5781250000,162051.9531250000,169665.2968750000,45419.4335937500,,,
1.3839999977,10,194898.0000000000,189855.4375000000,197156.4218750000,182491.8437500000,184947.6718750000,162041.3125000000,169658.3593750000,45411.0117187500,,,
1.3879999977,10,194906.3906250000,189874.5625000000,197156.3125000000,182476.1718750000,184941.6406250000,162034.1718750000,169651.7031250000,45408.6796875000,,,
1.3919999979,10,194927.6093750000,189884.1406250000,197173.9531250000,182498.1406250000,184958.4843750000,162044.9843750000,169660.2343750000,45417.0195312500,,,
1.3959999979,10,194944.7187500000,189887.1718750000,197195.1718750000,182522.9062500000,184985.2812500000,162063.4062500000,169684.8593750000,45432.7109375000,,,
1.3999999978,10,194941.3906250000,189871.5312500000,197202.5468750000,182535.9062500000,184997.8593750000,162069.7187500000,169699.5781250000,45437.8593750000,,,
1.4039999978,10,194945.8281250000,189884.3593750000,197198.7500000000,182535.7500000000,184993.8281250000,162073.8906250000,169698.2343750000,45449.3671875000,,,
1.4079999977,11,194937.8281250000,189893.4218750000,197178.7031250000,182521.9062500000,184967.4375000000,162055.0937500000,169669.9375000000,45437.2695312500,,,
1.4119999977,11,194936.9687500000,189893.1875000000,197175.1718750000,182500.1562500000,184959.9062500000,162046.3437500000,169656.8593750000,45425.0664062500,,,
1.4159999976,11,194944.8750000000,189887.2343750000,197193.5625000000,182513.3750000000,184979.7031250000,162060.8125000000,169677.8750000000,45432.5507812500,,,
1.4199999976,11,194929.5937500000,189864.3281250000,197190.1093750000,182524.1875000000,184976.1093750000,162058.0781250000,169678.9218750000,45425.3085937500,,,
1.4239999976,11,194936.0312500000,189883.9531250000,197197.6718750000,182532.9375000000,184980.8750000000,162072.4687500000,169690.2656250000,45438.7187500000,,,
1.4279999975,11,194940.3281250000,189901.7187500000,197191.8437500000,182521.7968750000,184972.3750000000,162063.3281250000,169685.2500000000,45433.1679687500,,,
1.4319999977,11,194939.5156250000,189895.1718750000,197187.0000000000,182521.1093750000,184967.6875000000,162050.8593750000,169675.3593750000,45418.7109375000,,,
1.4359999977,11,194943.2656250000,189883.2031250000,197197.1562500000,182540.1406250000,184981.9843750000,162051.6406250000,169682.3281250000,45421.3906250000,,,
1.4399999976,11,194943.8125000000,189881.3281250000,197204.1562500000,182561.0468750000,184992.5468750000,162058.6406250000,169689.1406250000,45433.5703125000,,,
1.4439999976,11,194936.6250000000,189893.4843750000,197188.0156250000,182527.3750000000,184976.2031250000,162062.0156250000,169672.2968750000,45437.1093750000,,,
1.4479999975,11,194946.8437500000,189916.9218750000,197189.1093750000,182492.7500000000,184971.2187500000,162069.0937500000,169670.2968750000,45445.1835937500,,,
1.4519999977,11,194949.0468750000,189920.4375000000,197186.8906250000,182522.5000000000,184968.4843750000,162065.7968750000,169664.7656250000,45439.8437500000,,,
1.4559999977,11,194929.7343750000,189892.5312500000,197178.7656250000,182506.5625000000,184965.8906250000,162060.8593750000,169663.2031250000,45425.7890625000,,,
1.4599999976,11,194918.6718750000,189875.2968750000,197182.2500000000,182483.6562500000,184972.5625000000,162064.5312500000,169676.0781250000,45427.1601562500,,,
1.4639999976,11,194911.4062500000,189882.4843750000,197174.1718750000,182445.4687500000,184961.3281250000,162058.6875000000,169673.5937500000,45425.6015625000,,,
1.4679999975,11,194901.9375000000,189885.9062500000,197149.8750000000,182447.8750000000,184937.4062500000,162040.0468750000,169652.2343750000,45408.6523437500,,,
1.4719999975,11,194919.8281250000,189895.4062500000,197163.9218750000,182483.8437500000,184954.0000000000,162045.7031250000,169664.6250000000,45416.2148437500,,,
1.4759999977,11,194934.2812500000,189891.9531250000,197185.0625000000,182512.1718750000,184976.9375000000,162059.2500000000,169683.7500000000,45427.8281250000,,,
1.4799999977,11,194924.8125000000,189878.3437500000,197185.3125000000,182506.3750000000,184978.7812500000,162065.4218750000,169687.4531250000,45429.4921875000,,,
1.4839999976,11,194925.3906250000,189891.8125000000,197180.2343750000,182494.4375000000,184973.5781250000,162071.5937500000,169685.3593750000,45438.2109375000,,,
1.4879999976,11,194912.4218750000,189894.2031250000,197154.4531250000,182463.7812500000,184945.5000000000,162050.0312500000,169665.1718750000,45422.0078125000,,,
1.4919999975,11,194912.9687500000,189889.0468750000,197156.2812500000,182467.5937500000,184944.4531250000,162043.9843750000,169667.9531250000,45416.2695312500,,,
1.4959999977,11,194931.3437500000,189886.1562500000,197188.2031250000,182504.7187500000,184976.7656250000,162071.4531250000,169701.8281250000,45437.6210937500,,,
1.4999999977,11,194920.0781250000,189874.3750000000,197180.7968750000,182504.8437500000,184972.7031250000,162085.8281250000,169695.2031250000,45440.7304687500,,,
1.5039999976,11,194928.8437500000,189894.4375000000,197183.7812500000,182497.0937500000,184973.8437500000,162098.8750000000,169696.2187500000,45456.4765625000,,,
1.5079999976,11,194942.6250000000,189922.5468750000,197184.5468750000,182510.7500000000,184972.0781250000,162103.4531250000,169695.2812500000,45464.0117187500,,,
1.5119999975,11,194950.3750000000,189924.5312500000,197195.2343750000,182518.7968750000,184982.8125000000,162109.5468750000,169717.9531250000,45458.5390625000,,,
1.5159999975,11,194955.0156250000,189904.6562500000,197212.7968750000,182539.5781250000,185003.4062500000,162118.2656250000,169753.8125000000,45455.8593750000,,,
1.5199999977,11,194950.0625000000,189891.2500000000,197217.9687500000,182544.0937500000,185011.0000000000,162122.8437500000,169766.8437500000,45457.7343750000,,,
1.5239999976,11,194963.1718750000,189917.0781250000,197226.6875000000,182549.0000000000,185019.1718750000,162135.8906250000,169779.9062500000,45476.6171875000,,,
1.5279999976,11,194978.7656250000,189948.4375000000,197235.0000000000,182547.3281250000,185026.8437500000,162149.2968750000,169802.9218750000,45491.4531250000,,,
1.5319999976,11,194972.2343750000,189944.2812500000,197226.6875000000,182539.2656250000,185021.5468750000,162150.5781250000,169809.0937500000,45483.5117187500,,,
1.5359999975,12,194960.7656250000,189920.1875000000,197222.5312500000,182518.3750000000,185021.6406250000,162150.5781250000,169809.2500000000,45476.2148437500,,,
1.5399999975,12,194941.0781250000,189895.7031250000,197209.7343750000,182490.4687500000,185011.0000000000,162146.2343750000,169802.4375000000,45467.9023437500,,,
1.5439999974,12,194948.3125000000,189917.1875000000,197211.2968750000,182491.5937500000,185012.0156250000,162159.6718750000,169811.5312500000,45485.3359375000,,,
1.5479999974,12,194968.4843750000,189945.8281250000,197219.2343750000,182515.7187500000,185019.3125000000,162167.6718750000,169825.6406250000,45500.0351562500,,,
1.5519999973,12,194998.4218750000,189967.9843750000,197248.5000000000,182561.7656250000,185051.2812500000,162187.5156250000,169863.4375000000,45522.3515625000,,,
1.5559999973,12,195007.4062500000,189961.3437500000,197264.3437500000,182562.7343750000,185075.5312500000,162201.9218750000,169891.0937500000,45532.5156250000,,,
1.5599999975,12,195001.0781250000,189943.1562500000,197268.9375000000,182557.8437500000,185083.7343750000,162206.4218750000,169903.4531250000,45536.9140625000,,,
1.5639999975,12,195010.7343750000,189965.0312500000,197277.7031250000,182562.3593750000,185090.4531250000,162216.4843750000,169915.9531250000,45553.0351562500,,,
1.5679999974,12,195011.3437500000,189985.1875000000,197271.7812500000,182505.0625000000,185082.7500000000,162215.0312500000,169917.3750000000,45549.6562500000,,,
1.5719999974,12,195021.4843750000,189991.0000000000,197281.9531250000,182520.9687500000,185092.2656250000,162220.3750000000,169929.6093750000,45549.7890625000,,,
1.5759999973,12,195027.4687500000,189973.8437500000,197294.1718750000,182559.5156250000,185104.2656250000,162228.7656250000,169939.4687500000,45550.9140625000,,,
1.5799999975,12,195007.8281250000,189942.8281250000,197281.7812500000,182539.3437500000,185095.6250000000,162222.8906250000,169935.0312500000,45540.7226562500,,,
1.5839999975,12,195010.5156250000,189958.7656250000,197276.2656250000,182525.2031250000,185091.5781250000,162225.6093750000,169939.5781250000,45550.7812500000,,,
1.5879999974,12,195019.2656250000,189980.0625000000,197273.5156250000,182537.1718750000,185084.5156250000,162223.0781250000,169939.6406250000,45551.5859375000,,,
1.5919999974,12,195032.3437500000,189989.4531250000,197282.0000000000,182559.4375000000,185089.6718750000,162227.0000000000,169941.0625000000,45554.0820312500,,,
1.5959999973,12,195028.2187500000,189974.2187500000,197282.5937500000,182579.2031250000,185089.6875000000,162216.0781250000,169935.0781250000,45544.0234375000,,,
1.5999999973,12,195007.8593750000,189949.0468750000,197275.3125000000,182603.7656250000,185083.3593750000,162210.2343750000,169929.3437500000,45534.1250000000,,,
1.6039999975,12,194999.5468750000,189956.5937500000,197264.6718750000,182588.6875000000,185071.5312500000,162214.4687500000,169920.2187500000,45534.1796875000,,,
1.6079999974,12,194999.4687500000,189980.4687500000,197253.7812500000,182534.7812500000,185055.7968750000,162206.8281250000,169897.3125000000,45530.8007812500,,,
1.6119999974,12,195022.4531250000,189991.6406250000,197282.4843750000,182558.7812500000,185079.3750000000,162208.0625000000,169914.4531250000,45538.7929687500,,,
1.6159999974,12,195003.8593750000,189958.9218750000,197269.8281250000,182562.4687500000,185075.5000000000,162202.4062500000,169916.7343750000,45523.1835937500,,,
1.6199999973,12,194970.8125000000,189924.1093750000,197237.5781250000,182516.7343750000,185048.5468750000,162190.3281250000,169893.1562500000,45502.3125000000,,,
1.6239999975,12,194983.9843750000,189949.7031250000,197245.6875000000,182523.4843750000,185051.5468750000,162200.9531250000,169888.6718750000,45521.4921875000,,,
1.6279999975,12,195005.6406250000,189974.3750000000,197264.0625000000,182510.3281250000,185062.2812500000,162202.6718750000,169896.7187500000,45531.9257812500,,,
1.6319999974,12,195019.6093750000,189983.3125000000,197274.2500000000,182532.2031250000,185070.1406250000,162195.9062500000,169900.3437500000,45529.2187500000,,,
1.6359999974,12,195000.7500000000,189954.1718750000,197256.0625000000,182576.4375000000,185058.0781250000,162181.4843750000,169884.6562500000,45510.6835937500,,,
1.6399999973,12,194992.0156250000,189941.7812500000,197259.5000000000,182558.3125000000,185061.7500000000,162182.6406250000,169888.1406250000,45512.1054687500,,,
1.6439999973,12,194993.8906250000,189957.2656250000,197256.9531250000,182518.6875000000,185055.5781250000,162183.4843750000,169887.0625000000,45521.0625000000,,,
1.6479999975,12,194998.6093750000,189976.8437500000,197249.0937500000,182546.3437500000,185044.2343750000,162184.0625000000,169876.0625000000,45524.9257812500,,,
1.6519999974,12,194987.0156250000,189957.8437500000,197231.2031250000,182546.6406250000,185029.0468750000,162172.8906250000,169856.4843750000,45502.4218750000,,,
1.6559999974,12,194974.4687500000,189922.5781250000,197232.7031250000,182524.3750000000,185032.1093750000,162157.2031250000,169849.6562500000,45484.0742187500,,,
1.6599999974,12,194968.4843750000,189912.7968750000,197240.8750000000,182533.7031250000,185042.6250000000,162157.7500000000,169854.7656250000,45490.3789062500,,,
1.6639999973,13,194963.0937500000,189916.5468750000,197228.7812500000,182561.7656250000,185033.0468750000,162149.7500000000,169845.8906250000,45491.8789062500,,,
1.6679999973,13,194976.9375000000,189944.9687500000,197232.4531250000,182548.4687500000,185032.5625000000,162154.3125000000,169846.2968750000,45501.9648437500,,,
1.6719999972,13,194975.5625000000,189944.1718750000,197225.4062500000,182527.6718750000,185023.3125000000,162143.6875000000,169831.8437500000,45490.0546875000,,,
1.6759999972,13,194968.0000000000,189922.2656250000,197227.0625000000,182542.9062500000,185027.8906250000,162142.0781250000,169831.0625000000,45484.5312500000,,,
1.6799999971,13,194952.7343750000,189894.4218750000,197221.4687500000,182549.6718750000,185023.2343750000,162130.4843750000,169822.1562500000,45477.3437500000,,,
1.6839999971,13,194939.8125000000,189892.0000000000,197202.2812500000,182510.0781250000,185001.6875000000,162115.5781250000,169797.8593750000,45468.0625000000,,,
1.6879999973,13,194938.0937500000,189908.8750000000,197188.7656250000,182496.6718750000,184982.7031250000,162102.2968750000,169776.4218750000,45459.8828125000,,,
1.6919999972,13,194964.3750000000,189928.6093750000,197214.9218750000,182536.6406250000,185004.1250000000,162108.5468750000,169791.9843750000,45472.4882812500,,,
1.6959999972,13,194966.2343750000,189909.5468750000,197222.8281250000,182541.0781250000,185013.9531250000,162109.0625000000,169792.1718750000,45467.8203125000,,,
1.6999999972,13,194954.0781250000,189890.3906250000,197218.1093750000,182512.6250000000,185010.8593750000,162105.9687500000,169781.6875000000,45462.9414062500,,,
1.7039999971,13,194942.0156250000,189888.6250000000,197202.7656250000,182500.7187500000,184997.4218750000,162096.9375000000,169769.1093750000,45457.7617187500,,,
1.7079999973,13,194957.2968750000,189910.7187500000,197209.8281250000,182525.2343750000,185001.8281250000,162100.1562500000,169776.0156250000,45466.3984375000,,,
1.7119999973,13,194980.5000000000,189927.4375000000,197231.9218750000,182526.1718750000,185020.1718750000,162108.1562500000,169793.8906250000,45477.0468750000,,,
1.7159999972,13,194977.1562500000,189909.0000000000,197234.0937500000,182526.9531250000,185024.2500000000,162107.2031250000,169787.4218750000,45471.8437500000,,,
1.7199999972,13,194966.7968750000,189890.1718750000,197231.2500000000,182542.4218750000,185023.7187500000,162105.4687500000,169782.4062500000,45473.6406250000,,,
1.7239999971,13,194984.2500000000,189915.5000000000,197242.0000000000,182583.0937500000,185033.3906250000,162116.7812500000,169792.5781250000,45495.2343750000,,,
1.7279999971,13,194981.0156250000,189931.1093750000,197226.5625000000,182560.9843750000,185014.2968750000,162101.8437500000,169773.0468750000,45486.3828125000,,,
1.7319999973,13,194963.9843750000,189918.9375000000,197207.9375000000,182516.5468750000,184994.2343750000,162090.9062500000,169749.7031250000,45464.8710937500,,,
1.7359999972,13,194959.0156250000,189901.0468750000,197212.2812500000,182516.5156250000,185001.5625000000,162094.3906250000,169753.2500000000,45461.0898437500,,,
1.7399999972,13,194956.3125000000,189885.0781250000,197222.4062500000,182513.0312500000,185015.1250000000,162100.8281250000,169773.9062500000,45466.0781250000,,,
1.7439999972,13,194957.3281250000,189892.6250000000,197219.6406250000,182528.9375000000,185012.5312500000,162105.5156250000,169778.0625000000,45472.7304687500,,,
1.7479999971,13,194964.7812500000,189920.3750000000,197210.2500000000,182547.3906250000,184999.2968750000,162103.8906250000,169760.9218750000,45476.3515625000,,,
1.7519999973,13,194952.9531250000,189916.5468750000,197199.5000000000,182508.6875000000,184987.1875000000,162090.9062500000,169750.4843750000,45460.4453125000,,,
1.7559999973,13,194927.7500000000,189873.5468750000,197186.4843750000,182511.3125000000,184978.1875000000,162066.1718750000,169740.6718750000,45434.0234375000,,,
1.7599999972,13,194932.2031250000,189862.9062500000,197201.8281250000,182541.6562500000,184995.7656250000,162075.7812500000,169755.0937500000,45449.9023437500,,,
1.7639999972,13,194927.8750000000,189872.4218750000,197194.2031250000,182532.2812500000,184987.7968750000,162078.3750000000,169745.2343750000,45455.5625000000,,,
1.7679999971,13,194929.0000000000,189894.4687500000,197183.4062500000,182512.9218750000,184973.2343750000,162076.0625000000,169729.4062500000,45451.8906250000,,,
1.7719999971,13,194953.3281250000,189916.9218750000,197208.4062500000,182525.2656250000,184994.2031250000,162098.3593750000,169746.6562500000,45467.8203125000,,,
1.7759999973,13,194952.7968750000,189905.3281250000,197211.9375000000,182560.2656250000,184998.9218750000,162104.4218750000,169743.0312500000,45467.3125000000,,,
1.7799999972,13,194945.9843750000,189890.0937500000,197217.2031250000,182554.3593750000,185006.7031250000,162108.0625000000,169754.2968750000,45470.1015625000,,,
1.7839999972,13,194956.6093750000,189908.5000000000,197226.9375000000,182537.4687500000,185015.6718750000,162118.2031250000,169772.1875000000,45483.6718750000,,,
1.7879999971,13,194937.1875000000,189891.8125000000,197197.8906250000,182514.6718750000,184984.0156250000,162087.6875000000,169741.2812500000,45453.8476562500,,,
1.7919999971,14,194942.9843750000,189895.4375000000,197198.2812500000,182535.7187500000,184985.8125000000,162084.6718750000,169735.6875000000,45449.0742187500,,,
1.7959999971,14,194950.3281250000,189889.3750000000,197210.9531250000,182571.6093750000,185002.6562500000,162094.9218750000,169747.5312500000,45453.9804687500,,,
1.7999999970,14,194955.0468750000,189882.4843750000,197224.1718750000,182587.8125000000,185019.5781250000,162105.3125000000,169765.8906250000,45467.6054687500,,,
1.8039999970,14,194944.7187500000,189889.1875000000,197206.3593750000,182560.7968750000,185001.4531250000,162097.1250000000,169746.9687500000,45467.1757812500,,,
1.8079999969,14,194932.4843750000,189895.4687500000,197182.4375000000,182526.6250000000,184975.4062500000,162084.7343750000,169722.3281250000,45456.4218750000,,,
1.8119999969,14,194954.7812500000,189918.0156250000,197204.9687500000,182558.8125000000,184994.2812500000,162095.1875000000,169740.6406250000,45471.7109375000,,,
1.8159999971,14,194971.8437500000,189919.5000000000,197228.7031250000,182549.1562500000,185021.5156250000,162115.0625000000,169767.2500000000,45488.7695312500,,,
1.8199999970,14,194948.1250000000,189885.0781250000,197209.7968750000,182533.3125000000,185007.5625000000,162102.2187500000,169755.8750000000,45473.2929687500,,,
1.8239999970,14,194937.5000000000,189884.3593750000,197192.4375000000,182548.0312500000,184988.1718750000,162091.7812500000,169737.6875000000,45467.4726562500,,,
1.8279999970,14,194934.1250000000,189899.3750000000,197179.6406250000,182531.6406250000,184971.9218750000,162084.4375000000,169721.2812500000,45459.6406250000,,,
1.8319999969,14,194953.2187500000,189917.2968750000,197197.1875000000,182542.6718750000,184990.5000000000,162096.6093750000,169741.0156250000,45468.9218750000,,,
1.8359999971,14,194968.0625000000,189912.4687500000,197221.3593750000,182569.6250000000,185018.7812500000,162108.5468750000,169768.7500000000,45478.8164062500,,,
1.8399999971,14,194959.0781250000,189896.7812500000,197219.4218750000,182572.0625000000,185021.0312500000,162108.1562500000,169771.0625000000,45476.9414062500,,,
1.8439999970,14,194930.0468750000,189881.2812500000,197186.2187500000,182512.7656250000,184988.0625000000,162091.0937500000,169738.9218750000,45457.0664062500,,,
1.8479999970,14,194938.6562500000,189899.7343750000,197186.1093750000,182519.2031250000,184982.4375000000,162085.9375000000,169732.6562500000,45461.8398437500,,,
1.8519999969,14,194977.5781250000,189935.9843750000,197225.0781250000,182583.1718750000,185015.9843750000,162110.1093750000,169761.5312500000,45490.5390625000,,,
1.8559999969,14,194977.2500000000,189922.9062500000,197234.2812500000,182565.2812500000,185029.6875000000,162122.0156250000,169781.4062500000,45493.8671875000,,,
1.8599999971,14,194957.2968750000,189893.9062500000,197224.4375000000,182522.8125000000,185024.6718750000,162118.7187500000,169780.7187500000,45486.3281250000,,,
1.8639999970,14,194960.3906250000,189906.5625000000,197222.4843750000,182514.7500000000,185019.9062500000,162125.7968750000,169772.2187500000,45494.3750000000,,,
1.8679999970,14,194964.4687500000,189924.1093750000,197215.2343750000,182563.4531250000,185007.7812500000,162119.2500000000,169760.5156250000,45487.9648437500,,,
1.8719999969,14,194962.5000000000,189921.0312500000,197214.4843750000,182551.8906250000,185008.9062500000,162120.4375000000,169768.1093750000,45478.7656250000,,,
1.8759999969,14,194977.7187500000,189923.0312500000,197241.6562500000,182536.6406250000,185041.5000000000,162145.6718750000,169810.0312500000,45494.7500000000,,,
1.8799999971,14,194953.2812500000,189890.7656250000,197226.9062500000,182500.3125000000,185032.2656250000,162149.5156250000,169809.2343750000,45481.2851562500,,,
1.8839999971,14,194947.1562500000,189896.7500000000,197217.7031250000,182488.0625000000,185025.2968750000,162169.3281250000,169812.3906250000,45485.8984375000,,,
1.8879999970,14,194946.6875000000,189917.7500000000,197200.2656250000,182491.7031250000,185007.3437500000,162177.4375000000,169793.7031250000,45485.1210937500,,,
1.8919999970,14,194979.7187500000,189945.7031250000,197227.5468750000,182539.5781250000,185034.9843750000,162199.5781250000,169821.5625000000,45508.6445312500,,,
1.8959999969,14,195017.5156250000,189961.8437500000,197273.2812500000,182582.6562500000,185084.8125000000,162228.3593750000,169874.5156250000,45542.1718750000,,,
1.8999999969,14,194998.6406250000,189936.2031250000,197258.9375000000,182559.8281250000,185077.6562500000,162229.8906250000,169868.2343750000,45536.3242187500,,,
1.9039999971,14,194971.6250000000,189922.5781250000,197228.4375000000,182524.4218750000,185049.4843750000,162220.5937500000,169841.1250000000,45523.2343750000,,,
1.9079999970,14,194984.0937500000,189951.8750000000,197236.7031250000,182523.4062500000,185053.4843750000,162215.0937500000,169854.4843750000,45531.0390625000,,,
1.9119999970,14,195015.5781250000,189986.5000000000,197266.5468750000,182562.7343750000,185080.5156250000,162242.2656250000,169890.4687500000,45556.4140625000,,,
1.9159999969,14,195029.6875000000,189988.3750000000,197287.0625000000,182600.2031250000,185102.8593750000,162284.7968750000,169914.8593750000,45575.0546875000,,,
1.9199999969,15,195006.1406250000,189961.7968750000,197270.4062500000,182550.6562500000,185093.3125000000,162286.2500000000,169904.9843750000,45569.5859375000,,,
1.9239999969,15,194996.3281250000,189962.2187500000,197253.9687500000,182558.2500000000,185076.3593750000,162259.3437500000,169887.2812500000,45560.0078125000,,,
1.9279999968,15,194992.6718750000,189974.7812500000,197242.0625000000,182559.2187500000,185061.2968750000,162242.4687500000,169877.7343750000,45549.2265625000,,,
1.9319999968,15,194986.9375000000,189970.7187500000,197233.7500000000,182552.0000000000,185053.1562500000,162244.6250000000,169871.7031250000,45538.6601562500,,,
1.9359999967,15,194997.1250000000,189959.1406250000,197250.6406250000,182563.4062500000,185070.8125000000,162256.6875000000,169881.9218750000,45543.7812500000,,,
1.9399999967,15,194993.5312500000,189941.3593750000,197257.1406250000,182559.5625000000,185078.2968750000,162250.7656250000,169883.8437500000,45546.5429687500,,,
1.9439999969,15,194993.6718750000,189946.1250000000,197257.4531250000,182556.5156250000,185076.5781250000,162250.5468750000,169888.4062500000,45552.6601562500,,,
1.9479999968,15,195010.4843750000,189982.3437500000,197267.5468750000,182553.3125000000,185083.9218750000,162261.8437500000,169892.9062500000,45566.0976562500,,,
1.9519999968,15,195024.6562500000,189997.2500000000,197276.9062500000,182569.7812500000,185091.5781250000,162264.2500000000,169883.3437500000,45569.3437500000,,,
1.9559999967,15,195019.6875000000,189977.9687500000,197276.3125000000,182565.7343750000,185093.8593750000,162262.7500000000,169884.3281250000,45563.2539062500,,,
1.9599999967,15,194997.9062500000,189945.7343750000,197265.7656250000,182546.7500000000,185086.0781250000,162244.1406250000,169883.6093750000,45550.1640625000,,,
1.9639999969,15,194983.4062500000,189936.6093750000,197248.2343750000,182535.7187500000,185065.9062500000,162217.1875000000,169874.4062500000,45538.0429687500,,,
1.9679999969,15,194987.9375000000,189954.5781250000,197239.4531250000,182516.9531250000,185054.7500000000,162212.8281250000,169865.3125000000,45532.5156250000,,,
1.9719999968,15,195001.7500000000,189968.5781250000,197251.1250000000,182529.6250000000,185060.7031250000,162214.6875000000,169863.3281250000,45532.4101562500,,,
1.9759999968,15,194990.2968750000,189946.0468750000,197245.1406250000,182555.9687500000,185056.5625000000,162205.7031250000,169853.0781250000,45520.7421875000,,,
1.9799999967,15,194980.2031250000,189921.2187500000,197246.5625000000,182568.6875000000,185063.1875000000,162207.6875000000,169857.2968750000,45519.6132812500,,,
1.9839999967,15,194984.4687500000,189931.5312500000,197246.6406250000,182570.7500000000,185062.1718750000,162209.9375000000,169854.9062500000,45529.4570312500,,,
1.9879999969,15,194977.2343750000,189944.2187500000,197227.7656250000,182537.4687500000,185039.7500000000,162194.8906250000,169837.6562500000,45517.6562500000,,,
1.9919999968,15,194973.2343750000,189942.6093750000,197224.8125000000,182531.2343750000,185036.1250000000,162171.3437500000,169834.8437500000,45502.9570312500,,,
1.9959999968,15,194990.7500000000,189948.9218750000,197251.7968750000,182564.1562500000,185064.2187500000,162195.7031250000,169848.6093750000,45525.0585937500,,,
1.9999999967,15,194984.9531250000,189930.7812500000,197252.2812500000,182570.2187500000,185069.3125000000,162199.6093750000,169848.8125000000,45529.0273437500,,,
2.0039999967,15,194960.7031250000,189913.1406250000,197224.2812500000,182535.1093750000,185042.3750000000,162167.9062500000,169824.3750000000,45510.2812500000,,,
2.0079999969,15,194944.0312500000,189915.1250000000,197196.2968750000,182511.6875000000,185012.6562500000,162153.3125000000,169789.1093750000,45493.1679687500,,,
2.0119999968,15,194951.8593750000,189917.8906250000,197203.8125000000,182525.1875000000,185019.6406250000,162152.4375000000,169791.6875000000,45490.8867187500,,,
2.0159999968,15,194963.5781250000,189911.4531250000,197226.4843750000,182547.0625000000,185045.2031250000,162157.7187500000,169813.8750000000,45499.5234375000,,,
2.0199999968,15,194952.2812500000,189893.3437500000,197225.0000000000,182553.6875000000,185046.2500000000,162159.1718750000,169811.9843750000,45499.1757812500,,,
2.0239999967,15,194938.0468750000,189886.3750000000,197205.2656250000,182519.0312500000,185026.2812500000,162148.8906250000,169789.6406250000,45489.5742187500,,,
2.0279999967,15,194949.3125000000,189911.3125000000,197203.2187500000,182520.5625000000,185018.6406250000,162149.9687500000,169777.9531250000,45495.1796875000,,,
2.0319999969,15,194967.7343750000,189929.4218750000,197217.3906250000,182519.5000000000,185028.1406250000,162150.4218750000,169784.2031250000,45502.0468750000,,,
2.0359999968,15,194967.6250000000,189914.6093750000,197225.2187500000,182542.0000000000,185039.0312500000,162150.7968750000,169796.8437500000,45501.9921875000,,,
2.0399999968,15,194962.9062500000,189900.9843750000,197227.3906250000,182568.0156250000,185046.7812500000,162159.7031250000,169804.1875000000,45508.4023437500,,,
2.0439999967,15,194961.8906250000,189905.4062500000,197224.8906250000,182565.0937500000,185041.3125000000,162158.2187500000,169793.9375000000,45511.3515625000,,,
2.0479999967,16,194972.9062500000,189929.7343750000,197228.0312500000,182543.3593750000,185039.0781250000,162154.1718750000,169787.7187500000,45517.0664062500,,,
2.0519999966,16,194973.8437500000,189932.4218750000,197224.4375000000,182535.6875000000,185036.4062500000,162140.4218750000,169782.2500000000,45507.8671875000,,,
2.0559999966,16,194970.1718750000,189919.4218750000,197227.8437500000,182529.7187500000,185043.2343750000,162144.3906250000,169781.2500000000,45503.0664062500,,,
2.0599999966,16,194959.6875000000,189901.6250000000,197228.6718750000,182518.4687500000,185044.9218750000,162153.7500000000,169771.2812500000,45501.9375000000,,,
2.0639999965,16,194933.6406250000,189882.4062500000,197202.5000000000,182506.5625000000,185019.1718750000,162131.5312500000,169752.2031250000,45479.7578125000,,,
2.0679999965,16,194948.0468750000,189913.3281250000,197207.0000000000,182508.7968750000,185023.4375000000,162132.7656250000,169776.6093750000,45491.0234375000,,,
2.0719999967,16,194973.5781250000,189937.7343750000,197224.8906250000,182531.8281250000,185037.6875000000,162138.4062500000,169783.0781250000,45504.7265625000,,,
2.0759999966,16,194974.7968750000,189923.8593750000,197229.7187500000,182555.1718750000,185042.9687500000,162130.9687500000,169776.7656250000,45500.4648437500,,,
2.0799999966,16,194947.5156250000,189895.7500000000,197212.4531250000,182534.7812500000,185030.2343750000,162125.7656250000,169772.2968750000,45490.1093750000,,,
2.0839999965,16,194937.1875000000,189899.0625000000,197199.7343750000,182523.5468750000,185017.4062500000,162131.1562500000,169765.9687500000,45494.2421875000,,,
2.0879999965,16,194924.9062500000,189904.7968750000,197175.1875000000,182506.7031250000,184991.2031250000,162115.7343750000,169739.6250000000,45480.8828125000,,,
2.0919999967,16,194928.0625000000,189909.4375000000,197171.0625000000,182524.6406250000,184985.6718750000,162105.7343750000,169729.0312500000,45473.0507812500,,,
2.0959999966,16,194953.4062500000,189911.5312500000,197206.5781250000,182564.6562500000,185021.3750000000,162122.2812500000,169757.0781250000,45493.4101562500,,,
2.0999999966,16,194954.4062500000,189897.3593750000,197221.3593750000,182545.6406250000,185038.8906250000,162126.0625000000,169773.4218750000,45497.8906250000,,,
2.1039999966,16,194927.3906250000,189872.9531250000,197190.5625000000,182508.2343750000,185010.4687500000,162104.3125000000,169744.9843750000,45473.8007812500,,,
2.1079999965,16,194900.3593750000,189869.2031250000,197143.1718750000,182492.1406250000,184964.0937500000,162080.5468750000,169697.1093750000,45446.3085937500,,,
2.1119999965,16,194919.1562500000,189888.8125000000,197162.5312500000,182516.8593750000,184976.3906250000,162085.5625000000,169704.8906250000,45455.4570312500,,,
2.1159999967,16,194924.7968750000,189871.2968750000,197179.9687500000,182539.0000000000,184994.6875000000,162088.3593750000,169721.5781250000,45457.4414062500,,,
2.1199999966,16,194947.7812500000,189885.4375000000,197215.4531250000,182565.0625000000,185030.5468750000,162117.4062500000,169764.0937500000,45488.8750000000,,,
2.1239999966,16,194935.6562500000,189884.4062500000,197205.6406250000,182549.1250000000,185020.1250000000,162110.1562500000,169760.0625000000,45486.9453125000,,,
2.1279999965,16,194906.5000000000,189872.1562500000,197164.3281250000,182527.5468750000,184977.6250000000,162073.9531250000,169715.8906250000,45455.8867187500,,,
2.1319999965,16,194912.9062500000,189887.1406250000,197161.3593750000,182489.2656250000,184972.7968750000,162079.7187500000,169705.3750000000,45458.0585937500,,,
2.1359999967,16,194937.2968750000,189892.2187500000,197192.8906250000,182530.0937500000,185004.5312500000,162104.9375000000,169737.9687500000,45478.0664062500,,,
2.1399999966,16,194894.4062500000,189830.4687500000,197153.6093750000,182554.2343750000,184971.2812500000,162078.9062500000,169703.2812500000,45445.0234375000,,,
2.1439999966,16,194900.3593750000,189844.2031250000,197159.6406250000,182541.6718750000,184975.1406250000,162088.6250000000,169708.5625000000,45457.4960937500,,,
2.1479999966,16,194908.9375000000,189867.1406250000,197168.0312500000,182498.8125000000,184977.2812500000,162085.2968750000,169717.5468750000,45456.8789062500,,,
2.1519999965,16,194917.6093750000,189879.8750000000,197165.2187500000,182517.1875000000,184977.2031250000,162082.8750000000,169713.4687500000,45456.2343750000,,,
2.1559999965,16,194905.9062500000,189860.5937500000,197154.4062500000,182518.3906250000,184973.7968750000,162079.2031250000,169706.0468750000,45444.6992187500,,,
2.1599999967,16,194912.9062500000,189859.8437500000,197171.3593750000,182528.2656250000,184993.4843750000,162095.9375000000,169725.3593750000,45458.3789062500,,,
2.1639999966,16,194904.1093750000,189859.3593750000,197161.1406250000,182532.5000000000,184981.3593750000,162086.7187500000,169720.4531250000,45455.2148437500,,,
2.1679999966,16,194912.1093750000,189884.7656250000,197161.4375000000,182571.0000000000,184977.6562500000,162082.7187500000,169717.7656250000,45461.1406250000,,,
2.1719999965,16,194913.6875000000,189889.9375000000,197161.7812500000,182577.2968750000,184976.5312500000,162072.4687500000,169712.4531250000,45456.7968750000,,,
2.1759999965,17,194908.7500000000,189873.6875000000,197166.2812500000,182528.7968750000,184985.2968750000,162094.4375000000,169718.8125000000,45458.9687500000,,,
2.1799999964,17,194899.8281250000,189851.9531250000,197172.9375000000,182505.7343750000,184994.2031250000,162096.5156250000,169730.1093750000,45459.3710937500,,,
2.1839999964,17,194885.5468750000,189841.6875000000,197154.0000000000,182461.0000000000,184979.0000000000,162087.4218750000,169724.8437500000,45455.9375000000,,,
2.1879999964,17,194892.3906250000,189862.1562500000,197146.7812500000,182469.2812500000,184967.6562500000,162087.6093750000,169717.5156250000,45457.7343750000,,,
2.1919999963,17,194895.3125000000,189864.1406250000,197141.0156250000,182487.4687500000,184959.5000000000,162078.0000000000,169708.5156250000,45448.3476562500,,,
2.1959999963,17,194897.1406250000,189849.2812500000,197148.7812500000,182502.9218750000,184970.4218750000,162080.2031250000,169719.8281250000,45445.9882812500,,,
2.1999999965,17,194898.8593750000,189832.1093750000,197163.0156250000,182509.8593750000,184986.1562500000,162086.5625000000,169733.0781250000,45453.3359375000,,,
2.2039999964,17,194899.1562500000,189843.2343750000,197161.4062500000,182531.1562500000,184983.6875000000,162089.7812500000,169728.7656250000,45462.5898437500,,,
2.2079999964,17,194898.7500000000,189864.5156250000,197145.4531250000,182507.3906250000,184965.5312500000,162079.1562500000,169705.7812500000,45460.2304687500,,,
2.2119999963,17,194911.7812500000,189879.8593750000,197156.2031250000,182506.7343750000,184974.7031250000,162075.8281250000,169717.0156250000,45462.2695312500,,,
2.2159999963,17,194929.9218750000,189877.8125000000,197184.7343750000,182551.4375000000,185002.8125000000,162090.5468750000,169739.1093750000,45471.4414062500,,,
2.2199999965,17,194921.7656250000,189849.8437500000,197189.7812500000,182537.0156250000,185013.5781250000,162087.6562500000,169755.2656250000,45467.5781250000,,,
2.2239999964,17,194904.6718750000,189848.5312500000,197169.5000000000,182475.0156250000,184995.0468750000,162088.0625000000,169743.3750000000,45463.5039062500,,,
2.2279999964,17,194904.5625000000,189874.1718750000,197154.2187500000,182448.4375000000,184975.2968750000,162076.1718750000,169722.3281250000,45462.4023437500,,,
2.2319999964,17,194925.7343750000,189901.6093750000,197169.2343750000,182476.7187500000,184987.9375000000,162086.3437500000,169732.6562500000,45475.1445312500,,,
2.2359999963,17,194942.7343750000,189902.3593750000,197182.3593750000,182522.0156250000,185004.4843750000,162101.4375000000,169745.2343750000,45490.6718750000,,,
2.2399999963,17,194927.5625000000,189858.4687500000,197180.7187500000,182519.2031250000,185005.3593750000,162094.9843750000,169754.3750000000,45480.7773437500,,,
2.2439999965,17,194919.2343750000,189858.1562500000,197181.1406250000,182511.9531250000,185001.2656250000,162099.5156250000,169755.8750000000,45482.7890625000,,,
2.2479999964,17,194910.7656250000,189870.7812500000,197166.9375000000,182514.5781250000,184984.0156250000,162093.7968750000,169738.5000000000,45471.6835937500,,,
2.2519999964,17,194908.2656250000,189876.3125000000,197155.9062500000,182516.9531250000,184973.9062500000,162082.7812500000,169722.8593750000,45459.5585937500,,,
2.2559999963,17,194922.2656250000,189878.8125000000,197177.9218750000,182528.0312500000,184997.6406250000,162099.8125000000,169746.4062500000,45469.7539062500,,,
2.2599999963,17,194927.0781250000,189875.4531250000,197191.6875000000,182532.1250000000,185014.0000000000,162115.8125000000,169761.4531250000,45483.0039062500,,,
2.2639999965,17,194904.5625000000,189850.2187500000,197170.5781250000,182526.3593750000,184995.7656250000,162093.0781250000,169756.8906250000,45463.0742187500,,,
2.2679999964,17,194890.7343750000,189852.9687500000,197145.0156250000,182493.6093750000,184968.7343750000,162084.2031250000,169733.3750000000,45450.3593750000,,,
2.2719999964,17,194913.3593750000,189879.4531250000,197161.0625000000,182531.1562500000,184981.3281250000,162093.6718750000,169736.9375000000,45464.3085937500,,,
2.2759999963,17,194941.6093750000,189895.5937500000,197199.4687500000,182554.8750000000,185018.4218750000,162116.9531250000,169762.9843750000,45488.9570312500,,,
2.2799999963,17,194896.3281250000,189833.7656250000,197166.2812500000,182519.2187500000,184993.0468750000,162089.6406250000,169740.9687500000,45454.5156250000,,,
2.2839999963,17,194860.5312500000,189811.0000000000,197122.0625000000,182474.7031250000,184952.2031250000,162064.2656250000,169705.2968750000,45431.6914062500,,,
2.2879999964,17,194877.6718750000,189842.2500000000,197130.5000000000,182471.1875000000,184951.9843750000,162064.7500000000,169705.8593750000,45440.1953125000,,,
2.2919999964,17,194899.1718750000,189861.2656250000,197148.1875000000,182473.7031250000,184967.2500000000,162068.7812500000,169719.2187500000,45446.3906250000,,,
2.2959999964,17,194896.5468750000,189846.9375000000,197150.9531250000,182474.6718750000,184975.3281250000,162070.3906250000,169721.5937500000,45440.5429687500,,,
2.2999999963,17,194876.6250000000,189815.2031250000,197143.6562500000,182467.7031250000,184971.2812500000,162069.7343750000,169710.1718750000,45430.5937500000,,,
2.3039999963,18,194861.9218750000,189813.8750000000,197131.2343750000,182450.5937500000,184958.4531250000,162065.7500000000,169703.8906250000,45427.7226562500,,,
2.3079999962,18,194877.1250000000,189849.8125000000,197138.3906250000,182441.2343750000,184961.8281250000,162075.8281250000,169710.1250000000,45443.8164062500,,,
2.3119999962,18,194924.0937500000,189896.1406250000,197181.8437500000,182496.3437500000,185000.2500000000,162102.8125000000,169745.2500000000,45476.0000000000,,,
2.3159999961,18,194953.7656250000,189904.6406250000,197211.1875000000,182552.4843750000,185032.6406250000,162128.4531250000,169766.9218750000,45498.4257812500,,,
2.3199999961,18,194938.2343750000,189877.2031250000,197195.2031250000,182555.2500000000,185024.3750000000,162128.0000000000,169757.6718750000,45493.8906250000,,,
2.3239999961,18,194934.3750000000,189873.1406250000,197200.7343750000,182520.5156250000,185025.3750000000,162120.7500000000,169766.0781250000,45493.9453125000,,,
2.3279999963,18,194940.9375000000,189902.5937500000,197197.2656250000,182500.1093750000,185015.0468750000,162112.5000000000,169752.9531250000,45494.4296875000,,,
2.3319999962,18,194924.2031250000,189900.0468750000,197161.8906250000,182497.5000000000,184986.2343750000,162103.5937500000,169721.5937500000,45474.9570312500,,,
2.3359999962,18,194927.6562500000,189873.9531250000,197178.9531250000,182518.7500000000,185006.8125000000,162102.9687500000,169738.5312500000,45472.9179687500,,,
2.3399999961,18,194916.7968750000,189846.2656250000,197179.5625000000,182518.5000000000,185014.3437500000,162107.3125000000,169745.4687500000,45472.5156250000,,,
2.3439999961,18,194928.4375000000,189879.1875000000,197185.4375000000,182537.7343750000,185021.0625000000,162129.5781250000,169755.9375000000,45497.3242187500,,,
2.3479999963,18,194942.2500000000,189913.9687500000,197188.7656250000,182503.7500000000,185019.3906250000,162128.9375000000,169758.4218750000,45506.6601562500,,,
2.3519999962,18,194945.9062500000,189912.6562500000,197193.0312500000,182483.4218750000,185020.8906250000,162124.4843750000,169759.9531250000,45497.2968750000,,,
2.3559999962,18,194942.3906250000,189888.4375000000,197189.5625000000,182520.4062500000,185023.8437500000,162129.1718750000,169759.0937500000,45496.1171875000,,,
2.3599999961,18,194950.4062500000,189890.6093750000,197199.8906250000,182535.1093750000,185038.2812500000,162149.1562500000,169769.5312500000,45518.5156250000,,,
2.3639999961,18,194950.5156250000,189894.7656250000,197201.6875000000,182527.2500000000,185037.2500000000,162152.0625000000,169772.0000000000,45523.1015625000,,,
2.3679999961,18,194938.6562500000,189901.6562500000,197175.8593750000,182518.4218750000,185006.4687500000,162135.7812500000,169736.3593750000,45506.4453125000,,,
2.3719999962,18,194958.5156250000,189921.6875000000,197195.4375000000,182528.6406250000,185019.5781250000,162145.4375000000,169746.6718750000,45515.1093750000,,,
2.3759999962,18,194985.7656250000,189931.8125000000,197235.8125000000,182562.1875000000,185060.6250000000,162175.4531250000,169786.7187500000,45539.5429687500,,,
2.3799999962,18,194983.8281250000,189919.8437500000,197248.6093750000,182550.2031250000,185077.1718750000,162181.3437500000,169798.6093750000,45547.4843750000,,,
2.3839999961,18,194937.7812500000,189877.2812500000,197204.1562500000,182523.3593750000,185036.0000000000,162134.8437500000,169759.6093750000,45506.1757812500,,,
2.3879999961,18,194930.7500000000,189879.6718750000,197184.7343750000,182529.2343750000,185013.2812500000,162121.2187500000,169731.5000000000,45492.2578125000,,,
2.3919999963,18,194940.3281250000,189891.2812500000,197184.7187500000,182537.4843750000,185012.4218750000,162125.9843750000,169725.5937500000,45497.6757812500,,,
2.3959999962,18,194941.9843750000,189877.4375000000,197189.6250000000,182530.4843750000,185017.4375000000,162136.3437500000,169733.6093750000,45495.8515625000,,,
2.3999999962,18,194939.3906250000,189864.8906250000,197198.4687500000,182518.7968750000,185028.8906250000,162143.2812500000,169750.2968750000,45501.7500000000,,,
2.4039999961,18,194958.2343750000,189888.3593750000,197218.8281250000,182523.9687500000,185047.0781250000,162163.5937500000,169770.5781250000,45528.4921875000,,,
2.4079999961,18,194923.6093750000,189877.6562500000,197162.0000000000,182493.3125000000,184991.2812500000,162134.8125000000,169712.7968750000,45495.4765625000,,,
2.4119999961,18,194912.1562500000,189866.8750000000,197153.0156250000,182492.3750000000,184979.0000000000,162112.1718750000,169700.7812500000,45470.3945312500,,,
2.4159999962,18,194923.1093750000,189859.9531250000,197175.3593750000,182508.6093750000,185006.9218750000,162128.0000000000,169732.0937500000,45479.5703125000,,,
2.4199999962,18,194913.9843750000,189836.7500000000,197179.4531250000,182524.0781250000,185017.4843750000,162132.4687500000,169741.0937500000,45480.1875000000,,,
2.4239999962,18,194906.9843750000,189835.4687500000,197172.1406250000,182523.5156250000,185011.1562500000,162124.8281250000,169733.9687500000,45478.3359375000,,,
2.4279999961,18,194914.6875000000,189858.3906250000,197163.5468750000,182537.3906250000,185001.5000000000,162122.7343750000,169729.2500000000,45478.8437500000,,,
2.4319999961,19,194915.6718750000,189863.8437500000,197160.4687500000,182528.5000000000,184996.7031250000,162120.9375000000,169724.0625000000,45472.8085937500,,,
2.4359999960,19,194923.0781250000,189856.5468750000,197174.2031250000,182532.0000000000,185013.2500000000,162138.1562500000,169731.0937500000,45485.2031250000,,,
2.4399999960,19,194914.0312500000,189838.5468750000,197180.1562500000,182518.8281250000,185019.7656250000,162137.9218750000,169737.3750000000,45487.8320312500,,,
2.4439999959,19,194897.3593750000,189835.0625000000,197157.6718750000,182501.0468750000,184997.5000000000,162123.4062500000,169717.6093750000,45479.9726562500,,,
2.4479999959,19,194890.7812500000,189849.6718750000,197133.9687500000,182487.6562500000,184972.3750000000,162112.4375000000,169694.0781250000,45475.0898437500,,,
2.4519999959,19,194906.9843750000,189868.5937500000,197145.0937500000,182520.7031250000,184981.2031250000,162123.2968750000,169699.6093750000,45483.1367187500,,,
2.4559999960,19,194912.2187500000,189856.7812500000,197161.1875000000,182533.7656250000,184998.3593750000,162128.7187500000,169715.7187500000,45482.2500000000,,,
2.4599999960,19,194911.5625000000,189843.7031250000,197170.9062500000,182564.7968750000,185008.6875000000,162136.9843750000,169720.8437500000,45486.8125000000,,,
2.4639999960,19,194907.0937500000,189848.3437500000,197165.8906250000,182551.3906250000,185001.7187500000,162141.4687500000,169715.8906250000,45489.8437500000,,,
2.4679999959,19,194920.6875000000,189871.4375000000,197176.2656250000,182528.4531250000,185008.3437500000,162140.8750000000,169731.5000000000,45494.1054687500,,,
2.4719999959,19,194917.9218750000,189870.3593750000,197169.7812500000,182475.6875000000,185004.2187500000,162128.3750000000,169732.9218750000,45481.4453125000,,,
2.4759999961,19,194912.0468750000,189847.4218750000,197169.9062500000,182487.2812500000,185004.7968750000,162116.4843750000,169726.2968750000,45467.7421875000,,,
2.4799999960,19,194915.7343750000,189833.9843750000,197185.7812500000,182496.9843750000,185020.8125000000,162126.1406250000,169738.1718750000,45476.0820312500,,,
2.4839999960,19,194923.2031250000,189850.5156250000,197196.3906250000,182479.5781250000,185028.1718750000,162144.3593750000,169745.0468750000,45494.6445312500,,,
2.4879999959,19,194900.8437500000,189850.9687500000,197152.9375000000,182497.7343750000,184987.5312500000,162127.5156250000,169705.9375000000,45475.6796875000,,,
2.4919999959,19,194915.8281250000,189868.3125000000,197162.3750000000,182536.6875000000,184996.9687500000,162131.2500000000,169719.4218750000,45482.3867187500,,,
2.4959999959,19,194932.5781250000,189871.2187500000,197189.4843750000,182528.7968750000,185026.9062500000,162145.8906250000,169750.2187500000,45495.9843750000,,,
2.4999999960,19,194922.7500000000,189852.7812500000,197187.0156250000,182500.7968750000,185029.2343750000,162142.6406250000,169748.1250000000,45493.4648437500,,,
2.5039999960,19,194889.3906250000,189831.1093750000,197145.4218750000,182483.7343750000,184989.6250000000,162114.3125000000,169706.8281250000,45466.3710937500,,,
2.5079999960,19,194892.1250000000,189841.9062500000,197142.9531250000,182490.0468750000,184983.4531250000,162107.0781250000,169707.0625000000,45460.9296875000,,,
2.5119999959,19,194918.0625000000,189868.6093750000,197163.6562500000,182508.0625000000,185005.4218750000,162128.7968750000,169730.0781250000,45477.9609375000,,,
2.5159999959,19,194921.7812500000,189857.9687500000,197166.1562500000,182532.6562500000,185013.0625000000,162130.8437500000,169729.8125000000,45478.0117187500,,,
2.5199999961,19,194902.9062500000,189831.7343750000,197153.6250000000,182539.4687500000,185000.5312500000,162123.4687500000,169710.7031250000,45469.2421875000,,,
2.5239999960,19,194909.9062500000,189852.5156250000,197163.2500000000,182548.2500000000,185006.0156250000,162136.9218750000,169719.5156250000,45487.8320312500,,,
2.5279999960,19,194946.3593750000,189913.4375000000,197189.6718750000,182549.1562500000,185030.8125000000,162165.9531250000,169748.9375000000,45527.1250000000,,,
2.5319999959,19,194916.3437500000,189879.8750000000,197155.2031250000,182492.6406250000,185000.1093750000,162139.7656250000,169723.5312500000,45492.0937500000,,,
2.5359999959,19,194916.8750000000,189866.9843750000,197162.2968750000,182511.6406250000,185009.9843750000,162144.8906250000,169728.0312500000,45493.5429687500,,,
2.5399999958,19,194909.2656250000,189850.0312500000,197165.9062500000,182515.8437500000,185015.5781250000,162141.9375000000,169725.2187500000,45493.3828125000,,,
2.5439999960,19,194915.2500000000,189862.9062500000,197172.4062500000,182486.7187500000,185020.5156250000,162151.3906250000,169730.3750000000,45505.2109375000,,,
2.5479999960,19,194910.7343750000,189869.7968750000,197159.5625000000,182472.8281250000,185001.3906250000,162133.7656250000,169715.3750000000,45489.8437500000,,,
2.5519999960,19,194906.8750000000,189864.1875000000,197153.9531250000,182486.6875000000,184989.1875000000,162119.2812500000,169704.9218750000,45471.1757812500,,,
2.5559999959,19,194921.2812500000,189862.9531250000,197171.9687500000,182505.4062500000,185007.8125000000,162139.0000000000,169718.5937500000,45483.8593750000,,,
2.5599999959,20,194917.8437500000,189849.7500000000,197175.2187500000,182527.7812500000,185011.8593750000,162136.8750000000,169723.5781250000,45489.5468750000,,,
2.5639999958,20,194896.8750000000,189839.1093750000,197152.8750000000,182497.4687500000,184988.0312500000,162116.3281250000,169701.6250000000,45476.0820312500,,,
2.5679999958,20,194895.0000000000,189855.4687500000,197139.2031250000,182483.9531250000,184972.3750000000,162113.8593750000,169684.6718750000,45472.2460937500,,,
2.5719999957,20,194912.7187500000,189875.8281250000,197151.2968750000,182507.1093750000,184984.3593750000,162122.6562500000,169696.3906250000,45481.9296875000,,,
2.5759999957,20,194946.7656250000,189895.9531250000,197195.1250000000,182535.5312500000,185032.5156250000,162155.7656250000,169744.1562500000,45511.5664062500,,,
2.5799999957,20,194934.1875000000,189872.3437500000,197197.1875000000,182504.3437500000,185037.5781250000,162156.1093750000,169746.9687500000,45506.1250000000,,,
2.5839999958,20,194925.1093750000,189866.4375000000,197191.1718750000,182507.1562500000,185033.0000000000,162155.7656250000,169743.2500000000,45504.1367187500,,,
2.5879999958,20,194910.0625000000,189873.3593750000,197161.4531250000,182496.6718750000,185006.0937500000,162147.2812500000,169728.5781250000,45491.6406250000,,,
2.5919999958,20,194906.0781250000,189871.4375000000,197147.6250000000,182510.1562500000,184992.7343750000,162136.3593750000,169722.9375000000,45478.0117187500,,,
2.5959999957,20,194917.6250000000,189864.8593750000,197160.7968750000,182537.2500000000,185005.7656250000,162144.0937500000,169727.9062500000,45483.2421875000,,,
2.5999999957,20,194902.2031250000,189831.7656250000,197156.7187500000,182525.8281250000,185005.4218750000,162143.3437500000,169728.7343750000,45477.5039062500,,,
2.6039999959,20,194893.7812500000,189831.2500000000,197151.6406250000,182496.4218750000,185000.8125000000,162143.9843750000,169725.0625000000,45480.2382812500,,,
2.6079999958,20,194882.9218750000,189847.0000000000,197119.9062500000,182487.8750000000,184969.4218750000,162133.0937500000,169688.7187500000,45471.0390625000,,,
2.6119999958,20,194892.7343750000,189866.7656250000,197125.2031250000,182480.8906250000,184971.5937500000,162135.8281250000,169695.3750000000,45473.8828125000,,,
2.6159999957,20,194894.4531250000,189852.5156250000,197137.9843750000,182507.0156250000,184987.6562500000,162143.4687500000,169713.0781250000,45471.8437500000,,,
2.6199999957,20,194896.1250000000,189847.5312500000,197149.5000000000,182514.4531250000,185002.1718750000,162165.8750000000,169730.0468750000,45484.1015625000,,,
2.6239999956,20,194881.3125000000,189838.6875000000,197138.4687500000,182497.9062500000,184990.7187500000,162144.0156250000,169718.0937500000,45470.9062500000,,,
2.6279999958,20,194888.9375000000,189859.2187500000,197136.7343750000,182496.8281250000,184984.9531250000,162140.6562500000,169710.9218750000,45474.6601562500,,,
2.6319999958,20,194895.5000000000,189865.5625000000,197136.4843750000,182504.1718750000,184979.7500000000,162127.9218750000,169699.2343750000,45469.4570312500,,,
2.6359999957,20,194915.1875000000,189862.0156250000,197166.8750000000,182518.3125000000,185006.6875000000,162137.8906250000,169724.5468750000,45479.4335937500,,,
2.6399999957,20,194929.1093750000,189863.3906250000,197195.6093750000,182521.0781250000,185031.5156250000,162161.5781250000,169744.4531250000,45499.1757812500,,,
2.6439999957,20,194912.3437500000,189857.6093750000,197172.6718750000,182522.1718750000,185009.7968750000,162146.4218750000,169725.1093750000,45489.8671875000,,,
2.6479999959,20,194894.1093750000,189869.3125000000,197141.6093750000,182489.8281250000,184979.9843750000,162144.7656250000,169696.3593750000,45480.9101562500,,,
2.6519999958,20,194881.2343750000,189846.8125000000,197129.5937500000,182487.0937500000,184965.1093750000,162120.1875000000,169680.9687500000,45454.7070312500,,,
2.6559999958,20,194915.3281250000,189861.7812500000,197174.7343750000,182517.7812500000,185008.9843750000,162155.5156250000,169713.5468750000,45485.2539062500,,,
2.6599999957,20,194919.8281250000,189850.0000000000,197180.4531250000,182538.0781250000,185018.9375000000,162160.3437500000,169721.3906250000,45491.6640625000,,,
2.6639999957,20,194918.1875000000,189849.6250000000,197175.5937500000,182528.8593750000,185014.4843750000,162163.5937500000,169727.0781250000,45495.5546875000,,,
2.6679999956,20,194937.5937500000,189897.5468750000,197184.3593750000,182512.4687500000,185018.6718750000,162181.3437500000,169740.7031250000,45516.3437500000,,,
2.6719999958,20,194924.5468750000,189895.2187500000,197166.5781250000,182503.3125000000,184999.7812500000,162141.7812500000,169718.3593750000,45490.5117187500,,,
2.6759999958,20,194912.8906250000,189861.7500000000,197155.7187500000,182541.8125000000,184996.7031250000,162141.8437500000,169716.8593750000,45475.1953125000,,,
2.6799999957,20,194908.3750000000,189847.7500000000,197161.8125000000,182529.0937500000,185006.5781250000,162151.0156250000,169723.7968750000,45482.2500000000,,,
2.6839999957,20,194904.3593750000,189854.8281250000,197148.9375000000,182503.9062500000,184998.1250000000,162158.3593750000,169721.9531250000,45491.3164062500,,,
2.6879999957,21,194905.1093750000,189873.1718750000,197137.8906250000,182500.1093750000,184986.0000000000,162151.4687500000,169709.6875000000,45494.0273437500,,,
2.6919999956,21,194933.0312500000,189901.5000000000,197161.0625000000,182553.3750000000,185007.3437500000,162172.4218750000,169722.0625000000,45512.4804687500,,,
2.6959999956,21,194948.1250000000,189907.5312500000,197190.2187500000,182543.6093750000,185038.8593750000,162195.9062500000,169759.5781250000,45524.8164062500,,,
2.6999999955,21,194917.7968750000,189860.7500000000,197174.5156250000,182495.5468750000,185029.0000000000,162178.9062500000,169746.5937500000,45504.2734375000,,,
2.7039999955,21,194911.9687500000,189861.7187500000,197166.2343750000,182504.3125000000,185020.4062500000,162176.4062500000,169735.3906250000,45506.8750000000,,,
2.7079999954,21,194917.1562500000,189879.6406250000,197163.8750000000,182496.5625000000,185011.8593750000,162171.2656250000,169730.9375000000,45502.6093750000,,,
2.7119999956,21,194918.1093750000,189883.9218750000,197160.8750000000,182487.7343750000,185004.9687500000,162168.4218750000,169716.0156250000,45494.1054687500,,,
2.7159999956,21,194918.7031250000,189869.5468750000,197166.3437500000,182486.0000000000,185014.1875000000,162172.5156250000,169720.5312500000,45494.6718750000,,,
2.7199999955,21,194906.3593750000,189840.7187500000,197163.9218750000,182477.7812500000,185011.2656250000,162167.8750000000,169720.0156250000,45493.9726562500,,,
2.7239999955,21,194909.9375000000,189847.3437500000,197167.0937500000,182492.4062500000,185010.5468750000,162165.5468750000,169730.1093750000,45508.7500000000,,,
2.7279999955,21,194921.8906250000,189881.2187500000,197167.0625000000,182520.0625000000,185005.6406250000,162174.5625000000,169727.5468750000,45519.8007812500,,,
2.7319999957,21,194933.5625000000,189897.3437500000,197176.2656250000,182518.8437500000,185011.1093750000,162172.3906250000,169730.9062500000,45518.8906250000,,,
2.7359999956,21,194940.6718750000,189891.6562500000,197191.8750000000,182512.1250000000,185030.7343750000,162186.7031250000,169740.5625000000,45523.6914062500,,,
2.7399999956,21,194939.5937500000,189876.6406250000,197205.6406250000,182492.3281250000,185052.3281250000,162199.4531250000,169736.9218750000,45531.2031250000,,,
2.7439999955,21,194945.0781250000,189885.5937500000,197210.9687500000,182509.7500000000,185063.3281250000,162219.1093750000,169751.6406250000,45543.2734375000,,,
2.7479999955,21,194940.4531250000,189907.3906250000,197190.1875000000,182515.5781250000,185036.4843750000,162207.5000000000,169748.8281250000,45533.9101562500,,,
2.7519999954,21,194926.7187500000,189900.8281250000,197164.1406250000,182502.7031250000,185008.2343750000,162168.0156250000,169726.5312500000,45508.9921875000,,,
2.7559999956,21,194909.7500000000,189863.8906250000,197153.7656250000,182481.7343750000,185003.2812500000,162163.7812500000,169719.1093750000,45487.8828125000,,,
2.7599999956,21,194912.2343750000,189851.6562500000,197171.9687500000,182493.7187500000,185024.9218750000,162175.8750000000,169747.8906250000,45500.8398437500,,,
2.7639999955,21,194912.0468750000,189864.4218750000,197173.0781250000,182496.4062500000,185024.4843750000,162184.1093750000,169735.7656250000,45514.9726562500,,,
2.7679999955,21,194906.0937500000,189877.1718750000,197154.8593750000,182491.2031250000,185002.7968750000,162175.6093750000,169718.1875000000,45507.3281250000,,,
2.7719999955,21,194920.4218750000,189893.9531250000,197165.5625000000,182505.0156250000,185008.8281250000,162171.3125000000,169729.7343750000,45509.6914062500,,,
2.7759999956,21,194934.2031250000,189889.2343750000,197184.8750000000,182516.6718750000,185029.2968750000,162181.5937500000,169752.9531250000,45515.8320312500,,,
2.7799999956,21,194925.2968750000,189874.7031250000,197181.7656250000,182526.8437500000,185028.1406250000,162191.1562500000,169750.5156250000,45518.1679687500,,,
2.7839999956,21,194931.1250000000,189889.0000000000,197186.5625000000,182545.5156250000,185029.9687500000,162203.3125000000,169738.6875000000,45533.5351562500,,,
2.7879999955,21,194923.2656250000,189900.9687500000,197164.7343750000,182498.8125000000,185008.0156250000,162192.7500000000,169717.9843750000,45525.7578125000,,,
2.7919999955,21,194916.7656250000,189895.0937500000,197158.5937500000,182494.8125000000,184998.9531250000,162178.3125000000,169715.0000000000,45510.6835937500,,,
2.7959999954,21,194938.9218750000,189906.1718750000,197189.1875000000,182532.6093750000,185028.8281250000,162191.8281250000,169738.0156250000,45525.4609375000,,,
2.7999999956,21,194930.4062500000,189886.5625000000,197189.3281250000,182510.2656250000,185033.8281250000,162198.7343750000,169752.8281250000,45523.7734375000,,,
2.8039999956,21,194913.7187500000,189881.4687500000,197169.1093750000,182469.9218750000,185015.5312500000,162199.8281250000,169734.5312500000,45521.4648437500,,,
2.8079999955,21,194907.1406250000,189896.1093750000,197153.8906250000,182467.3281250000,184997.5625000000,162190.9687500000,169715.5625000000,45514.8671875000,,,
2.8119999955,21,194927.0468750000,189914.9375000000,197171.0156250000,182512.9218750000,185011.1875000000,162200.5312500000,169725.1718750000,45522.6445312500,,,
2.8159999955,22,194951.7187500000,189921.4218750000,197202.2812500000,182518.1562500000,185046.0312500000,162218.5781250000,169756.3125000000,45541.1796875000,,,
2.8199999954,22,194943.4062500000,189906.3593750000,197203.8437500000,182463.5625000000,185054.8281250000,162226.0781250000,169768.1093750000,45544.6132812500,,,
2.8239999954,22,194915.5625000000,189883.7187500000,197172.2968750000,182483.0468750000,185025.8593750000,162203.7968750000,169741.8437500000,45525.1406250000,,,
2.8279999953,22,194904.0312500000,189884.9531250000,197155.6093750000,182473.7343750000,185005.2812500000,162188.8593750000,169734.0468750000,45509.8789062500,,,
2.8319999953,22,194914.1406250000,189893.6718750000,197163.0625000000,182480.7656250000,185009.5781250000,162186.5000000000,169735.6562500000,45510.4960937500,,,
2.8359999952,22,194951.5000000000,189912.0312500000,197205.0468750000,182535.2343750000,185049.6718750000,162215.7031250000,169769.8281250000,45541.0195312500,,,
2.8399999954,22,194948.2343750000,189894.9218750000,197207.1093750000,182528.0000000000,185052.7656250000,162219.9687500000,169765.6406250000,45542.7890625000,,,
2.8439999954,22,194915.1875000000,189866.2187500000,197178.2187500000,182486.6875000000,185025.5312500000,162202.6718750000,169748.9531250000,45518.0585937500,,,
2.8479999953,22,194927.8281250000,189894.4687500000,197187.9531250000,182493.9375000000,185029.6406250000,162212.5937500000,169760.2812500000,45528.1718750000,,,
2.8519999953,22,194932.4062500000,189912.1250000000,197179.1562500000,182496.6093750000,185020.1718750000,162212.5468750000,169739.8593750000,45527.7421875000,,,
2.8559999953,22,194938.3125000000,189905.1718750000,197186.5468750000,182517.2187500000,185028.7812500000,162215.6718750000,169740.3750000000,45530.2109375000,,,
2.8599999954,22,194931.3437500000,189886.3125000000,197193.5625000000,182517.1093750000,185037.2500000000,162214.7656250000,169749.0625000000,45529.0039062500,,,
2.8639999954,22,194928.8906250000,189892.2656250000,197193.7812500000,182505.5156250000,185039.1562500000,162220.7812500000,169757.4687500000,45536.5664062500,,,
2.8679999954,22,194953.5156250000,189935.6093750000,197203.8125000000,182518.9062500000,185047.1875000000,162241.3281250000,169763.6250000000,45559.6328125000,,,
2.8719999953,22,194952.5312500000,189935.6406250000,197196.4687500000,182505.9687500000,185039.1093750000,162234.3437500000,169755.3125000000,45548.5820312500,,,
2.8759999953,22,194958.5312500000,189920.8906250000,197213.2343750000,182514.9062500000,185055.5156250000,162238.6406250000,169766.7656250000,45546.3828125000,,,
2.8799999952,22,194956.4687500000,189908.6093750000,197219.2656250000,182537.5156250000,185064.3437500000,162248.1875000000,169773.6093750000,45552.1757812500,,,
2.8839999954,22,194940.2968750000,189904.6875000000,197199.5156250000,182505.2500000000,185047.4218750000,162243.7343750000,169761.6718750000,45549.2539062500,,,
2.8879999954,22,194937.7187500000,189919.5468750000,197186.2500000000,182501.5000000000,185031.2187500000,162237.4375000000,169749.6093750000,45547.4843750000,,,
2.8919999953,22,194945.8437500000,189927.4687500000,197187.1562500000,182537.7656250000,185026.9531250000,162229.9687500000,169750.3281250000,45542.8437500000,,,
2.8959999953,22,194957.0000000000,189926.7343750000,197204.2656250000,182544.8125000000,185044.5312500000,162238.2968750000,169772.2968750000,45548.4218750000,,,
2.8999999953,22,194943.8593750000,189906.1718750000,197202.3593750000,182488.4531250000,185043.5000000000,162235.3906250000,169765.5625000000,45540.7773437500,,,
2.9039999954,22,194922.6718750000,189884.4062500000,197185.8906250000,182450.7500000000,185026.4531250000,162223.2187500000,169747.4062500000,45528.0625000000,,,
2.9079999954,22,194912.4843750000,189883.5468750000,197160.7968750000,182473.4062500000,185002.0468750000,162209.3750000000,169723.7968750000,45517.6289062500,,,
2.9119999954,22,194928.0625000000,189906.5468750000,197169.2968750000,182501.0156250000,185010.1093750000,162213.6875000000,169728.0937500000,45525.4335937500,,,
2.9159999953,22,194936.2500000000,189903.4531250000,197185.8437500000,182488.0781250000,185031.5781250000,162224.0468750000,169751.5000000000,45528.9765625000,,,
2.9199999953,22,194927.4531250000,189880.1406250000,197192.1718750000,182479.3125000000,185042.9687500000,162223.8593750000,169766.7656250000,45527.3125000000,,,
2.9239999952,22,194945.0781250000,189897.9843750000,197213.7031250000,182488.0312500000,185062.0156250000,162237.8593750000,169786.8906250000,45548.6367187500,,,
2.9279999954,22,194934.6093750000,189908.8437500000,197190.4843750000,182500.2343750000,185037.2812500000,162230.1562500000,169765.8281250000,45536.8359375000,,,
2.9319999954,22,194923.1250000000,189906.7031250000,197168.6250000000,182516.8593750000,185013.4062500000,162214.7343750000,169745.3593750000,45517.7109375000,,,
2.9359999953,22,194931.2031250000,189899.7812500000,197181.2343750000,182524.7031250000,185025.0312500000,162215.7656250000,169757.1093750000,45519.5078125000,,,
2.9399999953,22,194930.7500000000,189887.0937500000,197193.2500000000,182522.1718750000,185038.4062500000,162223.4375000000,169764.1718750000,45527.3671875000,,,
2.9439999952,23,194934.3750000000,189894.4687500000,197201.8750000000,182491.7656250000,185050.2187500000,162235.9531250000,169779.5937500000,45543.1093750000,,,
2.9479999952,23,194922.6250000000,189901.0625000000,197176.2968750000,182477.2500000000,185025.8906250000,162223.2187500000,169754.0625000000,45534.1523437500,,,
2.9519999952,23,194942.6562500000,189923.0937500000,197189.4375000000,182513.1562500000,185036.2187500000,162236.3125000000,169763.3593750000,45546.2773437500,,,
2.9559999951,23,194958.2187500000,189921.6406250000,197207.1718750000,182531.8125000000,185053.5625000000,162241.7031250000,169770.5468750000,45553.8398437500,,,
2.9599999951,23,194949.3906250000,189902.4843750000,197206.9843750000,182508.5468750000,185055.6250000000,162236.3906250000,169766.7187500000,45550.2734375000,,,
