Time:250Hz,Epoch,Channel 1,Channel 2,Channel 3,Channel 4,Channel 5,Channel 6,Channel 7,Channel 8,Event Id,Event Date,Event Duration
0.0000000000,0,151058.0937500000,151230.4531250000,176986.8125000000,169861.0781250000,160004.1093750000,161002.6718750000,64734.6406250000,178140.7812500000,,,
0.0040000000,0,151054.4375000000,151228.5156250000,176980.7031250000,169860.5312500000,159996.5000000000,160998.7656250000,64729.4375000000,178145.7500000000,,,
0.0079999999,0,151057.5468750000,151235.0625000000,176982.3437500000,169862.2500000000,159995.4218750000,161002.3750000000,64725.1718750000,178159.3281250000,,,
0.0119999999,0,151054.3281250000,151229.4843750000,176982.4687500000,169849.4062500000,159995.2343750000,160994.2031250000,64721.4453125000,178164.9843750000,,,
0.0159999998,0,151046.2812500000,151219.3906250000,176973.5468750000,169844.7968750000,159987.7031250000,160980.9531250000,64708.7031250000,178179.7031250000,,,
0.0199999998,0,151016.6718750000,151196.3906250000,176937.0625000000,169825.4218750000,159953.5781250000,160955.9218750000,64668.3632812500,178193.4062500000,,,
0.0240000000,0,151011.5468750000,151190.7812500000,176933.7343750000,169813.2187500000,159951.3906250000,160947.6718750000,64653.8515625000,178217.4218750000,,,
0.0279999999,0,151011.8750000000,151188.3125000000,176935.0781250000,169810.2968750000,159954.7031250000,160949.6562500000,64661.3906250000,178250.9531250000,,,
0.0319999999,0,151013.8906250000,151190.0000000000,176936.1250000000,169831.3593750000,159957.4218750000,160948.9843750000,64674.5859375000,178288.7656250000,,,
0.0359999998,0,151019.5156250000,151196.3593750000,176940.5000000000,169860.3437500000,159961.4218750000,160943.3750000000,64678.4765625000,178304.3750000000,,,
0.0399999998,0,151026.2500000000,151200.4843750000,176948.7812500000,169850.5937500000,159969.5468750000,160942.9687500000,64683.5976562500,178285.2187500000,,,
0.0440000000,0,151030.1875000000,151202.3125000000,176955.7031250000,169838.1718750000,159976.7812500000,160944.3437500000,64689.0976562500,178244.8281250000,,,
0.0480000000,0,151026.4687500000,151200.7031250000,176953.5937500000,169834.6562500000,159975.5312500000,160939.1562500000,64685.3945312500,178194.3750000000,,,
0.0519999999,0,151024.0468750000,151202.3125000000,176950.7500000000,169828.8281250000,159975.1250000000,160937.1562500000,64678.7148437500,178157.7343750000,,,
0.0559999999,0,151016.0312500000,151195.6406250000,176944.4218750000,169819.4687500000,159971.1250000000,160929.1093750000,64672.6835937500,178131.4062500000,,,
0.0599999998,0,151014.0000000000,151194.2968750000,176942.1093750000,169815.8281250000,159968.8125000000,160921.0625000000,64664.5000000000,178140.8750000000,,,
0.0639999998,0,151024.3750000000,151206.1250000000,176954.0468750000,169827.3125000000,159978.5000000000,160927.8906250000,64666.8359375000,178148.4375000000,,,
0.0680000000,0,151025.1562500000,151208.7031250000,176955.1718750000,169806.4687500000,159979.8750000000,160930.7968750000,64673.9140625000,178113.7968750000,,,
0.0719999999,0,151026.9531250000,151209.6406250000,176956.5312500000,169781.0937500000,159982.1562500000,160930.5000000000,64675.5507812500,178109.1875000000,,,
0.0759999999,0,151023.0312500000,151204.9375000000,176950.9531250000,169775.8281250000,159977.7031250000,160921.6406250000,64664.5000000000,178108.6875000000,,,
0.0799999998,0,151025.8281250000,151207.0625000000,176951.0468750000,169791.0156250000,159977.0781250000,160916.5000000000,64662.8125000000,178098.3750000000,,,
0.0839999998,0,151039.3125000000,151220.7656250000,176963.4843750000,169811.5937500000,159987.4375000000,160926.8750000000,64673.0585937500,178103.6093750000,,,
0.0880000000,0,151042.2968750000,151221.5468750000,176968.1718750000,169818.3437500000,159991.7500000000,160931.1718750000,64676.8945312500,178115.3593750000,,,
0.0919999999,0,151028.1875000000,151205.0781250000,176954.7187500000,169804.0312500000,159979.2031250000,160919.0781250000,64665.7343750000,178072.1250000000,,,
0.0959999999,0,151026.8437500000,151202.9843750000,176953.6406250000,169827.1250000000,159977.0781250000,160920.4687500000,64665.3593750000,178037.0937500000,,,
0.0999999999,0,151030.7031250000,151204.4843750000,176956.7187500000,169859.8125000000,159976.7343750000,160927.0625000000,64663.7773437500,178025.0468750000,,,
0.1039999998,0,151026.2031250000,151200.8906250000,176952.8593750000,169821.6406250000,159973.7031250000,160932.5156250000,64662.7304687500,178013.7812500000,,,
0.1079999998,0,151020.3437500000,151197.2968750000,176947.2500000000,169804.8593750000,159968.0625000000,160932.2656250000,64656.8828125000,178013.7500000000,,,
0.1120000000,0,151015.1406250000,151192.0625000000,176943.3125000000,169827.4062500000,159962.5937500000,160929.1093750000,64648.5156250000,178023.0625000000,,,
0.1159999999,0,151020.8281250000,151195.0156250000,176948.9687500000,169855.5781250000,159966.8906250000,160930.9531250000,64649.6406250000,178034.8437500000,,,
0.1199999999,0,151014.6875000000,151189.4843750000,176944.3125000000,169814.4062500000,159961.5468750000,160929.0468750000,64649.6679687500,178032.8281250000,,,
0.1239999998,0,151002.6562500000,151183.5625000000,176929.3750000000,169798.3906250000,159947.0156250000,160922.7656250000,64638.7773437500,178004.5000000000,,,
0.1279999998,1,151006.7187500000,151188.3437500000,176929.4687500000,169826.1250000000,159946.9062500000,160924.6562500000,64625.9296875000,178005.7656250000,,,
0.1319999998,1,151009.4062500000,151185.1406250000,176932.2968750000,169833.1875000000,159949.5000000000,160921.4531250000,64637.0351562500,178006.1875000000,,,
0.1359999997,1,151014.9062500000,151187.1875000000,176936.7500000000,169834.8437500000,159954.3906250000,160925.4218750000,64652.8593750000,178013.9531250000,,,
0.1399999997,1,151028.7187500000,151200.5468750000,176952.3593750000,169842.8437500000,159969.2500000000,160937.8750000000,64663.1875000000,178025.7968750000,,,
0.1439999996,1,151041.1718750000,151211.7343750000,176966.5937500000,169862.3593750000,159981.4218750000,160948.6562500000,64672.0664062500,178032.6875000000,,,
0.1479999996,1,151045.7812500000,151216.2812500000,176967.5937500000,169884.9531250000,159980.6250000000,160951.9843750000,64667.1835937500,178033.3437500000,,,
0.1519999998,1,151040.4218750000,151213.1406250000,176960.5625000000,169877.8593750000,159974.0468750000,160952.3593750000,64659.7539062500,178028.9687500000,,,
0.1559999997,1,151038.3281250000,151215.9375000000,176957.3906250000,169859.5156250000,159971.5468750000,160954.5000000000,64655.0312500000,178036.5625000000,,,
0.1599999997,1,151030.5468750000,151206.5156250000,176951.3906250000,169847.3906250000,159965.9218750000,160948.2812500000,64649.6953125000,178045.5937500000,,,
0.1639999996,1,151016.0312500000,151191.5625000000,176938.2187500000,169833.5625000000,159953.4531250000,160932.2343750000,64638.7265625000,178010.0000000000,,,
0.1679999996,1,151014.4531250000,151193.0781250000,176932.7812500000,169840.1250000000,159948.1718750000,160930.9062500000,64633.3867187500,178000.1250000000,,,
0.1719999998,1,151019.4687500000,151198.3437500000,176938.7500000000,169853.9375000000,159953.5781250000,160933.0937500000,64639.6914062500,178008.9062500000,,,
0.1759999997,1,151018.8437500000,151193.8125000000,176939.2968750000,169863.7812500000,159953.5781250000,160925.2656250000,64637.8398437500,177994.3125000000,,,
0.1799999997,1,151022.4375000000,151196.2968750000,176946.0000000000,169860.4062500000,159959.5156250000,160924.2187500000,64642.2656250000,177990.9531250000,,,
0.1839999997,1,151027.3281250000,151204.2500000000,176949.7500000000,169844.2343750000,159963.1875000000,160926.8750000000,64645.6171875000,177992.4375000000,,,
0.1879999996,1,151023.4062500000,151202.7968750000,176939.9843750000,169859.2031250000,159954.5781250000,160921.9218750000,64636.0976562500,177988.9531250000,,,
0.1919999996,1,151024.1093750000,151207.3593750000,176940.2812500000,169863.5937500000,159956.5312500000,160927.8906250000,64636.2031250000,177996.3281250000,,,
0.1959999998,1,151011.3125000000,151196.4843750000,176929.1562500000,169846.6406250000,159948.1093750000,160922.7187500000,64624.3750000000,177992.2968750000,,,
0.1999999997,1,151007.6406250000,151195.0625000000,176925.0156250000,169832.8593750000,159944.4843750000,160923.9531250000,64618.0703125000,178009.8906250000,,,
0.2039999997,1,151015.5781250000,151203.4687500000,176929.5000000000,169837.2343750000,159948.8593750000,160927.8906250000,64622.6835937500,178020.7343750000,,,
0.2079999996,1,151019.3593750000,151202.7968750000,176935.1562500000,169836.7187500000,159954.0625000000,160931.4375000000,64621.4765625000,178009.8125000000,,,
0.2119999996,1,151031.3437500000,151212.0781250000,176947.7343750000,169844.7968750000,159968.6875000000,160941.0312500000,64632.0742187500,178006.5625000000,,,
0.2159999998,1,151028.4843750000,151207.9218750000,176942.5937500000,169846.2968750000,159965.5156250000,160937.6250000000,64634.9179687500,177986.1875000000,,,
0.2199999997,1,151020.4843750000,151198.1250000000,176934.8593750000,169846.5937500000,159957.0781250000,160927.3593750000,64625.3945312500,177947.6875000000,,,
0.2239999997,1,151024.9062500000,151206.1406250000,176939.9375000000,169848.3125000000,159960.7500000000,160934.1718750000,64627.9687500000,177921.7812500000,,,
0.2279999997,1,151027.8906250000,151210.2187500000,176948.0625000000,169847.4531250000,159966.3750000000,160938.7656250000,64627.4062500000,177913.0625000000,,,
0.2319999996,1,151036.4687500000,151216.9062500000,176962.0312500000,169848.5781250000,159978.2656250000,160947.3906250000,64634.2187500000,177917.7656250000,,,
0.2359999996,1,151035.5937500000,151218.0312500000,176952.6250000000,169863.1875000000,159975.0468750000,160955.1718750000,64637.9453125000,177917.0625000000,,,
0.2399999998,1,151033.6875000000,151214.5937500000,176947.2500000000,169875.1250000000,159969.8906250000,160953.3437500000,64634.2460937500,177907.0625000000,,,
0.2439999997,1,151033.7343750000,151213.0156250000,176948.2031250000,169877.5937500000,159968.2031250000,160954.0937500000,64631.8320312500,177895.0625000000,,,
0.2479999997,1,151035.2031250000,151214.4375000000,176951.6250000000,169867.1406250000,159971.7656250000,160956.8437500000,64634.2460937500,177887.2968750000,,,
0.2519999996,1,151036.1250000000,151214.8437500000,176953.8281250000,169867.1562500000,159974.5625000000,160957.1562500000,64634.0039062500,177879.6250000000,,,
0.2559999996,2,151042.8750000000,151220.2500000000,176963.7500000000,169865.9062500000,159982.6250000000,160960.6718750000,64639.4492187500,177880.6718750000,,,
0.2599999995,2,151046.2812500000,151224.5468750000,176964.9062500000,169867.6406250000,159983.8906250000,160960.4531250000,64640.0117187500,177881.8125000000,,,
0.2639999995,2,151048.5625000000,151229.1093750000,176961.3906250000,169891.4375000000,159979.4687500000,160958.6406250000,64636.9296875000,177875.4375000000,,,
0.2679999995,2,151064.9218750000,151246.0625000000,176974.8906250000,169895.4843750000,159992.6875000000,160968.3125000000,64647.7109375000,177881.0468750000,,,
0.2719999994,2,151063.4531250000,151243.9062500000,176976.5000000000,169877.1875000000,159994.2500000000,160963.8437500000,64649.2929687500,177881.3906250000,,,
0.2759999994,2,151064.2031250000,151246.0625000000,176980.0000000000,169874.9375000000,159995.7812500000,160964.0468750000,64650.1523437500,177880.7500000000,,,
0.2799999996,2,151072.1406250000,151249.8750000000,176990.7656250000,169892.8593750000,160003.2812500000,160968.7187500000,64654.4414062500,177882.6718750000,,,
0.2839999995,2,151068.7656250000,151241.5000000000,176989.3125000000,169886.0781250000,160002.1562500000,160964.4531250000,64650.1796875000,177872.6406250000,,,
0.2879999995,2,151075.1562500000,151245.7968750000,176996.6875000000,169882.8593750000,160009.9062500000,160968.6718750000,64655.0859375000,177867.0468750000,,,
0.2919999994,2,151071.0937500000,151239.0312500000,176993.9218750000,169887.5468750000,160008.7500000000,160963.5156250000,64651.0898437500,177864.7656250000,,,
0.2959999994,2,151069.9687500000,151237.0156250000,176990.3593750000,169899.3281250000,160007.8750000000,160963.4843750000,64645.5390625000,177865.7812500000,,,
0.2999999996,2,151083.5781250000,151248.9531250000,177003.7968750000,169917.9687500000,160022.1718750000,160975.1562500000,64655.8125000000,177875.8906250000,,,
0.3039999995,2,151079.7812500000,151244.4531250000,177002.9375000000,169905.2500000000,160020.2968750000,160971.4218750000,64652.8593750000,177867.6093750000,,,
0.3079999995,2,151070.5625000000,151236.3281250000,176991.5937500000,169891.9218750000,160009.4531250000,160963.6562500000,64642.9882812500,177857.8125000000,,,
0.3119999995,2,151070.6718750000,151238.5468750000,176987.2968750000,169891.1718750000,160005.1093750000,160962.0625000000,64638.0546875000,177857.9531250000,,,
0.3159999994,2,151063.5937500000,151233.8593750000,176981.2656250000,169895.4375000000,159996.5000000000,160954.2031250000,64627.9687500000,177860.0156250000,,,
0.3199999994,2,151058.1406250000,151233.2343750000,176974.9062500000,169883.2500000000,159989.6093750000,160954.1562500000,64622.4453125000,177862.6093750000,,,
0.3239999996,2,151055.8906250000,151236.3281250000,176969.0937500000,169880.6562500000,159982.9218750000,160955.3281250000,64617.2421875000,177858.8125000000,,,
0.3279999995,2,151062.6562500000,151245.6562500000,176975.0156250000,169892.0468750000,159987.4375000000,160961.5312500000,64619.8671875000,177861.8906250000,,,
0.3319999995,2,151056.9687500000,151242.5156250000,176969.4062500000,169892.8593750000,159982.4687500000,160961.5625000000,64609.9453125000,177863.4531250000,,,
0.3359999994,2,151046.2812500000,151231.5781250000,176961.9218750000,169855.1718750000,159976.4375000000,160957.7500000000,64597.9570312500,177855.8906250000,,,
0.3399999994,2,151044.7812500000,151228.0312500000,176961.2031250000,169858.2812500000,159974.1093750000,160952.5937500000,64589.5585937500,177849.6406250000,,,
0.3439999996,2,151055.9375000000,151235.4375000000,176973.9531250000,169889.2343750000,159985.8437500000,160957.1093750000,64606.9140625000,177848.6406250000,,,
0.3479999995,2,151059.8593750000,151236.1093750000,176979.5312500000,169896.3437500000,159992.4218750000,160956.4843750000,64616.5429687500,177848.2187500000,,,
0.3519999995,2,151063.1562500000,151237.5781250000,176983.6093750000,169900.3437500000,159997.5156250000,160951.7656250000,64618.9843750000,177851.2187500000,,,
0.3559999994,2,151056.7812500000,151232.9218750000,176978.6875000000,169851.8750000000,159994.0000000000,160948.1406250000,64613.8593750000,177851.2500000000,,,
0.3599999994,2,151056.5312500000,151229.7812500000,176977.0312500000,169845.6562500000,159992.9531250000,160943.7187500000,64609.1132812500,177854.7500000000,,,
0.3639999994,2,151067.2968750000,151237.5781250000,176988.0000000000,169867.3750000000,160002.1562500000,160949.1406250000,64609.7851562500,177868.4062500000,,,
0.3679999996,2,151072.7031250000,151242.7656250000,176992.9375000000,169871.7968750000,160006.8750000000,160950.9687500000,64610.5898437500,177877.0468750000,,,
0.3719999995,2,151068.0156250000,151238.9531250000,176986.8437500000,169866.6875000000,160001.9218750000,160942.4843750000,64609.8632812500,177872.0000000000,,,
0.3759999995,2,151069.1718750000,151241.5312500000,176985.1562500000,169885.0000000000,160000.6875000000,160938.8593750000,64605.7343750000,177873.3906250000,,,
0.3799999994,2,151085.8281250000,151260.0625000000,176999.2343750000,169935.6406250000,160014.0625000000,160955.3125000000,64614.6640625000,177885.3281250000,,,
0.3839999994,3,151095.4531250000,151270.3281250000,177012.6718750000,169927.5156250000,160025.5156250000,160964.7500000000,64625.6875000000,177895.8750000000,,,
0.3879999993,3,151097.5781250000,151274.6718750000,177013.1093750000,169911.3437500000,160028.1562500000,160972.4218750000,64627.6992187500,177897.2187500000,,,
0.3919999993,3,151097.2500000000,151273.7343750000,177013.7187500000,169923.3593750000,160029.5468750000,160971.4062500000,64626.0117187500,177907.1406250000,,,
0.3959999993,3,151084.7187500000,151263.2031250000,177001.5781250000,169910.7031250000,160017.3906250000,160956.6718750000,64612.0898437500,177902.6562500000,,,
0.3999999992,3,151082.9531250000,151259.3906250000,177001.5468750000,169908.1718750000,160015.6562500000,160953.3281250000,64609.3281250000,177899.7656250000,,,
0.4039999992,3,151076.1718750000,151251.7656250000,176996.4218750000,169905.1718750000,160007.0468750000,160943.5625000000,64600.7187500000,177894.2343750000,,,
0.4079999994,3,151063.4218750000,151240.6093750000,176987.8437500000,169860.4531250000,159997.0156250000,160936.5625000000,64596.0781250000,177883.5625000000,,,
0.4119999993,3,151068.0625000000,151245.8750000000,176991.8437500000,169885.8593750000,160000.3125000000,160944.9218750000,64600.2343750000,177895.0937500000,,,
0.4159999993,3,151070.4843750000,151251.5781250000,176989.9843750000,169901.7656250000,160000.7031250000,160950.0781250000,64595.0585937500,177911.1406250000,,,
0.4199999992,3,151053.2812500000,151234.8750000000,176971.6718750000,169887.3906250000,159984.7500000000,160938.6718750000,64572.3398437500,177897.2500000000,,,
0.4239999992,3,151054.5468750000,151232.4531250000,176974.3437500000,169877.8593750000,159987.1718750000,160937.3437500000,64564.3203125000,177890.7812500000,,,
0.4279999994,3,151055.4843750000,151236.5625000000,176975.8281250000,169844.2812500000,159990.5937500000,160943.3437500000,64572.9843750000,177892.9218750000,,,
0.4319999993,3,151058.6250000000,151239.2656250000,176983.6562500000,169835.2656250000,159998.5625000000,160945.6562500000,64584.4921875000,177898.2812500000,,,
0.4359999993,3,151061.7343750000,151235.2031250000,176987.6250000000,169863.8125000000,160002.2343750000,160937.4218750000,64573.5195312500,177895.7656250000,,,
0.4399999992,3,151061.9062500000,151235.1718750000,176983.3281250000,169884.7812500000,159997.2500000000,160934.2500000000,64568.8789062500,177890.1875000000,,,
0.4439999992,3,151048.9375000000,151225.2968750000,176967.9687500000,169843.9687500000,159980.6718750000,160924.7343750000,64566.6523437500,177874.3125000000,,,
0.4479999992,3,151043.2343750000,151222.9062500000,176959.1875000000,169848.3906250000,159970.9062500000,160919.0937500000,64551.7421875000,177866.2656250000,,,
0.4519999993,3,151041.5625000000,151220.9218750000,176956.1875000000,169841.5156250000,159968.2812500000,160914.7031250000,64541.7890625000,177868.9375000000,,,
0.4559999993,3,151043.1250000000,151220.2031250000,176955.4843750000,169838.5468750000,159966.9687500000,160912.5468750000,64541.1718750000,177871.3906250000,,,
0.4599999993,3,151043.6875000000,151220.4375000000,176953.3437500000,169833.1250000000,159963.5625000000,160911.7500000000,64537.6328125000,177871.2031250000,,,
0.4639999992,3,151046.8281250000,151223.3437500000,176955.4687500000,169838.0937500000,159964.8750000000,160912.0781250000,64537.1484375000,177872.2968750000,,,
0.4679999992,3,151050.7187500000,151228.9531250000,176961.5312500000,169854.7187500000,159969.8437500000,160916.7187500000,64539.5625000000,177878.2187500000,,,
0.4719999994,3,151045.9062500000,151228.7812500000,176959.1093750000,169851.3125000000,159969.0000000000,160919.0781250000,64533.0468750000,177884.3750000000,,,
0.4759999993,3,151057.2343750000,151241.9843750000,176967.6718750000,169870.8437500000,159980.7812500000,160929.0000000000,64529.6406250000,177896.8906250000,,,
0.4799999993,3,151059.1562500000,151240.1875000000,176974.6406250000,169873.9531250000,159987.5625000000,160926.3437500000,64532.7773437500,177896.7343750000,,,
0.4839999992,3,151053.2812500000,151232.3593750000,176973.1875000000,169852.5468750000,159985.2812500000,160920.0625000000,64538.8671875000,177887.9375000000,,,
0.4879999992,3,151053.0156250000,151231.3906250000,176974.1406250000,169847.9375000000,159986.6250000000,160918.3750000000,64545.7578125000,177882.2812500000,,,
0.4919999992,3,151051.4375000000,151225.4843750000,176975.0156250000,169847.6406250000,159987.6406250000,160913.6250000000,64546.2695312500,177876.7968750000,,,
0.4959999993,3,151047.3125000000,151220.8125000000,176972.6093750000,169843.0468750000,159986.2031250000,160910.2500000000,64544.0156250000,177879.7812500000,,,
0.4999999993,3,151054.2812500000,151228.1093750000,176979.0468750000,169857.9687500000,159992.3125000000,160915.4843750000,64548.0664062500,177885.0312500000,,,
0.5039999993,3,151060.0000000000,151236.8593750000,176982.3125000000,169869.1718750000,159994.1406250000,160923.4375000000,64548.5507812500,177884.6093750000,,,
0.5079999992,3,151065.3593750000,151242.8437500000,176986.0156250000,169898.6250000000,159997.5937500000,160926.7187500000,64547.9062500000,177883.3750000000,,,
0.5119999992,4,151065.4375000000,151242.0312500000,176984.7500000000,169898.4843750000,159997.8437500000,160926.5000000000,64541.3085937500,177886.4375000000,,,
0.5159999991,4,151065.3593750000,151245.1250000000,176982.0937500000,169874.1406250000,159997.5156250000,160927.5000000000,64538.2773437500,177891.9843750000,,,
0.5199999991,4,151059.4062500000,151244.3750000000,176971.8750000000,169870.1875000000,159990.2187500000,160924.1406250000,64522.8007812500,177887.2656250000,,,
0.5239999990,4,151051.0625000000,151234.3437500000,176970.8593750000,169854.5312500000,159986.6250000000,160913.3125000000,64514.9687500000,177870.7500000000,,,
0.5279999990,4,151061.3125000000,151243.9062500000,176984.0312500000,169893.8593750000,159995.5000000000,160916.4687500000,64533.6093750000,177874.0625000000,,,
0.5319999990,4,151065.2500000000,151249.0625000000,176987.3593750000,169885.1875000000,159999.7656250000,160920.0156250000,64539.6171875000,177881.4375000000,,,
0.5359999991,4,151062.0000000000,151244.6875000000,176985.3125000000,169852.1406250000,160000.1406250000,160917.1406250000,64539.0000000000,177883.4843750000,,,
0.5399999991,4,151057.6406250000,151237.2656250000,176981.3281250000,169863.9375000000,159997.6562500000,160910.8125000000,64532.9921875000,177878.4062500000,,,
0.5439999991,4,151064.8750000000,151242.8437500000,176988.2343750000,169874.0625000000,160003.2031250000,160915.9531250000,64535.5937500000,177875.6250000000,,,
0.5479999990,4,151077.9687500000,151251.6718750000,177000.1562500000,169901.5000000000,160010.5781250000,160921.7812500000,64540.7695312500,177882.4843750000,,,
0.5519999990,4,151084.7968750000,151255.3125000000,177007.0156250000,169901.9843750000,160015.9375000000,160925.4218750000,64544.6601562500,177893.3593750000,,,
0.5559999992,4,151082.8437500000,151255.4531250000,177003.3750000000,169885.0312500000,160013.3750000000,160926.3750000000,64540.4765625000,177895.6406250000,,,
0.5599999991,4,151089.4218750000,151267.6250000000,177004.7031250000,169893.2812500000,160015.0937500000,160936.6875000000,64539.3242187500,177905.6718750000,,,
0.5639999991,4,151079.5781250000,151254.2187500000,176996.3437500000,169879.3750000000,160006.6093750000,160925.0781250000,64531.3007812500,177896.5468750000,,,
0.5679999990,4,151084.1093750000,151254.9687500000,177003.7187500000,169880.3906250000,160012.8593750000,160921.7812500000,64532.7226562500,177897.7500000000,,,
0.5719999990,4,151092.6875000000,151262.4687500000,177014.4218750000,169904.3593750000,160024.5000000000,160925.2656250000,64534.4960937500,177907.9375000000,,,
0.5759999990,4,151090.4375000000,151263.6250000000,177014.2343750000,169902.1718750000,160025.7812500000,160924.6718750000,64542.1132812500,177917.8125000000,,,
0.5799999991,4,151081.4218750000,151258.3906250000,177005.4375000000,169888.0625000000,160015.9375000000,160921.7343750000,64541.0390625000,177916.4531250000,,,
0.5839999991,4,151082.0468750000,151261.8593750000,177005.1406250000,169898.9531250000,160014.2031250000,160922.4843750000,64536.9335937500,177915.9843750000,,,
0.5879999991,4,151079.2812500000,151258.5312500000,177003.6718750000,169889.1562500000,160011.7812500000,160918.5625000000,64530.8203125000,177912.6093750000,,,
0.5919999990,4,151085.0000000000,151261.7187500000,177010.8750000000,169889.4531250000,160018.2812500000,160918.7812500000,64533.0195312500,177915.3750000000,,,
0.5959999990,4,151087.1406250000,151262.0156250000,177014.6562500000,169891.9531250000,160020.9843750000,160915.0468750000,64526.2343750000,177917.2187500000,,,
0.5999999992,4,151075.0156250000,151244.8593750000,177004.7031250000,169892.6406250000,160009.5000000000,160900.5156250000,64512.1523437500,177898.3125000000,,,
0.6039999991,4,151080.2187500000,151249.3593750000,177010.5781250000,169888.7031250000,160012.3437500000,160901.0000000000,64519.9570312500,177891.1562500000,,,
0.6079999991,4,151089.6093750000,151258.2656250000,177016.4062500000,169910.3437500000,160016.6718750000,160903.5468750000,64524.5429687500,177892.3281250000,,,
0.6119999990,4,151096.9062500000,151265.2343750000,177023.0000000000,169935.2968750000,160024.4218750000,160908.1250000000,64527.3320312500,177899.2343750000,,,
0.6159999990,4,151097.2187500000,151267.5156250000,177025.7656250000,169908.4218750000,160028.8750000000,160910.1093750000,64527.0390625000,177903.0312500000,,,
0.6199999989,4,151093.7031250000,151266.7656250000,177024.5625000000,169889.0000000000,160030.1406250000,160911.6718750000,64505.2304687500,177902.7343750000,,,
0.6239999991,4,151082.3593750000,151258.0000000000,177006.9843750000,169906.4062500000,160013.3750000000,160903.9687500000,64495.8984375000,177886.3750000000,,,
0.6279999991,4,151088.1250000000,151266.8437500000,177007.7343750000,169933.9218750000,160013.3750000000,160911.0000000000,64511.1054687500,177880.0156250000,,,
0.6319999991,4,151086.8125000000,151265.9062500000,177006.9687500000,169929.3906250000,160014.4687500000,160915.0781250000,64510.5156250000,177878.0312500000,,,
0.6359999990,4,151080.2187500000,151257.8125000000,177003.6875000000,169902.5156250000,160012.1093750000,160911.1562500000,64505.1796875000,177871.2812500000,,,
0.6399999990,5,151093.3125000000,151267.8593750000,177016.5468750000,169903.2656250000,160024.4531250000,160918.5937500000,64513.7890625000,177871.8750000000,,,
0.6439999989,5,151104.2187500000,151278.2656250000,177022.8437500000,169920.2656250000,160030.8906250000,160926.6406250000,64515.5312500000,177872.1406250000,,,
0.6479999989,5,151108.0625000000,151279.5312500000,177026.8593750000,169924.1875000000,160033.7343750000,160922.5625000000,64516.3906250000,177868.5468750000,,,
0.6519999988,5,151110.4687500000,151281.4062500000,177027.7968750000,169931.7500000000,160035.7187500000,160925.9375000000,64517.7578125000,177871.0937500000,,,
0.6559999988,5,151108.2500000000,151279.0000000000,177024.1562500000,169928.2968750000,160035.4375000000,160924.4062500000,64513.4648437500,177872.0312500000,,,
0.6599999988,5,151116.7031250000,151287.3593750000,177032.8750000000,169948.6250000000,160044.8593750000,160925.9062500000,64518.8320312500,177880.1093750000,,,
0.6639999989,5,151127.7812500000,151297.9531250000,177045.7812500000,169956.9375000000,160055.7812500000,160931.7343750000,64528.7265625000,177883.9062500000,,,
0.6679999989,5,151121.5000000000,151295.8750000000,177041.4062500000,169909.5625000000,160053.7656250000,160931.9531250000,64526.2617187500,177878.7812500000,,,
0.6719999989,5,151117.9062500000,151295.5468750000,177037.2500000000,169906.5312500000,160050.4843750000,160929.2968750000,64516.7656250000,177875.1875000000,,,
0.6759999988,5,151114.1406250000,151291.0156250000,177033.6250000000,169922.5000000000,160046.2500000000,160924.0625000000,64508.3437500000,177871.2187500000,,,
0.6799999988,5,151116.8281250000,151292.6718750000,177035.4687500000,169953.3437500000,160047.2500000000,160923.0156250000,64505.6328125000,177867.4687500000,,,
0.6839999990,5,151125.3125000000,151300.3750000000,177043.9218750000,169968.9531250000,160052.6406250000,160928.0000000000,64509.3906250000,177867.1406250000,,,
0.6879999989,5,151115.1093750000,151288.4843750000,177034.7031250000,169909.0000000000,160043.4687500000,160916.5781250000,64496.3789062500,177851.5156250000,,,
0.6919999989,5,151112.7500000000,151280.8750000000,177034.6250000000,169912.6875000000,160042.9531250000,160904.6093750000,64492.4101562500,177840.8125000000,,,
0.6959999988,5,151122.6562500000,151289.6718750000,177046.9218750000,169937.4375000000,160055.3750000000,160911.4062500000,64509.4960937500,177851.7812500000,,,
0.6999999988,5,151123.4531250000,151293.1875000000,177045.8593750000,169952.6406250000,160055.0468750000,160912.2656250000,64506.0625000000,177857.5781250000,,,
0.7039999987,5,151129.1093750000,151300.1250000000,177048.8281250000,169971.4218750000,160056.0937500000,160913.0156250000,64505.2851562500,177859.0000000000,,,
0.7079999989,5,151127.7187500000,151302.7343750000,177048.2968750000,169923.4375000000,160056.7656250000,160914.5156250000,64509.0664062500,177861.1093750000,,,
0.7119999989,5,151118.8750000000,151295.6250000000,177036.0312500000,169902.1093750000,160048.0468750000,160910.9375000000,64500.0546875000,177863.3437500000,,,
0.7159999989,5,151121.7343750000,151295.5000000000,177039.9531250000,169926.1250000000,160053.0468750000,160912.5000000000,64500.0000000000,177872.9687500000,,,
0.7199999988,5,151115.4375000000,151289.9687500000,177034.2656250000,169916.8593750000,160048.2343750000,160908.3750000000,64491.0156250000,177871.9218750000,,,
0.7239999988,5,151122.1875000000,151295.9531250000,177037.7812500000,169926.6562500000,160051.0000000000,160917.4375000000,64495.2812500000,177870.0468750000,,,
0.7279999990,5,151122.5468750000,151296.9375000000,177036.2031250000,169929.2812500000,160049.3593750000,160919.4531250000,64495.9765625000,177866.5781250000,,,
0.7319999989,5,151120.7187500000,151293.4062500000,177036.2031250000,169927.9687500000,160048.7500000000,160917.7500000000,64494.7695312500,177867.1718750000,,,
0.7359999989,5,151125.9531250000,151294.8750000000,177042.7968750000,169937.5781250000,160054.4843750000,160918.5312500000,64498.3398437500,177872.6406250000,,,
0.7399999988,5,151125.2812500000,151293.7968750000,177039.8437500000,169937.8593750000,160051.0000000000,160913.0156250000,64491.0429687500,177871.2812500000,,,
0.7439999988,5,151129.4375000000,151300.8906250000,177042.3750000000,169938.0000000000,160053.0468750000,160914.1562500000,64492.3281250000,177872.1562500000,,,
0.7479999987,5,151127.4218750000,151303.3750000000,177037.9218750000,169946.7187500000,160045.9375000000,160909.8125000000,64486.9921875000,177867.5000000000,,,
0.7519999989,5,151127.1250000000,151305.7343750000,177036.3906250000,169949.8906250000,160043.6562500000,160909.8437500000,64485.2500000000,177871.3125000000,,,
0.7559999989,5,151128.4375000000,151308.7187500000,177039.9843750000,169946.8750000000,160047.1093750000,160908.6875000000,64485.4375000000,177881.3906250000,,,
0.7599999988,5,151123.2968750000,151302.4687500000,177037.9375000000,169946.8281250000,160043.6718750000,160902.8750000000,64472.8320312500,177880.6093750000,,,
0.7639999988,5,151130.2968750000,151304.3437500000,177048.8281250000,169950.9843750000,160050.8906250000,160904.1093750000,64482.2187500000,177877.9375000000,,,
0.7679999988,6,151138.0000000000,151311.3125000000,177056.5625000000,169952.5156250000,160057.4687500000,160912.0156250000,64489.9960937500,177881.1250000000,,,
0.7719999987,6,151146.6250000000,151318.7968750000,177064.6562500000,169981.5312500000,160066.2031250000,160922.1875000000,64489.0039062500,177890.8593750000,,,
0.7759999987,6,151133.1875000000,151305.5312500000,177051.2812500000,169945.5625000000,160055.3125000000,160915.9531250000,64476.3437500000,177884.5000000000,,,
0.7799999986,6,151119.4843750000,151291.3281250000,177039.1718750000,169930.2500000000,160045.3750000000,160908.6718750000,64470.6328125000,177874.6875000000,,,
0.7839999986,6,151129.4062500000,151296.9375000000,177048.2968750000,169955.5468750000,160053.8906250000,160912.2812500000,64478.2500000000,177872.5937500000,,,
0.7879999985,6,151137.5625000000,151302.7656250000,177053.6875000000,169952.5156250000,160059.2031250000,160916.3593750000,64482.5117187500,177874.3593750000,,,
0.7919999987,6,151135.4687500000,151300.6718750000,177051.5468750000,169929.0156250000,160057.4375000000,160914.2187500000,64480.1250000000,177875.3281250000,,,
0.7959999987,6,151141.0000000000,151307.0312500000,177056.0156250000,169939.7968750000,160062.3750000000,160915.8281250000,64477.7382812500,177882.7812500000,,,
0.7999999986,6,151151.6406250000,151318.0468750000,177064.3125000000,169964.4687500000,160070.3906250000,160921.2500000000,64483.2890625000,177892.8906250000,,,
0.8039999986,6,151160.9062500000,151325.9843750000,177072.0937500000,169983.5781250000,160075.7812500000,160925.2968750000,64484.9804687500,177894.9062500000,,,
0.8079999986,6,151159.9531250000,151322.4687500000,177078.9843750000,169942.9843750000,160081.1250000000,160919.5000000000,64470.2304687500,177888.5000000000,,,
0.8119999988,6,151147.6250000000,151308.9843750000,177065.5937500000,169932.2343750000,160071.8750000000,160910.1093750000,64474.3046875000,177878.5000000000,,,
0.8159999987,6,151140.0625000000,151309.1406250000,177049.5000000000,169932.2812500000,160060.5000000000,160912.0156250000,64482.8632812500,177885.5781250000,,,
0.8199999987,6,151139.0156250000,151312.6250000000,177048.5312500000,169938.1406250000,160061.8125000000,160914.9687500000,64478.9179687500,177892.3593750000,,,
0.8239999986,6,151133.0000000000,151308.3437500000,177042.3750000000,169939.5625000000,160055.7187500000,160913.5156250000,64471.7031250000,177884.3906250000,,,
0.8279999986,6,151130.2656250000,151304.5781250000,177042.3437500000,169929.2343750000,160054.3281250000,160913.2812500000,64478.2226562500,177870.9843750000,,,
0.8319999985,6,151138.2812500000,151307.4062500000,177054.7656250000,169934.8125000000,160064.8437500000,160916.9531250000,64487.1796875000,177869.9375000000,,,
0.8359999987,6,151141.5937500000,151307.0000000000,177060.0468750000,169935.8281250000,160068.0625000000,160913.3906250000,64485.4921875000,177868.9375000000,,,
0.8399999987,6,151139.7031250000,151303.9218750000,177055.4531250000,169940.8125000000,160063.9062500000,160907.2968750000,64479.0000000000,177862.7500000000,,,
0.8439999986,6,151144.7500000000,151307.1093750000,177057.7968750000,169946.3125000000,160065.7343750000,160907.5937500000,64479.0546875000,177855.9375000000,,,
0.8479999986,6,151152.3750000000,151311.7656250000,177064.2031250000,169946.8281250000,160070.7968750000,160904.0000000000,64480.0976562500,177852.1562500000,,,
0.8519999986,6,151166.8750000000,151326.3437500000,177077.8281250000,169961.2500000000,160083.3281250000,160908.5312500000,64487.5273437500,177862.5937500000,,,
0.8559999987,6,151178.3906250000,151335.5625000000,177090.0781250000,169963.9843750000,160095.4218750000,160911.6718750000,64497.8554687500,177876.7812500000,,,
0.8599999987,6,151182.1406250000,151339.0781250000,177094.6250000000,169971.0156250000,160099.7656250000,160912.6562500000,64498.3125000000,177886.6250000000,,,
0.8639999987,6,151191.5312500000,151349.2500000000,177105.4531250000,170001.5937500000,160109.2343750000,160918.2968750000,64500.9414062500,177896.7656250000,,,
0.8679999986,6,151189.6562500000,151350.3906250000,177105.7187500000,169990.9531250000,160107.6718750000,160921.6718750000,64495.1445312500,177903.6562500000,,,
0.8719999986,6,151178.7656250000,151341.8437500000,177096.0156250000,169971.1562500000,160099.4375000000,160922.4531250000,64484.8203125000,177906.8750000000,,,
0.8759999985,6,151169.1406250000,151333.7656250000,177088.3125000000,169956.5625000000,160094.7500000000,160920.8906250000,64478.3828125000,177909.0468750000,,,
0.8799999987,6,151170.4687500000,151336.3125000000,177091.6406250000,169980.9375000000,160097.4062500000,160923.0156250000,64476.6132812500,177916.3906250000,,,
0.8839999987,6,151168.1875000000,151334.7031250000,177088.6875000000,169998.1875000000,160092.9531250000,160920.6562500000,64471.0078125000,177913.7187500000,,,
0.8879999986,6,151162.9687500000,151332.0312500000,177083.7343750000,169955.4062500000,160090.8281250000,160920.0625000000,64470.5781250000,177908.9375000000,,,
0.8919999986,6,151141.5000000000,151312.9531250000,177061.2812500000,169919.2031250000,160072.1718750000,160903.5468750000,64460.0351562500,177896.4843750000,,,
0.8959999986,7,151133.9218750000,151304.1093750000,177052.8593750000,169919.9531250000,160063.3593750000,160893.4843750000,64455.7968750000,177892.5000000000,,,
0.8999999985,7,151137.8906250000,151308.1718750000,177054.9531250000,169925.0156250000,160063.7656250000,160894.7500000000,64455.7460937500,177896.8125000000,,,
0.9039999985,7,151139.1406250000,151311.0468750000,177052.2187500000,169924.9687500000,160059.0000000000,160893.9687500000,64444.6679687500,177894.7500000000,,,
0.9079999984,7,151139.2500000000,151313.7343750000,177048.9687500000,169924.0000000000,160053.9531250000,160895.6250000000,64442.5742187500,177893.5468750000,,,
0.9119999984,7,151142.7656250000,151317.1875000000,177051.4843750000,169941.2187500000,160056.3125000000,160896.4531250000,64444.6679687500,177901.7500000000,,,
0.9159999983,7,151141.6093750000,151316.2812500000,177051.5468750000,169937.1406250000,160056.6875000000,160896.3593750000,64441.4492187500,177906.1718750000,,,
0.9199999985,7,151143.6718750000,151319.0625000000,177054.4062500000,169940.8125000000,160059.1875000000,160900.7500000000,64444.1289062500,177907.0937500000,,,
0.9239999985,7,151155.4531250000,151329.8281250000,177066.0312500000,169944.0937500000,160070.4218750000,160910.7343750000,64452.3632812500,177912.6093750000,,,
0.9279999984,7,151156.5468750000,151327.1406250000,177067.9375000000,169947.7031250000,160073.2656250000,160911.5312500000,64451.3203125000,177907.4843750000,,,
0.9319999984,7,151157.2187500000,151325.5000000000,177071.2500000000,169954.4375000000,160077.5312500000,160908.7187500000,64450.2460937500,177908.1093750000,,,
0.9359999984,7,151154.7343750000,151323.9843750000,177067.8281250000,169957.0937500000,160073.9062500000,160903.6250000000,64445.5507812500,177911.5937500000,,,
0.9399999985,7,151163.1250000000,151328.8125000000,177078.8750000000,169981.0156250000,160082.0937500000,160905.9062500000,64457.2460937500,177915.5312500000,,,
0.9439999985,7,151161.7812500000,151327.5468750000,177076.5937500000,169989.6875000000,160077.0937500000,160901.8593750000,64452.6054687500,177910.8125000000,,,
0.9479999985,7,151163.4218750000,151329.5312500000,177077.2968750000,169956.1250000000,160075.1718750000,160899.1093750000,64451.1328125000,177907.7031250000,,,
0.9519999984,7,151159.0781250000,151323.3125000000,177070.5625000000,169955.2812500000,160068.4687500000,160891.1562500000,64444.1289062500,177902.1562500000,,,
0.9559999984,7,151160.9531250000,151323.3593750000,177070.0781250000,169982.4375000000,160068.2968750000,160886.4531250000,64435.3320312500,177905.1250000000,,,
0.9599999983,7,151170.3125000000,151329.5312500000,177078.6562500000,170001.3593750000,160078.3906250000,160890.0781250000,64428.0898437500,177914.1718750000,,,
0.9639999985,7,151160.7187500000,151322.6406250000,177067.3593750000,169936.7187500000,160070.1718750000,160889.0312500000,64436.5664062500,177909.0156250000,,,
0.9679999985,7,151156.8437500000,151318.3750000000,177063.6406250000,169926.8750000000,160068.1406250000,160889.6406250000,64448.7421875000,177902.8437500000,,,
0.9719999984,7,151164.2812500000,151326.3906250000,177070.9062500000,169951.3906250000,160075.7656250000,160895.7031250000,64448.9062500000,177909.9062500000,,,
0.9759999984,7,151168.2187500000,151332.6406250000,177076.4062500000,169957.5781250000,160082.2031250000,160900.2656250000,64450.0859375000,177918.1406250000,,,
0.9799999984,7,151157.7343750000,151323.8437500000,177068.6250000000,169939.9062500000,160075.4843750000,160893.2656250000,64442.2812500000,177912.0781250000,,,
0.9839999985,7,151156.6093750000,151323.3906250000,177070.1562500000,169945.3437500000,160075.4843750000,160892.3593750000,64441.9843750000,177903.5156250000,,,
0.9879999985,7,151152.5625000000,151322.6562500000,177067.0781250000,169943.6562500000,160072.2187500000,160892.6562500000,64441.3945312500,177894.3125000000,,,
0.9919999985,7,151145.9531250000,151319.0625000000,177060.7187500000,169936.3593750000,160067.2500000000,160890.5000000000,64437.6953125000,177888.6093750000,,,
0.9959999984,7,151146.6250000000,151318.7500000000,177062.1093750000,169935.2343750000,160069.7812500000,160886.0000000000,64439.9726562500,177891.2812500000,,,
0.9999999984,7,151145.0000000000,151315.1562500000,177058.2968750000,169938.2500000000,160065.5937500000,160878.7812500000,64432.0625000000,177888.5312500000,,,
1.0039999983,7,151151.7812500000,151316.6875000000,177065.8906250000,169948.7500000000,160071.5156250000,160880.6406250000,64431.5781250000,177881.2812500000,,,
1.0079999985,7,151168.2187500000,151329.5781250000,177081.5781250000,169967.6718750000,160084.4687500000,160890.5625000000,64434.2617187500,177886.7812500000,,,
1.0119999985,7,151160.1718750000,151321.9062500000,177071.0468750000,169951.0625000000,160075.1718750000,160881.4375000000,64434.1523437500,177881.8437500000,,,
1.0159999984,7,151151.1093750000,151315.4531250000,177058.3281250000,169934.4531250000,160063.5312500000,160873.4218750000,64429.6718750000,177878.5937500000,,,
1.0199999984,7,151157.7656250000,151323.9218750000,177063.8281250000,169960.7187500000,160067.4375000000,160878.6718750000,64433.0546875000,177885.0937500000,,,
1.0239999983,8,151161.9687500000,151330.9531250000,177067.9531250000,169968.8750000000,160069.5156250000,160882.7343750000,64434.4765625000,177886.5468750000,,,
1.0279999983,8,151163.1718750000,151331.1406250000,177071.7187500000,169947.7343750000,160071.5156250000,160884.6875000000,64433.7773437500,177883.2968750000,,,
1.0319999983,8,151167.4218750000,151330.9843750000,177078.0156250000,169951.1718750000,160077.4687500000,160886.4062500000,64431.3906250000,177884.8750000000,,,
1.0359999982,8,151170.8281250000,151330.9218750000,177081.9375000000,169972.9531250000,160082.3593750000,160885.8437500000,64432.0625000000,177890.3750000000,,,
1.0399999982,8,151183.6406250000,151339.0468750000,177097.2500000000,169976.0312500000,160096.8750000000,160891.3125000000,64447.8046875000,177901.1093750000,,,
1.0439999981,8,151175.8593750000,151331.4062500000,177087.2968750000,169956.1250000000,160087.1562500000,160881.3125000000,64441.1250000000,177894.5312500000,,,
1.0479999983,8,151173.8593750000,151328.8125000000,177085.8437500000,169952.0000000000,160086.0312500000,160878.1406250000,64444.3984375000,177885.8906250000,,,
1.0519999983,8,151173.6406250000,151329.3906250000,177084.8593750000,169974.2343750000,160085.6093750000,160876.1562500000,64444.6953125000,177884.8750000000,,,
1.0559999982,8,151181.9062500000,151338.8437500000,177089.7968750000,169998.0625000000,160089.6250000000,160881.8437500000,64447.2148437500,177896.8125000000,,,
1.0599999982,8,151176.6718750000,151338.8906250000,177083.3750000000,169958.6875000000,160084.7968750000,160883.3750000000,64442.7109375000,177901.9687500000,,,
1.0639999982,8,151161.5937500000,151325.9062500000,177067.6562500000,169919.9218750000,160070.6562500000,160872.7812500000,64429.4335937500,177890.1875000000,,,
1.0679999983,8,151165.2187500000,151331.2968750000,177069.6406250000,169929.8437500000,160071.7812500000,160877.6875000000,64430.4765625000,177890.0468750000,,,
1.0719999983,8,151166.7187500000,151330.4375000000,177071.8125000000,169934.7812500000,160075.1093750000,160878.8906250000,64431.5234375000,177890.3750000000,,,
1.0759999983,8,151165.1875000000,151331.4843750000,177071.1250000000,169938.6406250000,160076.9843750000,160881.1406250000,64430.9609375000,177897.8281250000,,,
1.0799999982,8,151165.5625000000,151331.6406250000,177072.9687500000,169955.5156250000,160079.5625000000,160880.3750000000,64429.1093750000,177901.4062500000,,,
1.0839999982,8,151173.2343750000,151339.5312500000,177083.3281250000,169961.5312500000,160086.8125000000,160882.5156250000,64428.5195312500,177902.1250000000,,,
1.0879999981,8,151169.4062500000,151336.2343750000,177081.0156250000,169950.6562500000,160083.9375000000,160877.5312500000,64414.3593750000,177897.5156250000,,,
1.0919999983,8,151162.2656250000,151327.2500000000,177074.3125000000,169953.7500000000,160075.4843750000,160868.9687500000,64418.3281250000,177889.2031250000,,,
1.0959999983,8,151154.2500000000,151321.0312500000,177065.8593750000,169944.3593750000,160066.9531250000,160863.4687500000,64424.6835937500,177884.2656250000,,,
1.0999999982,8,151151.5937500000,151317.5937500000,177065.4062500000,169933.8437500000,160065.5625000000,160857.4062500000,64419.8046875000,177878.1718750000,,,
1.1039999982,8,151158.2187500000,151324.4062500000,177071.9531250000,169944.5937500000,160069.7187500000,160862.7187500000,64419.6406250000,177875.8593750000,,,
1.1079999981,8,151165.3281250000,151329.6562500000,177076.5937500000,169958.0625000000,160071.9687500000,160869.3437500000,64421.1992187500,177875.5156250000,,,
1.1119999983,8,151174.6250000000,151338.2812500000,177083.1093750000,169962.5156250000,160077.3750000000,160875.7031250000,64424.6328125000,177883.5312500000,,,
1.1159999983,8,151180.8281250000,151343.9531250000,177086.5156250000,169971.9062500000,160083.8125000000,160880.3750000000,64418.5976562500,177893.0000000000,,,
1.1199999982,8,151197.4531250000,151357.2968750000,177103.2343750000,170016.3437500000,160101.8281250000,160893.1406250000,64430.0742187500,177908.8906250000,,,
1.1239999982,8,151205.1093750000,151363.1718750000,177109.9375000000,170026.8281250000,160110.0156250000,160898.7968750000,64444.5585937500,177916.7968750000,,,
1.1279999982,8,151190.7187500000,151348.9687500000,177099.7187500000,169962.1093750000,160100.9218750000,160897.0781250000,64442.4960937500,177902.7968750000,,,
1.1319999981,8,151181.6093750000,151337.2812500000,177094.6406250000,169927.7343750000,160098.9062500000,160894.5312500000,64443.6484375000,177891.7656250000,33029,1.1330372381,0.0000000000
1.1359999983,8,151173.3750000000,151328.4375000000,177087.1406250000,169938.5156250000,160094.3437500000,160884.3125000000,64432.4648437500,177887.5312500000,,,
1.1399999983,8,151166.2656250000,151321.8906250000,177079.9531250000,169934.8906250000,160088.8281250000,160872.5625000000,64425.7578125000,177881.3906250000,,,
1.1439999982,8,151156.8281250000,151312.2343750000,177070.2031250000,169911.3437500000,160079.5937500000,160863.3125000000,64421.8945312500,177868.7812500000,,,
1.1479999982,8,151163.7968750000,151318.1250000000,177078.0156250000,169922.0937500000,160084.0000000000,160863.6250000000,64425.9726562500,177865.4062500000,,,
1.1519999981,9,151167.1250000000,151318.1875000000,177080.6718750000,169944.0625000000,160085.8750000000,160859.0468750000,64427.9570312500,177862.9062500000,,,
1.1559999981,9,151173.4218750000,151322.9062500000,177088.3437500000,169971.7968750000,160093.3593750000,160861.5312500000,64435.4921875000,177867.1718750000,,,
1.1599999981,9,151179.4843750000,151329.3437500000,177094.8593750000,169984.3281250000,160098.3125000000,160868.5937500000,64440.5898437500,177871.4687500000,,,
1.1639999980,9,151191.6093750000,151344.5468750000,177104.5468750000,169979.5468750000,160106.1406250000,160883.9843750000,64448.5546875000,177878.0625000000,,,
1.1679999980,9,151195.8750000000,151350.4843750000,177104.2187500000,169974.1093750000,160105.7968750000,160887.7500000000,64442.0117187500,177877.9062500000,,,
1.1719999979,9,151197.2656250000,151354.1250000000,177101.8281250000,169981.1562500000,160103.7343750000,160891.3437500000,64443.8906250000,177883.4062500000,,,
1.1759999981,9,151195.0625000000,151358.7187500000,177097.3281250000,169980.6406250000,160101.4843750000,160896.8593750000,64444.7460937500,177895.2500000000,,,
1.1799999981,9,151189.2500000000,151355.5781250000,177092.4531250000,169973.1093750000,160097.7031250000,160893.8281250000,64437.7187500000,177895.3125000000,,,
1.1839999980,9,151190.6250000000,151357.5000000000,177097.3750000000,169974.4531250000,160102.2656250000,160896.2187500000,64438.7382812500,177892.9843750000,,,
1.1879999980,9,151195.4687500000,151361.3437500000,177104.9375000000,169979.3906250000,160109.1562500000,160898.1250000000,64441.6640625000,177892.0625000000,,,
1.1919999979,9,151199.9531250000,151364.8750000000,177113.2343750000,169971.9531250000,160117.8125000000,160899.0156250000,64446.9453125000,177895.5000000000,,,
1.1959999981,9,151196.1406250000,151360.0781250000,177111.9531250000,169963.6406250000,160115.1093750000,160891.9218750000,64439.6250000000,177897.0625000000,,,
1.1999999981,9,151200.4687500000,151363.5937500000,177117.7968750000,169967.1562500000,160118.7500000000,160893.2187500000,64442.0664062500,177902.1718750000,,,
1.2039999980,9,151203.4687500000,151364.6093750000,177118.5156250000,169981.7500000000,160117.2500000000,160892.6718750000,64440.6445312500,177901.2656250000,,,
1.2079999980,9,151199.8125000000,151359.4375000000,177115.5625000000,169994.8437500000,160113.9843750000,160890.0000000000,64439.3554687500,177893.1093750000,,,
1.2119999980,9,151202.2343750000,151361.3437500000,177120.3906250000,169992.6875000000,160119.0156250000,160894.2343750000,64447.9648437500,177897.5156250000,,,
1.2159999979,9,151196.7656250000,151353.0312500000,177115.3750000000,169981.6093750000,160114.8906250000,160890.0468750000,64443.4335937500,177899.7031250000,,,
1.2199999981,9,151199.7031250000,151352.4062500000,177118.2812500000,169985.9062500000,160118.4062500000,160890.1562500000,64444.2656250000,177900.8593750000,,,
1.2239999981,9,151196.0625000000,151350.5312500000,177109.1875000000,169961.7968750000,160111.9218750000,160890.8281250000,64434.3398437500,177893.8125000000,,,
1.2279999980,9,151189.8593750000,151341.0625000000,177102.0156250000,169941.0781250000,160105.5312500000,160882.5156250000,64424.4960937500,177881.2343750000,,,
1.2319999980,9,151187.0312500000,151336.6718750000,177098.6406250000,169933.4218750000,160100.9218750000,160881.0156250000,64424.0937500000,177878.7812500000,,,
1.2359999979,9,151192.5156250000,151344.1406250000,177099.3125000000,169949.4218750000,160101.2187500000,160891.3593750000,64442.3867187500,177890.0000000000,,,
1.2399999981,9,151200.2968750000,151352.6718750000,177106.3906250000,169977.3281250000,160108.2187500000,160895.5468750000,64450.7812500000,177901.1250000000,,,
1.2439999981,9,151208.6093750000,151361.7656250000,177114.1718750000,169996.5000000000,160115.1875000000,160900.9687500000,64453.5976562500,177908.9062500000,,,
1.2479999980,9,151208.4531250000,151364.2968750000,177117.5312500000,169973.5625000000,160118.5156250000,160903.1093750000,64453.4648437500,177906.0625000000,,,
1.2519999980,9,151206.0937500000,151362.4687500000,177118.7343750000,169973.7812500000,160119.1250000000,160899.3593750000,64448.1015625000,177903.1093750000,,,
1.2559999980,9,151204.4062500000,151359.1718750000,177121.8906250000,169993.4375000000,160119.9687500000,160891.6093750000,64442.9765625000,177904.2968750000,,,
1.2599999979,9,151197.7500000000,151358.3906250000,177113.9531250000,169977.9062500000,160113.9218750000,160890.7968750000,64435.7343750000,177902.2031250000,,,
1.2639999981,9,151195.2656250000,151358.8750000000,177107.9218750000,169957.4218750000,160108.7187500000,160891.7656250000,64432.5429687500,177895.6406250000,,,
1.2679999981,9,151193.2187500000,151359.3281250000,177103.9062500000,169962.3281250000,160102.6562500000,160890.4218750000,64429.6992187500,177887.6875000000,,,
1.2719999980,9,151193.6250000000,151362.8125000000,177103.7656250000,169964.0781250000,160099.8906250000,160891.4218750000,64426.1054687500,177886.3750000000,,,
1.2759999980,9,151197.4531250000,151364.8750000000,177108.0781250000,169969.1406250000,160102.3906250000,160889.3593750000,64426.0273437500,177888.0937500000,,,
1.2799999979,10,151199.4218750000,151368.2812500000,177110.8125000000,169978.7968750000,160104.1875000000,160891.6875000000,64428.5468750000,177890.5312500000,,,
1.2839999979,10,151188.9843750000,151357.7500000000,177101.0781250000,169974.0468750000,160093.4531250000,160882.4375000000,64418.7304687500,177877.9843750000,,,
1.2879999978,10,151188.4375000000,151356.8593750000,177099.0156250000,169977.6093750000,160089.1093750000,160878.4843750000,64416.7734375000,177869.9375000000,,,
1.2919999978,10,151201.0000000000,151368.2812500000,177108.4062500000,169984.0468750000,160098.2812500000,160889.0000000000,64425.0859375000,177878.0312500000,,,
1.2959999978,10,151210.2500000000,151377.3593750000,177116.8281250000,169988.4062500000,160108.0781250000,160900.0625000000,64431.9531250000,177891.8750000000,,,
1.2999999977,10,151199.6093750000,151359.4687500000,177108.8593750000,169987.1875000000,160102.5312500000,160886.5156250000,64423.9062500000,177882.4062500000,,,
1.3039999979,10,151198.7968750000,151355.5000000000,177108.5937500000,169982.4375000000,160103.7343750000,160882.3593750000,64421.5468750000,177876.1562500000,,,
1.3079999979,10,151197.2656250000,151355.5156250000,177107.6562500000,169970.7812500000,160103.4375000000,160880.9843750000,64421.3867187500,177870.5312500000,,,
1.3119999978,10,151194.9062500000,151353.7968750000,177105.7031250000,169974.5625000000,160101.9062500000,160879.3437500000,64416.3164062500,177871.1406250000,,,
1.3159999978,10,151198.6718750000,151357.5312500000,177109.7656250000,169993.7656250000,160107.5937500000,160882.1718750000,64418.1679687500,177880.3906250000,,,
1.3199999977,10,151208.1875000000,151365.9843750000,177121.2031250000,170016.9687500000,160120.2031250000,160890.5625000000,64429.7265625000,177889.2968750000,,,
1.3239999979,10,151208.1875000000,151365.1562500000,177122.6718750000,169993.5000000000,160123.2031250000,160893.8125000000,64429.3242187500,177888.5468750000,,,
1.3279999979,10,151207.2968750000,151362.9531250000,177122.2968750000,169986.3906250000,160122.4218750000,160892.6250000000,64436.1093750000,177883.3437500000,,,
1.3319999978,10,151206.0937500000,151360.1406250000,177119.3750000000,169999.9375000000,160119.9062500000,160891.6875000000,64440.5898437500,177882.2812500000,,,
1.3359999978,10,151195.2656250000,151349.5937500000,177107.6562500000,169981.7500000000,160109.9062500000,160887.0156250000,64431.3632812500,177879.5625000000,,,
1.3399999978,10,151193.0000000000,151345.1718750000,177103.2812500000,169965.1250000000,160106.8750000000,160881.8125000000,64429.2187500000,177877.2812500000,,,
1.3439999977,10,151200.7343750000,151354.9531250000,177109.1250000000,169972.3906250000,160112.2968750000,160886.7500000000,64434.1796875000,177882.8125000000,,,
1.3479999979,10,151203.8750000000,151358.5000000000,177113.4531250000,169994.7031250000,160114.7812500000,160886.2187500000,64432.1132812500,177881.9843750000,,,
1.3519999979,10,151208.1875000000,151364.0781250000,177119.6406250000,170003.3593750000,160121.0625000000,160887.4531250000,64431.6054687500,177886.0312500000,,,
1.3559999978,10,151207.7031250000,151368.7187500000,177119.7187500000,169973.4375000000,160121.7343750000,160888.2812500000,64438.1210937500,177894.8750000000,,,
1.3599999978,10,151195.3437500000,151356.6250000000,177105.8906250000,169958.5781250000,160107.2812500000,160868.0781250000,64427.5546875000,177889.7343750000,,,
1.3639999977,10,151184.8750000000,151345.2500000000,177097.7343750000,169939.6093750000,160097.8593750000,160854.4062500000,64414.2226562500,177877.2031250000,,,
1.3679999979,10,151187.6718750000,151355.9687500000,177101.4062500000,169945.6718750000,160099.7031250000,160868.1875000000,64414.7070312500,177879.8906250000,,,
1.3719999979,10,151187.5625000000,151359.6562500000,177102.9843750000,169956.8906250000,160100.3750000000,160878.3593750000,64413.6601562500,177887.9062500000,,,
1.3759999978,10,151193.0000000000,151366.4687500000,177108.1406250000,169969.7812500000,160105.5312500000,160880.5781250000,64413.6875000000,177900.7343750000,,,
1.3799999978,10,151194.1562500000,151366.5781250000,177108.6718750000,169980.1093750000,160106.5468750000,160879.4062500000,64414.7617187500,177909.7656250000,,,
1.3839999977,10,151194.0468750000,151364.6093750000,177107.3281250000,169973.2500000000,160105.4531250000,160881.6875000000,64417.1210937500,177909.3125000000,,,
1.3879999977,10,151200.0625000000,151368.6875000000,177113.6093750000,169971.7187500000,160112.0156250000,160886.7031250000,64421.7343750000,177911.2968750000,,,
1.3919999979,10,151194.4218750000,151360.8593750000,177110.4218750000,169974.6718750000,160107.4687500000,160879.5937500000,64415.6445312500,177906.7031250000,,,
1.3959999979,10,151193.2968750000,151358.3906250000,177107.0625000000,169978.1875000000,160104.4062500000,160878.7656250000,64414.2226562500,177909.8750000000,,,
1.3999999978,10,151189.6718750000,151354.0937500000,177101.5625000000,169980.8281250000,160098.3437500000,160879.9687500000,64410.4140625000,177908.2656250000,,,
1.4039999978,10,151194.4843750000,151357.2968750000,177106.7343750000,169990.1718750000,160100.8906250000,160885.1093750000,64415.2148437500,177908.7812500000,,,
1.4079999977,11,151197.2656250000,151358.7343750000,177107.0312500000,169992.0000000000,160099.6250000000,160887.2343750000,64416.7187500000,177909.1250000000,,,
1.4119999977,11,151196.9531250000,151357.2968750000,177104.6562500000,170001.1406250000,160096.3593750000,160886.6093750000,64414.8398437500,177907.5937500000,,,
1.4159999976,11,151199.3906250000,151359.1875000000,177107.5156250000,169997.5000000000,160102.1562500000,160888.0625000000,64419.6406250000,177913.9218750000,,,
1.4199999976,11,151193.9375000000,151353.1562500000,177102.9375000000,169970.0781250000,160102.2656250000,160884.5000000000,64417.7656250000,177916.1562500000,,,
1.4239999976,11,151202.5468750000,151360.3437500000,177111.9218750000,169989.2031250000,160111.2500000000,160890.2968750000,64424.2304687500,177918.6406250000,,,
1.4279999975,11,151207.4375000000,151366.8437500000,177119.7968750000,169989.7343750000,160118.4843750000,160898.0625000000,64431.0429687500,177917.9218750000,,,
1.4319999977,11,151208.1562500000,151370.1718750000,177123.4218750000,169994.3750000000,160122.5156250000,160902.8906250000,64434.2851562500,177918.7500000000,,,
1.4359999977,11,151215.1093750000,151377.0312500000,177134.0781250000,170004.4687500000,160132.2968750000,160909.1406250000,64442.1992187500,177927.7968750000,,,
1.4399999976,11,151208.0468750000,151370.5625000000,177126.6093750000,169978.7656250000,160125.0312500000,160899.9531250000,64434.7148437500,177911.0625000000,,,
1.4439999976,11,151207.7500000000,151369.2500000000,177124.6093750000,169994.2968750000,160120.1562500000,160893.0781250000,64425.4882812500,177906.8750000000,,,
1.4479999975,11,151201.4531250000,151364.9687500000,177118.8125000000,169982.1562500000,160113.0156250000,160888.6562500000,64424.8710937500,177899.0937500000,,,
1.4519999977,11,151198.0468750000,151365.0156250000,177112.5312500000,169966.5937500000,160106.8125000000,160884.7343750000,64429.7265625000,177899.1718750000,,,
1.4559999977,11,151192.8125000000,151359.7343750000,177106.0937500000,169956.6093750000,160101.2343750000,160877.5781250000,64428.4921875000,177900.8593750000,,,
1.4599999976,11,151194.1562500000,151359.7812500000,177106.5312500000,169977.8125000000,160100.9218750000,160873.5000000000,64427.2070312500,177900.5468750000,,,
1.4639999976,11,151200.5937500000,151365.0625000000,177111.9218750000,169980.9375000000,160105.4531250000,160876.6093750000,64430.8789062500,177903.4062500000,,,
1.4679999975,11,151203.5000000000,151367.6718750000,177114.0156250000,169974.0468750000,160107.6718750000,160880.5625000000,64431.7656250000,177901.3125000000,,,
1.4719999975,11,151203.5468750000,151368.9843750000,177115.0781250000,169975.3906250000,160108.6718750000,160884.2031250000,64430.7734375000,177901.5312500000,,,
1.4759999977,11,151200.2500000000,151368.4218750000,177112.9375000000,169971.9062500000,160109.3437500000,160885.7656250000,64428.9218750000,177907.5468750000,,,
1.4799999977,11,151201.5312500000,151369.8906250000,177115.4375000000,169975.5000000000,160112.6718750000,160885.9218750000,64427.1250000000,177911.3750000000,,,
1.4839999976,11,151207.1718750000,151372.5468750000,177125.1406250000,169983.7812500000,160119.9375000000,160888.6250000000,64423.1562500000,177912.7187500000,,,
1.4879999976,11,151212.8750000000,151375.4687500000,177133.8593750000,169982.9843750000,160125.5468750000,160890.5625000000,64431.4960937500,177911.3437500000,,,
1.4919999975,11,151211.1093750000,151370.2968750000,177130.5000000000,169981.3125000000,160122.2343750000,160883.5000000000,64436.6757812500,177909.8281250000,,,
1.4959999977,11,151208.5156250000,151369.0937500000,177125.2812500000,169996.9218750000,160118.6250000000,160879.1562500000,64434.9296875000,177913.1718750000,,,
1.4999999977,11,151211.1406250000,151375.1562500000,177123.6875000000,170003.1562500000,160119.2968750000,160882.0781250000,64441.8515625000,177919.9531250000,,,
1.5039999976,11,151206.3593750000,151369.1718750000,177115.2968750000,169984.9687500000,160111.7500000000,160876.6406250000,64438.7382812500,177912.3906250000,,,
1.5079999976,11,151210.2812500000,151373.2812500000,177117.1562500000,169980.1406250000,160114.6562500000,160884.4375000000,64444.0781250000,177908.2187500000,,,
1.5119999975,11,151214.4843750000,151379.1562500000,177120.5312500000,169990.2500000000,160119.2031250000,160893.2343750000,64448.6914062500,177913.7968750000,,,
1.5159999975,11,151213.3437500000,151380.7031250000,177118.1093750000,169990.8437500000,160117.6562500000,160898.1250000000,64445.3906250000,177922.3281250000,,,
1.5199999977,11,151216.9531250000,151385.1562500000,177119.4531250000,169999.0000000000,160117.8750000000,160901.3906250000,64446.1171875000,177925.7500000000,,,
1.5239999976,11,151213.1406250000,151374.5937500000,177115.6250000000,169985.1562500000,160111.5156250000,160893.3750000000,64443.2734375000,177914.2812500000,,,
1.5279999976,11,151215.5156250000,151376.8906250000,177114.9531250000,169981.4218750000,160109.2031250000,160895.9843750000,64445.2031250000,177910.5000000000,,,
1.5319999976,11,151221.4062500000,151381.6406250000,177118.5468750000,169998.5625000000,160112.2031250000,160895.7031250000,64447.3476562500,177911.2968750000,,,
1.5359999975,12,151225.4062500000,151383.2031250000,177123.8593750000,170012.5937500000,160117.7812500000,160894.9375000000,64449.2265625000,177913.9843750000,,,
1.5399999975,12,151220.2500000000,151379.1718750000,177123.0781250000,170005.7343750000,160118.2656250000,160894.1562500000,64446.7851562500,177915.1406250000,,,
1.5439999974,12,151217.7656250000,151379.5000000000,177124.6093750000,170001.3593750000,160122.3437500000,160893.2968750000,64451.4531250000,177911.4531250000,,,
1.5479999974,12,151223.5312500000,151385.9843750000,177133.2187500000,170020.1875000000,160130.2812500000,160894.1875000000,64459.0976562500,177907.7812500000,,,
1.5519999973,12,151223.4687500000,151388.2656250000,177137.5937500000,170012.7343750000,160134.8750000000,160894.4531250000,64462.9882812500,177908.8593750000,,,
1.5559999973,12,151213.4375000000,151381.1093750000,177128.2187500000,169984.2656250000,160128.6250000000,160889.5468750000,64454.9921875000,177907.9375000000,,,
1.5599999975,12,151211.0625000000,151379.6406250000,177125.4375000000,169977.8593750000,160126.6718750000,160887.0781250000,64451.5078125000,177910.5468750000,,,
1.5639999975,12,151218.9218750000,151382.9375000000,177133.1875000000,170021.0625000000,160131.0156250000,160888.3906250000,64454.1093750000,177912.0000000000,,,
1.5679999974,12,151247.7187500000,151406.5625000000,177161.7031250000,170074.7656250000,160154.4062500000,160904.7812500000,64473.8242187500,177928.8125000000,,,
1.5719999974,12,151238.1250000000,151402.2968750000,177148.8750000000,169984.7187500000,160146.8437500000,160905.1718750000,64473.1250000000,177929.1562500000,,,
1.5759999973,12,151219.2343750000,151387.7031250000,177126.9062500000,169949.5000000000,160128.4687500000,160894.0781250000,64458.6406250000,177921.0625000000,,,
1.5799999975,12,151227.6250000000,151393.0156250000,177132.8593750000,169981.8750000000,160133.7812500000,160898.0156250000,64462.1015625000,177927.7187500000,,,
1.5839999975,12,151228.3281250000,151392.4843750000,177129.8593750000,169984.5156250000,160130.1562500000,160896.1406250000,64459.6875000000,177925.7812500000,,,
1.5879999974,12,151234.7968750000,151396.6093750000,177135.7031250000,170004.2187500000,160134.1250000000,160898.9062500000,64466.5273437500,177926.0000000000,,,
1.5919999974,12,151242.3906250000,151404.4218750000,177143.0781250000,170017.5312500000,160140.7187500000,160906.1093750000,64475.0039062500,177930.5625000000,,,
1.5959999973,12,151235.0156250000,151395.9218750000,177136.9218750000,170008.6250000000,160135.0625000000,160899.2968750000,64469.4765625000,177927.1562500000,,,
1.5999999973,12,151233.6406250000,151393.5000000000,177137.8281250000,169999.0937500000,160135.8906250000,160899.0312500000,64469.9062500000,177932.2656250000,,,
1.6039999975,12,151234.0468750000,151394.3281250000,177141.5781250000,169996.0937500000,160139.2656250000,160903.5937500000,64476.5859375000,177934.6250000000,,,
1.6079999974,12,151228.4062500000,151388.8125000000,177139.0156250000,169995.7500000000,160137.5781250000,160903.8437500000,64478.5156250000,177927.3593750000,,,
1.6119999974,12,151230.3750000000,151391.8906250000,177141.6406250000,170006.3750000000,160138.9843750000,160908.1250000000,64480.4218750000,177928.7343750000,,,
1.6159999974,12,151231.7968750000,151392.9843750000,177143.9375000000,170009.8906250000,160140.5937500000,160908.5781250000,64481.9765625000,177932.0781250000,,,
1.6199999973,12,151225.8281250000,151386.3906250000,177137.6093750000,170006.6406250000,160134.8437500000,160902.1406250000,64476.8554687500,177933.6093750000,,,
1.6239999975,12,151236.1406250000,151395.6718750000,177148.7656250000,170011.5937500000,160145.6250000000,160913.8750000000,64491.1484375000,177942.0937500000,,,
1.6279999975,12,151243.8593750000,151402.7812500000,177155.9531250000,170018.1406250000,160153.5468750000,160924.2187500000,64502.9765625000,177946.4687500000,,,
1.6319999974,12,151252.6562500000,151414.6093750000,177163.4687500000,170029.3906250000,160161.2187500000,160937.8281250000,64514.3515625000,177955.7656250000,,,
1.6359999974,12,151260.9531250000,151422.6875000000,177172.7968750000,170051.6406250000,160171.4062500000,160947.4218750000,64526.2617187500,177968.2343750000,,,
1.6399999973,12,151259.9843750000,151424.8281250000,177171.3593750000,170056.5781250000,160169.5781250000,160951.7656250000,64526.2851562500,177974.0000000000,,,
1.6439999973,12,151247.0312500000,151415.3906250000,177157.8906250000,170010.5000000000,160157.7812500000,160946.8125000000,64519.8476562500,177960.2812500000,,,
1.6479999975,12,151245.6250000000,151414.5625000000,177156.6875000000,169996.6875000000,160155.9531250000,160944.9062500000,64522.3710937500,177956.5781250000,,,
1.6519999974,12,151251.0468750000,151418.6562500000,177162.3750000000,170008.8437500000,160161.2187500000,160947.5781250000,64528.0039062500,177963.3125000000,,,
1.6559999974,12,151256.5937500000,151423.5156250000,177165.8281250000,170026.8281250000,160167.4062500000,160952.8906250000,64529.5039062500,177970.7343750000,,,
1.6599999974,12,151268.6406250000,151435.7656250000,177176.9843750000,170052.2343750000,160180.3906250000,160969.3437500000,64544.8750000000,177986.1250000000,,,
1.6639999973,13,151267.8593750000,151434.9687500000,177175.2656250000,170035.7343750000,160182.4062500000,160973.1718750000,64553.3789062500,177989.7031250000,,,
1.6679999973,13,151274.9687500000,151440.5937500000,177181.8125000000,170020.0000000000,160191.3281250000,160982.0000000000,64568.0742187500,177988.1093750000,,,
1.6719999972,13,151282.0781250000,151448.9218750000,177188.9843750000,170025.5000000000,160200.7187500000,160998.0312500000,64581.2187500000,177992.6562500000,,,
1.6759999972,13,151286.0781250000,151453.2031250000,177194.1250000000,170040.0000000000,160207.6093750000,161006.6718750000,64591.0078125000,177996.3437500000,,,
1.6799999971,13,151298.9531250000,151464.7187500000,177206.2500000000,170037.4062500000,160221.4218750000,161018.3437500000,64604.4453125000,178007.0000000000,,,
1.6839999971,13,151303.3437500000,151469.4843750000,177210.2500000000,170037.4843750000,160226.0937500000,161020.4375000000,64613.1640625000,178012.2343750000,,,
1.6879999973,13,151311.0781250000,151478.5781250000,177220.2187500000,170036.4687500000,160233.6562500000,161023.9531250000,64623.5703125000,178014.1562500000,,,
1.6919999972,13,151313.8906250000,151481.5000000000,177219.7500000000,170050.2187500000,160232.0781250000,161025.0468750000,64624.5078125000,178013.8437500000,,,
1.6959999972,13,151316.6875000000,151486.1093750000,177219.4531250000,170056.1250000000,160230.9218750000,161028.7500000000,64624.1875000000,178022.5312500000,,,
1.6999999972,13,151322.9062500000,151492.1250000000,177227.0625000000,170064.5000000000,160235.8125000000,161033.6093750000,64628.8554687500,178027.1718750000,,,
1.7039999971,13,151320.0312500000,151491.0312500000,177226.0468750000,170059.4531250000,160234.0625000000,161031.2343750000,64630.6796875000,178024.8125000000,,,
1.7079999973,13,151316.5156250000,151490.9218750000,177223.0625000000,170064.9843750000,160229.5000000000,161028.4531250000,64626.2539062500,178022.3125000000,,,
1.7119999973,13,151311.5000000000,151488.2656250000,177215.8750000000,170066.9843750000,160225.5937500000,161029.1718750000,64606.7265625000,178018.6406250000,,,
1.7159999972,13,151302.9687500000,151472.9218750000,177211.2656250000,170056.7187500000,160221.3437500000,161016.7500000000,64600.0468750000,178008.9375000000,,,
1.7199999972,13,151299.7812500000,151469.4843750000,177206.7031250000,170050.4375000000,160217.7343750000,161009.0312500000,64612.3867187500,178006.3281250000,,,
1.7239999971,13,151305.8125000000,151474.9843750000,177212.1250000000,170061.1406250000,160222.3437500000,161006.8593750000,64621.5312500000,178011.9531250000,,,
1.7279999971,13,151307.3281250000,151470.5000000000,177218.7812500000,170058.3750000000,160227.7656250000,160998.1093750000,64623.6796875000,178011.6875000000,,,
1.7319999973,13,151296.9687500000,151460.3750000000,177209.5000000000,170047.7500000000,160219.4687500000,160985.1406250000,64614.9062500000,178003.3437500000,,,
1.7359999972,13,151280.1718750000,151447.9218750000,177193.1406250000,170028.6250000000,160204.1093750000,160977.7656250000,64600.2070312500,177995.8750000000,,,
1.7399999972,13,151276.3125000000,151445.9687500000,177186.9687500000,170032.0156250000,160197.4531250000,160974.2187500000,64589.5859375000,178004.2343750000,,,
1.7439999972,13,151285.3750000000,151455.3281250000,177191.2656250000,170059.8750000000,160198.7968750000,160976.1562500000,64586.1523437500,178015.3125000000,,,
1.7479999971,13,151285.6718750000,151454.9218750000,177186.2500000000,170062.7968750000,160191.4375000000,160973.3906250000,64576.4453125000,178023.0156250000,,,
1.7519999973,13,151286.7812500000,151454.8125000000,177184.3437500000,170039.4375000000,160189.5156250000,160969.9531250000,64572.1250000000,178030.2187500000,,,
1.7559999973,13,151289.3750000000,151456.0000000000,177187.0468750000,170020.9843750000,160193.0781250000,160965.5000000000,64569.8984375000,178036.3437500000,,,
1.7599999972,13,151270.4375000000,151440.1718750000,177168.3593750000,170005.0781250000,160176.4218750000,160951.3125000000,64551.2304687500,178028.7187500000,,,
1.7639999972,13,151264.3750000000,151437.7500000000,177163.4375000000,170002.8906250000,160172.2968750000,160954.7187500000,64547.7968750000,178018.9375000000,,,
1.7679999971,13,151271.7343750000,151443.2500000000,177173.3906250000,170017.3750000000,160180.2343750000,160958.1250000000,64553.3515625000,178013.8906250000,,,
1.7719999971,13,151272.0781250000,151439.7968750000,177173.2656250000,170023.2656250000,160179.0781250000,160950.4218750000,64552.4648437500,178009.4062500000,,,
1.7759999973,13,151263.5468750000,151429.6093750000,177163.0468750000,170010.3906250000,160170.7656250000,160942.4531250000,64546.0000000000,178005.1250000000,,,
1.7799999972,13,151256.3593750000,151421.6562500000,177157.1406250000,170004.0937500000,160165.3437500000,160936.8750000000,64540.9843750000,177998.6562500000,,,
1.7839999972,13,151249.8906250000,151413.6718750000,177152.6093750000,170003.2812500000,160160.2187500000,160926.7500000000,64534.4414062500,177997.1562500000,,,
1.7879999971,13,151250.8906250000,151413.7812500000,177156.4687500000,170006.5781250000,160162.0781250000,160926.2343750000,64536.6132812500,177989.9687500000,,,
1.7919999971,14,151245.6875000000,151408.7812500000,177153.9218750000,170008.1093750000,160158.1875000000,160926.6562500000,64532.7226562500,177978.2187500000,,,
1.7959999971,14,151237.2656250000,151401.5937500000,177144.8593750000,170006.1250000000,160150.0625000000,160921.1406250000,64526.6640625000,177974.3906250000,,,
1.7999999970,14,151232.8125000000,151396.9531250000,177139.6718750000,170002.7187500000,160145.3125000000,160915.2031250000,64525.0000000000,177968.5625000000,,,
1.8039999970,14,151239.7500000000,151401.6875000000,177144.3437500000,170010.8437500000,160149.8437500000,160919.9375000000,64531.7851562500,177968.4843750000,,,
1.8079999969,14,151244.2343750000,151406.5937500000,177149.2031250000,170015.2812500000,160152.9218750000,160923.5312500000,64537.6601562500,177964.0312500000,,,
1.8119999969,14,151243.3437500000,151408.2500000000,177150.7812500000,170005.6718750000,160155.6093750000,160927.2500000000,64545.7851562500,177966.3125000000,,,
1.8159999971,14,151249.0937500000,151416.3593750000,177158.7968750000,170012.4062500000,160166.2343750000,160935.2500000000,64557.7773437500,177981.5937500000,,,
1.8199999970,14,151251.2031250000,151417.9687500000,177162.9062500000,170009.6718750000,160172.8593750000,160936.5312500000,64561.3437500000,177981.0625000000,,,
1.8239999970,14,151268.9687500000,151434.8593750000,177181.2812500000,170020.0000000000,160190.8750000000,160950.0000000000,64578.2929687500,177992.2500000000,,,
1.8279999970,14,151281.0156250000,151448.3750000000,177190.5937500000,170023.3437500000,160200.5625000000,160963.0937500000,64591.8125000000,178001.9843750000,,,
1.8319999969,14,151277.8437500000,151445.7187500000,177187.1562500000,170012.4531250000,160197.7500000000,160966.8437500000,64593.0195312500,178007.0781250000,,,
1.8359999971,14,151277.6562500000,151443.1406250000,177189.5156250000,170016.5156250000,160200.2968750000,160968.4531250000,64598.2773437500,178015.9843750000,,,
1.8399999971,14,151285.7031250000,151445.9375000000,177198.0937500000,170036.2031250000,160209.9218750000,160973.8125000000,64611.2851562500,178021.2968750000,,,
1.8439999970,14,151293.0781250000,151450.5468750000,177205.9062500000,170032.9218750000,160217.8906250000,160983.8750000000,64627.8906250000,178030.0156250000,,,
1.8479999970,14,151304.9843750000,151459.9062500000,177217.9687500000,170030.5156250000,160228.6718750000,160998.2500000000,64648.5937500000,178041.2812500000,,,
1.8519999969,14,151312.7968750000,151465.5156250000,177222.7968750000,170047.0312500000,160234.2187500000,161007.8750000000,64658.8398437500,178051.9218750000,,,
1.8559999969,14,151321.2187500000,151471.4375000000,177227.3906250000,170046.2031250000,160238.9218750000,161014.6718750000,64662.3281250000,178067.9375000000,,,
1.8599999971,14,151314.3750000000,151464.1718750000,177216.3125000000,170022.5937500000,160230.9843750000,161011.9375000000,64657.8750000000,178068.2343750000,,,
1.8639999970,14,151309.0312500000,151460.9375000000,177209.2500000000,170011.3125000000,160223.6093750000,161011.6562500000,64653.9609375000,178065.5000000000,,,
1.8679999970,14,151315.3437500000,151467.8750000000,177216.0468750000,170022.1406250000,160226.2500000000,161015.1250000000,64654.2265625000,178066.1875000000,,,
1.8719999969,14,151309.7343750000,151464.3437500000,177213.7343750000,170017.2031250000,160224.5468750000,161014.5625000000,64654.8984375000,178067.9687500000,,,
1.8759999969,14,151297.0937500000,151449.5625000000,177207.7500000000,170017.8437500000,160220.5156250000,161005.3281250000,64651.3593750000,178064.3750000000,,,
1.8799999971,14,151297.4531250000,151450.0937500000,177212.2656250000,170032.1250000000,160226.5000000000,161008.3593750000,64652.5937500000,178071.5312500000,,,
1.8839999971,14,151287.2343750000,151443.2500000000,177203.3281250000,170029.5156250000,160219.0468750000,161006.3750000000,64646.2890625000,178064.2343750000,,,
1.8879999970,14,151280.7656250000,151442.6718750000,177195.2500000000,170031.8281250000,160212.0625000000,161003.9687500000,64635.6132812500,178062.7343750000,,,
1.8919999970,14,151277.0312500000,151442.5312500000,177193.1562500000,170026.1875000000,160210.2968750000,161007.8750000000,64639.3437500000,178064.6406250000,,,
1.8959999969,14,151267.9687500000,151431.1250000000,177189.0625000000,170029.2187500000,160206.6562500000,160999.3281250000,64637.5976562500,178055.3281250000,,,
1.8999999969,14,151270.7031250000,151434.6718750000,177193.9687500000,170049.6406250000,160211.2656250000,160996.1562500000,64644.4101562500,178048.1093750000,,,
1.9039999971,14,151263.5000000000,151430.5937500000,177183.4843750000,170056.9062500000,160199.4062500000,160989.7968750000,64640.6289062500,178033.4687500000,,,
1.9079999970,14,151256.8125000000,151423.6718750000,177175.3750000000,170015.5468750000,160189.2500000000,160986.5312500000,64634.6484375000,178022.2812500000,,,
1.9119999970,14,151245.5781250000,151410.5625000000,177163.9843750000,169986.0156250000,160176.4218750000,160971.7500000000,64619.4648437500,178010.1406250000,,,
1.9159999969,14,151243.0312500000,151405.1875000000,177160.8437500000,169996.9218750000,160172.2343750000,160960.4375000000,64609.7031250000,178003.8281250000,,,
1.9199999969,15,151245.2500000000,151407.6406250000,177161.3281250000,170012.4062500000,160170.8750000000,160957.5312500000,64602.5937500000,178006.5625000000,,,
1.9239999969,15,151242.1093750000,151406.7187500000,177154.9218750000,170018.1718750000,160162.9531250000,160948.6875000000,64589.2109375000,178001.9062500000,,,
1.9279999968,15,151239.3593750000,151405.1875000000,177149.8125000000,170015.2500000000,160156.0156250000,160940.8437500000,64578.4843750000,177990.2812500000,,,
1.9319999968,15,151240.7812500000,151407.0937500000,177152.7968750000,170021.8125000000,160157.3750000000,160941.1406250000,64581.3789062500,177990.9375000000,,,
1.9359999967,15,151252.2343750000,151417.3125000000,177165.7812500000,170037.4375000000,160169.2656250000,160945.5937500000,64590.7656250000,178007.6093750000,,,
1.9399999967,15,151249.4687500000,151411.8125000000,177162.9531250000,170037.8281250000,160165.4843750000,160933.5781250000,64584.3046875000,178014.4843750000,,,
1.9439999969,15,151251.5781250000,151414.6562500000,177162.5781250000,170039.3906250000,160163.5468750000,160931.2500000000,64583.0156250000,178017.8593750000,,,
1.9479999968,15,151263.2500000000,151425.5468750000,177171.2031250000,170061.7656250000,160169.5000000000,160936.9843750000,64587.0117187500,178029.2656250000,,,
1.9519999968,15,151258.4531250000,151416.7812500000,177168.1875000000,170045.7968750000,160165.1250000000,160928.5156250000,64581.1367187500,178020.3750000000,,,
1.9559999967,15,151255.9218750000,151411.9531250000,177166.2656250000,170040.6562500000,160163.2812500000,160925.5625000000,64575.8281250000,178022.9843750000,,,
1.9599999967,15,151254.9062500000,151410.2968750000,177167.4375000000,170026.2656250000,160163.5937500000,160923.2812500000,64571.4296875000,178033.4687500000,,,
1.9639999969,15,151246.1875000000,151404.3906250000,177160.5000000000,170007.0468750000,160156.4062500000,160918.4218750000,64564.7500000000,178034.8437500000,,,
1.9679999969,15,151243.6718750000,151402.0781250000,177159.6875000000,170005.5156250000,160155.3906250000,160914.6718750000,64565.3398437500,178031.4843750000,,,
1.9719999968,15,151240.8593750000,151399.7031250000,177157.1406250000,170006.9843750000,160153.3281250000,160912.5781250000,64563.2460937500,178031.5625000000,,,
1.9759999968,15,151242.2187500000,151400.6093750000,177158.0312500000,170015.5468750000,160154.3125000000,160915.5312500000,64563.5429687500,178038.5625000000,,,
1.9799999967,15,151234.5468750000,151395.5937500000,177148.5781250000,170014.5468750000,160147.5937500000,160913.0156250000,64559.9765625000,178039.0468750000,,,
1.9839999967,15,151235.2500000000,151401.2187500000,177149.4218750000,170017.0468750000,160150.2656250000,160921.4531250000,64564.8554687500,178044.4687500000,,,
1.9879999969,15,151239.0312500000,151406.1875000000,177153.5781250000,170025.0937500000,160154.5156250000,160925.6406250000,64570.2500000000,178041.5156250000,,,
1.9919999968,15,151239.4531250000,151405.3750000000,177155.1250000000,170014.9218750000,160156.8437500000,160927.5781250000,64574.3515625000,178038.8125000000,,,
1.9959999968,15,151240.0781250000,151404.2343750000,177157.9218750000,170004.4687500000,160160.4843750000,160929.5625000000,64577.0859375000,178045.7343750000,,,
1.9999999967,15,151252.1406250000,151413.7812500000,177173.6875000000,170010.8750000000,160173.1718750000,160935.5625000000,64586.6093750000,178057.9375000000,,,
2.0039999967,15,151248.6562500000,151411.6250000000,177166.1562500000,169994.3750000000,160166.2812500000,160933.6406250000,64578.2929687500,178054.4218750000,,,
2.0079999969,15,151251.6406250000,151415.1250000000,177163.5000000000,170010.1250000000,160163.5937500000,160933.7968750000,64574.7539062500,178049.6406250000,,,
2.0119999968,15,151250.8125000000,151413.7500000000,177159.1718750000,170014.4687500000,160158.9062500000,160929.2656250000,64569.0937500000,178045.9687500000,,,
2.0159999968,15,151247.8906250000,151409.1718750000,177154.6250000000,170008.5937500000,160154.1562500000,160926.1562500000,64564.5351562500,178042.3437500000,,,
2.0199999968,15,151251.9375000000,151410.3437500000,177156.5468750000,170024.8750000000,160153.6250000000,160927.5468750000,64561.1835937500,178040.5468750000,,,
2.0239999967,15,151251.5312500000,151409.2187500000,177155.3437500000,170031.0781250000,160150.0781250000,160926.2031250000,64556.5703125000,178039.6406250000,,,
2.0279999967,15,151250.4375000000,151408.0156250000,177152.9843750000,170027.6093750000,160146.9687500000,160922.0781250000,64555.2265625000,178032.7968750000,,,
2.0319999969,15,151250.5625000000,151406.4843750000,177154.1093750000,170030.5625000000,160146.9375000000,160918.8593750000,64555.7109375000,178027.6562500000,,,
2.0359999968,15,151245.3281250000,151398.6250000000,177148.8281250000,170016.0000000000,160142.2187500000,160912.7343750000,64552.2226562500,178024.4062500000,,,
2.0399999968,15,151245.2031250000,151394.4687500000,177148.9531250000,170024.9375000000,160142.4062500000,160908.6718750000,64550.3476562500,178024.1093750000,,,
2.0439999967,15,151258.1250000000,151405.2812500000,177160.0937500000,170050.2031250000,160152.0625000000,160915.3750000000,64559.6523437500,178032.5000000000,,,
2.0479999967,16,151257.8125000000,151406.6406250000,177156.9843750000,170036.2500000000,160149.3593750000,160916.0937500000,64561.1562500000,178026.4218750000,,,
2.0519999966,16,151253.7031250000,151403.1093750000,177151.9062500000,170023.0000000000,160144.5781250000,160914.2968750000,64556.0585937500,178011.7500000000,,,
2.0559999966,16,151247.2656250000,151399.0000000000,177146.7343750000,170022.8593750000,160140.6406250000,160908.4531250000,64549.7812500000,178005.9531250000,,,
2.0599999966,16,151245.1718750000,151398.2187500000,177146.0156250000,170026.0000000000,160142.1093750000,160910.2187500000,64552.8125000000,178005.7968750000,,,
2.0639999965,16,151244.2656250000,151400.4531250000,177146.1406250000,170025.4062500000,160142.5937500000,160916.5468750000,64556.5703125000,178002.4687500000,,,
2.0679999965,16,151242.1718750000,151400.9062500000,177143.9218750000,170021.3125000000,160140.0781250000,160917.7031250000,64558.4453125000,177994.7187500000,,,
2.0719999967,16,151245.4375000000,151406.0468750000,177150.1093750000,170030.9062500000,160145.4218750000,160924.0000000000,64567.9960937500,177996.2968750000,,,
2.0759999966,16,151246.3593750000,151407.6562500000,177153.8437500000,170039.3125000000,160150.6406250000,160929.3750000000,64573.7070312500,177996.1875000000,,,
2.0799999966,16,151249.7343750000,151410.3437500000,177159.8437500000,170039.4218750000,160156.7656250000,160936.6718750000,64579.2343750000,178010.0312500000,,,
2.0839999965,16,151252.0937500000,151411.9531250000,177160.5781250000,170033.5468750000,160158.2031250000,160942.5937500000,64582.8828125000,178024.1093750000,,,
2.0879999965,16,151254.5937500000,151414.9531250000,177158.9062500000,170041.5625000000,160156.4687500000,160944.3125000000,64581.9960937500,178031.0000000000,,,
2.0919999967,16,151251.7656250000,151414.0781250000,177153.8437500000,170043.2031250000,160151.3125000000,160946.6718750000,64579.1796875000,178040.0625000000,,,
2.0959999966,16,151250.6718750000,151413.5156250000,177154.1875000000,170042.9062500000,160152.3906250000,160952.1093750000,64584.3281250000,178051.5781250000,,,
2.0999999966,16,151249.8125000000,151409.1875000000,177155.9531250000,170046.1250000000,160155.7656250000,160949.7500000000,64587.7109375000,178057.0156250000,,,
2.1039999966,16,151252.9531250000,151410.6875000000,177160.0312500000,170054.7343750000,160159.1406250000,160950.4843750000,64589.3203125000,178061.8281250000,,,
2.1079999965,16,151262.1718750000,151417.7187500000,177170.3593750000,170059.0000000000,160166.9843750000,160957.1093750000,64597.7421875000,178064.5781250000,,,
2.1119999965,16,151262.9062500000,151415.5156250000,177172.6406250000,170051.3437500000,160168.2187500000,160952.5156250000,64602.2187500000,178060.3437500000,,,
2.1159999967,16,151262.7187500000,151414.5000000000,177174.3593750000,170056.3906250000,160170.4375000000,160952.4843750000,64608.2265625000,178064.2656250000,,,
2.1199999966,16,151259.2812500000,151412.1875000000,177172.7187500000,170055.1093750000,160168.9062500000,160949.3593750000,64610.2148437500,178067.0781250000,,,
2.1239999966,16,151263.4062500000,151415.9531250000,177177.7968750000,170043.5937500000,160173.3906250000,160950.2187500000,64618.2070312500,178069.5000000000,,,
2.1279999965,16,151268.3437500000,151421.4531250000,177181.3906250000,170050.1718750000,160176.3437500000,160953.1406250000,64624.2148437500,178068.6875000000,,,
2.1319999965,16,151273.1562500000,151424.2187500000,177184.7968750000,170055.7031250000,160181.2500000000,160957.0000000000,64632.5273437500,178066.8906250000,,,
2.1359999967,16,151276.2031250000,151425.8281250000,177186.2500000000,170037.8906250000,160185.5937500000,160960.3437500000,64638.1875000000,178071.5000000000,,,
2.1399999966,16,151280.5000000000,151430.3750000000,177189.6718750000,170030.3281250000,160191.9531250000,160966.9531250000,64646.8515625000,178079.8281250000,,,
2.1439999966,16,151284.2031250000,151437.0937500000,177192.4843750000,170041.9843750000,160195.1718750000,160974.9218750000,64650.1250000000,178087.0156250000,,,
2.1479999966,16,151286.5000000000,151441.6406250000,177195.2343750000,170040.9375000000,160197.0781250000,160982.1562500000,64652.2695312500,178086.0156250000,,,
2.1519999965,16,151285.2656250000,151444.6562500000,177196.5156250000,170038.7656250000,160198.5781250000,160992.0781250000,64657.8476562500,178084.2656250000,,,
2.1559999965,16,151288.7812500000,151451.0937500000,177202.7968750000,170035.8437500000,160204.6718750000,161001.8906250000,64663.5078125000,178092.6406250000,,,
2.1599999967,16,151298.4375000000,151461.2500000000,177209.0156250000,170048.7500000000,160211.9375000000,161014.7500000000,64671.6093750000,178103.9843750000,,,
2.1639999966,16,151300.7812500000,151463.5000000000,177208.1250000000,170047.3750000000,160212.2031250000,161021.9687500000,64680.5937500000,178108.3593750000,,,
2.1679999966,16,151302.9531250000,151463.5937500000,177208.1562500000,170046.6562500000,160211.0781250000,161024.1875000000,64687.4609375000,178107.9062500000,,,
2.1719999965,16,151315.0156250000,151473.8593750000,177217.1406250000,170052.8593750000,160219.8750000000,161037.4687500000,64697.5976562500,178122.7343750000,,,
2.1759999965,17,151315.3437500000,151473.8281250000,177217.9531250000,170050.4375000000,160222.0000000000,161042.5000000000,64703.5820312500,178137.3281250000,,,
2.1799999964,17,151317.6250000000,151475.5156250000,177221.6250000000,170055.5156250000,160227.7343750000,161048.5468750000,64712.1093750000,178150.3125000000,,,
2.1839999964,17,151324.0625000000,151482.0937500000,177228.4375000000,170060.2343750000,160235.6406250000,161055.7500000000,64719.1093750000,178164.2812500000,,,
2.1879999964,17,151325.8593750000,151483.0625000000,177229.5312500000,170057.5156250000,160237.2343750000,161062.7500000000,64722.9453125000,178169.4531250000,,,
2.1919999963,17,151326.8281250000,151481.9375000000,177231.5937500000,170066.3125000000,160239.7500000000,161064.0781250000,64728.3906250000,178173.7031250000,,,
2.1959999963,17,151326.1250000000,151483.0625000000,177230.5468750000,170065.8593750000,160239.6875000000,161064.3437500000,64725.9492187500,178184.6406250000,,,
2.1999999965,17,151325.7812500000,151482.8906250000,177232.4531250000,170061.5625000000,160239.4218750000,161065.0156250000,64722.4375000000,178197.0625000000,,,
2.2039999964,17,151323.5781250000,151477.0468750000,177233.1562500000,170066.1875000000,160237.6875000000,161062.6718750000,64721.1210937500,178207.2812500000,,,
2.2079999964,17,151308.0937500000,151458.2500000000,177219.7968750000,170050.1718750000,160225.7812500000,161047.2500000000,64712.2695312500,178197.1718750000,,,
2.2119999963,17,151302.7031250000,151451.7031250000,177215.5312500000,170037.8281250000,160221.5156250000,161041.5937500000,64709.3750000000,178190.2968750000,,,
2.2159999963,17,151295.9218750000,151443.1250000000,177207.8906250000,170031.7656250000,160214.7968750000,161035.8593750000,64701.8906250000,178192.3437500000,,,
2.2199999965,17,151294.6875000000,151441.9687500000,177206.4687500000,170039.6875000000,160213.0312500000,161035.3750000000,64697.6796875000,178204.5937500000,,,
2.2239999964,17,151291.7968750000,151439.3593750000,177205.6406250000,170033.4062500000,160210.0781250000,161028.7187500000,64686.4140625000,178209.5000000000,,,
2.2279999964,17,151284.8750000000,151436.0937500000,177194.9531250000,170030.9687500000,160196.4843750000,161015.5781250000,64670.7773437500,178210.4218750000,,,
2.2319999964,17,151278.4531250000,151434.1093750000,177186.5625000000,170028.8750000000,160186.9687500000,161005.4687500000,64676.8671875000,178218.5468750000,,,
2.2359999963,17,151272.2031250000,151430.1875000000,177178.4843750000,170022.6250000000,160181.5937500000,161000.8750000000,64678.7148437500,178232.3906250000,,,
2.2399999963,17,151263.0312500000,151422.8750000000,177170.5000000000,170023.7500000000,160174.3906250000,160992.2656250000,64666.7265625000,178243.7500000000,,,
2.2439999965,17,151258.3906250000,151419.0937500000,177169.1562500000,170026.4843750000,160172.5000000000,160994.8750000000,64658.4921875000,178250.8906250000,,,
2.2479999964,17,151248.0468750000,151407.5312500000,177162.0468750000,170022.3906250000,160162.6093750000,160997.3906250000,64645.9687500000,178244.4218750000,,,
2.2519999964,17,151238.4687500000,151396.7656250000,177151.2343750000,170014.8125000000,160150.5312500000,160997.2343750000,64633.6015625000,178238.1250000000,,,
2.2559999963,17,151226.5312500000,151383.1406250000,177138.9062500000,170012.1875000000,160137.5625000000,160983.6250000000,64620.2187500000,178234.1250000000,,,
2.2599999963,17,151215.0781250000,151374.0468750000,177126.8281250000,169991.2968750000,160126.1093750000,160971.5937500000,64604.3125000000,178225.6718750000,,,
2.2639999965,17,151200.2968750000,151362.1718750000,177112.5312500000,169963.3437500000,160111.1093750000,160960.1406250000,64586.9570312500,178206.7656250000,,,
2.2679999964,17,151199.3906250000,151364.3437500000,177109.4843750000,169963.2343750000,160106.5000000000,160958.5468750000,64580.3046875000,178194.5625000000,,,
2.2719999964,17,151181.3437500000,151344.2812500000,177090.9375000000,169949.6718750000,160086.9218750000,160937.8750000000,64560.0039062500,178172.4375000000,,,
2.2759999963,17,151171.4062500000,151332.9375000000,177081.5000000000,169945.0312500000,160078.0625000000,160929.5937500000,64549.7578125000,178164.7968750000,,,
2.2799999963,17,151168.7500000000,151327.1406250000,177080.7187500000,169952.5156250000,160077.0937500000,160925.2187500000,64543.7734375000,178162.9375000000,,,
2.2839999963,17,151167.9531250000,151323.7343750000,177081.0937500000,169942.1093750000,160077.1562500000,160922.5000000000,64539.5898437500,178156.9375000000,,,
2.2879999964,17,151159.2343750000,151312.5468750000,177070.1562500000,169936.3593750000,160067.2343750000,160911.8593750000,64524.8632812500,178136.4375000000,,,
2.2919999964,17,151161.3281250000,151312.5781250000,177071.7968750000,169930.7343750000,160066.9062500000,160908.1875000000,64521.1093750000,178118.8437500000,,,
2.2959999964,17,151165.3281250000,151314.5625000000,177076.8906250000,169930.9687500000,160072.4062500000,160904.0781250000,64524.0078125000,178103.7187500000,,,
2.2999999963,17,151167.8750000000,151316.0625000000,177079.7031250000,169928.6875000000,160075.4843750000,160897.4062500000,64524.9453125000,178088.2187500000,,,
2.3039999963,18,151181.0156250000,151328.6406250000,177091.0000000000,169926.6562500000,160085.7031250000,160899.2500000000,64532.3750000000,178075.6093750000,,,
2.3079999962,18,151193.8906250000,151341.5781250000,177102.2968750000,169942.0468750000,160095.0156250000,160900.8593750000,64541.4960937500,178056.8281250000,,,
2.3119999962,18,151204.6406250000,151352.1875000000,177110.4218750000,169939.2812500000,160103.4375000000,160898.3437500000,64550.0234375000,178044.2812500000,,,
2.3159999961,18,151222.5156250000,151368.8437500000,177127.8437500000,169953.1093750000,160122.1093750000,160902.5468750000,64563.7031250000,178047.6406250000,,,
2.3199999961,18,151239.0000000000,151383.5000000000,177149.0156250000,169976.1093750000,160142.8593750000,160906.0937500000,64580.8984375000,178048.0937500000,,,
2.3239999961,18,151246.3750000000,151391.2187500000,177155.0468750000,169986.2500000000,160149.2812500000,160907.4062500000,64583.6054687500,178042.0625000000,,,
2.3279999963,18,151257.9218750000,151403.9375000000,177161.3593750000,170005.0000000000,160155.9531250000,160913.2031250000,64583.6601562500,178034.2031250000,,,
2.3319999962,18,151277.8437500000,151426.7656250000,177178.3906250000,170012.6250000000,160173.7343750000,160931.6562500000,64593.4492187500,178043.4843750000,,,
2.3359999962,18,151285.8906250000,151435.9062500000,177184.7656250000,170026.6718750000,160181.0156250000,160941.9218750000,64592.5117187500,178052.9687500000,,,
2.3399999961,18,151289.0312500000,151439.1718750000,177186.6406250000,170023.5625000000,160182.2343750000,160947.8750000000,64604.8476562500,178057.3437500000,,,
2.3439999961,18,151290.5000000000,151442.9843750000,177184.7656250000,170022.3906250000,160178.4062500000,160953.9687500000,64605.8945312500,178053.4531250000,,,
2.3479999963,18,151290.1875000000,151444.7812500000,177183.8281250000,170011.5937500000,160175.0000000000,160960.2968750000,64605.3867187500,178043.0468750000,,,
2.3519999962,18,151282.6250000000,151438.8281250000,177176.1875000000,170017.6406250000,160165.9687500000,160958.8281250000,64595.1914062500,178030.3593750000,,,
2.3559999962,18,151281.8437500000,151440.2500000000,177175.7343750000,170035.6093750000,160167.2968750000,160962.6093750000,64594.4960937500,178031.7500000000,,,
2.3599999961,18,151278.5625000000,151435.7968750000,177177.3437500000,170032.8750000000,160169.2031250000,160960.8593750000,64596.6679687500,178037.0937500000,,,
2.3639999961,18,151275.1562500000,151429.4375000000,177178.1093750000,170034.9843750000,160168.8593750000,160956.7812500000,64596.3476562500,178038.0000000000,,,
2.3679999961,18,151274.7656250000,151425.6875000000,177179.7500000000,170038.5000000000,160170.5468750000,160956.0000000000,64599.9414062500,178036.6875000000,,,
2.3719999962,18,151280.9843750000,151433.2812500000,177184.1562500000,170041.5625000000,160175.8906250000,160963.9218750000,64606.1367187500,178046.8906250000,,,
2.3759999962,18,151283.2031250000,151436.1718750000,177186.0312500000,170052.1875000000,160179.2968750000,160963.4843750000,64609.0078125000,178060.0468750000,,,
2.3799999962,18,151276.5625000000,151426.9218750000,177182.3593750000,170040.0312500000,160176.5625000000,160951.7343750000,64604.3945312500,178062.4375000000,,,
2.3839999961,18,151277.9843750000,151426.2812500000,177180.9531250000,170055.0468750000,160175.4843750000,160950.1875000000,64598.8398437500,178064.2343750000,,,
2.3879999961,18,151283.1250000000,151432.8750000000,177183.5625000000,170074.5468750000,160176.2031250000,160955.7968750000,64599.0820312500,178065.8750000000,,,
2.3919999963,18,151279.7812500000,151433.0156250000,177178.5781250000,170032.9843750000,160171.3750000000,160959.7343750000,64604.8750000000,178068.6093750000,,,
2.3959999962,18,151282.5625000000,151435.0468750000,177181.0937500000,170020.7968750000,160176.2031250000,160965.3593750000,64610.9375000000,178073.0937500000,,,
2.3999999962,18,151286.0781250000,151435.3125000000,177186.0312500000,170033.2500000000,160182.5312500000,160963.1093750000,64613.4843750000,178072.6562500000,,,
2.4039999961,18,151284.7031250000,151432.8281250000,177186.4531250000,170024.7500000000,160184.0937500000,160964.0312500000,64614.2617187500,178066.8906250000,,,
2.4079999961,18,151283.4218750000,151431.9375000000,177185.0625000000,170018.5000000000,160183.4218750000,160965.5468750000,64614.5859375000,178060.0468750000,,,
2.4119999961,18,151286.4843750000,151436.6875000000,177187.5781250000,170029.9218750000,160187.2031250000,160969.3125000000,64618.8750000000,178062.8750000000,,,
2.4159999962,18,151282.4843750000,151434.0781250000,177185.8437500000,170034.3125000000,160185.8906250000,160968.0781250000,64617.6679687500,178069.5781250000,,,
2.4199999962,18,151278.1406250000,151430.3750000000,177183.4218750000,170036.0937500000,160182.4375000000,160965.3125000000,64614.2382812500,178076.2031250000,,,
2.4239999962,18,151270.7031250000,151424.4843750000,177177.0156250000,170034.4843750000,160174.3281250000,160958.6562500000,64606.1093750000,178073.9687500000,,,
2.4279999961,18,151274.9531250000,151427.8906250000,177182.7343750000,170047.5156250000,160176.8281250000,160955.1250000000,64607.9335937500,178071.6093750000,,,
2.4319999961,19,151278.8593750000,151429.8750000000,177187.7656250000,170054.9218750000,160179.2187500000,160957.0000000000,64609.0585937500,178073.8125000000,,,
2.4359999960,19,151269.5625000000,151422.1406250000,177175.4531250000,170047.1406250000,160166.7656250000,160954.2031250000,64597.6875000000,178075.6406250000,,,
2.4399999960,19,151256.5156250000,151409.9218750000,177160.5156250000,170032.7343750000,160152.0625000000,160949.5468750000,64586.4765625000,178070.9687500000,,,
2.4439999959,19,151246.0781250000,151396.1093750000,177149.3125000000,170028.5781250000,160140.9687500000,160937.6093750000,64577.2500000000,178060.5937500000,,,
2.4479999959,19,151246.9375000000,151394.2812500000,177149.1250000000,170029.2187500000,160141.1250000000,160932.3281250000,64577.3007812500,178054.9843750000,,,
2.4519999959,19,151249.4687500000,151396.2656250000,177150.8593750000,170023.1406250000,160144.6875000000,160932.7812500000,64580.7617187500,178055.6875000000,,,
2.4559999960,19,151246.9375000000,151393.5312500000,177150.7031250000,170010.8437500000,160146.1406250000,160930.8437500000,64582.0234375000,178056.9375000000,,,
2.4599999960,19,151237.5312500000,151387.8750000000,177141.7500000000,170011.9687500000,160138.5156250000,160925.3750000000,64575.3164062500,178055.8750000000,,,
2.4639999960,19,151233.4062500000,151382.9062500000,177138.6562500000,170016.4218750000,160132.2656250000,160921.1875000000,64570.4101562500,178053.3437500000,,,
2.4679999959,19,151235.1406250000,151383.3125000000,177140.2500000000,170020.5000000000,160132.1875000000,160923.3906250000,64572.4492187500,178048.9687500000,,,
2.4719999959,19,151235.5937500000,151384.7812500000,177139.6250000000,170011.4687500000,160132.6718750000,160929.8750000000,64568.9882812500,178046.6406250000,,,
2.4759999961,19,151233.6406250000,151383.2500000000,177137.6406250000,170007.9843750000,160131.8125000000,160932.0000000000,64568.6914062500,178044.7031250000,,,
2.4799999960,19,151228.7656250000,151378.9687500000,177133.4531250000,170014.6093750000,160127.5468750000,160928.5156250000,64572.0703125000,178043.7968750000,,,
2.4839999960,19,151228.3906250000,151380.8437500000,177131.5781250000,170019.2968750000,160124.9218750000,160930.9218750000,64572.1250000000,178042.1875000000,,,
2.4879999959,19,151224.5468750000,151378.7812500000,177128.3281250000,169993.1250000000,160121.0000000000,160930.5312500000,64567.1367187500,178034.8437500000,,,
2.4919999959,19,151228.1718750000,151383.0468750000,177133.4531250000,169998.3750000000,160126.0781250000,160933.3125000000,64572.3671875000,178035.5937500000,,,
2.4959999959,19,151233.1875000000,151388.1562500000,177139.0937500000,170007.7656250000,160133.2968750000,160937.5781250000,64575.1015625000,178044.3593750000,,,
2.4999999960,19,151235.6562500000,151391.8906250000,177140.2656250000,170011.5156250000,160136.2968750000,160940.3125000000,64574.2187500000,178055.6250000000,,,
2.5039999960,19,151235.6718750000,151390.9531250000,177141.4531250000,170010.9843750000,160135.4687500000,160936.4062500000,64574.0039062500,178053.8281250000,,,
2.5079999960,19,151243.7031250000,151399.0312500000,177151.1093750000,170016.7031250000,160142.0312500000,160937.1718750000,64580.2265625000,178064.3906250000,,,
2.5119999959,19,151244.5781250000,151399.5937500000,177151.0781250000,170016.9062500000,160141.8437500000,160931.9218750000,64577.2226562500,178067.4218750000,,,
2.5159999959,19,151249.0156250000,151403.4531250000,177154.7812500000,170019.1406250000,160146.4843750000,160934.8750000000,64581.3007812500,178069.1406250000,,,
2.5199999961,19,151249.2812500000,151403.6875000000,177152.7968750000,170019.7500000000,160145.3593750000,160936.0000000000,64581.3242187500,178070.8906250000,,,
2.5239999960,19,151243.1562500000,151399.5156250000,177144.2656250000,170018.8437500000,160135.9218750000,160930.9218750000,64574.3789062500,178074.2343750000,,,
2.5279999960,19,151241.2343750000,151398.2187500000,177139.4687500000,170015.2500000000,160130.7187500000,160927.2500000000,64570.8632812500,178074.9062500000,,,
2.5319999959,19,151243.2187500000,151400.6406250000,177137.1875000000,170028.0937500000,160129.7500000000,160926.4687500000,64570.1406250000,178077.0625000000,,,
2.5359999959,19,151237.0781250000,151394.6875000000,177130.9375000000,170026.1875000000,160126.4531250000,160920.3906250000,64564.8828125000,178080.0312500000,,,
2.5399999958,19,151234.2343750000,151392.9062500000,177129.6406250000,170014.2343750000,160126.9062500000,160920.7031250000,64570.9179687500,178084.1093750000,,,
2.5439999960,19,151232.0312500000,151389.9062500000,177130.0468750000,170018.5781250000,160126.6406250000,160917.9375000000,64567.6992187500,178081.5156250000,,,
2.5479999960,19,151222.2343750000,151381.0468750000,177122.8593750000,170008.4062500000,160117.2500000000,160912.6093750000,64558.2851562500,178072.5781250000,,,
2.5519999960,19,151214.2812500000,151371.2656250000,177119.3437500000,169997.8750000000,160111.1093750000,160909.1250000000,64551.9023437500,178062.3125000000,,,
2.5559999959,19,151212.3906250000,151367.9062500000,177119.1406250000,170002.7500000000,160108.8281250000,160908.1250000000,64547.0468750000,178059.1718750000,,,
2.5599999959,20,151202.9531250000,151357.1562500000,177112.6093750000,169995.7187500000,160102.7968750000,160897.9843750000,64536.6406250000,178052.3750000000,,,
2.5639999958,20,151199.9218750000,151351.7343750000,177112.9375000000,169988.1093750000,160102.9218750000,160893.9062500000,64528.0312500000,178041.2031250000,,,
2.5679999958,20,151196.4843750000,151351.0937500000,177107.8750000000,169982.7343750000,160096.4687500000,160891.8750000000,64533.3398437500,178031.4843750000,,,
2.5719999957,20,151204.2968750000,151359.1718750000,177114.6250000000,169992.4218750000,160101.4062500000,160896.2968750000,64544.8476562500,178030.7343750000,,,
2.5759999957,20,151203.1093750000,151358.5000000000,177112.0468750000,169978.6093750000,160100.5156250000,160897.2656250000,64544.7656250000,178032.5312500000,,,
2.5799999957,20,151199.9843750000,151355.8437500000,177107.0312500000,169974.1875000000,160096.5937500000,160898.3125000000,64536.5078125000,178036.2656250000,,,
2.5839999958,20,151213.1406250000,151368.0468750000,177118.0000000000,169981.0000000000,160107.2812500000,160908.4531250000,64544.1250000000,178050.2343750000,,,
2.5879999958,20,151227.7656250000,151380.4375000000,177132.9218750000,169992.5000000000,160122.3437500000,160915.7656250000,64562.1484375000,178057.0468750000,,,
2.5919999958,20,151235.8593750000,151387.2031250000,177142.2500000000,170000.1406250000,160129.6718750000,160919.0937500000,64571.3476562500,178062.5156250000,,,
2.5959999957,20,151232.1093750000,151385.2656250000,177137.5625000000,169993.5468750000,160125.5156250000,160919.1250000000,64564.3476562500,178062.7656250000,,,
2.5999999957,20,151225.8125000000,151380.8437500000,177132.2031250000,169980.5156250000,160120.7343750000,160920.0156250000,64558.2578125000,178062.0625000000,,,
2.6039999959,20,151219.5312500000,151373.8906250000,177124.7656250000,169970.5625000000,160112.3750000000,160912.5781250000,64548.4140625000,178054.7968750000,,,
2.6079999958,20,151223.3906250000,151376.0625000000,177127.0156250000,169985.9375000000,160113.7656250000,160914.3750000000,64549.6210937500,178048.8906250000,,,
2.6119999958,20,151223.9375000000,151374.8906250000,177127.6406250000,169990.2031250000,160114.2500000000,160914.0000000000,64551.3671875000,178045.0937500000,,,
2.6159999957,20,151221.0312500000,151371.0156250000,177125.2187500000,169996.1250000000,160111.8906250000,160907.6250000000,64548.7109375000,178041.5156250000,,,
2.6199999957,20,151214.8437500000,151366.5781250000,177115.6250000000,170005.4375000000,160103.3281250000,160905.3125000000,64543.7226562500,178037.3125000000,,,
2.6239999956,20,151215.7500000000,151368.7187500000,177115.3281250000,170017.1718750000,160102.7968750000,160910.2500000000,64546.8320312500,178036.5625000000,,,
2.6279999958,20,151224.4062500000,151375.7968750000,177127.8437500000,170030.0468750000,160114.0625000000,160916.9218750000,64560.2148437500,178038.0781250000,,,
2.6319999958,20,151231.6250000000,151381.1093750000,177136.7812500000,170049.6406250000,160124.2500000000,160922.4531250000,64571.6171875000,178042.4531250000,,,
2.6359999957,20,151228.6250000000,151379.8750000000,177134.0156250000,170053.7656250000,160124.0312500000,160923.5468750000,64570.9179687500,178046.3125000000,,,
2.6399999957,20,151223.4687500000,151374.7031250000,177130.1250000000,170033.5468750000,160121.2812500000,160922.8593750000,64567.8359375000,178053.5625000000,,,
2.6439999957,20,151219.9062500000,151370.1875000000,177128.0937500000,170010.7968750000,160118.4531250000,160922.9062500000,64565.5820312500,178056.7812500000,,,
2.6479999959,20,151229.8906250000,151376.4218750000,177139.8593750000,170027.7187500000,160125.6250000000,160927.4687500000,64572.2070312500,178064.3906250000,,,
2.6519999958,20,151235.0625000000,151378.3437500000,177144.2968750000,170037.9062500000,160127.5781250000,160926.7968750000,64570.7851562500,178068.6093750000,,,
2.6559999958,20,151233.9062500000,151377.7031250000,177142.9843750000,170041.7187500000,160125.7812500000,160928.7500000000,64563.0312500000,178073.9218750000,,,
2.6599999957,20,151233.6406250000,151380.4687500000,177144.4531250000,170043.6875000000,160126.5312500000,160935.6250000000,64556.7851562500,178079.4218750000,,,
2.6639999957,20,151239.0781250000,151388.4062500000,177149.9843750000,170056.2343750000,160130.4687500000,160943.3437500000,64568.6132812500,178086.0156250000,,,
2.6679999956,20,151227.7656250000,151379.7968750000,177138.2812500000,170017.2343750000,160122.0312500000,160934.7968750000,64568.2382812500,178072.1250000000,,,
2.6719999958,20,151233.1250000000,151384.7500000000,177144.4062500000,170022.5781250000,160129.0781250000,160937.3593750000,64572.6093750000,178063.6718750000,,,
2.6759999958,20,151243.2968750000,151394.3125000000,177154.8125000000,170045.5625000000,160138.5781250000,160943.2187500000,64578.2929687500,178066.9531250000,,,
2.6799999957,20,151244.5781250000,151397.4218750000,177154.5156250000,170035.9218750000,160138.9843750000,160944.9843750000,64577.2773437500,178068.1875000000,,,
2.6839999957,20,151239.0781250000,151391.9687500000,177149.7656250000,169990.0937500000,160134.1718750000,160944.4687500000,64570.3828125000,178060.3750000000,,,
2.6879999957,21,151237.7187500000,151390.5781250000,177145.2656250000,169984.6718750000,160128.7656250000,160944.5781250000,64558.3398437500,178049.4531250000,,,
2.6919999956,21,151244.0937500000,151398.4062500000,177150.4375000000,170000.3906250000,160132.4843750000,160948.7656250000,64568.0468750000,178050.8593750000,,,
2.6959999956,21,151248.7968750000,151405.2500000000,177153.2031250000,170015.4843750000,160134.4375000000,160957.8906250000,64575.1835937500,178060.4531250000,,,
2.6999999955,21,151248.6093750000,151407.7187500000,177150.7343750000,170007.7187500000,160133.9062500000,160964.7031250000,64573.0898437500,178071.8593750000,,,
2.7039999955,21,151251.3437500000,151409.7031250000,177154.2500000000,170014.2812500000,160138.1250000000,160966.8750000000,64572.2617187500,178079.3125000000,,,
2.7079999954,21,151249.8437500000,151407.1718750000,177154.5156250000,170011.2031250000,160139.6250000000,160965.4687500000,64571.2421875000,178076.2500000000,,,
2.7119999956,21,151250.6718750000,151406.5156250000,177156.7968750000,170013.8593750000,160143.4062500000,160966.5000000000,64582.9882812500,178075.4531250000,,,
2.7159999956,21,151247.5937500000,151402.9687500000,177152.7968750000,170012.1406250000,160143.2187500000,160960.9218750000,64584.8398437500,178077.0781250000,,,
2.7199999955,21,151251.7656250000,151407.5312500000,177156.8125000000,170029.4843750000,160148.2343750000,160965.7968750000,64589.9609375000,178091.5468750000,,,
2.7239999955,21,151253.2500000000,151409.1093750000,177159.6875000000,170041.4218750000,160150.2500000000,160968.2968750000,64591.0625000000,178097.1718750000,,,
2.7279999955,21,151257.1562500000,151411.6093750000,177164.1406250000,170046.8437500000,160152.2812500000,160968.2031250000,64590.9804687500,178097.1718750000,,,
2.7319999957,21,151262.5000000000,151412.7812500000,177174.1718750000,170072.7500000000,160158.9531250000,160969.2500000000,64590.5000000000,178099.0468750000,,,
2.7359999956,21,151249.7343750000,151402.1562500000,177161.5468750000,170038.7656250000,160148.1562500000,160965.1250000000,64581.9140625000,178098.5156250000,,,
2.7399999956,21,151249.1406250000,151404.1562500000,177158.7187500000,170028.7656250000,160146.6562500000,160966.8437500000,64588.1640625000,178101.7031250000,,,
2.7439999955,21,151246.5468750000,151400.5312500000,177156.4218750000,170040.9218750000,160145.3593750000,160967.2656250000,64588.8359375000,178099.2343750000,,,
2.7479999955,21,151245.2031250000,151399.9687500000,177154.5937500000,170023.1875000000,160142.5937500000,160967.2500000000,64586.9843750000,178090.5000000000,,,
2.7519999954,21,151239.4843750000,151397.6875000000,177146.8906250000,170012.1875000000,160136.5156250000,160964.3750000000,64582.4804687500,178080.2968750000,,,
2.7559999956,21,151232.7343750000,151393.8281250000,177138.2812500000,170015.2968750000,160132.0000000000,160959.5468750000,64577.4882812500,178076.4375000000,,,
2.7599999956,21,151229.9687500000,151390.3125000000,177134.9375000000,170003.3593750000,160130.1562500000,160956.0000000000,64571.1054687500,178076.3593750000,,,
2.7639999955,21,151225.6718750000,151386.6093750000,177132.0156250000,169987.4531250000,160126.9062500000,160951.3593750000,64564.6171875000,178071.1093750000,,,
2.7679999955,21,151223.1250000000,151384.2187500000,177129.9218750000,169984.0468750000,160123.3125000000,160948.0937500000,64571.1328125000,178061.1250000000,,,
2.7719999955,21,151230.0468750000,151391.6718750000,177135.0156250000,170000.7343750000,160126.7968750000,160953.3750000000,64576.6054687500,178061.7187500000,,,
2.7759999956,21,151231.4375000000,151393.3125000000,177134.7656250000,170011.2500000000,160125.6406250000,160956.9375000000,64574.8867187500,178066.6250000000,,,
2.7799999956,21,151230.5625000000,151389.7500000000,177132.2031250000,170010.6093750000,160123.5781250000,160956.3593750000,64569.3359375000,178071.5000000000,,,
2.7839999956,21,151241.0625000000,151396.3125000000,177140.3750000000,170017.8437500000,160130.0468750000,160961.6093750000,64571.1328125000,178081.8593750000,,,
2.7879999955,21,151247.6718750000,151399.1875000000,177146.0156250000,170016.4843750000,160131.7656250000,160965.3593750000,64573.0117187500,178082.1875000000,,,
2.7919999955,21,151253.4843750000,151405.3750000000,177151.2656250000,170019.7812500000,160135.6250000000,160966.7656250000,64575.7460937500,178083.0468750000,,,
2.7959999954,21,151251.1093750000,151402.7031250000,177149.1250000000,170021.0625000000,160135.2968750000,160960.2656250000,64573.9492187500,178083.3125000000,,,
2.7999999956,21,151243.4375000000,151393.8437500000,177141.5312500000,170023.4843750000,160130.8750000000,160951.6562500000,64567.4335937500,178077.2187500000,,,
2.8039999956,21,151237.8750000000,151387.2500000000,177137.6406250000,170026.4375000000,160127.4375000000,160946.0312500000,64561.9062500000,178068.5000000000,,,
2.8079999955,21,151231.6562500000,151380.5156250000,177132.8593750000,170018.4375000000,160121.2968750000,160939.7187500000,64550.6953125000,178058.4218750000,,,
2.8119999955,21,151222.4843750000,151372.2343750000,177122.1406250000,169997.2187500000,160111.3281250000,160932.8593750000,64545.0625000000,178050.1250000000,,,
2.8159999955,22,151211.7343750000,151362.9531250000,177111.0000000000,169987.2656250000,160100.4375000000,160927.8906250000,64542.2734375000,178047.6093750000,,,
2.8199999954,22,151201.4062500000,151354.5468750000,177101.9375000000,169982.7343750000,160092.5156250000,160922.9843750000,64535.1914062500,178047.0156250000,,,
2.8239999954,22,151200.0625000000,151352.1875000000,177102.0000000000,169992.6093750000,160091.1250000000,160922.5781250000,64532.7500000000,178051.1406250000,,,
2.8279999953,22,151197.7031250000,151349.3281250000,177098.5625000000,169978.7500000000,160083.7187500000,160919.9062500000,64525.8320312500,178044.8750000000,,,
2.8319999953,22,151197.3750000000,151348.7031250000,177095.7656250000,169973.5937500000,160077.8281250000,160916.7187500000,64519.3125000000,178035.4375000000,,,
2.8359999952,22,151198.4531250000,151349.6406250000,177097.2500000000,169976.9531250000,160077.7187500000,160916.1406250000,64517.8125000000,178035.2656250000,,,
2.8399999954,22,151188.1718750000,151337.6562500000,177089.8906250000,169974.5312500000,160070.3125000000,160901.5312500000,64508.4765625000,178028.5312500000,,,
2.8439999954,22,151187.0312500000,151335.3437500000,177087.8281250000,169963.8281250000,160070.5312500000,160896.7812500000,64508.6367187500,178026.0468750000,,,
2.8479999953,22,151185.3281250000,151334.3281250000,177083.5937500000,169945.4375000000,160068.4687500000,160891.3593750000,64510.7031250000,178018.3437500000,,,
2.8519999953,22,151190.6718750000,151338.8593750000,177090.2500000000,169969.1406250000,160074.5781250000,160889.8593750000,64515.6132812500,178015.2812500000,,,
2.8559999953,22,151205.4218750000,151351.4687500000,177107.4062500000,169986.6093750000,160091.8281250000,160898.8750000000,64526.2617187500,178027.2031250000,,,
2.8599999954,22,151208.8281250000,151355.7656250000,177111.6250000000,169976.7656250000,160097.2500000000,160902.5156250000,64531.3554687500,178035.5156250000,,,
2.8639999954,22,151211.7500000000,151360.4843750000,177113.8281250000,169978.5625000000,160100.0781250000,160907.9062500000,64535.3515625000,178039.6718750000,,,
2.8679999954,22,151202.4687500000,151351.7968750000,177104.6562500000,169963.7812500000,160092.2031250000,160897.6093750000,64523.3906250000,178026.9843750000,,,
2.8719999953,22,151203.5468750000,151356.4062500000,177104.3750000000,169961.3593750000,160092.3593750000,160902.8906250000,64529.3710937500,178023.2812500000,,,
2.8759999953,22,151215.0781250000,151367.7031250000,177116.1562500000,169976.5468750000,160104.3750000000,160915.8750000000,64551.8476562500,178033.3125000000,,,
2.8799999952,22,151218.0781250000,151369.9218750000,177118.3593750000,169976.7343750000,160108.0781250000,160920.2031250000,64558.2031250000,178041.7031250000,,,
2.8839999954,22,151224.2187500000,151375.2031250000,177125.6250000000,169986.5781250000,160114.6250000000,160925.9687500000,64563.9726562500,178035.2968750000,,,
2.8879999954,22,151233.4531250000,151382.7968750000,177132.4843750000,169998.5625000000,160119.7187500000,160932.9062500000,64565.4453125000,178027.9218750000,,,
2.8919999953,22,151247.1875000000,151395.4531250000,177144.8906250000,170018.0312500000,160131.9843750000,160945.5156250000,64573.0117187500,178045.6718750000,,,
2.8959999953,22,151259.8437500000,151406.4062500000,177159.0156250000,170025.0937500000,160146.2500000000,160962.1250000000,64590.7929687500,178073.9218750000,,,
2.8999999953,22,151261.0312500000,151406.7968750000,177162.6875000000,170016.1093750000,160152.0156250000,160971.8281250000,64594.5507812500,178083.3906250000,,,
2.9039999954,22,151259.7968750000,151405.5156250000,177162.9375000000,170018.6562500000,160153.4687500000,160973.0312500000,64594.4960937500,178082.5781250000,,,
2.9079999954,22,151260.1875000000,151408.8750000000,177163.7343750000,170024.7968750000,160154.5156250000,160975.0156250000,64596.9648437500,178078.9687500000,,,
2.9119999954,22,151258.2343750000,151409.0000000000,177161.9375000000,170030.2187500000,160150.1093750000,160975.9687500000,64593.2070312500,178068.4531250000,,,
2.9159999953,22,151254.7031250000,151405.4062500000,177157.1875000000,170030.7031250000,160144.6406250000,160974.5937500000,64588.7812500000,178069.8750000000,,,
2.9199999953,22,151250.0312500000,151398.2968750000,177151.6093750000,170042.5000000000,160139.9375000000,160968.6093750000,64583.0703125000,178066.6718750000,,,
2.9239999952,22,151262.5781250000,151407.1718750000,177163.0468750000,170061.8593750000,160149.7656250000,160972.5312500000,64590.5273437500,178073.7656250000,,,
2.9279999954,22,151266.6562500000,151412.2187500000,177162.9531250000,170044.4375000000,160147.8281250000,160973.8437500000,64590.2031250000,178069.8125000000,,,
2.9319999954,22,151255.6562500000,151404.2500000000,177146.4843750000,170025.9531250000,160131.6250000000,160961.5625000000,64574.4062500000,178056.1562500000,,,
2.9359999953,22,151250.6250000000,151400.5312500000,177140.7187500000,170001.9375000000,160128.7812500000,160954.4218750000,64568.7460937500,178050.0000000000,,,
2.9399999953,22,151253.3593750000,151400.8750000000,177146.8906250000,170016.5156250000,160136.3281250000,160951.2031250000,64572.2070312500,178052.3750000000,,,
2.9439999952,23,151260.8125000000,151405.5156250000,177156.5000000000,170038.2343750000,160144.7656250000,160952.5937500000,64577.3007812500,178056.2968750000,,,
2.9479999952,23,151256.3281250000,151403.8281250000,177152.0937500000,170013.7656250000,160140.6718750000,160946.3437500000,64576.3359375000,178050.9843750000,,,
2.9519999952,23,151251.7656250000,151399.2656250000,177149.2343750000,169970.7968750000,160137.6093750000,160939.9375000000,64576.2304687500,178045.1718750000,,,
2.9559999951,23,151244.7656250000,151394.2031250000,177144.5000000000,169942.2187500000,160133.2968750000,160937.4375000000,64572.2070312500,178043.1875000000,,,
2.9599999951,23,151241.3593750000,151391.3750000000,177140.6250000000,169947.1406250000,160130.2031250000,160935.8125000000,64570.1406250000,178046.8281250000,,,
