Time:250Hz,Epoch,Channel 1,Channel 2,Channel 3,Channel 4,Channel 5,Channel 6,Channel 7,Channel 8,Event Id,Event Date,Event Duration
0.0000000000,0,151213.8125000000,151330.0937500000,176713.9375000000,170040.5625000000,160011.5937500000,163313.9062500000,61718.4414062500,173974.9062500000,,,
0.0040000000,0,151207.0312500000,151322.7656250000,176701.7500000000,170036.5156250000,160004.5937500000,163308.6562500000,61699.0507812500,173976.2343750000,,,
0.0079999999,0,151202.8281250000,151315.4531250000,176698.6093750000,170036.5937500000,160000.5156250000,163305.4062500000,61714.1523437500,173974.0781250000,,,
0.0119999999,0,151202.1718750000,151314.0000000000,176702.0781250000,170016.6718750000,159999.8281250000,163306.7968750000,61729.1171875000,173968.7187500000,,,
0.0159999998,0,151203.2187500000,151318.1562500000,176702.5625000000,170016.7968750000,159999.3750000000,163310.6875000000,61720.2929687500,173969.1718750000,,,
0.0199999998,0,151208.1562500000,151324.5937500000,176705.4218750000,170032.0937500000,160003.0156250000,163309.9062500000,61707.2031250000,173973.0312500000,,,
0.0240000000,0,151208.9375000000,151323.7031250000,176703.6562500000,170034.2187500000,160000.7343750000,163308.2500000000,61718.8437500000,173977.9687500000,,,
0.0279999999,0,151202.7343750000,151317.8593750000,176693.7812500000,170040.1093750000,159993.2343750000,163302.7031250000,61717.3710937500,173976.6562500000,,,
0.0319999999,0,151205.0781250000,151322.7187500000,176694.6250000000,170036.6718750000,159993.9218750000,163305.0000000000,61718.1757812500,173976.7031250000,,,
0.0359999998,0,151200.7812500000,151315.2031250000,176693.1718750000,170034.2187500000,159991.0468750000,163301.5156250000,61719.4609375000,173969.6250000000,,,
0.0399999998,0,151198.5781250000,151311.5000000000,176693.9843750000,170037.0312500000,159992.0156250000,163299.7968750000,61721.2070312500,173968.7500000000,,,
0.0440000000,0,151195.4218750000,151308.6406250000,176693.5468750000,170029.8906250000,159993.1406250000,163301.5781250000,61720.4023437500,173969.9843750000,,,
0.0480000000,0,151199.8750000000,151310.9687500000,176699.1562500000,170032.0625000000,159996.6875000000,163305.6718750000,61720.8828125000,173972.6093750000,,,
0.0519999999,0,151201.9843750000,151316.2031250000,176698.1093750000,170034.8593750000,159995.4843750000,163307.2812500000,61710.3945312500,173972.1250000000,,,
0.0559999999,0,151202.8437500000,151317.8593750000,176700.5781250000,170033.4843750000,159996.6562500000,163306.9062500000,61713.5859375000,173965.9218750000,,,
0.0599999998,0,151197.9375000000,151312.4218750000,176696.3906250000,170022.4843750000,159995.3750000000,163303.1250000000,61694.1953125000,173963.8906250000,,,
0.0639999998,0,151187.0468750000,151301.6093750000,176687.2500000000,170013.0468750000,159989.3437500000,163294.1406250000,61689.3125000000,173960.0312500000,,,
0.0680000000,0,151189.7031250000,151308.3125000000,176687.4843750000,170014.8125000000,159988.9062500000,163298.8906250000,61721.5546875000,173964.7500000000,,,
0.0719999999,0,151188.7187500000,151306.7343750000,176685.6093750000,170029.4062500000,159984.2187500000,163300.1562500000,61735.0195312500,173959.6562500000,,,
0.0759999999,0,151188.0625000000,151307.0000000000,176688.8281250000,170026.5468750000,159984.8281250000,163302.6406250000,61732.7656250000,173956.0625000000,,,
0.0799999998,0,151184.5625000000,151305.0625000000,176684.8906250000,170028.9843750000,159981.7968750000,163302.8281250000,61723.8867187500,173957.6718750000,,,
0.0839999998,0,151183.7500000000,151306.0625000000,176677.7968750000,170026.0625000000,159978.9531250000,163306.5312500000,61717.0468750000,173962.4687500000,,,
0.0880000000,0,151191.9843750000,151313.1406250000,176687.9375000000,170022.5937500000,159988.4531250000,163310.8437500000,61720.4257812500,173969.6250000000,,,
0.0919999999,0,151191.9375000000,151310.0312500000,176689.4218750000,170015.4843750000,159989.6562500000,163307.7343750000,61717.3164062500,173967.7812500000,,,
0.0959999999,0,151186.5937500000,151301.1718750000,176680.1406250000,170014.9843750000,159980.3593750000,163299.1093750000,61707.7656250000,173958.5312500000,,,
0.0999999999,0,151191.8281250000,151305.7343750000,176684.4062500000,170027.6875000000,159984.3281250000,163303.7968750000,61714.3398437500,173965.1718750000,,,
0.1039999998,0,151193.4062500000,151304.5312500000,176687.5625000000,170038.3750000000,159985.8750000000,163303.7187500000,61714.5000000000,173971.9062500000,,,
0.1079999998,0,151195.5468750000,151305.7656250000,176691.0312500000,170036.6718750000,159988.9687500000,163302.7812500000,61714.3906250000,173976.0937500000,,,
0.1120000000,0,151194.3750000000,151308.7656250000,176688.7500000000,170028.0937500000,159987.8593750000,163304.2031250000,61720.1875000000,173977.7031250000,,,
0.1159999999,0,151193.2656250000,151310.0312500000,176686.3906250000,170036.7343750000,159984.7812500000,163305.0000000000,61720.8554687500,173976.2812500000,,,
0.1199999999,0,151191.6093750000,151309.0312500000,176689.9062500000,170031.1875000000,159987.4843750000,163306.2187500000,61724.0742187500,173977.1718750000,,,
0.1239999998,0,151187.2187500000,151308.7656250000,176685.0468750000,170017.5000000000,159985.6875000000,163307.6406250000,61724.5859375000,173980.7343750000,,,
0.1279999998,1,151183.3750000000,151305.9531250000,176677.6093750000,170010.0468750000,159980.5625000000,163305.4531250000,61719.3281250000,173979.6562500000,,,
0.1319999998,1,151185.7968750000,151304.0000000000,176676.9687500000,170009.2343750000,159978.7968750000,163303.3437500000,61717.2343750000,173974.9687500000,,,
0.1359999997,1,151195.8437500000,151312.2812500000,176685.0156250000,170017.7187500000,159983.8125000000,163303.7656250000,61720.4804687500,173978.2968750000,,,
0.1399999997,1,151200.0000000000,151316.4375000000,176690.2187500000,170028.4375000000,159988.6093750000,163309.8281250000,61723.4296875000,173984.1875000000,,,
0.1439999996,1,151200.5937500000,151317.2968750000,176692.6093750000,170033.5937500000,159990.7656250000,163312.2500000000,61725.6054687500,173992.4062500000,,,
0.1479999996,1,151199.4218750000,151311.3750000000,176694.7812500000,170033.1406250000,159992.3437500000,163306.2187500000,61729.1445312500,173991.8593750000,,,
0.1519999998,1,151198.3906250000,151306.7500000000,176696.8437500000,170035.4687500000,159993.9218750000,163303.6093750000,61733.8125000000,173986.3125000000,,,
0.1559999997,1,151199.2500000000,151308.7968750000,176698.5937500000,170026.4375000000,159997.5781250000,163305.9218750000,61739.0703125000,173983.8125000000,,,
0.1599999997,1,151198.9375000000,151310.1562500000,176700.6250000000,170017.0468750000,160001.7500000000,163309.5937500000,61743.6015625000,173988.2500000000,,,
0.1639999996,1,151200.9687500000,151314.9687500000,176704.7031250000,170026.9218750000,160005.9062500000,163312.2968750000,61747.6523437500,173995.7500000000,,,
0.1679999996,1,151198.1250000000,151313.4687500000,176698.0468750000,170030.6250000000,160001.3281250000,163312.0000000000,61742.7695312500,173997.2812500000,,,
0.1719999998,1,151199.6093750000,151314.9843750000,176697.8906250000,170025.5000000000,160001.9687500000,163313.6406250000,61745.1054687500,173994.9843750000,,,
0.1759999997,1,151202.5781250000,151320.0937500000,176701.0625000000,170014.9843750000,160003.2031250000,163318.3281250000,61748.6445312500,173993.2656250000,,,
0.1799999997,1,151196.2031250000,151313.4687500000,176694.7343750000,170011.5156250000,159997.4375000000,163315.1093750000,61743.1445312500,173991.5468750000,,,
0.1839999997,1,151202.7343750000,151320.1718750000,176703.2500000000,170015.5625000000,160006.7500000000,163320.6718750000,61749.3164062500,174001.7343750000,,,
0.1879999996,1,151206.8750000000,151322.2343750000,176706.4531250000,170021.6562500000,160008.5156250000,163319.9375000000,61747.4375000000,174005.3593750000,,,
0.1919999996,1,151207.5156250000,151319.9218750000,176705.4062500000,170041.2187500000,160005.9687500000,163314.2031250000,61741.9375000000,173999.3281250000,,,
0.1959999998,1,151206.8125000000,151319.2812500000,176703.3906250000,170034.6718750000,160003.3437500000,163310.8437500000,61738.3164062500,173993.1718750000,,,
0.1999999997,1,151206.4687500000,151321.1406250000,176703.5781250000,170023.0468750000,160004.0156250000,163312.8125000000,61743.0937500000,173992.5312500000,,,
0.2039999997,1,151199.6093750000,151316.4687500000,176697.7343750000,170021.6562500000,159999.9062500000,163309.4843750000,61739.2578125000,173992.8906250000,,,
0.2079999996,1,151195.5781250000,151308.6875000000,176697.1875000000,170013.8281250000,159998.2968750000,163305.3750000000,61733.2226562500,173988.1562500000,,,
0.2119999996,1,151195.7968750000,151310.2968750000,176696.4218750000,170020.5312500000,159995.8593750000,163304.2500000000,61727.0000000000,173983.0625000000,,,
0.2159999998,1,151188.8437500000,151307.7812500000,176689.6250000000,170011.3125000000,159987.3750000000,163299.1562500000,61722.1445312500,173975.5625000000,,,
0.2199999997,1,151183.6250000000,151303.5937500000,176682.8750000000,170009.5312500000,159981.1250000000,163295.2187500000,61720.3203125000,173972.6093750000,,,
0.2239999997,1,151179.8906250000,151294.7343750000,176681.2656250000,170010.4531250000,159981.2656250000,163289.2656250000,61718.6835937500,173971.7812500000,,,
0.2279999997,1,151188.8437500000,151303.8593750000,176688.2968750000,170020.0468750000,159990.2500000000,163294.9687500000,61724.9609375000,173979.7343750000,,,
0.2319999996,1,151196.3593750000,151312.6875000000,176690.7031250000,170027.5625000000,159992.1875000000,163302.3750000000,61727.3750000000,173982.7656250000,,,
0.2359999996,1,151199.6250000000,151312.3125000000,176691.9687500000,170038.1562500000,159992.2343750000,163302.9062500000,61730.0820312500,173975.9062500000,,,
0.2399999998,1,151197.3750000000,151309.2187500000,176688.6093750000,170041.0312500000,159989.6093750000,163301.2031250000,61727.2656250000,173973.7656250000,,,
0.2439999997,1,151200.5156250000,151312.7656250000,176693.4687500000,170039.2343750000,159995.2656250000,163305.2500000000,61730.6484375000,173981.3437500000,,,
0.2479999997,1,151204.3281250000,151315.5781250000,176702.4218750000,170032.0156250000,160002.9375000000,163307.9531250000,61735.9570312500,173983.3593750000,,,
0.2519999996,1,151208.9375000000,151319.6250000000,176709.5000000000,170027.0781250000,160009.0312500000,163313.0468750000,61742.4218750000,173982.8593750000,,,
0.2559999996,2,151210.9218750000,151320.9687500000,176711.0156250000,170019.2656250000,160010.6562500000,163316.2656250000,61744.9414062500,173982.6093750000,,,
0.2599999995,2,151207.9687500000,151314.4843750000,176707.6093750000,170018.7343750000,160009.4531250000,163312.2968750000,61742.5273437500,173979.8437500000,,,
0.2639999995,2,151209.1250000000,151316.6875000000,176708.1875000000,170027.0781250000,160009.8281250000,163313.2187500000,61739.6054687500,173985.8906250000,,,
0.2679999995,2,151211.0000000000,151320.0312500000,176710.7187500000,170038.2031250000,160011.2187500000,163314.0625000000,61742.1015625000,173989.6406250000,,,
0.2719999994,2,151203.2500000000,151313.2968750000,176701.7500000000,170029.9218750000,160002.6406250000,163305.2187500000,61736.4921875000,173980.5781250000,,,
0.2759999994,2,151203.9531250000,151317.4531250000,176697.1718750000,170015.3593750000,159998.5312500000,163307.9062500000,61735.9023437500,173977.5468750000,,,
0.2799999996,2,151202.2031250000,151316.6250000000,176693.7812500000,170013.4218750000,159996.0468750000,163307.3437500000,61733.4101562500,173978.7500000000,,,
0.2839999995,2,151199.0156250000,151313.2812500000,176692.0937500000,170018.3125000000,159993.4218750000,163305.3593750000,61730.1640625000,173981.0625000000,,,
0.2879999995,2,151198.1250000000,151312.7968750000,176695.3906250000,170014.6250000000,159996.0156250000,163305.2187500000,61733.9453125000,173982.6875000000,,,
0.2919999994,2,151205.1250000000,151313.7343750000,176708.4843750000,170024.6562500000,160006.9062500000,163306.7187500000,61745.4531250000,173978.7031250000,,,
0.2959999994,2,151197.2187500000,151309.7812500000,176698.4531250000,170010.7500000000,159999.9062500000,163306.2968750000,61742.2617187500,173970.2812500000,,,
0.2999999996,2,151193.4062500000,151306.4843750000,176697.4375000000,170005.2187500000,159998.9687500000,163305.9375000000,61738.8554687500,173969.4687500000,,,
0.3039999995,2,151188.8437500000,151298.8750000000,176695.7500000000,170009.4062500000,159998.2500000000,163300.1718750000,61735.1523437500,173969.5781250000,,,
0.3079999995,2,151188.5312500000,151299.7812500000,176694.5468750000,170019.3750000000,159996.2031250000,163300.9218750000,61736.1718750000,173972.5000000000,,,
0.3119999995,2,151187.7187500000,151302.0625000000,176687.8593750000,170028.0937500000,159988.8593750000,163298.0781250000,61731.7460937500,173970.8906250000,,,
0.3159999994,2,151190.5937500000,151308.1562500000,176687.2656250000,170027.6718750000,159988.4531250000,163300.8437500000,61732.1210937500,173974.5156250000,,,
0.3199999994,2,151186.2500000000,151305.7656250000,176682.9531250000,170016.1093750000,159986.7031250000,163302.7812500000,61731.2382812500,173983.7656250000,,,
0.3239999996,2,151184.9531250000,151304.2031250000,176682.3125000000,170017.4218750000,159987.3750000000,163301.0000000000,61731.9609375000,173990.0468750000,,,
0.3279999995,2,151188.8437500000,151308.7656250000,176685.6093750000,170012.8906250000,159990.4687500000,163304.6875000000,61735.2617187500,173996.5312500000,,,
0.3319999995,2,151192.4218750000,151310.4062500000,176686.8437500000,170004.8437500000,159990.4843750000,163307.2343750000,61736.2812500000,173995.1406250000,,,
0.3359999994,2,151190.7500000000,151309.7656250000,176681.4531250000,169996.5312500000,159986.0312500000,163305.3593750000,61731.6132812500,173990.2812500000,,,
0.3399999994,2,151186.7812500000,151305.3593750000,176678.1250000000,169997.7812500000,159983.6718750000,163300.9843750000,61729.9492187500,173988.8281250000,,,
0.3439999996,2,151180.6093750000,151293.6406250000,176676.2500000000,170001.9375000000,159981.8750000000,163291.5937500000,61723.9687500000,173985.8906250000,,,
0.3479999995,2,151184.8750000000,151295.4687500000,176682.4218750000,170005.0312500000,159986.5468750000,163296.3750000000,61723.0273437500,173990.9843750000,,,
0.3519999995,2,151189.8593750000,151300.9843750000,176689.2500000000,170005.5937500000,159990.7031250000,163300.5781250000,61726.0351562500,173992.2968750000,,,
0.3559999994,2,151192.8906250000,151307.5312500000,176695.4843750000,170016.5625000000,159994.0312500000,163305.5625000000,61730.5390625000,173992.0312500000,,,
0.3599999994,2,151190.6250000000,151307.0312500000,176696.1250000000,170019.0000000000,159994.8906250000,163308.6562500000,61732.1484375000,173992.3281250000,,,
0.3639999994,2,151186.9218750000,151306.4843750000,176691.5156250000,170008.2968750000,159991.7031250000,163309.0000000000,61730.0546875000,173996.7812500000,,,
0.3679999996,2,151178.2500000000,151300.3750000000,176681.0000000000,170009.8906250000,159981.1875000000,163300.6093750000,61722.2226562500,173992.4843750000,,,
0.3719999995,2,151174.3125000000,151298.3906250000,176675.4218750000,170010.9375000000,159974.8593750000,163298.4062500000,61719.5156250000,173984.5625000000,,,
0.3759999995,2,151171.8125000000,151295.9687500000,176671.6093750000,170003.0781250000,159971.6875000000,163300.2500000000,61723.9414062500,173974.0312500000,,,
0.3799999994,2,151176.6406250000,151301.4687500000,176675.3906250000,170009.9843750000,159977.1093750000,163303.7187500000,61729.7890625000,173977.1718750000,,,
0.3839999994,3,151175.7343750000,151300.1250000000,176674.2968750000,170013.4218750000,159977.7968750000,163305.1875000000,61730.0039062500,173982.3906250000,,,
0.3879999993,3,151183.4062500000,151307.2656250000,176683.5468750000,170033.1718750000,159986.5781250000,163312.0625000000,61739.3906250000,173991.2812500000,,,
0.3919999993,3,151184.4218750000,151304.0781250000,176684.4843750000,170019.7343750000,159987.7343750000,163309.1406250000,61738.2656250000,173986.3906250000,,,
0.3959999993,3,151176.3750000000,151296.8125000000,176675.5468750000,169988.7187500000,159979.8750000000,163301.2187500000,61728.7421875000,173973.4843750000,,,
0.3999999992,3,151171.8437500000,151292.6718750000,176671.8437500000,169980.5468750000,159975.9218750000,163297.7031250000,61722.1171875000,173969.1406250000,,,
0.4039999992,3,151168.9218750000,151291.5156250000,176667.6875000000,169992.0937500000,159971.4218750000,163295.9843750000,61713.9101562500,173972.5000000000,,,
0.4079999994,3,151167.6875000000,151291.4218750000,176666.6406250000,169990.7656250000,159968.6562500000,163295.2656250000,61710.4765625000,173973.8750000000,,,
0.4119999993,3,151170.4687500000,151294.6562500000,176670.9062500000,169986.6875000000,159969.2812500000,163296.4687500000,61710.5039062500,173971.7812500000,,,
0.4159999993,3,151172.2968750000,151293.7812500000,176672.3593750000,169996.9218750000,159969.3750000000,163292.3437500000,61710.4218750000,173964.9062500000,,,
0.4199999992,3,151176.5937500000,151294.3906250000,176674.5312500000,170008.5625000000,159971.6406250000,163289.5312500000,61710.8789062500,173965.5312500000,,,
0.4239999992,3,151180.9375000000,151295.2500000000,176679.1093750000,170003.5468750000,159976.0937500000,163290.3281250000,61711.3632812500,173970.4062500000,,,
0.4279999994,3,151190.2500000000,151307.9843750000,176684.9843750000,170010.1718750000,159982.5000000000,163298.8281250000,61713.4804687500,173980.4687500000,,,
0.4319999993,3,151197.0312500000,151311.1875000000,176692.0937500000,170012.2187500000,159987.4843750000,163301.3281250000,61716.3515625000,173982.0156250000,,,
0.4359999993,3,151180.8750000000,151289.0312500000,176676.6718750000,170002.9687500000,159972.2187500000,163284.5937500000,61705.9960937500,173960.0468750000,,,
0.4399999992,3,151177.2343750000,151288.4687500000,176675.6875000000,169993.0468750000,159970.9375000000,163284.2500000000,61707.3398437500,173958.5468750000,,,
0.4439999992,3,151172.5937500000,151287.2031250000,176672.6875000000,169988.5937500000,159968.7968750000,163284.5312500000,61703.6640625000,173960.1875000000,,,
0.4479999992,3,151170.5625000000,151288.7031250000,176670.9687500000,169992.3750000000,159967.9843750000,163284.6406250000,61702.2968750000,173962.1718750000,,,
0.4519999993,3,151171.8906250000,151294.1250000000,176671.9062500000,170000.3906250000,159968.7343750000,163284.0312500000,61705.4062500000,173964.0312500000,,,
0.4559999993,3,151171.9687500000,151299.4843750000,176672.0156250000,169995.9062500000,159968.6250000000,163284.1406250000,61713.2382812500,173964.2656250000,,,
0.4599999993,3,151169.5312500000,151296.4531250000,176668.6250000000,169989.3437500000,159967.9843750000,163280.7500000000,61717.9335937500,173963.1875000000,,,
0.4639999992,3,151173.5781250000,151296.9375000000,176673.5937500000,169998.5312500000,159975.1562500000,163278.4531250000,61723.3789062500,173970.3281250000,,,
0.4679999992,3,151179.8125000000,151302.4687500000,176680.5625000000,170007.0468750000,159982.2500000000,163288.2343750000,61728.0468750000,173977.2968750000,,,
0.4719999994,3,151184.8437500000,151309.1718750000,176685.2656250000,170010.7656250000,159985.2031250000,163305.7500000000,61731.7734375000,173981.4062500000,,,
0.4759999993,3,151176.3281250000,151298.6250000000,176672.1406250000,170007.1250000000,159973.6406250000,163300.5000000000,61722.3867187500,173970.8906250000,,,
0.4799999993,3,151177.3437500000,151299.5625000000,176671.1718750000,170007.5000000000,159974.5625000000,163299.9062500000,61722.7617187500,173972.5312500000,,,
0.4839999992,3,151173.8593750000,151295.0625000000,176669.0000000000,170004.9531250000,159974.1250000000,163296.7968750000,61723.7539062500,173974.5156250000,,,
0.4879999992,3,151169.2656250000,151287.7968750000,176665.4375000000,170002.3437500000,159970.4843750000,163291.4531250000,61721.2070312500,173970.4687500000,,,
0.4919999992,3,151175.3906250000,151294.6562500000,176672.5468750000,169996.7968750000,159975.2812500000,163295.5625000000,61728.0468750000,173971.9375000000,,,
0.4959999993,3,151182.8906250000,151303.0781250000,176679.5156250000,169990.7031250000,159980.5625000000,163302.7812500000,61735.1796875000,173971.8281250000,,,
0.4999999993,3,151183.5625000000,151299.6718750000,176681.6718750000,169990.5937500000,159981.5625000000,163299.1093750000,61734.1054687500,173970.6718750000,,,
0.5039999993,3,151187.5937500000,151303.6718750000,176686.5781250000,169995.3750000000,159986.4687500000,163298.7500000000,61733.0859375000,173980.5937500000,,,
0.5079999992,3,151190.1406250000,151301.1718750000,176690.0000000000,170004.0312500000,159989.9843750000,163294.5937500000,61735.1796875000,173982.2968750000,,,
0.5119999992,4,151188.2500000000,151299.4375000000,176686.0937500000,170002.2187500000,159986.5468750000,163292.4843750000,61733.7031250000,173978.2343750000,,,
0.5159999991,4,151187.3750000000,151298.7656250000,176684.7968750000,170004.3906250000,159984.7812500000,163291.3281250000,61735.2343750000,173973.2968750000,,,
0.5199999991,4,151188.1562500000,151301.0156250000,176682.4375000000,170022.1718750000,159982.7968750000,163293.6250000000,61732.6328125000,173974.5312500000,,,
0.5239999990,4,151190.4531250000,151308.0781250000,176683.3281250000,170012.3281250000,159983.5468750000,163295.8281250000,61731.6132812500,173985.9687500000,,,
0.5279999990,4,151191.5625000000,151310.7812500000,176686.3593750000,170010.7968750000,159986.8437500000,163299.2343750000,61735.9296875000,173993.5625000000,,,
0.5319999990,4,151192.2343750000,151307.2187500000,176689.8750000000,170022.9218750000,159987.3750000000,163297.2812500000,61737.1093750000,173986.6406250000,,,
0.5359999991,4,151188.3125000000,151300.1875000000,176687.1406250000,170020.4531250000,159983.8906250000,163290.5156250000,61735.4218750000,173976.4687500000,,,
0.5399999991,4,151185.0625000000,151299.9375000000,176685.3437500000,170010.3437500000,159982.8750000000,163290.7812500000,61735.4765625000,173976.5781250000,,,
0.5439999991,4,151179.7343750000,151296.1562500000,176682.3281250000,170000.9843750000,159980.4843750000,163286.9531250000,61731.4765625000,173978.5312500000,,,
0.5479999990,4,151168.3281250000,151285.1718750000,176668.8437500000,170003.9843750000,159968.7343750000,163277.0312500000,61719.2187500000,173971.7187500000,,,
0.5519999990,4,151170.8750000000,151289.4062500000,176668.8125000000,170003.4218750000,159967.5312500000,163277.3281250000,61721.3945312500,173970.3281250000,,,
0.5559999992,4,151179.5625000000,151298.7968750000,176677.5625000000,170007.7656250000,159975.0468750000,163284.8906250000,61731.9882812500,173973.9531250000,,,
0.5599999991,4,151182.2968750000,151301.3906250000,176681.5781250000,170013.4843750000,159979.6875000000,163288.7187500000,61738.0781250000,173979.4531250000,,,
0.5639999991,4,151184.2031250000,151302.5156250000,176685.3906250000,170013.8593750000,159984.1093750000,163289.3593750000,61741.8593750000,173987.1250000000,,,
0.5679999990,4,151178.6562500000,151297.5312500000,176680.0312500000,170004.1406250000,159978.9375000000,163285.3750000000,61736.5468750000,173986.9375000000,,,
0.5719999990,4,151181.2343750000,151298.9531250000,176680.5156250000,170005.2968750000,159978.6562500000,163283.6250000000,61735.3398437500,173984.6718750000,,,
0.5759999990,4,151191.0000000000,151309.5781250000,176688.0000000000,170008.6562500000,159984.2968750000,163289.3593750000,61740.8945312500,173987.0937500000,,,
0.5799999991,4,151194.6093750000,151312.3906250000,176691.7031250000,170012.4062500000,159987.9687500000,163291.5156250000,61744.9687500000,173991.0312500000,,,
0.5839999991,4,151188.7968750000,151299.4687500000,176689.4687500000,170011.5937500000,159988.3750000000,163283.7343750000,61745.4531250000,173989.8281250000,,,
0.5879999991,4,151183.9687500000,151294.5312500000,176682.2031250000,170023.2968750000,159982.6250000000,163280.2812500000,61736.9765625000,173989.0781250000,,,
0.5919999990,4,151187.6718750000,151300.1562500000,176685.5468750000,170025.6250000000,159984.0312500000,163287.1406250000,61736.8945312500,173988.5937500000,,,
0.5959999990,4,151188.8437500000,151301.6406250000,176687.2656250000,170024.7968750000,159983.5468750000,163291.3281250000,61735.5820312500,173986.5312500000,,,
0.5999999992,4,151183.9375000000,151296.1562500000,176682.4375000000,170014.6562500000,159978.3437500000,163287.2968750000,61727.4023437500,173983.4218750000,,,
0.6039999991,4,151181.7187500000,151291.8906250000,176683.1093750000,170000.6875000000,159979.4687500000,163284.0781250000,61726.2460937500,173984.0625000000,,,
0.6079999991,4,151181.0625000000,151292.4062500000,176682.3281250000,170006.4531250000,159980.0781250000,163284.9218750000,61729.7890625000,173984.9687500000,,,
0.6119999990,4,151190.2500000000,151302.0312500000,176693.4062500000,170011.9531250000,159990.2031250000,163292.0781250000,61741.9648437500,173987.9531250000,,,
0.6159999990,4,151199.5156250000,151310.5468750000,176703.9843750000,170009.9843750000,159998.8906250000,163298.1093750000,61749.5820312500,173991.1406250000,,,
0.6199999989,4,151191.6093750000,151302.8750000000,176694.5156250000,170006.0000000000,159991.0468750000,163291.4062500000,61743.3320312500,173985.9062500000,,,
0.6239999991,4,151187.5000000000,151298.2812500000,176690.5156250000,170016.9062500000,159987.5937500000,163288.4062500000,61742.2343750000,173985.8593750000,,,
0.6279999991,4,151192.2031250000,151305.4218750000,176694.1093750000,170026.5625000000,159990.2812500000,163292.8750000000,61744.6484375000,173992.0000000000,,,
0.6319999991,4,151185.8750000000,151300.7187500000,176688.7500000000,170012.3593750000,159985.2656250000,163289.1250000000,61738.9335937500,173984.3750000000,,,
0.6359999990,4,151188.4375000000,151305.5312500000,176691.2343750000,170010.6562500000,159987.6718750000,163289.2343750000,61741.4570312500,173985.0781250000,,,
0.6399999990,5,151180.6875000000,151294.5468750000,176683.2812500000,169994.0312500000,159981.5625000000,163279.1718750000,61735.0742187500,173976.6250000000,,,
0.6439999989,5,151176.3437500000,151287.3593750000,176679.2812500000,169994.1875000000,159979.5937500000,163274.5312500000,61729.8437500000,173973.7343750000,,,
0.6479999989,5,151188.3437500000,151300.3750000000,176690.4843750000,170004.2031250000,159989.7187500000,163284.0312500000,61740.8671875000,173985.9062500000,,,
0.6519999988,5,151191.5312500000,151306.0625000000,176690.1718750000,170002.3750000000,159988.4531250000,163288.1406250000,61741.2421875000,173989.6093750000,,,
0.6559999988,5,151184.8437500000,151297.1875000000,176680.3281250000,170010.8281250000,159978.1250000000,163280.0937500000,61731.1289062500,173979.9218750000,,,
0.6599999988,5,151190.0000000000,151303.6718750000,176686.7031250000,170014.9531250000,159983.6250000000,163285.6406250000,61734.3476562500,173987.4062500000,,,
0.6639999989,5,151187.5000000000,151303.6406250000,176682.2500000000,170009.0468750000,159980.4062500000,163287.2500000000,61732.7382812500,173995.4843750000,,,
0.6679999989,5,151186.7343750000,151303.5156250000,176682.3125000000,170009.4062500000,159980.5625000000,163289.4531250000,61737.3242187500,173999.2187500000,,,
0.6719999989,5,151184.9843750000,151302.6250000000,176682.1718750000,170002.7968750000,159980.4531250000,163290.1718750000,61738.1015625000,173995.5156250000,,,
0.6759999988,5,151192.1718750000,151308.0781250000,176692.3906250000,170014.9531250000,159989.0937500000,163294.4843750000,61746.3125000000,173995.4062500000,,,
0.6799999988,5,151189.6718750000,151306.1875000000,176692.7187500000,170020.4218750000,159988.4062500000,163292.8593750000,61744.0859375000,173993.6093750000,,,
0.6839999990,5,151183.0781250000,151300.1093750000,176687.1875000000,170010.2343750000,159984.3750000000,163289.7968750000,61738.4257812500,173992.9062500000,,,
0.6879999989,5,151179.0781250000,151295.5000000000,176681.7187500000,170008.9375000000,159980.4375000000,163285.7656250000,61734.2929687500,173992.5312500000,,,
0.6919999989,5,151182.3281250000,151297.0937500000,176683.2500000000,170008.8125000000,159981.8281250000,163283.8125000000,61734.5625000000,173991.5468750000,,,
0.6959999988,5,151188.5468750000,151301.6562500000,176686.9218750000,170005.7812500000,159985.3750000000,163286.6562500000,61737.5390625000,173988.5468750000,,,
0.6999999988,5,151188.6562500000,151301.2031250000,176686.1406250000,170005.0781250000,159986.4687500000,163288.1875000000,61739.9804687500,173986.0468750000,,,
0.7039999987,5,151179.0781250000,151291.6875000000,176678.3125000000,170003.5781250000,159980.0000000000,163282.4218750000,61730.8593750000,173983.7656250000,,,
0.7079999989,5,151176.7812500000,151288.4375000000,176676.7343750000,170008.2500000000,159979.1406250000,163280.3750000000,61731.4531250000,173981.1093750000,,,
0.7119999989,5,151184.1875000000,151297.5625000000,176682.9843750000,170008.8593750000,159986.3906250000,163285.5625000000,61740.1953125000,173981.4062500000,,,
0.7159999989,5,151186.2500000000,151299.4375000000,176686.7343750000,170005.4843750000,159989.5781250000,163286.0468750000,61743.6835937500,173978.7968750000,,,
0.7199999988,5,151184.8750000000,151299.7031250000,176685.2031250000,170004.0312500000,159988.9062500000,163288.0312500000,61746.2304687500,173980.1093750000,,,
0.7239999988,5,151184.9843750000,151301.5468750000,176686.3281250000,169995.1562500000,159991.0468750000,163290.8750000000,61749.4492187500,173987.2812500000,,,
0.7279999990,5,151189.8125000000,151306.7343750000,176692.2343750000,169999.7500000000,159997.2500000000,163297.6250000000,61755.0273437500,173994.0937500000,,,
0.7319999989,5,151190.2968750000,151305.2031250000,176695.7500000000,169998.3750000000,159999.2031250000,163297.7343750000,61753.6054687500,173993.1562500000,,,
0.7359999989,5,151197.1875000000,151311.8281250000,176701.5625000000,169997.6875000000,160004.0937500000,163302.3281250000,61758.4882812500,173991.7812500000,,,
0.7399999988,5,151200.2812500000,151315.5312500000,176702.1093750000,170007.3906250000,160005.3281250000,163304.5156250000,61765.1132812500,173994.5156250000,,,
0.7439999988,5,151192.3593750000,151306.5937500000,176696.1562500000,170004.0156250000,160000.7343750000,163296.2812500000,61760.0156250000,173997.4375000000,,,
0.7479999987,5,151188.2343750000,151301.7343750000,176689.7656250000,170007.3125000000,159996.7187500000,163289.7968750000,61753.9570312500,173996.5781250000,,,
0.7519999989,5,151191.5312500000,151307.1562500000,176691.9687500000,170013.0000000000,159998.9687500000,163294.5937500000,61754.1953125000,173996.2343750000,,,
0.7559999989,5,151191.9375000000,151307.8593750000,176690.4375000000,170009.5312500000,159995.8750000000,163296.6562500000,61754.4101562500,173990.9843750000,,,
0.7599999988,5,151190.2187500000,151304.9375000000,176687.4531250000,170011.5781250000,159991.5937500000,163292.5000000000,61753.4726562500,173987.7812500000,,,
0.7639999988,5,151189.8125000000,151303.0625000000,176688.3750000000,170000.8125000000,159992.5625000000,163292.7656250000,61755.2695312500,173990.5781250000,,,
0.7679999988,6,151190.7187500000,151303.5312500000,176691.3750000000,170004.6250000000,159994.4375000000,163295.5937500000,61754.2226562500,173995.2187500000,,,
0.7719999987,6,151194.4062500000,151308.6093750000,176695.1875000000,170012.0312500000,159996.3593750000,163298.9218750000,61753.7421875000,173996.5625000000,,,
0.7759999987,6,151193.5156250000,151307.2656250000,176693.4687500000,170005.2187500000,159994.9218750000,163297.8125000000,61751.0585937500,173990.6562500000,,,
0.7799999986,6,151199.4218750000,151310.0625000000,176701.5625000000,170015.0312500000,160002.5312500000,163300.9062500000,61756.1562500000,173992.7812500000,,,
0.7839999986,6,151210.4375000000,151321.1875000000,176714.7031250000,170015.9218750000,160015.9375000000,163310.9375000000,61767.5546875000,174007.6875000000,,,
0.7879999985,6,151209.9843750000,151318.5625000000,176715.5625000000,170020.9687500000,160017.7343750000,163312.4375000000,61768.8671875000,174013.0625000000,,,
0.7919999987,6,151195.5468750000,151306.6250000000,176696.5468750000,170006.5000000000,160000.6562500000,163302.5625000000,61751.4062500000,174000.9375000000,,,
0.7959999987,6,151197.5156250000,151309.8906250000,176696.6093750000,170009.1562500000,159999.7500000000,163304.5156250000,61743.4960937500,173997.0468750000,,,
0.7999999986,6,151196.4062500000,151307.5156250000,176695.6718750000,170005.8906250000,159996.9531250000,163300.9218750000,61747.8945312500,173996.4218750000,,,
0.8039999986,6,151191.6093750000,151302.2500000000,176689.4687500000,169998.5156250000,159992.0000000000,163296.0468750000,61752.1835937500,173996.0468750000,,,
0.8079999986,6,151199.2500000000,151312.1250000000,176695.0000000000,170013.3906250000,159998.3750000000,163305.1406250000,61757.3867187500,174006.2187500000,,,
0.8119999988,6,151207.0000000000,151319.1250000000,176702.5000000000,170025.0937500000,160004.3593750000,163310.5312500000,61761.8398437500,174010.3750000000,,,
0.8159999987,6,151207.6718750000,151319.8437500000,176704.7656250000,170018.0625000000,160004.3281250000,163307.4375000000,61759.3203125000,174006.0781250000,,,
0.8199999987,6,151201.7812500000,151314.3750000000,176704.2187500000,170007.1718750000,160002.4062500000,163301.8437500000,61754.2226562500,173999.7812500000,,,
0.8239999986,6,151198.7968750000,151312.7187500000,176704.5781250000,170005.5156250000,160002.4843750000,163300.9218750000,61756.6367187500,174003.4843750000,,,
0.8279999986,6,151194.3125000000,151308.9531250000,176696.7968750000,170003.6093750000,159996.3125000000,163299.4531250000,61753.6054687500,174004.6562500000,,,
0.8319999985,6,151196.5781250000,151312.2500000000,176693.6562500000,170010.9375000000,159994.2187500000,163303.5312500000,61748.4570312500,174003.1875000000,,,
0.8359999987,6,151200.7500000000,151317.4375000000,176697.8906250000,170012.0000000000,159997.0156250000,163306.5937500000,61750.3359375000,173999.1562500000,,,
0.8399999987,6,151199.7656250000,151314.0781250000,176699.9062500000,170008.7812500000,159998.8125000000,163303.9843750000,61754.1679687500,173995.9375000000,,,
0.8439999986,6,151195.8437500000,151310.5468750000,176697.3906250000,170010.2656250000,159997.3593750000,163301.9218750000,61753.0156250000,173996.6406250000,,,
0.8479999986,6,151190.8593750000,151308.0156250000,176690.6562500000,170015.8593750000,159992.1562500000,163302.3437500000,61747.4648437500,173998.4687500000,,,
0.8519999986,6,151188.7343750000,151305.3125000000,176688.3125000000,170022.1406250000,159987.6250000000,163301.8593750000,61744.2734375000,173993.6562500000,,,
0.8559999987,6,151193.0625000000,151307.4218750000,176692.8437500000,170017.6406250000,159989.1562500000,163304.9531250000,61746.4453125000,173987.6562500000,,,
0.8599999987,6,151194.6875000000,151307.3437500000,176696.1562500000,170008.8437500000,159991.1875000000,163304.7656250000,61744.7539062500,173988.6250000000,,,
0.8639999987,6,151197.4531250000,151308.7656250000,176702.2187500000,170009.8906250000,159997.7812500000,163303.5781250000,61749.3945312500,173994.7031250000,,,
0.8679999986,6,151197.1875000000,151307.5312500000,176703.7187500000,170008.5937500000,160000.9531250000,163307.5468750000,61754.4921875000,173999.6406250000,,,
0.8719999986,6,151198.7187500000,151307.5312500000,176703.8437500000,170003.3437500000,160001.7031250000,163309.8593750000,61755.2968750000,173997.5000000000,,,
0.8759999985,6,151195.6562500000,151305.2812500000,176698.9375000000,170000.3906250000,159997.6250000000,163306.8593750000,61752.2656250000,173988.9375000000,,,
0.8799999987,6,151188.2031250000,151301.4531250000,176692.5781250000,170004.7343750000,159992.4218750000,163301.8125000000,61748.9648437500,173983.5781250000,,,
0.8839999987,6,151183.2968750000,151300.6406250000,176687.2500000000,170007.2343750000,159989.3437500000,163301.6718750000,61742.0468750000,173987.8906250000,,,
0.8879999986,6,151187.4062500000,151305.7343750000,176690.0000000000,170015.8437500000,159991.5937500000,163305.2500000000,61744.6210937500,173995.5625000000,,,
0.8919999986,6,151191.0781250000,151307.0468750000,176693.7812500000,170023.7812500000,159994.4843750000,163307.5312500000,61750.1210937500,173995.7500000000,,,
0.8959999986,7,151194.5625000000,151308.9531250000,176696.9531250000,170027.8281250000,159997.3593750000,163310.9531250000,61754.2500000000,173993.8750000000,,,
0.8999999985,7,151191.0000000000,151305.3593750000,176694.5156250000,170025.7656250000,159996.2812500000,163309.2968750000,61751.2460937500,173990.9218750000,,,
0.9039999985,7,151184.9843750000,151298.3593750000,176690.7343750000,170021.7343750000,159993.6250000000,163306.0312500000,61746.2851562500,173989.3750000000,,,
0.9079999984,7,151188.0625000000,151297.9375000000,176696.3437500000,170017.6093750000,159998.8125000000,163304.9218750000,61747.6796875000,173994.7656250000,,,
0.9119999984,7,151186.5937500000,151297.0000000000,176695.0468750000,170008.3593750000,159996.3437500000,163299.2968750000,61744.9414062500,173994.0312500000,,,
0.9159999983,7,151186.5156250000,151297.1562500000,176694.9375000000,169998.5625000000,159995.9062500000,163298.4375000000,61749.1796875000,173987.4062500000,,,
0.9199999985,7,151180.4062500000,151291.1718750000,176688.3906250000,169991.2656250000,159988.7187500000,163294.7343750000,61746.7929687500,173979.6562500000,,,
0.9239999985,7,151186.8593750000,151301.3906250000,176694.7500000000,170003.1562500000,159994.4531250000,163301.3906250000,61753.3125000000,173988.0312500000,,,
0.9279999984,7,151183.1093750000,151298.0937500000,176690.3750000000,170013.9687500000,159991.4531250000,163298.5468750000,61746.2851562500,173989.3750000000,,,
0.9319999984,7,151179.4843750000,151292.5937500000,176683.5937500000,170013.3750000000,159984.3750000000,163295.8906250000,61741.4296875000,173981.6718750000,,,
0.9359999984,7,151182.2968750000,151292.4687500000,176688.5625000000,170012.3281250000,159985.8281250000,163295.0312500000,61746.1484375000,173976.8437500000,,,
0.9399999985,7,151182.2812500000,151293.6875000000,176688.9531250000,170016.8593750000,159985.1250000000,163294.5781250000,61745.4531250000,173978.1562500000,,,
0.9439999985,7,151176.0000000000,151292.2812500000,176681.5781250000,170006.7187500000,159979.4062500000,163293.4687500000,61738.5859375000,173982.8750000000,,,
0.9479999985,7,151168.3593750000,151287.0937500000,176674.3906250000,169998.4375000000,159973.8281250000,163288.5312500000,61728.3945312500,173982.6875000000,,,
0.9519999984,7,151170.8750000000,151288.3281250000,176678.7187500000,169990.1093750000,159977.8906250000,163289.6562500000,61731.7187500000,173981.2187500000,,,
0.9559999984,7,151177.7500000000,151293.2187500000,176687.4062500000,169990.9218750000,159984.1875000000,163296.9062500000,61743.5468750000,173980.8750000000,,,
0.9599999983,7,151178.1406250000,151292.5625000000,176686.0312500000,169995.3750000000,159983.2812500000,163297.9843750000,61745.1289062500,173979.1250000000,33029,0.9615353711,0.0000000000
0.9639999985,7,151177.4218750000,151293.0781250000,176684.1406250000,170003.9843750000,159983.2968750000,163295.9375000000,61743.6562500000,173984.4375000000,,,
0.9679999985,7,151174.9062500000,151290.3906250000,176682.7968750000,170002.0312500000,159982.9062500000,163294.9687500000,61740.7031250000,173987.1250000000,,,
0.9719999984,7,151176.7187500000,151291.2031250000,176686.7031250000,170000.3906250000,159985.5000000000,163296.5000000000,61743.0390625000,173987.7812500000,,,
0.9759999984,7,151172.4843750000,151286.9687500000,176678.7343750000,169998.4062500000,159979.3593750000,163294.8125000000,61738.6406250000,173980.3281250000,,,
0.9799999984,7,151173.1093750000,151288.8125000000,176675.3906250000,170003.2343750000,159976.5156250000,163298.8906250000,61737.1367187500,173979.0468750000,,,
0.9839999985,7,151174.7968750000,151288.3906250000,176675.7343750000,170006.2343750000,159978.1718750000,163296.4218750000,61736.5195312500,173981.8125000000,,,
0.9879999985,7,151182.1718750000,151296.6718750000,176680.3750000000,170013.5312500000,159984.6406250000,163302.0468750000,61741.6171875000,173992.1875000000,,,
0.9919999985,7,151185.3281250000,151299.1718750000,176684.0781250000,170006.8593750000,159987.4062500000,163302.5937500000,61745.7734375000,173993.3437500000,,,
0.9959999984,7,151194.2187500000,151306.9218750000,176691.1406250000,170013.3906250000,159992.2812500000,163305.9218750000,61751.8359375000,173992.4531250000,,,
0.9999999984,7,151200.0000000000,151310.1562500000,176695.1250000000,170019.3593750000,159995.5937500000,163307.2812500000,61754.4921875000,173993.6562500000,,,
1.0039999983,7,151199.9531250000,151307.5625000000,176697.5781250000,170019.8281250000,159999.3750000000,163308.6718750000,61754.7343750000,173998.0312500000,,,
1.0079999985,7,151200.2812500000,151308.3906250000,176700.5000000000,170018.4375000000,160002.1250000000,163309.1562500000,61750.7890625000,174002.5156250000,,,
1.0119999985,7,151200.1406250000,151310.3281250000,176700.1406250000,170023.8906250000,160000.7656250000,163308.0937500000,61747.0351562500,174001.0937500000,,,
1.0159999984,7,151195.8281250000,151308.2031250000,176695.7968750000,170011.4062500000,159995.9375000000,163305.9375000000,61746.9804687500,173994.5781250000,,,
1.0199999984,7,151186.8593750000,151301.7656250000,176687.9375000000,170006.4218750000,159989.3437500000,163297.3281250000,61743.8984375000,173988.8593750000,,,
1.0239999983,8,151175.8593750000,151290.2343750000,176679.0937500000,170004.8906250000,159981.1875000000,163284.5156250000,61734.7226562500,173982.5312500000,,,
1.0279999983,8,151172.0625000000,151283.4531250000,176675.5781250000,170021.6250000000,159975.9531250000,163277.7031250000,61728.3671875000,173977.3593750000,,,
1.0319999983,8,151172.6406250000,151285.1406250000,176675.6250000000,170022.3281250000,159974.2343750000,163275.3125000000,61724.5859375000,173975.5625000000,,,
1.0359999982,8,151176.2187500000,151287.0156250000,176679.9687500000,170031.6875000000,159976.8906250000,163272.5468750000,61725.4414062500,173971.9062500000,,,
1.0399999982,8,151183.1093750000,151291.9218750000,176688.5000000000,170021.0468750000,159986.5781250000,163279.0625000000,61735.0468750000,173976.3125000000,,,
1.0439999981,8,151178.2812500000,151287.2031250000,176685.3906250000,169999.3437500000,159985.6875000000,163277.6718750000,61735.5000000000,173979.6093750000,,,
1.0479999983,8,151176.0468750000,151285.2500000000,176686.3906250000,169991.5312500000,159986.5156250000,163278.7968750000,61738.6679687500,173981.4375000000,,,
1.0519999983,8,151179.8281250000,151288.5937500000,176689.1562500000,169998.9062500000,159989.3906250000,163283.8906250000,61743.1171875000,173984.8906250000,,,
1.0559999982,8,151188.5781250000,151297.7500000000,176693.8750000000,170007.9843750000,159994.1718750000,163292.8281250000,61748.0000000000,173988.6406250000,,,
1.0599999982,8,151194.4218750000,151303.6718750000,176698.4218750000,170010.2031250000,159998.5312500000,163300.0937500000,61754.1171875000,173991.4843750000,,,
1.0639999982,8,151192.9843750000,151299.2187500000,176703.1718750000,169995.5625000000,160003.0937500000,163298.8125000000,61755.2968750000,173992.1562500000,,,
1.0679999983,8,151186.9218750000,151293.7187500000,176695.9062500000,169998.5937500000,159996.5781250000,163295.0312500000,61745.4257812500,173992.3281250000,,,
1.0719999983,8,151182.4375000000,151292.0312500000,176684.9375000000,170004.5937500000,159986.3281250000,163290.9531250000,61741.0820312500,173989.1875000000,,,
1.0759999983,8,151185.8437500000,151295.6875000000,176685.5781250000,170018.0625000000,159986.1250000000,163292.9687500000,61747.9453125000,173985.6406250000,,,
1.0799999982,8,151186.2187500000,151296.1562500000,176686.8750000000,170021.5781250000,159986.8437500000,163296.1250000000,61750.5742187500,173983.6093750000,,,
1.0839999982,8,151184.5000000000,151293.5000000000,176687.9375000000,170016.9062500000,159986.8906250000,163294.2968750000,61750.8710937500,173987.2812500000,,,
1.0879999981,8,151174.5781250000,151283.6875000000,176680.1406250000,169995.1093750000,159979.5937500000,163284.0312500000,61742.6093750000,173981.9687500000,,,
1.0919999983,8,151170.7187500000,151279.1875000000,176676.8437500000,169990.1093750000,159976.5625000000,163278.2031250000,61737.5937500000,173973.6875000000,,,
1.0959999983,8,151179.5468750000,151286.9062500000,176685.0468750000,169999.9531250000,159984.2343750000,163280.8125000000,61742.2070312500,173972.5781250000,,,
1.0999999982,8,151189.7031250000,151296.8281250000,176696.2812500000,170005.5312500000,159996.0156250000,163289.4687500000,61749.3164062500,173977.1875000000,,,
1.1039999982,8,151188.5781250000,151294.7968750000,176697.8593750000,170006.6406250000,159997.9531250000,163289.5781250000,61753.3906250000,173980.1093750000,,,
1.1079999981,8,151186.0000000000,151294.2656250000,176698.4062500000,170008.3750000000,159998.4375000000,163289.3906250000,61758.2187500000,173983.1250000000,,,
1.1119999983,8,151181.9218750000,151292.0781250000,176692.7500000000,170009.2656250000,159992.1562500000,163288.2968750000,61755.0000000000,173977.3281250000,,,
1.1159999983,8,151177.0781250000,151285.4843750000,176683.8906250000,169995.3125000000,159983.1093750000,163284.0312500000,61747.2500000000,173961.2343750000,,,
1.1199999982,8,151175.1875000000,151285.1093750000,176680.4375000000,169987.6562500000,159979.6250000000,163283.8750000000,61741.8867187500,173957.1250000000,,,
1.1239999982,8,151175.5781250000,151285.7343750000,176683.2500000000,169991.0312500000,159980.5468750000,163281.3750000000,61740.5429687500,173962.9531250000,,,
1.1279999982,8,151174.0156250000,151285.4531250000,176681.9062500000,169996.7968750000,159978.7187500000,163275.5468750000,61736.9765625000,173967.4843750000,,,
1.1319999981,8,151172.5625000000,151284.7968750000,176682.5312500000,170002.9062500000,159978.0468750000,163276.0156250000,61737.2460937500,173969.2500000000,,,
1.1359999983,8,151169.5312500000,151281.9531250000,176679.2812500000,169993.7656250000,159974.6718750000,163274.3437500000,61738.9062500000,173967.4062500000,,,
1.1399999983,8,151174.5000000000,151286.4531250000,176681.8750000000,169998.6406250000,159979.2812500000,163280.3593750000,61745.0507812500,173974.1562500000,,,
1.1439999982,8,151178.6875000000,151290.9531250000,176684.2343750000,170005.1875000000,159984.2187500000,163290.5937500000,61745.9101562500,173985.5156250000,,,
1.1479999982,8,151172.2656250000,151284.5000000000,176676.5937500000,170000.8750000000,159977.7812500000,163289.7187500000,61738.9062500000,173987.3906250000,,,
1.1519999981,9,151168.0937500000,151280.1562500000,176672.1093750000,169988.7500000000,159972.5000000000,163284.1562500000,61732.0664062500,173982.1250000000,,,
1.1559999981,9,151176.2343750000,151288.0625000000,176677.6406250000,169992.9375000000,159975.9843750000,163286.5781250000,61736.4921875000,173978.5312500000,,,
1.1599999981,9,151183.9062500000,151294.3906250000,176682.4218750000,170005.0312500000,159980.6406250000,163289.5781250000,61742.1523437500,173982.2343750000,,,
1.1639999980,9,151178.2812500000,151288.1718750000,176675.8125000000,169999.7187500000,159976.9687500000,163287.0312500000,61739.2031250000,173980.7031250000,,,
1.1679999980,9,151176.3750000000,151285.2187500000,176675.9062500000,169992.5312500000,159976.7343750000,163285.3437500000,61738.5039062500,173978.3750000000,,,
1.1719999979,9,151183.7500000000,151291.2031250000,176683.8593750000,169999.5781250000,159983.7656250000,163287.7812500000,61744.7539062500,173981.5156250000,,,
1.1759999981,9,151189.9531250000,151298.4687500000,176691.1562500000,170004.6250000000,159989.8437500000,163292.5781250000,61750.1210937500,173983.2343750000,,,
1.1799999981,9,151190.0781250000,151299.3593750000,176694.9375000000,170005.4531250000,159992.6562500000,163290.7812500000,61750.1718750000,173982.3125000000,,,
1.1839999980,9,151184.2656250000,151294.1562500000,176692.6875000000,170007.4218750000,159990.7656250000,163284.6718750000,61746.6328125000,173980.5937500000,,,
1.1879999980,9,151180.5625000000,151290.6093750000,176688.8593750000,170020.0156250000,159986.7343750000,163286.3125000000,61742.9062500000,173983.0625000000,,,
1.1919999979,9,151177.9062500000,151286.6875000000,176684.5937500000,170004.8437500000,159982.7343750000,163287.7031250000,61740.9453125000,173979.4531250000,,,
1.1959999981,9,151177.5781250000,151285.7343750000,176682.3281250000,170013.9687500000,159980.2968750000,163287.6250000000,61739.7109375000,173972.3437500000,,,
1.1999999981,9,151174.9062500000,151283.2812500000,176678.3437500000,170009.5312500000,159977.1406250000,163287.1406250000,61737.8632812500,173967.1562500000,,,
1.2039999980,9,151177.0468750000,151287.3437500000,176679.9218750000,170006.6406250000,159979.8906250000,163288.8593750000,61738.2656250000,173973.1718750000,,,
1.2079999980,9,151170.7968750000,151280.6562500000,176676.4375000000,169994.5625000000,159977.2343750000,163281.4531250000,61734.0781250000,173972.4687500000,,,
1.2119999980,9,151174.0625000000,151281.7812500000,176681.2343750000,169993.0625000000,159983.0000000000,163282.3437500000,61740.5976562500,173970.6250000000,,,
1.2159999979,9,151182.9531250000,151288.0625000000,176690.8906250000,169999.6093750000,159991.8906250000,163284.0000000000,61748.9375000000,173969.4375000000,,,
1.2199999981,9,151188.9218750000,151292.6718750000,176696.7187500000,170000.2343750000,159996.0468750000,163284.6250000000,61751.9179687500,173974.1093750000,,,
1.2239999981,9,151187.2968750000,151291.7031250000,176693.8750000000,169996.9843750000,159991.2187500000,163281.7187500000,61749.3945312500,173980.0312500000,,,
1.2279999980,9,151185.7343750000,151291.8906250000,176691.8281250000,169994.7812500000,159989.4687500000,163278.1250000000,61748.0546875000,173983.2812500000,,,
1.2319999980,9,151184.7187500000,151290.9062500000,176688.9531250000,169998.6718750000,159987.4531250000,163275.0781250000,61744.8085937500,173977.0000000000,,,
1.2359999979,9,151196.4062500000,151301.7656250000,176698.4843750000,170008.1093750000,159996.5468750000,163284.8906250000,61750.8710937500,173978.9375000000,,,
1.2399999981,9,151199.2031250000,151305.4218750000,176701.6406250000,170001.6718750000,159999.1562500000,163288.8906250000,61752.2929687500,173983.5000000000,,,
1.2439999981,9,151193.5468750000,151300.8281250000,176697.1718750000,170003.4218750000,159996.4687500000,163284.2656250000,61748.4296875000,173988.1562500000,,,
1.2479999980,9,151193.0625000000,151299.9375000000,176696.3437500000,170004.2812500000,159997.6250000000,163284.1562500000,61753.1523437500,173990.5312500000,,,
1.2519999980,9,151189.2187500000,151298.1718750000,176686.0625000000,170013.0156250000,159989.0625000000,163283.0625000000,61748.6445312500,173987.3125000000,,,
1.2559999980,9,151188.4375000000,151297.2343750000,176684.2656250000,170029.2500000000,159984.7500000000,163282.4687500000,61747.7304687500,173980.0625000000,,,
1.2599999979,9,151185.8906250000,151297.4218750000,176683.6718750000,170001.3281250000,159981.7187500000,163282.8750000000,61748.2421875000,173979.2656250000,,,
1.2639999981,9,151178.3593750000,151293.8906250000,176676.8437500000,169994.2968750000,159975.2500000000,163278.3750000000,61741.1875000000,173980.8437500000,,,
1.2679999981,9,151175.5468750000,151290.4531250000,176674.8750000000,170002.0781250000,159975.0625000000,163276.1718750000,61740.0625000000,173982.2656250000,,,
1.2719999980,9,151175.1406250000,151291.3125000000,176674.3125000000,170000.9531250000,159975.9531250000,163275.5468750000,61740.4101562500,173980.8906250000,,,
1.2759999980,9,151180.4218750000,151293.9062500000,176681.3750000000,169998.0625000000,159982.6875000000,163278.7187500000,61747.8125000000,173977.0312500000,,,
1.2799999979,10,151181.9218750000,151292.3750000000,176685.6875000000,170006.1250000000,159986.8437500000,163277.7187500000,61749.7968750000,173972.9531250000,,,
1.2839999979,10,151183.1093750000,151289.5625000000,176691.0312500000,169998.1875000000,159993.7031250000,163277.7031250000,61754.4375000000,173973.7343750000,,,
1.2879999978,10,151182.7656250000,151287.9062500000,176692.1562500000,169992.2031250000,159998.7812500000,163280.1093750000,61759.1054687500,173979.6875000000,,,
1.2919999978,10,151188.1250000000,151293.4531250000,176697.2187500000,169991.8906250000,160004.0625000000,163285.6875000000,61768.3046875000,173984.6718750000,,,
1.2959999978,10,151194.9062500000,151302.5156250000,176703.2812500000,169998.6718750000,160007.6250000000,163291.8281250000,61775.1171875000,173988.1093750000,,,
1.2999999977,10,151200.7812500000,151309.0625000000,176708.8593750000,170007.7968750000,160011.6562500000,163297.1406250000,61780.4023437500,173992.2968750000,,,
1.3039999979,10,151196.0937500000,151303.0000000000,176703.4687500000,170008.7812500000,160006.7500000000,163293.7968750000,61774.1250000000,173991.8125000000,,,
1.3079999979,10,151192.0625000000,151299.6562500000,176701.0312500000,170011.0156250000,160004.8125000000,163291.6250000000,61772.1132812500,173992.5156250000,,,
1.3119999978,10,151192.1406250000,151300.8593750000,176701.3593750000,170009.1406250000,160003.6562500000,163290.5468750000,61773.5078125000,173991.5156250000,,,
1.3159999978,10,151193.9218750000,151304.2656250000,176701.5468750000,170008.6562500000,160002.0468750000,163289.4531250000,61770.5585937500,173986.6406250000,,,
1.3199999977,10,151195.7656250000,151308.0781250000,176701.9687500000,170011.0937500000,160001.0312500000,163286.7968750000,61768.3593750000,173985.8906250000,,,
1.3239999979,10,151199.7031250000,151310.1562500000,176707.0312500000,170017.6093750000,160004.3906250000,163287.1093750000,61773.0000000000,173991.5625000000,,,
1.3279999979,10,151199.6875000000,151308.7187500000,176705.7187500000,170017.3125000000,160003.9531250000,163284.8593750000,61773.1054687500,173993.3906250000,,,
1.3319999978,10,151195.9062500000,151301.1250000000,176701.3281250000,170018.9218750000,159999.0000000000,163279.3281250000,61766.5351562500,173985.2187500000,,,
1.3359999978,10,151198.3125000000,151302.3906250000,176702.8750000000,170022.6718750000,159999.5781250000,163282.6093750000,61766.5625000000,173982.4843750000,,,
1.3399999978,10,151196.2187500000,151301.0156250000,176700.3125000000,170019.5625000000,159998.1562500000,163285.7968750000,61767.5000000000,173981.5156250000,,,
1.3439999977,10,151197.3750000000,151305.2031250000,176699.4687500000,170030.7500000000,159998.4531250000,163289.9375000000,61769.9960937500,173991.9218750000,,,
1.3479999979,10,151194.6406250000,151304.9062500000,176695.3125000000,170021.6093750000,159993.6875000000,163290.6562500000,61765.8085937500,173999.6093750000,,,
1.3519999979,10,151185.5468750000,151294.3906250000,176688.0781250000,170004.5781250000,159984.8906250000,163284.0000000000,61758.3007812500,173992.8906250000,,,
1.3559999978,10,151182.2500000000,151290.8593750000,176684.8281250000,170000.8125000000,159980.2656250000,163280.5937500000,61754.8671875000,173984.1406250000,,,
1.3599999978,10,151182.8593750000,151293.3437500000,176685.5312500000,170004.4375000000,159980.2500000000,163282.7656250000,61754.3320312500,173982.8281250000,,,
1.3639999977,10,151185.1250000000,151296.7500000000,176689.5781250000,170022.7812500000,159984.2187500000,163285.2031250000,61756.2343750000,173988.3281250000,,,
1.3679999979,10,151186.6406250000,151299.5625000000,176694.7812500000,170014.0625000000,159988.0468750000,163283.5937500000,61758.4882812500,173995.3281250000,,,
1.3719999979,10,151184.4218750000,151295.2812500000,176695.6093750000,169998.8281250000,159988.0468750000,163277.6250000000,61758.9960937500,173991.5468750000,,,
1.3759999978,10,151174.0625000000,151285.8906250000,176684.0000000000,169992.0937500000,159978.7187500000,163269.8906250000,61753.6601562500,173977.9218750000,,,
1.3799999978,10,151172.1875000000,151286.4218750000,176680.1093750000,169989.6406250000,159976.6562500000,163269.1093750000,61753.7929687500,173975.2343750000,,,
1.3839999977,10,151177.0781250000,151288.6250000000,176684.7187500000,169995.6406250000,159981.6406250000,163270.1875000000,61758.8085937500,173977.4687500000,,,
1.3879999977,10,151181.5000000000,151285.0781250000,176687.9687500000,170003.2031250000,159986.7968750000,163270.6250000000,61762.6445312500,173975.7187500000,,,
1.3919999979,10,151188.1250000000,151286.2968750000,176690.3750000000,170009.7812500000,159992.2656250000,163274.7968750000,61767.4179687500,173973.0937500000,,,
1.3959999979,10,151198.1250000000,151291.6093750000,176701.3593750000,170007.3906250000,160003.5468750000,163279.9843750000,61776.2460937500,173972.0156250000,,,
1.3999999978,10,151199.5781250000,151294.0156250000,176704.4375000000,170006.1875000000,160006.9062500000,163283.3281250000,61777.5312500000,173974.5625000000,,,
1.4039999978,10,151197.0625000000,151294.4687500000,176704.2968750000,170009.0468750000,160006.2656250000,163287.2968750000,61774.3398437500,173981.4062500000,,,
1.4079999977,11,151198.0000000000,151300.4062500000,176707.0937500000,170013.4218750000,160007.5000000000,163293.4218750000,61774.1250000000,173993.2343750000,,,
1.4119999977,11,151205.1875000000,151310.3750000000,176713.8593750000,170024.5781250000,160011.5156250000,163299.6718750000,61776.7265625000,174003.2343750000,,,
1.4159999976,11,151202.6406250000,151309.0937500000,176712.2187500000,170011.2500000000,160008.1093750000,163296.9062500000,61772.2460937500,173998.7656250000,,,
1.4199999976,11,151205.7968750000,151312.7187500000,176715.9375000000,170021.6562500000,160011.9218750000,163300.0937500000,61777.6914062500,173999.7812500000,,,
1.4239999976,11,151205.2031250000,151310.0312500000,176714.3125000000,170033.4843750000,160011.5781250000,163298.0312500000,61779.3007812500,174001.9218750000,,,
1.4279999975,11,151197.8593750000,151304.4218750000,176703.9218750000,170011.1718750000,160003.8750000000,163292.2031250000,61774.7148437500,174000.7656250000,,,
1.4319999977,11,151196.6562500000,151303.8125000000,176702.2343750000,170003.8281250000,160001.5468750000,163288.9843750000,61773.7226562500,174000.3125000000,,,
1.4359999977,11,151201.8593750000,151305.6562500000,176706.2656250000,170009.5156250000,160004.2812500000,163286.1718750000,61776.1367187500,173996.5312500000,,,
1.4399999976,11,151208.7031250000,151311.7187500000,176711.4843750000,170014.8750000000,160008.7500000000,163287.4687500000,61778.4687500000,173997.0625000000,,,
1.4439999976,11,151213.3593750000,151314.6406250000,176719.7031250000,170018.6875000000,160016.9687500000,163292.9843750000,61782.9218750000,174002.8125000000,,,
1.4479999975,11,151209.3906250000,151309.5937500000,176717.7343750000,170020.8593750000,160017.4218750000,163291.5937500000,61778.6601562500,174003.2656250000,,,
1.4519999977,11,151205.5000000000,151304.0000000000,176713.3750000000,170014.6875000000,160014.8750000000,163291.6250000000,61773.4804687500,173998.1093750000,,,
1.4559999977,11,151205.4218750000,151302.2500000000,176711.9687500000,170025.6562500000,160011.8437500000,163293.9218750000,61772.7304687500,173991.0937500000,,,
1.4599999976,11,151210.7812500000,151309.3125000000,176718.2031250000,170030.2968750000,160015.9218750000,163299.9687500000,61774.1796875000,173994.3593750000,,,
1.4639999976,11,151204.9687500000,151306.4375000000,176712.4531250000,170019.1718750000,160010.3593750000,163297.0625000000,61766.6132812500,173997.6875000000,,,
1.4679999975,11,151195.2812500000,151303.5312500000,176702.3125000000,169996.0468750000,160002.1875000000,163293.2812500000,61765.3828125000,174000.9843750000,,,
1.4719999975,11,151189.8906250000,151302.0156250000,176695.6718750000,170004.0312500000,159995.7968750000,163288.4218750000,61760.5820312500,174000.4531250000,,,
1.4759999977,11,151194.5000000000,151307.2187500000,176699.9375000000,170016.9062500000,159998.6406250000,163291.7343750000,61765.6757812500,174001.1718750000,,,
1.4799999977,11,151194.8593750000,151309.9531250000,176699.0156250000,170020.7187500000,159998.4062500000,163292.1562500000,61766.7500000000,174002.5468750000,,,
1.4839999976,11,151190.5937500000,151305.7343750000,176697.1875000000,170006.7500000000,159997.1718750000,163288.2968750000,61766.1601562500,174005.9531250000,,,
1.4879999976,11,151190.0000000000,151307.2187500000,176699.3750000000,170003.6093750000,159999.1875000000,163290.7812500000,61769.4843750000,174011.6562500000,,,
1.4919999975,11,151183.7187500000,151298.8750000000,176694.1406250000,170000.6250000000,159992.4531250000,163283.8437500000,61763.8789062500,174003.6093750000,,,
1.4959999977,11,151186.6406250000,151301.9843750000,176695.9062500000,170013.2343750000,159991.4218750000,163286.5781250000,61764.4140625000,173998.1718750000,,,
1.4999999977,11,151189.5468750000,151303.6406250000,176698.5625000000,170014.3125000000,159993.9218750000,163289.1250000000,61766.8828125000,173995.9375000000,,,
1.5039999976,11,151190.3281250000,151300.2187500000,176700.5000000000,170019.3593750000,159996.2343750000,163288.5156250000,61767.3398437500,173994.6250000000,,,
1.5079999976,11,151193.4375000000,151299.7031250000,176705.0000000000,170024.3437500000,160001.2500000000,163290.3906250000,61769.8867187500,173995.3750000000,,,
1.5119999975,11,151187.5937500000,151292.4062500000,176698.2343750000,170011.8125000000,159994.5468750000,163286.0156250000,61763.3984375000,173988.9375000000,,,
1.5159999975,11,151190.5625000000,151296.5156250000,176701.2656250000,170014.0156250000,159996.8750000000,163290.8437500000,61770.2343750000,173985.7968750000,,,
1.5199999977,11,151191.8281250000,151302.3281250000,176699.5625000000,170028.1250000000,159995.0000000000,163294.6250000000,61773.8320312500,173985.9375000000,,,
1.5239999976,11,151185.5468750000,151297.6093750000,176692.9843750000,170025.3281250000,159989.0937500000,163291.3750000000,61769.7812500000,173984.1406250000,,,
1.5279999976,11,151173.2968750000,151287.9062500000,176682.2500000000,170005.9375000000,159979.6875000000,163280.0000000000,61757.6562500000,173977.6250000000,,,
1.5319999976,11,151175.2812500000,151292.3750000000,176685.7968750000,170001.1093750000,159982.5468750000,163280.0000000000,61757.5507812500,173978.0781250000,,,
1.5359999975,12,151172.8125000000,151289.6718750000,176685.8750000000,170005.3437500000,159980.1406250000,163275.1250000000,61758.4882812500,173971.1093750000,,,
1.5399999975,12,151174.9218750000,151291.7031250000,176689.0937500000,170004.5781250000,159982.5468750000,163276.9531250000,61769.4843750000,173970.0781250000,,,
1.5439999974,12,151176.3281250000,151293.6875000000,176689.3593750000,169999.3906250000,159984.7812500000,163278.4218750000,61768.4375000000,173976.9531250000,,,
1.5479999974,12,151168.0937500000,151280.9218750000,176680.0000000000,169992.3437500000,159978.2031250000,163271.5781250000,61759.9648437500,173975.0468750000,,,
1.5519999973,12,151168.2500000000,151277.8437500000,176680.1875000000,169995.1562500000,159977.7812500000,163268.1562500000,61759.6953125000,173972.2343750000,,,
1.5559999973,12,151176.3281250000,151285.7343750000,176687.2656250000,170006.9375000000,159983.0625000000,163271.6406250000,61766.0000000000,173973.7343750000,,,
1.5599999975,12,151181.3593750000,151291.4218750000,176690.4687500000,170011.7031250000,159986.0312500000,163275.9843750000,61767.0976562500,173973.9218750000,,,
1.5639999975,12,151182.0156250000,151289.5625000000,176692.5781250000,169998.5312500000,159990.0625000000,163277.0625000000,61767.7968750000,173979.2343750000,,,
1.5679999974,12,151182.4062500000,151290.3750000000,176693.8125000000,170000.5468750000,159990.7031250000,163279.3125000000,61766.1875000000,173984.5468750000,,,
1.5719999974,12,151193.0312500000,151302.8906250000,176704.4375000000,170017.7187500000,159999.9531250000,163289.6875000000,61774.6093750000,173997.8437500000,,,
1.5759999973,12,151188.2343750000,151299.8906250000,176700.8906250000,170013.7968750000,159995.3750000000,163284.5312500000,61771.3085937500,173992.1875000000,,,
1.5799999975,12,151181.3125000000,151295.2500000000,176697.5937500000,170005.2187500000,159989.8437500000,163281.3437500000,61770.3164062500,173986.8750000000,,,
1.5839999975,12,151178.4062500000,151296.9375000000,176694.0625000000,170012.4062500000,159986.5156250000,163285.4843750000,61769.0546875000,173993.9843750000,,,
1.5879999974,12,151174.3593750000,151293.3437500000,176688.2343750000,170022.9218750000,159981.4218750000,163286.6093750000,61763.1562500000,173996.2343750000,,,
1.5919999974,12,151171.3593750000,151288.4375000000,176684.5156250000,170010.5781250000,159977.7187500000,163283.9531250000,61761.7890625000,173990.2343750000,,,
1.5959999973,12,151178.0312500000,151294.2656250000,176688.4843750000,170014.4218750000,159981.0781250000,163288.5625000000,61768.4375000000,173989.4531250000,,,
1.5999999973,12,151182.7031250000,151293.5312500000,176691.7187500000,170012.8125000000,159984.5312500000,163286.9062500000,61771.1210937500,173982.6093750000,,,
1.6039999975,12,151182.0312500000,151289.5937500000,176691.4531250000,170003.3906250000,159986.6562500000,163285.3125000000,61769.2968750000,173980.0937500000,,,
1.6079999974,12,151177.1250000000,151280.4687500000,176687.3593750000,169993.5468750000,159984.4843750000,163276.7031250000,61766.3203125000,173976.4687500000,,,
1.6119999974,12,151179.3593750000,151279.1562500000,176690.9531250000,169991.9375000000,159987.1718750000,163273.7031250000,61770.9062500000,173975.0000000000,,,
1.6159999974,12,151183.0781250000,151285.7500000000,176693.0625000000,170004.8125000000,159987.0625000000,163276.8437500000,61771.7656250000,173975.7187500000,,,
1.6199999973,12,151183.9687500000,151288.2968750000,176694.5937500000,170014.8750000000,159988.0000000000,163277.9375000000,61772.9726562500,173973.4843750000,,,
1.6239999975,12,151185.0937500000,151291.8750000000,176698.1406250000,170013.9687500000,159991.3437500000,163281.7500000000,61774.7968750000,173982.6718750000,,,
1.6279999975,12,151177.9062500000,151285.6718750000,176692.9843750000,170006.8281250000,159986.4375000000,163275.4218750000,61764.8437500000,173984.9218750000,,,
1.6319999974,12,151170.2812500000,151280.0625000000,176685.5468750000,169998.8125000000,159977.7968750000,163271.8750000000,61755.9921875000,173980.5937500000,,,
1.6359999974,12,151171.4062500000,151282.2343750000,176685.1250000000,169996.2812500000,159975.3437500000,163273.5468750000,61755.8867187500,173976.0156250000,,,
1.6399999973,12,151175.7656250000,151289.4531250000,176685.8750000000,169994.5937500000,159975.6562500000,163278.2656250000,61760.3671875000,173978.4218750000,,,
1.6439999973,12,151180.1875000000,151294.5312500000,176690.7031250000,169998.1562500000,159980.5468750000,163281.0781250000,61767.7421875000,173986.5312500000,,,
1.6479999975,12,151176.1875000000,151284.5156250000,176688.5000000000,170006.1562500000,159979.9531250000,163272.6250000000,61766.8281250000,173982.6718750000,,,
1.6519999974,12,151173.6093750000,151279.5937500000,176681.8750000000,170009.8281250000,159975.1250000000,163270.4062500000,61760.6601562500,173976.1250000000,,,
1.6559999974,12,151181.8750000000,151287.9843750000,176687.7812500000,170021.7343750000,159980.5625000000,163275.8437500000,61765.5156250000,173976.8125000000,,,
1.6599999974,12,151183.2187500000,151287.0156250000,176689.1718750000,170019.9687500000,159982.2500000000,163276.4375000000,61769.8867187500,173973.9531250000,,,
1.6639999973,13,151184.4531250000,151286.9062500000,176693.5781250000,170018.7812500000,159986.5000000000,163275.8281250000,61773.9101562500,173974.6718750000,,,
1.6679999973,13,151180.9687500000,151283.9062500000,176694.4062500000,170011.1406250000,159986.6562500000,163272.1406250000,61770.4492187500,173973.0312500000,,,
1.6719999972,13,151181.1250000000,151284.5156250000,176697.3281250000,170015.2187500000,159989.8750000000,163273.2812500000,61768.8671875000,173973.4375000000,,,
1.6759999972,13,151188.2343750000,151293.0468750000,176705.1875000000,170026.8281250000,159998.9062500000,163283.7343750000,61776.7265625000,173976.4218750000,,,
1.6799999971,13,151182.9687500000,151290.7968750000,176700.2031250000,170022.7031250000,159994.5468750000,163282.2031250000,61772.9726562500,173973.3593750000,,,
1.6839999971,13,151178.5000000000,151290.3906250000,176696.5468750000,170000.2500000000,159992.1875000000,163282.5468750000,61774.3945312500,173976.7968750000,,,
1.6879999973,13,151178.2812500000,151294.5312500000,176697.1406250000,170015.8906250000,159993.3593750000,163286.3125000000,61778.0664062500,173986.1718750000,,,
1.6919999972,13,151174.1250000000,151291.2343750000,176692.6093750000,170017.6093750000,159988.1875000000,163284.4843750000,61774.3945312500,173986.7968750000,,,
1.6959999972,13,151168.1406250000,151285.0000000000,176685.4531250000,170008.2500000000,159978.6562500000,163281.3281250000,61768.4140625000,173978.6718750000,,,
1.6999999972,13,151167.1718750000,151285.1093750000,176682.2031250000,169993.6093750000,159974.2343750000,163279.3281250000,61766.7500000000,173974.9062500000,,,
1.7039999971,13,151167.6562500000,151284.4687500000,176682.2343750000,169999.9375000000,159973.9218750000,163276.1718750000,61768.5742187500,173975.2656250000,,,
1.7079999973,13,151166.6093750000,151282.2187500000,176680.2968750000,170002.6718750000,159972.7343750000,163277.5937500000,61766.1054687500,173978.6093750000,,,
1.7119999973,13,151171.5468750000,151285.8437500000,176684.6406250000,169999.5781250000,159977.5937500000,163280.8593750000,61766.8046875000,173982.6875000000,,,
1.7159999972,13,151174.1718750000,151285.5625000000,176687.7812500000,169988.1562500000,159981.6875000000,163282.2343750000,61767.2070312500,173977.5625000000,,,
1.7199999972,13,151165.0000000000,151274.4843750000,176675.1406250000,169991.4375000000,159971.4531250000,163275.9843750000,61757.9765625000,173965.3593750000,,,
1.7239999971,13,151161.2968750000,151267.9687500000,176673.4531250000,169992.0781250000,159969.5156250000,163271.2031250000,61758.1132812500,173960.6718750000,,,
1.7279999971,13,151164.0156250000,151267.8437500000,176679.3906250000,169994.6718750000,159975.7968750000,163271.0156250000,61764.3906250000,173962.4218750000,,,
1.7319999973,13,151160.8750000000,151263.6562500000,176676.3281250000,169992.9375000000,159972.8437500000,163267.0468750000,61760.4179687500,173957.2187500000,,,
1.7359999972,13,151169.4218750000,151271.8593750000,176685.5000000000,169995.0781250000,159979.5156250000,163272.6875000000,61765.6484375000,173958.6875000000,,,
1.7399999972,13,151167.9531250000,151272.2031250000,176685.2031250000,169993.2343750000,159977.2343750000,163272.5468750000,61763.2890625000,173956.7500000000,,,
1.7439999972,13,151166.8593750000,151275.9375000000,176682.8750000000,169995.9843750000,159975.8125000000,163272.4218750000,61760.2851562500,173964.7500000000,,,
1.7479999971,13,151171.7656250000,151282.3281250000,176689.9062500000,170002.1093750000,159981.1875000000,163275.3125000000,61759.0234375000,173977.1718750000,,,
1.7519999973,13,151167.5468750000,151281.6250000000,176682.6093750000,170000.6093750000,159972.3125000000,163274.5000000000,61752.9101562500,173977.1875000000,,,
1.7559999973,13,151168.6250000000,151285.8906250000,176681.0468750000,170007.6562500000,159967.2968750000,163277.1562500000,61754.9492187500,173975.7187500000,,,
1.7599999972,13,151168.5625000000,151285.6562500000,176678.9531250000,170005.0312500000,159963.2968750000,163275.0937500000,61751.3281250000,173973.6250000000,,,
1.7639999972,13,151176.1875000000,151294.9843750000,176686.4062500000,170012.5625000000,159971.9531250000,163282.7968750000,61758.9453125000,173986.4218750000,,,
1.7679999971,13,151178.6562500000,151296.9375000000,176688.5625000000,170023.3281250000,159978.5312500000,163285.7500000000,61761.7070312500,173994.9531250000,,,
1.7719999971,13,151179.6718750000,151295.0156250000,176687.7031250000,170009.7968750000,159981.4218750000,163287.0937500000,61761.8945312500,173997.9218750000,,,
1.7759999973,13,151184.6093750000,151294.7343750000,176691.4218750000,169993.8437500000,159987.6406250000,163289.1562500000,61767.1796875000,173995.4375000000,,,
1.7799999972,13,151190.7500000000,151298.4375000000,176698.7031250000,170007.4218750000,159995.7500000000,163289.7656250000,61772.5156250000,173996.0156250000,,,
1.7839999972,13,151191.7187500000,151298.5000000000,176703.3593750000,169995.6875000000,160001.4062500000,163290.8750000000,61776.2460937500,173999.4218750000,,,
1.7879999971,13,151194.0781250000,151298.8437500000,176711.1718750000,169996.5312500000,160008.3750000000,163294.8125000000,61783.2968750000,174005.0937500000,,,
1.7919999971,14,151191.4687500000,151295.8906250000,176707.8437500000,169991.6406250000,160004.7656250000,163294.0625000000,61780.9375000000,174003.2656250000,,,
1.7959999971,14,151187.1250000000,151286.9062500000,176705.1406250000,169993.8437500000,159999.7187500000,163286.0937500000,61775.1445312500,173989.8281250000,,,
1.7999999970,14,151194.5000000000,151291.7656250000,176713.3125000000,170005.0781250000,160005.0000000000,163287.3750000000,61779.3281250000,173986.3125000000,,,
1.8039999970,14,151197.9687500000,151297.1250000000,176717.2812500000,170017.2031250000,160007.7968750000,163287.3750000000,61780.1054687500,173993.8281250000,,,
1.8079999969,14,151192.8750000000,151291.5781250000,176712.1093750000,170016.0468750000,160003.4218750000,163283.0312500000,61771.5234375000,173995.7031250000,,,
1.8119999969,14,151195.2812500000,151294.9218750000,176712.6250000000,170014.2812500000,160003.9531250000,163285.5781250000,61773.1054687500,173996.9375000000,,,
1.8159999971,14,151193.5156250000,151296.5312500000,176704.6562500000,170005.1093750000,159996.8281250000,163287.1718750000,61775.4140625000,173994.0312500000,,,
1.8199999970,14,151191.7500000000,151296.1562500000,176699.5625000000,170000.3906250000,159992.0000000000,163290.2187500000,61777.1562500000,173989.5781250000,,,
1.8239999970,14,151189.0625000000,151296.3437500000,176696.7968750000,169996.5000000000,159989.7187500000,163293.0625000000,61776.0039062500,173992.8906250000,,,
1.8279999970,14,151187.5937500000,151298.4375000000,176695.5312500000,170001.6718750000,159988.8593750000,163295.4062500000,61773.0273437500,174000.1250000000,,,
1.8319999969,14,151183.6250000000,151294.7187500000,176691.0000000000,170013.2968750000,159984.1406250000,163289.3125000000,61765.7304687500,173997.2812500000,,,
1.8359999971,14,151184.9843750000,151294.1718750000,176694.2656250000,170018.7812500000,159985.8750000000,163283.0312500000,61765.3281250000,173990.5312500000,,,
1.8399999971,14,151189.6562500000,151295.7343750000,176700.8906250000,170017.1250000000,159990.9687500000,163278.9531250000,61768.0625000000,173986.3125000000,,,
1.8439999970,14,151185.6875000000,151290.7187500000,176699.2812500000,170003.7656250000,159989.5312500000,163276.2500000000,61768.7070312500,173984.8437500000,,,
1.8479999970,14,151185.0937500000,151290.2031250000,176698.2656250000,170012.0781250000,159989.7187500000,163277.3750000000,61766.8828125000,173989.2968750000,,,
1.8519999969,14,151191.3437500000,151297.3437500000,176704.9687500000,170027.2187500000,159993.9531250000,163284.6406250000,61768.9492187500,173996.4843750000,,,
1.8559999969,14,151192.2031250000,151298.4218750000,176709.0468750000,170028.5781250000,159994.7500000000,163282.9218750000,61766.8281250000,173992.7031250000,,,
1.8599999971,14,151189.5937500000,151296.6718750000,176706.7500000000,170009.2968750000,159993.1718750000,163279.3906250000,61763.9335937500,173986.9843750000,,,
1.8639999970,14,151186.5625000000,151291.0937500000,176704.5156250000,170008.3750000000,159992.2656250000,163275.6093750000,61764.1210937500,173985.4843750000,,,
1.8679999970,14,151192.5000000000,151297.6406250000,176709.5312500000,170015.3593750000,159999.6093750000,163284.2500000000,61773.6406250000,173996.3906250000,,,
1.8719999969,14,151195.4218750000,151299.9375000000,176711.3281250000,170021.3125000000,160003.6562500000,163289.9062500000,61777.6132812500,174003.1875000000,,,
1.8759999969,14,151193.2187500000,151295.6250000000,176707.5156250000,170006.3437500000,159999.9531250000,163288.6406250000,61776.4570312500,173998.7656250000,,,
1.8799999971,14,151198.2656250000,151296.9375000000,176714.0937500000,170001.7812500000,160005.3437500000,163291.8125000000,61783.8632812500,173998.8125000000,,,
1.8839999971,14,151194.8750000000,151292.4843750000,176711.8906250000,170003.4218750000,160004.0937500000,163288.7187500000,61784.1015625000,173998.2500000000,,,
1.8879999970,14,151196.7031250000,151291.3125000000,176714.4375000000,170014.2812500000,160008.6562500000,163287.9687500000,61787.9101562500,174001.1718750000,,,
1.8919999970,14,151203.7031250000,151296.0000000000,176719.2656250000,170017.5781250000,160014.7343750000,163292.8593750000,61791.6953125000,174003.8750000000,,,
1.8959999969,14,151199.2500000000,151290.5312500000,176714.3281250000,170008.8437500000,160009.4218750000,163288.4843750000,61785.7382812500,173993.9375000000,,,
1.8999999969,14,151198.1875000000,151288.4062500000,176714.1250000000,170009.4218750000,160006.3906250000,163283.5468750000,61781.2851562500,173982.5625000000,,,
1.9039999971,14,151200.1718750000,151292.7343750000,176713.9375000000,170016.7968750000,160005.7031250000,163282.9531250000,61773.4531250000,173986.5781250000,,,
1.9079999970,14,151199.3906250000,151294.1562500000,176716.8593750000,170017.5781250000,160007.1406250000,163281.8281250000,61779.5703125000,173993.0937500000,,,
1.9119999970,14,151190.9375000000,151290.0000000000,176708.7500000000,170010.0156250000,159999.1250000000,163275.7656250000,61781.3398437500,173988.5156250000,,,
1.9159999969,14,151189.0937500000,151292.5156250000,176702.4062500000,170009.4531250000,159991.5312500000,163274.9062500000,61776.2187500000,173983.6875000000,,,
1.9199999969,15,151189.2968750000,151298.7343750000,176698.0468750000,170008.7500000000,159985.1250000000,163280.9218750000,61771.7656250000,173984.7500000000,,,
1.9239999969,15,151195.4687500000,151310.4375000000,176700.5000000000,170024.9062500000,159986.5468750000,163293.2812500000,61774.3125000000,173998.8593750000,,,
1.9279999968,15,151194.8281250000,151311.7187500000,176700.4375000000,170027.2656250000,159987.3281250000,163296.3750000000,61773.5351562500,174007.9531250000,,,
1.9319999968,15,151194.8750000000,151315.4218750000,176703.5468750000,170007.5000000000,159992.0781250000,163302.2343750000,61778.7382812500,174013.7500000000,,,
1.9359999967,15,151202.2343750000,151317.4375000000,176712.5625000000,170009.1093750000,160002.0781250000,163303.3437500000,61787.0273437500,174013.4062500000,,,
1.9399999967,15,151195.5781250000,151304.4531250000,176705.2656250000,170005.1875000000,159996.4687500000,163292.1250000000,61780.5625000000,174001.2031250000,,,
1.9439999969,15,151196.2187500000,151303.1093750000,176707.4687500000,169998.4843750000,159999.7187500000,163290.3906250000,61781.5820312500,174003.1250000000,,,
1.9479999968,15,151195.0937500000,151299.7500000000,176709.9062500000,170000.2500000000,160003.8750000000,163286.2031250000,61783.2968750000,174005.2968750000,,,
1.9519999968,15,151190.0468750000,151291.3906250000,176707.2812500000,170010.2343750000,160001.6718750000,163277.0781250000,61776.4062500000,173997.3593750000,,,
1.9559999967,15,151188.8437500000,151290.9062500000,176705.1406250000,170016.9062500000,159999.5781250000,163278.7656250000,61769.5117187500,173989.7968750000,,,
1.9599999967,15,151190.5156250000,151293.5312500000,176707.8437500000,170013.5000000000,160001.7812500000,163284.4843750000,61772.5703125000,173988.9687500000,,,
1.9639999969,15,151188.3125000000,151290.5000000000,176706.9531250000,170000.3906250000,160002.3125000000,163283.4687500000,61775.3867187500,173992.4218750000,,,
1.9679999969,15,151183.7187500000,151286.3750000000,176701.3593750000,169995.8281250000,159998.2968750000,163283.2031250000,61777.1289062500,173998.0937500000,,,
1.9719999968,15,151186.2500000000,151287.1562500000,176703.7968750000,170005.1562500000,159997.8437500000,163289.0468750000,61779.5703125000,174001.3906250000,,,
1.9759999968,15,151200.1093750000,151300.7812500000,176718.3906250000,170016.9062500000,160009.1875000000,163303.7968750000,61791.0781250000,174008.6250000000,,,
1.9799999967,15,151194.8593750000,151287.1562500000,176713.1875000000,170001.5468750000,160002.8593750000,163295.7500000000,61786.3281250000,173997.2031250000,,,
1.9839999967,15,151191.0000000000,151282.4531250000,176704.3593750000,169994.6562500000,159996.2031250000,163292.1250000000,61779.9726562500,173993.4218750000,,,
1.9879999969,15,151187.4531250000,151280.1718750000,176699.0781250000,169997.3906250000,159995.1093750000,163290.4687500000,61777.8007812500,173994.6562500000,,,
1.9919999968,15,151185.5156250000,151278.5625000000,176698.1562500000,170001.8593750000,159995.4843750000,163290.2031250000,61779.5703125000,173991.0312500000,,,
1.9959999968,15,151184.9062500000,151281.2031250000,176699.4218750000,170010.8437500000,159995.3750000000,163289.4218750000,61778.0664062500,173984.0312500000,,,
1.9999999967,15,151185.1250000000,151283.8437500000,176701.8281250000,170002.1250000000,159996.5312500000,163288.1562500000,61776.0546875000,173979.3437500000,,,
2.0039999967,15,151182.8125000000,151282.7187500000,176703.2812500000,169997.7812500000,159997.3593750000,163285.3906250000,61776.9687500000,173978.2656250000,,,
2.0079999969,15,151179.1406250000,151280.2500000000,176699.2812500000,170008.2812500000,159993.0937500000,163281.0468750000,61770.3984375000,173978.3750000000,,,
2.0119999968,15,151178.0312500000,151278.8281250000,176696.5781250000,170005.7812500000,159990.5468750000,163280.1875000000,61765.3281250000,173977.1718750000,,,
2.0159999968,15,151182.1406250000,151283.3437500000,176699.6406250000,170007.3125000000,159992.0937500000,163283.5937500000,61764.6015625000,173975.7500000000,,,
2.0199999968,15,151186.6406250000,151286.6875000000,176702.9375000000,170012.7343750000,159994.9218750000,163287.6718750000,61768.4140625000,173975.5625000000,,,
2.0239999967,15,151185.4687500000,151281.7812500000,176703.5312500000,170010.6093750000,159995.3437500000,163286.8750000000,61775.8164062500,173976.8750000000,,,
2.0279999967,15,151179.7500000000,151276.0468750000,176697.7343750000,170007.1718750000,159990.6250000000,163283.4687500000,61772.2460937500,173979.0156250000,,,
2.0319999969,15,151173.9687500000,151272.5625000000,176690.8437500000,170005.3437500000,159983.0312500000,163277.7187500000,61765.3554687500,173978.6406250000,,,
2.0359999968,15,151167.6093750000,151268.7968750000,176683.2812500000,169995.1875000000,159976.3281250000,163272.6562500000,61762.1367187500,173971.3437500000,,,
2.0399999968,15,151171.0312500000,151274.9687500000,176684.7812500000,170009.3750000000,159977.7968750000,163276.2187500000,61768.1992187500,173974.0312500000,,,
2.0439999967,15,151179.0000000000,151286.5000000000,176689.4218750000,170032.0625000000,159983.0625000000,163282.9531250000,61773.0507812500,173985.2187500000,,,
2.0479999967,16,151180.0468750000,151285.8437500000,176690.7343750000,170013.1562500000,159985.2343750000,163283.5468750000,61773.0507812500,173993.1562500000,,,
2.0519999966,16,151180.5937500000,151285.0312500000,176694.3281250000,170005.5312500000,159988.9843750000,163285.3750000000,61773.7773437500,173996.5000000000,,,
2.0559999966,16,151190.4375000000,151293.7812500000,176704.7812500000,170016.9062500000,159998.5625000000,163292.7500000000,61779.8906250000,174001.5468750000,,,
2.0599999966,16,151190.5312500000,151293.5937500000,176705.1875000000,170005.7812500000,160000.7031250000,163296.0156250000,61778.7382812500,173999.2343750000,,,
2.0639999965,16,151182.8906250000,151282.5937500000,176700.8125000000,169990.5937500000,159998.3750000000,163284.3437500000,61774.4218750000,173991.8593750000,,,
2.0679999965,16,151181.0625000000,151277.1406250000,176703.5781250000,169991.1406250000,160002.7500000000,163278.5000000000,61776.3242187500,173990.3593750000,,,
2.0719999967,16,151185.2500000000,151279.1562500000,176711.1718750000,169998.2656250000,160011.3906250000,163280.5937500000,61782.2265625000,173992.9843750000,,,
2.0759999966,16,151188.7343750000,151282.0781250000,176717.5312500000,170007.0468750000,160016.4218750000,163284.7500000000,61791.3710937500,173991.1875000000,,,
2.0799999966,16,151188.6093750000,151281.4843750000,176716.2343750000,170011.8906250000,160013.3906250000,163281.6093750000,61794.1093750000,173985.2968750000,,,
2.0839999965,16,151184.2812500000,151277.7343750000,176711.5781250000,170007.6093750000,160007.8750000000,163273.6562500000,61793.3828125000,173980.3906250000,,,
2.0879999965,16,151182.2812500000,151275.1562500000,176708.2656250000,170011.5781250000,160004.3593750000,163272.8750000000,61790.9140625000,173979.7343750000,,,
2.0919999967,16,151190.2187500000,151284.6093750000,176714.7968750000,170020.8593750000,160008.5156250000,163279.2812500000,61793.0625000000,173986.0781250000,,,
2.0959999966,16,151190.8125000000,151290.3125000000,176710.3593750000,170008.9687500000,160003.7656250000,163282.0156250000,61787.9648437500,173986.1718750000,,,
2.0999999966,16,151195.8437500000,151298.6093750000,176711.5156250000,170010.0781250000,160004.7656250000,163284.8593750000,61787.4023437500,173988.3281250000,,,
2.1039999966,16,151197.9062500000,151304.2031250000,176711.0312500000,170012.6406250000,160005.2500000000,163288.9062500000,61787.4296875000,173993.8281250000,,,
2.1079999965,16,151195.1562500000,151302.9218750000,176711.5937500000,170007.5468750000,160006.1875000000,163288.9375000000,61788.2617187500,173998.2968750000,,,
2.1119999965,16,151185.7031250000,151297.4843750000,176699.1250000000,170005.6406250000,159995.1250000000,163285.0468750000,61774.2851562500,173994.9531250000,,,
2.1159999967,16,151189.3593750000,151301.4687500000,176701.7812500000,170017.4218750000,159996.1562500000,163289.4687500000,61778.4179687500,173994.2031250000,,,
2.1199999966,16,151191.7500000000,151299.7812500000,176707.7968750000,170022.7656250000,160000.1718750000,163289.8750000000,61790.4609375000,173990.9531250000,,,
2.1239999966,16,151194.6093750000,151298.6250000000,176712.4062500000,170033.5937500000,160004.8750000000,163290.6250000000,61797.8085937500,173994.2031250000,,,
2.1279999965,16,151186.6250000000,151289.9375000000,176707.2500000000,170018.7656250000,160000.7968750000,163288.7031250000,61795.7695312500,173994.4687500000,,,
2.1319999965,16,151183.2343750000,151285.6250000000,176704.3281250000,170008.2500000000,159997.7343750000,163288.9843750000,61793.3554687500,173993.5312500000,,,
2.1359999967,16,151192.7968750000,151291.8437500000,176715.7500000000,170019.1718750000,160006.8281250000,163294.5468750000,61799.7929687500,173995.4843750000,,,
2.1399999966,16,151194.5625000000,151293.5312500000,176712.5156250000,170014.7187500000,160004.0625000000,163294.8593750000,61796.1718750000,173993.4218750000,,,
2.1439999966,16,151191.7500000000,151291.1718750000,176712.6406250000,169995.4843750000,160004.5156250000,163291.5468750000,61796.3867187500,173994.4687500000,,,
2.1479999966,16,151191.3906250000,151293.0000000000,176715.4062500000,170002.2343750000,160006.7187500000,163294.4687500000,61793.9218750000,174002.0625000000,,,
2.1519999965,16,151185.7343750000,151284.6875000000,176710.7187500000,170001.0312500000,160001.9375000000,163294.5156250000,61785.0429687500,174000.9531250000,,,
2.1559999965,16,151187.2343750000,151281.8125000000,176712.2968750000,170007.9531250000,160002.6093750000,163294.5156250000,61788.5820312500,173992.7812500000,,,
2.1599999967,16,151190.5156250000,151282.5937500000,176716.9843750000,170013.3437500000,160006.3125000000,163291.9687500000,61798.5859375000,173987.3125000000,,,
2.1639999966,16,151191.4218750000,151282.6250000000,176717.3437500000,170012.2656250000,160007.5781250000,163291.9218750000,61802.7460937500,173988.7500000000,,,
2.1679999966,16,151192.6093750000,151283.5312500000,176720.0156250000,170013.3437500000,160011.4687500000,163290.6562500000,61804.3007812500,173993.9531250000,,,
2.1719999965,16,151190.6406250000,151279.2187500000,176716.7968750000,170015.9531250000,160009.5937500000,163286.0625000000,61799.1757812500,173991.3750000000,,,
2.1759999965,17,151192.2812500000,151280.9218750000,176714.3281250000,170017.1718750000,160006.8593750000,163286.2343750000,61798.0781250000,173989.3750000000,,,
2.1799999964,17,151198.1562500000,151294.3125000000,176715.4843750000,170029.5781250000,160007.0625000000,163293.8437500000,61800.7851562500,173996.7500000000,,,
2.1839999964,17,151197.0000000000,151298.8437500000,176712.5156250000,170020.2656250000,160004.8125000000,163296.9375000000,61799.0429687500,174004.2812500000,,,
2.1879999964,17,151192.7031250000,151298.5468750000,176708.7343750000,170003.1718750000,160002.4218750000,163295.7500000000,61795.5820312500,174012.5781250000,,,
2.1919999963,17,151186.9218750000,151294.8437500000,176703.6562500000,170006.3125000000,159998.2187500000,163289.1250000000,61790.6757812500,174012.2187500000,,,
2.1959999963,17,151189.5937500000,151297.6875000000,176706.4531250000,170018.8437500000,160000.9843750000,163290.0625000000,61793.8125000000,174008.8437500000,,,
2.1999999965,17,151187.9843750000,151295.3281250000,176705.4531250000,170000.0625000000,159999.1875000000,163288.9062500000,61794.4843750000,174000.7656250000,,,
2.2039999964,17,151189.7812500000,151294.2031250000,176705.3437500000,170008.8906250000,159997.9687500000,163287.5156250000,61794.6718750000,173998.3593750000,,,
2.2079999964,17,151192.6093750000,151297.9062500000,176706.8437500000,170005.9218750000,159998.1875000000,163288.7500000000,61796.7382812500,174002.4062500000,,,
2.2119999963,17,151192.2343750000,151299.4687500000,176706.0781250000,170009.5156250000,159996.5000000000,163293.2812500000,61793.7851562500,174005.9687500000,,,
2.2159999963,17,151186.0625000000,151289.1875000000,176697.3281250000,170019.5156250000,159987.9375000000,163290.4375000000,61785.3359375000,173994.6250000000,,,
2.2199999965,17,151189.7031250000,151292.8125000000,176702.4843750000,170018.6250000000,159991.7500000000,163295.4218750000,61790.6484375000,173993.5625000000,,,
2.2239999964,17,151184.1875000000,151289.7031250000,176695.8750000000,170006.7187500000,159987.8906250000,163297.3593750000,61783.7265625000,173997.2343750000,,,
2.2279999964,17,151177.0468750000,151285.0000000000,176690.6250000000,169993.3281250000,159986.5468750000,163298.8125000000,61780.7773437500,174001.2500000000,,,
2.2319999964,17,151170.9375000000,151279.5000000000,176688.3125000000,169994.4062500000,159984.7812500000,163295.3437500000,61778.5234375000,173996.9687500000,,,
2.2359999963,17,151171.8125000000,151279.1093750000,176691.5312500000,169989.1562500000,159986.3906250000,163292.8750000000,61780.1601562500,173993.0468750000,,,
2.2399999963,17,151175.0625000000,151283.9531250000,176695.2343750000,169987.5156250000,159988.1250000000,163295.5625000000,61784.9882812500,173993.2031250000,,,
2.2439999965,17,151179.5625000000,151284.5468750000,176698.4218750000,169998.8593750000,159992.6562500000,163298.4843750000,61788.3125000000,173993.6406250000,,,
2.2479999964,17,151180.0000000000,151278.8281250000,176700.5000000000,170002.5312500000,159994.8593750000,163297.8125000000,61790.1640625000,173992.0468750000,,,
2.2519999964,17,151180.4218750000,151275.2968750000,176700.7031250000,170001.5937500000,159995.4062500000,163293.7656250000,61790.5390625000,173989.1875000000,,,
2.2559999963,17,151178.6875000000,151270.2500000000,176699.6406250000,170003.6406250000,159994.8906250000,163289.8437500000,61792.9531250000,173979.8437500000,,,
2.2599999963,17,151184.6406250000,151277.0937500000,176705.4843750000,170011.8906250000,160001.4843750000,163295.6718750000,61799.2851562500,173978.9843750000,,,
2.2639999965,17,151185.0625000000,151280.6093750000,176707.7343750000,170007.9843750000,160004.2187500000,163299.3125000000,61798.1562500000,173984.2187500000,,,
2.2679999964,17,151185.3281250000,151283.4687500000,176708.3281250000,170013.5625000000,160005.6406250000,163300.8437500000,61797.5429687500,173993.9531250000,,,
2.2719999964,17,151182.7031250000,151286.9062500000,176701.9218750000,170015.1875000000,160000.7031250000,163299.6718750000,61792.7148437500,173997.6875000000,,,
2.2759999963,17,151181.8750000000,151286.4843750000,176698.2343750000,170013.5000000000,159996.4218750000,163298.1093750000,61790.1367187500,173993.3750000000,,,
2.2799999963,17,151188.3125000000,151291.5468750000,176704.7656250000,170017.8750000000,160001.5156250000,163301.2968750000,61797.9960937500,173995.3593750000,,,
2.2839999963,17,151194.6875000000,151296.7031250000,176709.9375000000,170019.5468750000,160006.5625000000,163305.1406250000,61804.6210937500,174004.1562500000,,,
2.2879999964,17,151197.9062500000,151300.5937500000,176712.0312500000,170018.8906250000,160009.5000000000,163306.1250000000,61800.8945312500,174013.6406250000,,,
2.2919999964,17,151201.3125000000,151308.1562500000,176712.2187500000,170016.5625000000,160010.4531250000,163313.3750000000,61799.3398437500,174022.6093750000,,,
2.2959999964,17,151196.2031250000,151302.5156250000,176708.7343750000,170017.4531250000,160005.5312500000,163312.1718750000,61803.3632812500,174016.6718750000,,,
2.2999999963,17,151191.3750000000,151297.7968750000,176704.6250000000,170003.6875000000,160001.3593750000,163310.6875000000,61803.6289062500,174009.0312500000,,,
2.3039999963,18,151182.1406250000,151291.7656250000,176689.9531250000,170006.2968750000,159990.3906250000,163307.6406250000,61792.1484375000,174004.6250000000,,,
2.3079999962,18,151183.5625000000,151293.6093750000,176692.4531250000,170011.0625000000,159995.1093750000,163310.3125000000,61795.6640625000,174011.3906250000,,,
2.3119999962,18,151182.2968750000,151293.3437500000,176692.6406250000,170024.3906250000,159995.7812500000,163310.5000000000,61794.9921875000,174012.7343750000,,,
2.3159999961,18,151176.5156250000,151288.2187500000,176687.6250000000,170020.7968750000,159989.2812500000,163306.2968750000,61785.9804687500,174003.6093750000,,,
2.3199999961,18,151171.8437500000,151277.6562500000,176687.4062500000,170004.2187500000,159985.7187500000,163295.4218750000,61779.3554687500,173990.7187500000,,,
2.3239999961,18,151170.6562500000,151273.8125000000,176689.6250000000,170003.4531250000,159984.9062500000,163293.6562500000,61777.2109375000,173987.6875000000,,,
2.3279999963,18,151168.0000000000,151269.4531250000,176689.3437500000,170001.1875000000,159983.5937500000,163295.0781250000,61776.5390625000,173988.2968750000,,,
2.3319999962,18,151173.9062500000,151272.2031250000,176696.3125000000,170005.3750000000,159990.0625000000,163300.3125000000,61781.2851562500,173991.3281250000,,,
2.3359999962,18,151176.6406250000,151271.0781250000,176700.5468750000,170000.6093750000,159993.2343750000,163299.8593750000,61784.3710937500,173987.0312500000,,,
2.3399999961,18,151182.1406250000,151276.1562500000,176707.6093750000,169998.5937500000,159998.0468750000,163304.0937500000,61791.5859375000,173982.7500000000,,,
2.3439999961,18,151184.5000000000,151277.7656250000,176711.3281250000,169996.5781250000,160001.9218750000,163306.4531250000,61797.1914062500,173984.4062500000,,,
2.3479999963,18,151183.8281250000,151277.7656250000,176710.0625000000,169998.8281250000,160002.5937500000,163307.5468750000,61798.8554687500,173986.7656250000,,,
2.3519999962,18,151167.3906250000,151262.1562500000,176690.2812500000,169993.8437500000,159985.1875000000,163292.7968750000,61783.0039062500,173973.0312500000,,,
2.3559999962,18,151167.9531250000,151265.5625000000,176690.3593750000,170001.6250000000,159983.4687500000,163292.2031250000,61781.3945312500,173972.2343750000,,,
2.3599999961,18,151176.2343750000,151275.5937500000,176697.0000000000,170007.9218750000,159988.5000000000,163296.0468750000,61787.0546875000,173977.1093750000,,,
2.3639999961,18,151179.7500000000,151276.8281250000,176702.3125000000,170015.5468750000,159993.7343750000,163292.0000000000,61789.5468750000,173980.8437500000,,,
2.3679999961,18,151181.5000000000,151277.7031250000,176704.8593750000,170017.9375000000,159997.8437500000,163288.1562500000,61788.7421875000,173988.7343750000,,,
2.3719999962,18,151187.6875000000,151285.7500000000,176710.9843750000,170014.5000000000,160004.7343750000,163288.4218750000,61794.5898437500,173997.2500000000,,,
2.3759999962,18,151197.9687500000,151299.5625000000,176720.8750000000,170004.1250000000,160014.6562500000,163297.6250000000,61808.0820312500,174005.8437500000,,,
2.3799999962,18,151193.6718750000,151298.5781250000,176710.4687500000,170014.1562500000,160005.9375000000,163298.2500000000,61803.3085937500,174004.5312500000,,,
2.3839999961,18,151189.7812500000,151296.9375000000,176705.0312500000,170017.1562500000,160002.0468750000,163300.2812500000,61802.5585937500,174006.9375000000,,,
2.3879999961,18,151184.9062500000,151295.2500000000,176702.2968750000,170003.5000000000,160000.7343750000,163304.0937500000,61801.5390625000,174013.7812500000,,,
2.3919999963,18,151182.6718750000,151295.5156250000,176697.4687500000,170000.6875000000,159997.4375000000,163306.7968750000,61798.5585937500,174016.6562500000,,,
2.3959999962,18,151183.9687500000,151296.4843750000,176694.2656250000,170000.8125000000,159994.8906250000,163308.2968750000,61797.7031250000,174015.6250000000,,,
2.3999999962,18,151194.7812500000,151305.2343750000,176703.8750000000,170010.7187500000,160003.4218750000,163316.3281250000,61806.5000000000,174017.9375000000,,,
2.4039999961,18,151198.6406250000,151305.1406250000,176711.2968750000,170010.1562500000,160009.3125000000,163316.4375000000,61810.7656250000,174019.5468750000,,,
2.4079999961,18,151191.6562500000,151295.9531250000,176707.0937500000,169998.8281250000,160005.4062500000,163311.5000000000,61805.4531250000,174015.4218750000,,,
2.4119999961,18,151186.6718750000,151285.3281250000,176704.5781250000,169990.2968750000,160002.5312500000,163302.8125000000,61801.8320312500,174007.4218750000,,,
2.4159999962,18,151186.6250000000,151283.8750000000,176704.0156250000,169997.5468750000,160001.0625000000,163300.0468750000,61802.6914062500,174000.8437500000,,,
2.4199999962,18,151183.4531250000,151279.2656250000,176700.6562500000,170007.9062500000,159995.2968750000,163297.3906250000,61799.7656250000,173992.4218750000,,,
2.4239999962,18,151177.7656250000,151271.1406250000,176699.0156250000,170011.9687500000,159992.1250000000,163289.2812500000,61797.1406250000,173985.6406250000,,,
2.4279999961,18,151175.8125000000,151267.9687500000,176699.1562500000,170003.2031250000,159993.0156250000,163287.7812500000,61794.6445312500,173987.0312500000,,,
2.4319999961,19,151173.3750000000,151267.1406250000,176696.9531250000,170001.4687500000,159989.9218750000,163288.8281250000,61790.6757812500,173987.0937500000,,,
2.4359999960,19,151175.9687500000,151268.6406250000,176701.6406250000,170012.5156250000,159993.7343750000,163292.6093750000,61792.5781250000,173984.2500000000,,,
2.4399999960,19,151181.6875000000,151273.1250000000,176708.6250000000,170022.2187500000,160000.0625000000,163294.3750000000,61794.6445312500,173981.8906250000,,,
2.4439999959,19,151175.3906250000,151270.8906250000,176700.5468750000,170004.5000000000,159993.2343750000,163292.0468750000,61790.8906250000,173979.7656250000,,,
2.4479999959,19,151169.3437500000,151270.3281250000,176691.8281250000,169995.8281250000,159986.6562500000,163288.6406250000,61788.3398437500,173984.6718750000,,,
2.4519999959,19,151175.3281250000,151282.1562500000,176696.0937500000,169995.6093750000,159992.6406250000,163293.7343750000,61795.5039062500,173998.2968750000,,,
2.4559999960,19,151176.7500000000,151286.1562500000,176693.9218750000,169996.5781250000,159991.9375000000,163298.0312500000,61798.7460937500,174001.1718750000,,,
2.4599999960,19,151169.5625000000,151281.2031250000,176683.1875000000,169992.8281250000,159980.6250000000,163292.7500000000,61790.5937500000,173992.2968750000,,,
2.4639999960,19,151173.9843750000,151286.2656250000,176687.8906250000,170000.2500000000,159984.8906250000,163293.1718750000,61792.2578125000,173996.3750000000,,,
2.4679999959,19,151181.3437500000,151290.9531250000,176697.6250000000,170012.4843750000,159994.4062500000,163296.2031250000,61800.6250000000,174004.5781250000,,,
2.4719999959,19,151181.0625000000,151292.2500000000,176696.5468750000,170003.2812500000,159994.0312500000,163296.6875000000,61800.6796875000,174006.8281250000,,,
2.4759999961,19,151180.8593750000,151295.3593750000,176689.7968750000,170008.2968750000,159988.5625000000,163299.5937500000,61793.4375000000,174006.2187500000,,,
2.4799999960,19,151181.8125000000,151294.2031250000,176690.0937500000,170005.4531250000,159988.7187500000,163299.2968750000,61793.7070312500,174001.5156250000,,,
2.4839999960,19,151180.0781250000,151288.9218750000,176689.6250000000,170010.9531250000,159989.3906250000,163298.2968750000,61791.2382812500,173998.1093750000,,,
2.4879999959,19,151188.6406250000,151296.5312500000,176700.0937500000,170005.7343750000,160001.1718750000,163309.1562500000,61795.9843750000,174010.2343750000,,,
2.4919999959,19,151183.7031250000,151290.6093750000,176695.7968750000,169997.1093750000,159998.5312500000,163308.3593750000,61798.2656250000,174010.8281250000,,,
2.4959999959,19,151180.8593750000,151282.8281250000,176694.5937500000,170001.2187500000,159996.0156250000,163301.8593750000,61803.4414062500,174001.2187500000,,,
2.4999999960,19,151188.9218750000,151287.5781250000,176704.1093750000,170015.9687500000,160003.0156250000,163304.7656250000,61807.4375000000,174000.3906250000,,,
2.5039999960,19,151188.3125000000,151285.8906250000,176706.4687500000,170008.7031250000,160005.1562500000,163309.4843750000,61808.9140625000,174001.4687500000,,,
2.5079999960,19,151189.3906250000,151285.2656250000,176710.3125000000,170008.1093750000,160009.8593750000,163309.3437500000,61812.0234375000,174004.9062500000,,,
2.5119999959,19,151194.0468750000,151285.7031250000,176717.0468750000,170013.7500000000,160015.2812500000,163307.3593750000,61813.6875000000,174006.2343750000,,,
2.5159999959,19,151196.8437500000,151288.7031250000,176719.7500000000,170011.0156250000,160016.9375000000,163307.6093750000,61813.3398437500,174002.3281250000,,,
2.5199999961,19,151194.5312500000,151284.0937500000,176720.6093750000,170016.5156250000,160016.8281250000,163302.0781250000,61814.4140625000,173990.7187500000,,,
2.5239999960,19,151189.7812500000,151281.2031250000,176715.0312500000,170022.2968750000,160011.5156250000,163298.2968750000,61809.7460937500,173986.2031250000,,,
2.5279999960,19,151187.6406250000,151280.6093750000,176714.5781250000,170010.0468750000,160013.2031250000,163299.6875000000,61811.9179687500,173992.5937500000,,,
2.5319999959,19,151182.8125000000,151272.3906250000,176714.0625000000,170003.2812500000,160012.9218750000,163294.9218750000,61811.4882812500,173989.7500000000,,,
2.5359999959,19,151180.6093750000,151273.5000000000,176709.8593750000,170004.1406250000,160007.8437500000,163293.8750000000,61808.7539062500,173985.3750000000,,,
2.5399999958,19,151189.0625000000,151287.0625000000,176716.3750000000,170017.0468750000,160013.0781250000,163301.0625000000,61812.5351562500,173989.8750000000,,,
2.5439999960,19,151191.9843750000,151294.8437500000,176717.0156250000,170017.0156250000,160015.1093750000,163308.2968750000,61812.8828125000,173996.4531250000,,,
2.5479999960,19,151181.9062500000,151285.1093750000,176704.4843750000,170012.8593750000,160005.8281250000,163301.9218750000,61804.7304687500,173998.1093750000,,,
2.5519999960,19,151173.5781250000,151277.7656250000,176694.9687500000,170009.0781250000,159998.4843750000,163295.3281250000,61797.2187500000,173996.2343750000,,,
2.5559999959,19,151175.8437500000,151282.8906250000,176697.0937500000,169993.1718750000,160000.7968750000,163299.8281250000,61801.5390625000,173998.5781250000,,,
2.5599999959,20,151181.3593750000,151291.6562500000,176704.5156250000,169994.7343750000,160007.4375000000,163306.2968750000,61809.8515625000,174004.2812500000,,,
2.5639999958,20,151186.6406250000,151298.3125000000,176709.9375000000,170004.1406250000,160013.2656250000,163310.8750000000,61816.6367187500,174013.1875000000,,,
2.5679999958,20,151178.4062500000,151289.3281250000,176700.2812500000,170000.4687500000,160004.8125000000,163304.4218750000,61812.6679687500,174013.4375000000,,,
2.5719999957,20,151181.5000000000,151292.1406250000,176700.3125000000,170010.6406250000,160004.8906250000,163305.3750000000,61812.2929687500,174018.2343750000,,,
2.5759999957,20,151187.8593750000,151295.7656250000,176706.4531250000,170016.8593750000,160009.7187500000,163308.1406250000,61815.7265625000,174019.5781250000,,,
2.5799999957,20,151183.2343750000,151287.7187500000,176704.5937500000,170000.3281250000,160006.6875000000,163307.2031250000,61812.7226562500,174010.7187500000,,,
2.5839999958,20,151180.5937500000,151280.6562500000,176701.5156250000,169999.0937500000,160004.4062500000,163306.2968750000,61809.4765625000,174006.5312500000,,,
2.5879999958,20,151185.9843750000,151283.7656250000,176705.2343750000,169997.2187500000,160008.2500000000,163307.8281250000,61810.5234375000,174014.9843750000,,,
2.5919999958,20,151191.1562500000,151290.4218750000,176708.8125000000,170006.1093750000,160011.8437500000,163310.3906250000,61810.2539062500,174022.6562500000,,,
2.5959999957,20,151201.1875000000,151297.3437500000,176722.8906250000,170019.4375000000,160021.9843750000,163313.4843750000,61816.1015625000,174025.9218750000,,,
2.5999999957,20,151206.5468750000,151301.7656250000,176729.8593750000,170027.9687500000,160026.7031250000,163314.3437500000,61818.2734375000,174024.8906250000,,,
2.6039999959,20,151208.3750000000,151304.6093750000,176729.9375000000,170020.8750000000,160028.0156250000,163317.0000000000,61821.8164062500,174029.2343750000,,,
2.6079999958,20,151203.1406250000,151297.0781250000,176725.1718750000,170015.5937500000,160024.6406250000,163309.6406250000,61821.1171875000,174029.2031250000,,,
2.6119999958,20,151200.3750000000,151288.9218750000,176722.4375000000,170013.6875000000,160023.2656250000,163303.8437500000,61821.7343750000,174023.4687500000,,,
2.6159999957,20,151198.0937500000,151285.5468750000,176719.0625000000,170010.7968750000,160020.7968750000,163304.5156250000,61822.8359375000,174014.8750000000,,,
2.6199999957,20,151194.9687500000,151284.5468750000,176714.5000000000,170017.5781250000,160016.3437500000,163306.6093750000,61823.1289062500,174005.8125000000,,,
2.6239999956,20,151191.5312500000,151287.3593750000,176712.1562500000,170012.2187500000,160013.2656250000,163311.3906250000,61823.8007812500,174005.9218750000,,,
2.6279999958,20,151186.9218750000,151289.3437500000,176710.6875000000,170004.6875000000,160012.2500000000,163314.4218750000,61822.7539062500,174012.1093750000,,,
2.6319999958,20,151180.0781250000,151285.4843750000,176704.2031250000,170005.6406250000,160006.5625000000,163310.9062500000,61815.7265625000,174012.4375000000,,,
2.6359999957,20,151174.5312500000,151281.2812500000,176699.0156250000,170007.3906250000,159999.2812500000,163305.0781250000,61807.4648437500,174004.5468750000,,,
2.6399999957,20,151176.0781250000,151289.0000000000,176699.0156250000,169993.3593750000,159997.0937500000,163305.1406250000,61805.9101562500,174004.0156250000,,,
2.6439999957,20,151175.0312500000,151291.7968750000,176693.8437500000,169986.4687500000,159992.0000000000,163304.0625000000,61801.0546875000,174006.0312500000,,,
2.6479999959,20,151173.3750000000,151289.3750000000,176688.9375000000,169995.2343750000,159986.7031250000,163302.8906250000,61794.9921875000,174009.3750000000,,,
2.6519999958,20,151171.3593750000,151287.3906250000,176684.4843750000,169999.9843750000,159982.2343750000,163299.9062500000,61788.9296875000,174011.1250000000,,,
2.6559999958,20,151167.7656250000,151282.2187500000,176679.5156250000,170000.9218750000,159977.7968750000,163292.7187500000,61781.7148437500,174006.1562500000,,,
2.6599999957,20,151165.9375000000,151275.0781250000,176678.0937500000,169997.1718750000,159975.7968750000,163288.5625000000,61780.6171875000,173996.2656250000,,,
2.6639999957,20,151169.9687500000,151273.8125000000,176684.3750000000,169997.2968750000,159980.9687500000,163289.5781250000,61784.3437500000,173991.1875000000,,,
2.6679999956,20,151182.2187500000,151278.1718750000,176702.5937500000,170015.0625000000,159996.9062500000,163293.9531250000,61799.5273437500,173996.3125000000,,,
2.6719999958,20,151184.9062500000,151280.0156250000,176704.8437500000,170017.1562500000,160000.8125000000,163295.7500000000,61802.2343750000,174000.1250000000,,,
2.6759999958,20,151187.1250000000,151284.0468750000,176705.1562500000,170022.9218750000,160002.7500000000,163298.9375000000,61804.2187500000,174003.4062500000,,,
2.6799999957,20,151187.2343750000,151283.5781250000,176705.2343750000,170021.2031250000,160002.2968750000,163298.9687500000,61801.6718750000,174001.7968750000,,,
2.6839999957,20,151193.0000000000,151291.0156250000,176709.5937500000,170028.1718750000,160007.0937500000,163304.5468750000,61803.0664062500,174010.5000000000,,,
2.6879999957,21,151191.9375000000,151291.9218750000,176707.9218750000,170026.0312500000,160006.2031250000,163304.2031250000,61800.9726562500,174017.4062500000,,,
2.6919999956,21,151185.9218750000,151285.7812500000,176703.1250000000,170017.3125000000,160000.3125000000,163298.0781250000,61795.5312500000,174017.0000000000,,,
2.6959999956,21,151197.2656250000,151294.5468750000,176716.9375000000,170016.4531250000,160012.9375000000,163305.7343750000,61808.5898437500,174022.4375000000,,,
2.6999999955,21,151195.2656250000,151292.9218750000,176714.2343750000,170014.3906250000,160011.0312500000,163305.0625000000,61809.6367187500,174016.4687500000,,,
2.7039999955,21,151185.2343750000,151279.9843750000,176703.5781250000,170005.4843750000,160002.7500000000,163300.4218750000,61807.5742187500,174004.9843750000,,,
2.7079999954,21,151177.7968750000,151270.6562500000,176697.4375000000,170005.0781250000,159998.9687500000,163294.8125000000,61805.6953125000,174000.9375000000,,,
2.7119999956,21,151183.9062500000,151276.9375000000,176704.6562500000,170018.3281250000,160006.5000000000,163297.8906250000,61810.7929687500,174005.5468750000,,,
2.7159999956,21,151195.2656250000,151288.8906250000,176716.3750000000,170020.8750000000,160017.1562500000,163305.0312500000,61821.1992187500,174010.3750000000,,,
2.7199999955,21,151198.5781250000,151295.9531250000,176714.2812500000,170013.5625000000,160015.1093750000,163307.3593750000,61817.7656250000,174010.9062500000,,,
2.7239999955,21,151196.1093750000,151295.2812500000,176709.5000000000,170023.6718750000,160008.9687500000,163300.4375000000,61813.8750000000,174010.5000000000,,,
2.7279999955,21,151199.5781250000,151305.2343750000,176711.2187500000,170019.7031250000,160011.1718750000,163306.6875000000,61817.1210937500,174024.9843750000,,,
2.7319999957,21,151196.2968750000,151305.5312500000,176707.7968750000,169997.8906250000,160009.5312500000,163310.0468750000,61813.8203125000,174032.6562500000,,,
2.7359999956,21,151193.0625000000,151304.5625000000,176705.6250000000,169994.3593750000,160006.7500000000,163312.1093750000,61811.1953125000,174030.0312500000,,,
2.7399999956,21,151191.6875000000,151305.2031250000,176701.3593750000,170004.0312500000,160003.2812500000,163315.5468750000,61810.7382812500,174025.6562500000,,,
2.7439999955,21,151194.1093750000,151306.5937500000,176704.3281250000,170007.2500000000,160006.9375000000,163321.2812500000,61814.4921875000,174027.1562500000,,,
2.7479999955,21,151199.8125000000,151310.9218750000,176712.2968750000,170010.2656250000,160015.5468750000,163331.4843750000,61822.5390625000,174035.9062500000,,,
2.7519999954,21,151193.6250000000,151299.3750000000,176710.5000000000,170008.8593750000,160012.8906250000,163325.3906250000,61817.3359375000,174031.2656250000,,,
2.7559999956,21,151190.4531250000,151291.8125000000,176709.8281250000,170010.8437500000,160010.3906250000,163316.8125000000,61810.3906250000,174022.1250000000,,,
2.7599999956,21,151188.1250000000,151290.5781250000,176707.3281250000,170002.8906250000,160007.9531250000,163313.1875000000,61807.3046875000,174016.7812500000,,,
2.7639999955,21,151185.6093750000,151287.1562500000,176702.6875000000,169990.6562500000,160003.1562500000,163309.4375000000,61807.2226562500,174013.9375000000,,,
2.7679999955,21,151186.1875000000,151285.5468750000,176701.1718750000,169994.0625000000,160001.6250000000,163309.8906250000,61808.5390625000,174019.1718750000,,,
2.7719999955,21,151188.5312500000,151285.0625000000,176704.2500000000,169997.0937500000,160005.7187500000,163312.9218750000,61813.2851562500,174023.3750000000,,,
2.7759999956,21,151184.0937500000,151283.6562500000,176697.4687500000,169998.1875000000,160001.4375000000,163311.4687500000,61806.5546875000,174020.5625000000,,,
2.7799999956,21,151188.1250000000,151285.6718750000,176701.5468750000,169999.1250000000,160004.8750000000,163311.7968750000,61807.0625000000,174020.0312500000,,,
2.7839999956,21,151194.3437500000,151291.3281250000,176712.1093750000,170010.8281250000,160015.4843750000,163317.2343750000,61817.4960937500,174025.5781250000,,,
2.7879999955,21,151193.8906250000,151289.1875000000,176715.9375000000,170018.1250000000,160019.7812500000,163318.1250000000,61820.9843750000,174031.5312500000,,,
2.7919999955,21,151185.3906250000,151277.4375000000,176707.2812500000,170011.3125000000,160013.3906250000,163311.2500000000,61813.4179687500,174026.0625000000,,,
2.7959999954,21,151185.9218750000,151275.7812500000,176705.6718750000,170002.7500000000,160012.5156250000,163307.5000000000,61813.6093750000,174018.8281250000,,,
2.7999999956,21,151195.3437500000,151283.3125000000,176715.3281250000,170010.7187500000,160020.5625000000,163307.7656250000,61821.3046875000,174015.8125000000,,,
2.8039999956,21,151198.3437500000,151289.8281250000,176718.2500000000,170022.7343750000,160023.5312500000,163309.8906250000,61826.4296875000,174018.9062500000,,,
2.8079999955,21,151196.2031250000,151292.4062500000,176717.7343750000,170020.1093750000,160023.5156250000,163310.8437500000,61830.0234375000,174022.7031250000,,,
2.8119999955,21,151189.6562500000,151289.9062500000,176711.0156250000,170006.3125000000,160017.3437500000,163305.8906250000,61829.7539062500,174022.8437500000,,,
2.8159999955,22,151185.7031250000,151287.6093750000,176702.9375000000,170001.8906250000,160009.4843750000,163301.2187500000,61823.9609375000,174018.9843750000,,,
2.8199999954,22,151189.7812500000,151288.9218750000,176705.5312500000,169996.7343750000,160008.7812500000,163301.7656250000,61824.1210937500,174014.7500000000,,,
2.8239999954,22,151194.7500000000,151292.3281250000,176709.7500000000,169994.0000000000,160010.6875000000,163307.9062500000,61828.8437500000,174015.2500000000,,,
2.8279999953,22,151194.3125000000,151290.2343750000,176706.7968750000,170000.3593750000,160008.2187500000,163310.6406250000,61823.8007812500,174018.4218750000,,,
2.8319999953,22,151192.4218750000,151285.2968750000,176706.2031250000,170003.2343750000,160007.0625000000,163306.6093750000,61818.4882812500,174017.4843750000,,,
2.8359999952,22,151198.3906250000,151290.5781250000,176715.4375000000,170022.7031250000,160013.0468750000,163308.0937500000,61818.5976562500,174018.3593750000,,,
2.8399999954,22,151197.2968750000,151292.2500000000,176713.7656250000,170013.9687500000,160010.4687500000,163309.4375000000,61812.6132812500,174017.4062500000,,,
2.8439999954,22,151191.8281250000,151289.1562500000,176704.1406250000,170013.7500000000,160004.2812500000,163309.8281250000,61807.3828125000,174015.0468750000,,,
2.8479999953,22,151185.9218750000,151283.2031250000,176701.1406250000,170007.5781250000,160002.9843750000,163306.7500000000,61806.9023437500,174017.1250000000,,,
2.8519999953,22,151179.2656250000,151282.8593750000,176696.3125000000,170008.1093750000,159997.7812500000,163305.3593750000,61802.2343750000,174019.7656250000,,,
2.8559999953,22,151184.2031250000,151291.0156250000,176702.9062500000,170011.4062500000,160002.1250000000,163311.0937500000,61806.6328125000,174025.1718750000,,,
2.8599999954,22,151190.1562500000,151290.0468750000,176711.6250000000,170017.3750000000,160007.9843750000,163308.4843750000,61812.8554687500,174020.9687500000,,,
2.8639999954,22,151180.1250000000,151274.1093750000,176697.7812500000,170017.3125000000,159995.1093750000,163298.8593750000,61800.4101562500,174006.7031250000,,,
2.8679999954,22,151170.2812500000,151260.6562500000,176689.0156250000,169993.2812500000,159989.7187500000,163295.8906250000,61798.5859375000,173998.9687500000,,,
2.8719999953,22,151165.8281250000,151253.1406250000,176683.0625000000,169987.7500000000,159985.1875000000,163289.5781250000,61793.3554687500,173995.9687500000,,,
2.8759999953,22,151168.9687500000,151255.7187500000,176685.6562500000,169988.4843750000,159986.3906250000,163290.5000000000,61791.5859375000,173994.6875000000,,,
2.8799999952,22,151166.6718750000,151253.3281250000,176683.2968750000,169988.8593750000,159984.5937500000,163288.3750000000,61789.0117187500,173984.8437500000,,,
2.8839999954,22,151171.4687500000,151258.7500000000,176687.3750000000,169992.9531250000,159988.6718750000,163290.5781250000,61792.6054687500,173985.7812500000,,,
2.8879999954,22,151173.8593750000,151263.9531250000,176688.9531250000,169992.0156250000,159992.2812500000,163296.2031250000,61796.2539062500,173993.3437500000,,,
2.8919999953,22,151166.2031250000,151256.9531250000,176680.5937500000,169995.8281250000,159986.5000000000,163291.5156250000,61792.9023437500,173991.2500000000,,,
2.8959999953,22,151160.4375000000,151250.8125000000,176675.2812500000,169985.4687500000,159982.4687500000,163287.1093750000,61794.3476562500,173984.0625000000,,,
2.8999999953,22,151166.9531250000,151257.2968750000,176680.1562500000,169994.0781250000,159986.3125000000,163288.9062500000,61800.8125000000,173982.8750000000,,,
2.9039999954,22,151174.0937500000,151266.9531250000,176684.8906250000,170005.9375000000,159989.4375000000,163290.3281250000,61803.8164062500,173990.2031250000,,,
2.9079999954,22,151180.6718750000,151275.1406250000,176691.7500000000,170008.5468750000,159993.8906250000,163292.6093750000,61806.9296875000,174001.9843750000,,,
2.9119999954,22,151175.0625000000,151272.1093750000,176684.0000000000,170008.4687500000,159987.0625000000,163289.2656250000,61801.8046875000,174003.6093750000,,,
2.9159999953,22,151173.5625000000,151273.9843750000,176681.9375000000,170001.3281250000,159983.9687500000,163289.2031250000,61796.9765625000,174003.2187500000,,,
2.9199999953,22,151179.6406250000,151280.0468750000,176695.1875000000,169998.1406250000,159995.7500000000,163293.9531250000,61808.6718750000,174004.2031250000,,,
2.9239999952,22,151177.2031250000,151278.8593750000,176694.4843750000,169998.7812500000,159995.2343750000,163292.1562500000,61808.1367187500,174005.4843750000,,,
2.9279999954,22,151175.2500000000,151274.4843750000,176690.5937500000,169996.5781250000,159993.9843750000,163295.6718750000,61805.7773437500,174009.6718750000,,,
2.9319999954,22,151184.3750000000,151281.4843750000,176702.5000000000,170001.7500000000,160006.3437500000,163303.4531250000,61816.9882812500,174018.3437500000,,,
2.9359999953,22,151194.1093750000,151290.0468750000,176711.2968750000,170021.5000000000,160014.5781250000,163313.9062500000,61829.5117187500,174025.6406250000,,,
2.9399999953,22,151193.2968750000,151285.6250000000,176711.5781250000,170011.4375000000,160014.0625000000,163313.9062500000,61833.6171875000,174022.3906250000,,,
2.9439999952,23,151194.6875000000,151288.7656250000,176714.1250000000,170006.4843750000,160016.3750000000,163317.4531250000,61835.1992187500,174026.0156250000,,,
2.9479999952,23,151192.6875000000,151288.0937500000,176713.6406250000,170014.8125000000,160015.6250000000,163315.3906250000,61834.4765625000,174031.9375000000,,,
2.9519999952,23,151183.2343750000,151279.1250000000,176706.7656250000,170007.1718750000,160009.3750000000,163306.6093750000,61829.5117187500,174027.4531250000,,,
2.9559999951,23,151190.8125000000,151286.5312500000,176717.4687500000,170010.8750000000,160019.5156250000,163312.5625000000,61838.9531250000,174030.8125000000,,,
2.9599999951,23,151193.0312500000,151288.1093750000,176719.2656250000,170008.7500000000,160019.9687500000,163317.3437500000,61841.4218750000,174028.9375000000,,,
