Time:250Hz,Epoch,Channel 1,Channel 2,Channel 3,Channel 4,Channel 5,Channel 6,Channel 7,Channel 8,Event Id,Event Date,Event Duration
0.0000000000,0,179283.6718750000,159015.5625000000,190796.0937500000,174172.4375000000,168416.0937500000,138241.0468750000,160284.9218750000,119291.0781250000,,,
0.0040000000,0,179250.3906250000,158993.2968750000,190759.3437500000,174106.0468750000,168385.7031250000,138215.8125000000,160260.2968750000,119645.6875000000,,,
0.0079999999,0,179247.0312500000,158989.7656250000,190748.8281250000,174104.1718750000,168377.1093750000,138213.3906250000,160253.4843750000,120291.2187500000,,,
0.0119999999,0,179298.0781250000,159029.6406250000,190800.8125000000,174148.8281250000,168429.7187500000,138261.4062500000,160311.7187500000,120283.9218750000,,,
0.0159999998,0,179335.8750000000,159060.0937500000,190843.5625000000,174183.9062500000,168474.4218750000,138300.7968750000,160359.8281250000,119599.8515625000,,,
0.0199999998,0,179313.8281250000,159049.0312500000,190822.5156250000,174150.8593750000,168458.1718750000,138288.9687500000,160342.6093750000,119128.2109375000,,,
0.0240000000,0,179268.2500000000,159022.7031250000,190774.0468750000,174106.8437500000,168414.6875000000,138269.0781250000,160309.4531250000,119506.3203125000,,,
0.0279999999,0,179263.1875000000,159016.5468750000,190767.8750000000,174107.0156250000,168410.0468750000,138267.1718750000,160318.0625000000,120147.9843750000,,,
0.0319999999,0,179293.4375000000,159032.0625000000,190801.7343750000,174147.3750000000,168439.0156250000,138278.3281250000,160350.3593750000,120186.2890625000,,,
0.0359999998,0,179323.1562500000,159055.8437500000,190840.8906250000,174190.7812500000,168474.2187500000,138310.3750000000,160382.1250000000,119581.5078125000,,,
0.0399999998,0,179345.4531250000,159085.2968750000,190867.1406250000,174212.9531250000,168502.1562500000,138340.0781250000,160373.0312500000,119128.9062500000,,,
0.0440000000,0,179302.0468750000,159054.3437500000,190818.0625000000,174147.4531250000,168456.6093750000,138312.1250000000,160323.9218750000,119506.7265625000,,,
0.0480000000,0,179263.7500000000,159015.4218750000,190772.3906250000,174104.2031250000,168413.4843750000,138278.5468750000,160321.4531250000,120182.6171875000,,,
0.0519999999,0,179286.3906250000,159027.7187500000,190794.4531250000,174142.8125000000,168430.2500000000,138285.1406250000,160322.1250000000,120260.3203125000,,,
0.0559999999,0,179321.6093750000,159053.9375000000,190836.7500000000,174177.5312500000,168471.9062500000,138308.4687500000,160356.7187500000,119686.9921875000,,,
0.0599999998,0,179311.4687500000,159046.9218750000,190827.3125000000,174150.1718750000,168464.7187500000,138304.4062500000,160381.2031250000,119255.6953125000,,,
0.0639999998,0,179290.9218750000,159039.8906250000,190797.8906250000,174129.5937500000,168436.2343750000,138289.7343750000,160360.6562500000,119652.9296875000,,,
0.0680000000,0,179279.5156250000,159034.7968750000,190778.0156250000,174133.9687500000,168414.1562500000,138269.4531250000,160329.7968750000,120398.4218750000,,,
0.0719999999,0,179296.0156250000,159043.1093750000,190798.5156250000,174141.6875000000,168430.6250000000,138281.4375000000,160339.4218750000,120545.7031250000,,,
0.0759999999,0,179311.1406250000,159044.6406250000,190825.8750000000,174145.3906250000,168454.8125000000,138293.5156250000,160368.7343750000,120019.1875000000,,,
0.0799999998,0,179301.7500000000,159040.1093750000,190821.0937500000,174155.6093750000,168448.9531250000,138283.7656250000,160369.5156250000,119618.6015625000,,,
0.0839999998,0,179275.8750000000,159023.0156250000,190793.5468750000,174123.7500000000,168423.2031250000,138256.8906250000,160342.2031250000,120003.8203125000,,,
0.0880000000,0,179311.8906250000,159058.0468750000,190824.1250000000,174164.6250000000,168450.5312500000,138278.5625000000,160357.6562500000,120712.7812500000,,,
0.0919999999,0,179372.3750000000,159115.5781250000,190877.4218750000,174255.6562500000,168502.1562500000,138334.4375000000,160397.3750000000,120825.7265625000,,,
0.0959999999,0,179353.2500000000,159088.0937500000,190863.9843750000,174227.1718750000,168490.3281250000,138323.0625000000,160389.4375000000,120276.4140625000,,,
0.0999999999,0,179275.4218750000,159021.1718750000,190786.1718750000,174122.8906250000,168415.2812500000,138261.7500000000,160327.9687500000,119876.0625000000,,,
0.1039999998,0,179210.7187500000,158965.9062500000,190719.3593750000,174030.2187500000,168350.2343750000,138197.9375000000,160260.5156250000,120289.9843750000,,,
0.1079999998,0,179217.6875000000,158976.3281250000,190716.4843750000,174057.8437500000,168347.4218750000,138190.8906250000,160242.5625000000,121063.4531250000,,,
0.1120000000,0,179264.3593750000,159009.7187500000,190767.5000000000,174117.4218750000,168395.6718750000,138226.3437500000,160293.4687500000,121221.1640625000,,,
0.1159999999,0,179307.1406250000,159035.1875000000,190823.7968750000,174151.6406250000,168448.7343750000,138264.6562500000,160359.8593750000,120653.5859375000,,,
0.1199999999,0,179299.7968750000,159034.7187500000,190818.2812500000,174136.8906250000,168444.7031250000,138261.8281250000,160349.6875000000,120232.3437500000,,,
0.1239999998,0,179244.6250000000,158994.2968750000,190753.9062500000,174091.3281250000,168383.6875000000,138219.1250000000,160292.7812500000,120668.6328125000,,,
0.1279999998,1,179221.7187500000,158972.6250000000,190723.7812500000,174071.3906250000,168353.1093750000,138189.6562500000,160252.0312500000,121401.0625000000,,,
0.1319999998,1,179255.1093750000,158992.7968750000,190756.9843750000,174104.2968750000,168383.1250000000,138201.6093750000,160272.5000000000,121536.4843750000,,,
0.1359999997,1,179288.5625000000,159017.3593750000,190793.0625000000,174150.9687500000,168417.8906250000,138228.5156250000,160317.2656250000,120994.1718750000,,,
0.1399999997,1,179289.6875000000,159024.8906250000,190798.5312500000,174147.8906250000,168424.5625000000,138236.1406250000,160331.3125000000,120561.4218750000,,,
0.1439999996,1,179241.4062500000,158990.9687500000,190746.3437500000,174069.8437500000,168378.0781250000,138202.2812500000,160280.7656250000,120941.5703125000,,,
0.1479999996,1,179241.7500000000,158993.2656250000,190742.3750000000,174088.4843750000,168375.0312500000,138196.7031250000,160255.9687500000,121685.2187500000,,,
0.1519999998,1,179319.2968750000,159058.0156250000,190819.1406250000,174211.3437500000,168447.6093750000,138253.2187500000,160302.7500000000,121825.4921875000,,,
0.1559999997,1,179350.2031250000,159077.8437500000,190855.9062500000,174229.3750000000,168482.4218750000,138273.0781250000,160372.0937500000,121260.1406250000,,,
0.1599999997,1,179306.0937500000,159038.1250000000,190816.9062500000,174149.2500000000,168445.2656250000,138240.7187500000,160359.1562500000,120804.9140625000,,,
0.1639999996,1,179234.1875000000,158976.3750000000,190739.6093750000,174056.6406250000,168369.5781250000,138172.1718750000,160279.4218750000,121178.9218750000,,,
0.1679999996,1,179218.1718750000,158961.1093750000,190716.5156250000,174036.6250000000,168345.8125000000,138152.5781250000,160253.4843750000,121878.3359375000,,,
0.1719999998,1,179268.4687500000,158996.7656250000,190772.8437500000,174094.5937500000,168398.5000000000,138184.1562500000,160304.5000000000,122002.4375000000,,,
0.1759999997,1,179310.7656250000,159032.1875000000,190821.0937500000,174146.0156250000,168444.8750000000,138222.2500000000,160341.3281250000,121430.6484375000,,,
0.1799999997,1,179310.2343750000,159037.0781250000,190825.0156250000,174145.0156250000,168448.4375000000,138227.7343750000,160350.3593750000,120929.1796875000,,,
0.1839999997,1,179276.2500000000,159016.6562500000,190785.6093750000,174118.4687500000,168411.6093750000,138199.6093750000,160316.1718750000,121278.4609375000,,,
0.1879999996,1,179281.6406250000,159022.1875000000,190781.9531250000,174143.3281250000,168409.3906250000,138200.2812500000,160315.6875000000,121973.1484375000,,,
0.1919999996,1,179317.6562500000,159043.6406250000,190823.2656250000,174165.2500000000,168447.3906250000,138224.2031250000,160362.2968750000,122074.8046875000,,,
0.1959999998,1,179330.2187500000,159051.2812500000,190842.3593750000,174156.5781250000,168466.0625000000,138248.4531250000,160381.8750000000,121498.6640625000,,,
0.1999999997,1,179296.2343750000,159023.7187500000,190811.5937500000,174119.6718750000,168439.7500000000,138231.1406250000,160336.2500000000,121020.3750000000,,,
0.2039999997,1,179229.4375000000,158970.9062500000,190734.4375000000,174050.1250000000,168367.1406250000,138170.9531250000,160274.5625000000,121397.5781250000,,,
0.2079999996,1,179220.6406250000,158964.8437500000,190717.1875000000,174053.8750000000,168349.7812500000,138158.3593750000,160277.7343750000,122151.5937500000,,,
0.2119999996,1,179263.1562500000,158995.7656250000,190762.9218750000,174117.5781250000,168393.1875000000,138194.8906250000,160327.0781250000,122307.9687500000,,,
0.2159999998,1,179262.1875000000,158985.7031250000,190771.3593750000,174098.6093750000,168402.6562500000,138201.1406250000,160342.9843750000,121753.7968750000,,,
0.2199999997,1,179249.9375000000,158976.9062500000,190759.6406250000,174094.1875000000,168394.8750000000,138206.9531250000,160333.5781250000,121289.5625000000,,,
0.2239999997,1,179246.2812500000,158984.0468750000,190749.3125000000,174123.1562500000,168386.6875000000,138202.0156250000,160319.4687500000,121672.6093750000,,,
0.2279999997,1,179239.4687500000,158983.0000000000,190739.1562500000,174122.4843750000,168374.8437500000,138193.5625000000,160303.5000000000,122441.7890625000,,,
0.2319999996,1,179280.3281250000,159017.5468750000,190778.5312500000,174158.4843750000,168409.5937500000,138227.2031250000,160333.8906250000,122617.3125000000,,,
0.2359999996,1,179305.9687500000,159043.1562500000,190809.6406250000,174141.1093750000,168440.6875000000,138262.0468750000,160370.5937500000,122092.3984375000,,,
0.2399999998,1,179269.3750000000,159004.4375000000,190781.3437500000,174086.2812500000,168416.2812500000,138245.3125000000,160364.0156250000,121651.3125000000,,,
0.2439999997,1,179236.3906250000,158975.5625000000,190743.8750000000,174080.8593750000,168381.5625000000,138215.3437500000,160332.2343750000,121979.7500000000,,,
0.2479999997,1,179228.8281250000,158974.3125000000,190730.8906250000,174085.0781250000,168369.5468750000,138201.1406250000,160320.1875000000,122663.9296875000,,,
0.2519999996,1,179258.0625000000,158995.0937500000,190760.1562500000,174127.4843750000,168395.8906250000,138221.6562500000,160338.1250000000,122811.2890625000,,,
0.2559999996,2,179295.7500000000,159022.5625000000,190805.5937500000,174154.0781250000,168440.1250000000,138255.4531250000,160375.5000000000,122311.1875000000,,,
0.2599999995,2,179299.6093750000,159025.4062500000,190821.2812500000,174132.3906250000,168457.9375000000,138268.7812500000,160378.7656250000,121862.6406250000,,,
0.2639999995,2,179266.4375000000,159004.9062500000,190780.6718750000,174076.8437500000,168424.2968750000,138257.2968750000,160362.0625000000,122215.2187500000,,,
0.2679999995,2,179263.6718750000,159009.0937500000,190760.9062500000,174099.9375000000,168406.2656250000,138255.0937500000,160387.2500000000,122909.3984375000,,,
0.2719999994,2,179330.7187500000,159066.7187500000,190833.4062500000,174177.6562500000,168471.2343750000,138297.8281250000,160426.1562500000,123078.2734375000,,,
0.2759999994,2,179375.2187500000,159107.7500000000,190882.0937500000,174208.4062500000,168522.1718750000,138345.7031250000,160476.1562500000,122533.3281250000,,,
0.2799999996,2,179320.0937500000,159058.4218750000,190826.0000000000,174146.4375000000,168471.3437500000,138317.3593750000,160446.2187500000,122089.1796875000,,,
0.2839999995,2,179253.5312500000,158998.5625000000,190764.3125000000,174068.4375000000,168410.2343750000,138256.3281250000,160395.8281250000,122414.7734375000,,,
0.2879999995,2,179254.8125000000,158999.9218750000,190770.8750000000,174060.1250000000,168415.0625000000,138243.0000000000,160341.3437500000,123107.5625000000,,,
0.2919999994,2,179272.8906250000,159005.9531250000,190787.1875000000,174108.1406250000,168433.0937500000,138256.7343750000,160348.3281250000,123254.7343750000,,,
0.2959999994,2,179305.0000000000,159028.3593750000,190815.5468750000,174151.0312500000,168456.3750000000,138296.5937500000,160442.0468750000,122670.9531250000,,,
0.2999999996,2,179301.0781250000,159033.3750000000,190811.8593750000,174165.0781250000,168452.9375000000,138303.1093750000,160451.7031250000,122157.6328125000,,,
0.3039999995,2,179284.7187500000,159031.2187500000,190792.8281250000,174114.4687500000,168435.4843750000,138292.4062500000,160405.6093750000,122473.6250000000,,,
0.3079999995,2,179270.5625000000,159007.3750000000,190787.9375000000,174089.5000000000,168423.8906250000,138259.5781250000,160383.8593750000,123158.4218750000,,,
0.3119999995,2,179260.9843750000,158987.6718750000,190767.6875000000,174111.6562500000,168410.3281250000,138245.2343750000,160391.5156250000,123287.1640625000,,,
0.3159999994,2,179290.3593750000,159016.0781250000,190794.3750000000,174131.6093750000,168434.3281250000,138273.3593750000,160450.2968750000,122705.4218750000,,,
0.3199999994,2,179279.8125000000,159005.4687500000,190787.9375000000,174143.2812500000,168426.4375000000,138258.8593750000,160434.5781250000,122168.4687500000,,,
0.3239999996,2,179236.6875000000,158969.0312500000,190741.4062500000,174089.6250000000,168383.2343750000,138218.6562500000,160369.7343750000,122442.6171875000,,,
0.3279999995,2,179243.5781250000,158981.5312500000,190744.3281250000,174075.8750000000,168384.6562500000,138220.3906250000,160360.5625000000,123092.9218750000,,,
0.3319999995,2,179305.6406250000,159038.5000000000,190805.3281250000,174158.1875000000,168438.8125000000,138263.9843750000,160415.7500000000,123217.4296875000,,,
0.3359999994,2,179310.8281250000,159028.8437500000,190817.0468750000,174182.8437500000,168450.9531250000,138268.2500000000,160432.4843750000,122617.9765625000,,,
0.3399999994,2,179275.7968750000,158995.9843750000,190792.5468750000,174105.8593750000,168427.0781250000,138241.9843750000,160408.8906250000,122099.8593750000,,,
0.3439999996,2,179237.1718750000,158970.9531250000,190749.6875000000,174059.3437500000,168390.1250000000,138214.7656250000,160352.4843750000,122374.9687500000,,,
0.3479999995,2,179243.8125000000,158987.7500000000,190742.0000000000,174087.5156250000,168386.0000000000,138220.1250000000,160335.6718750000,123024.6015625000,,,
0.3519999995,2,179272.3281250000,159009.9843750000,190768.2343750000,174115.1718750000,168405.9531250000,138238.6093750000,160374.9843750000,123135.6171875000,,,
0.3559999994,2,179297.9531250000,159022.2343750000,190803.4375000000,174155.1250000000,168437.5468750000,138255.7968750000,160416.0781250000,122524.2109375000,,,
0.3599999994,2,179294.2656250000,159015.5625000000,190809.3750000000,174141.5937500000,168446.5625000000,138256.7031250000,160412.0000000000,121958.2890625000,,,
0.3639999994,2,179263.2343750000,158995.6562500000,190770.3437500000,174102.6093750000,168413.4843750000,138232.5937500000,160372.8125000000,122209.3437500000,,,
0.3679999996,2,179273.8906250000,159008.9687500000,190773.8593750000,174122.6250000000,168412.9218750000,138226.0781250000,160382.6562500000,122860.1015625000,,,
0.3719999995,2,179291.1875000000,159017.4375000000,190790.1406250000,174138.1875000000,168423.4375000000,138230.8281250000,160397.0937500000,122977.4218750000,,,
0.3759999995,2,179308.7343750000,159031.1718750000,190815.0312500000,174123.7500000000,168447.2812500000,138249.8906250000,160412.4843750000,122415.0703125000,,,
0.3799999994,2,179297.2812500000,159024.1718750000,190809.1562500000,174153.2812500000,168446.9531250000,138248.2656250000,160387.3750000000,121922.0234375000,,,
0.3839999994,3,179243.1718750000,158978.1250000000,190747.5781250000,174082.4687500000,168391.7656250000,138208.6406250000,160354.2812500000,122220.8515625000,,,
0.3879999993,3,179232.5000000000,158970.2656250000,190723.2968750000,174098.2968750000,168367.8125000000,138190.6718750000,160343.6250000000,122905.0859375000,,,
0.3919999993,3,179266.9687500000,158993.8906250000,190758.4375000000,174141.3906250000,168398.7343750000,138209.9375000000,160383.0000000000,123053.5937500000,,,
0.3959999993,3,179311.4843750000,159030.6406250000,190815.7500000000,174156.2343750000,168451.6875000000,138251.2343750000,160437.6406250000,122504.4140625000,,,
0.3999999992,3,179305.7187500000,159028.3593750000,190819.6406250000,174119.4531250000,168457.8750000000,138258.5312500000,160440.4062500000,121970.6796875000,,,
0.4039999992,3,179254.6562500000,158986.9687500000,190761.5781250000,174079.7031250000,168406.3750000000,138219.7812500000,160386.5000000000,122240.8593750000,,,
0.4079999994,3,179269.9687500000,159004.7031250000,190773.8593750000,174120.1875000000,168415.8750000000,138225.7500000000,160386.0156250000,122881.6406250000,,,
0.4119999993,3,179276.6718750000,159002.0625000000,190781.6093750000,174105.5156250000,168423.6718750000,138222.3281250000,160387.5156250000,123001.1875000000,,,
0.4159999993,3,179286.3906250000,159006.0468750000,190793.9687500000,174103.5468750000,168435.8906250000,138232.8437500000,160413.9375000000,122411.9296875000,,,
0.4199999992,3,179285.1562500000,159005.8593750000,190796.2500000000,174124.8750000000,168437.4375000000,138239.6562500000,160438.4531250000,121896.1406250000,,,
0.4239999992,3,179261.1250000000,158992.1718750000,190766.5156250000,174113.5000000000,168409.1875000000,138222.4062500000,160408.1718750000,122177.7734375000,,,
0.4279999994,3,179249.0000000000,158984.6875000000,190745.7500000000,174113.7187500000,168387.4218750000,138209.0468750000,160380.5937500000,122856.0546875000,,,
0.4319999993,3,179252.9687500000,158981.2812500000,190748.1093750000,174082.3593750000,168389.0781250000,138210.8750000000,160392.7968750000,122994.9140625000,,,
0.4359999993,3,179277.1093750000,158999.5156250000,190782.4218750000,174097.6250000000,168422.3437500000,138243.9687500000,160435.3906250000,122415.5234375000,,,
0.4399999992,3,179279.1093750000,159007.8593750000,190790.0000000000,174101.7500000000,168432.7968750000,138261.4062500000,160445.2343750000,121916.7187500000,,,
0.4439999992,3,179261.7968750000,159002.0625000000,190765.1406250000,174104.1093750000,168411.6562500000,138256.7968750000,160413.5781250000,122239.4921875000,,,
0.4479999992,3,179266.6250000000,159006.6875000000,190761.8125000000,174136.1093750000,168410.1093750000,138253.9687500000,160416.9843750000,122911.8125000000,,,
0.4519999993,3,179272.3281250000,159004.5312500000,190765.8593750000,174128.3125000000,168413.0781250000,138246.5468750000,160444.3437500000,123070.4453125000,,,
0.4559999993,3,179297.9531250000,159025.0625000000,190800.6875000000,174143.6562500000,168446.9843750000,138278.8906250000,160488.8437500000,122530.8046875000,,,
0.4599999993,3,179291.1093750000,159020.2031250000,190804.3281250000,174121.2031250000,168451.5937500000,138285.1406250000,160485.4062500000,121992.3046875000,,,
0.4639999992,3,179257.3593750000,159000.4531250000,190770.8750000000,174085.5312500000,168422.4687500000,138268.2968750000,160412.9687500000,122264.6562500000,,,
0.4679999992,3,179247.3281250000,158992.3906250000,190749.6875000000,174110.2031250000,168405.8437500000,138256.8750000000,160422.2500000000,122965.3515625000,,,
0.4719999994,3,179282.4375000000,159017.6250000000,190780.3437500000,174140.9218750000,168435.1250000000,138273.5000000000,160493.5468750000,123138.4609375000,,,
0.4759999993,3,179299.3437500000,159029.9843750000,190802.5312500000,174136.7031250000,168458.3281250000,138292.0000000000,160502.9531250000,122594.4296875000,,,
0.4799999993,3,179282.4687500000,159018.1562500000,190795.1093750000,174107.0468750000,168451.5000000000,138291.2500000000,160490.4218750000,122071.5312500000,,,
0.4839999992,3,179255.5625000000,159000.7812500000,190765.2500000000,174062.2500000000,168419.5000000000,138267.5937500000,160476.1093750000,122320.9218750000,,,
0.4879999992,3,179263.4218750000,159011.3750000000,190762.6250000000,174094.1875000000,168413.5937500000,138255.6562500000,160483.4062500000,122992.2265625000,,,
0.4919999992,3,179294.3281250000,159036.7500000000,190791.2968750000,174138.4531250000,168440.0937500000,138280.5468750000,160485.4375000000,123159.2500000000,,,
0.4959999993,3,179328.6562500000,159057.7187500000,190846.8437500000,174174.7187500000,168492.5625000000,138315.8750000000,160509.5312500000,122574.6640625000,,,
0.4999999993,3,179304.9531250000,159035.8593750000,190821.6875000000,174160.4687500000,168472.8750000000,138302.9843750000,160500.2187500000,122002.2265625000,,,
0.5039999993,3,179265.2812500000,159004.7500000000,190773.0781250000,174145.1562500000,168427.3593750000,138269.1875000000,160446.6250000000,122265.4062500000,,,
0.5079999992,3,179231.0000000000,158979.4375000000,190734.5156250000,174071.0468750000,168392.1875000000,138242.0937500000,160396.0625000000,122973.2890625000,,,
0.5119999992,4,179267.4218750000,159007.8437500000,190768.7968750000,174149.8281250000,168419.3906250000,138259.8281250000,160490.7812500000,123160.9687500000,,,
0.5159999991,4,179301.0781250000,159030.6875000000,190806.9843750000,174185.5156250000,168450.0937500000,138290.2656250000,160549.3593750000,122621.0078125000,,,
0.5199999991,4,179279.0937500000,159013.0156250000,190791.4531250000,174112.8281250000,168436.2031250000,138276.5625000000,160525.7031250000,122085.5625000000,,,
0.5239999990,4,179253.3750000000,158994.3437500000,190762.8906250000,174063.6718750000,168410.7968750000,138244.5312500000,160488.0156250000,122295.3359375000,,,
0.5279999990,4,179229.5781250000,158974.5312500000,190728.7968750000,174062.8125000000,168378.0312500000,138217.2812500000,160437.1093750000,122991.1015625000,,,
0.5319999990,4,179271.1718750000,159009.6875000000,190765.6250000000,174132.8750000000,168414.8281250000,138248.2343750000,160462.9062500000,123176.7343750000,,,
0.5359999991,4,179304.4375000000,159033.4218750000,190805.9375000000,174171.8750000000,168447.5781250000,138268.2968750000,160490.0781250000,122587.8046875000,,,
0.5399999991,4,179305.9375000000,159035.9531250000,190813.3906250000,174160.3593750000,168453.4218750000,138275.0312500000,160494.4531250000,121975.4531250000,,,
0.5439999991,4,179268.6250000000,159004.5312500000,190772.8906250000,174099.5625000000,168417.6250000000,138245.7968750000,160460.2031250000,122178.2343750000,,,
0.5479999990,4,179272.9218750000,159015.7500000000,190768.3593750000,174109.8593750000,168412.0312500000,138239.1406250000,160450.8593750000,122852.7265625000,,,
0.5519999990,4,179287.9375000000,159018.7031250000,190789.6875000000,174139.4687500000,168429.3593750000,138238.4218750000,160464.2031250000,123050.4609375000,,,
0.5559999992,4,179284.1250000000,159010.5937500000,190787.7031250000,174155.7812500000,168428.3437500000,138234.2812500000,160456.6250000000,122508.6250000000,,,
0.5599999991,4,179279.4375000000,159007.9687500000,190786.1093750000,174171.3125000000,168428.3125000000,138238.0937500000,160448.9062500000,121956.4140625000,,,
0.5639999991,4,179228.3125000000,158970.4687500000,190731.0000000000,174094.1875000000,168379.7968750000,138201.9375000000,160383.4687500000,122205.0234375000,,,
0.5679999990,4,179195.5468750000,158944.3437500000,190684.6718750000,174075.9843750000,168333.8593750000,138166.9843750000,160342.8281250000,122903.1015625000,,,
0.5719999990,4,179213.9687500000,158951.8593750000,190701.7812500000,174132.4062500000,168347.5781250000,138164.7343750000,160364.7656250000,123113.4921875000,,,
0.5759999990,4,179260.3906250000,158989.8125000000,190756.3125000000,174183.2656250000,168398.5937500000,138204.7500000000,160428.2812500000,122550.0390625000,,,
0.5799999991,4,179265.0156250000,159001.6875000000,190770.8281250000,174133.1406250000,168411.9375000000,138223.5000000000,160451.0468750000,121981.3593750000,,,
0.5839999991,4,179212.1718750000,158954.5156250000,190715.7343750000,174060.7187500000,168360.8593750000,138173.4218750000,160396.9218750000,122209.6640625000,,,
0.5879999991,4,179189.0468750000,158934.5625000000,190680.8125000000,174057.7968750000,168328.7812500000,138144.1406250000,160352.7031250000,122916.1875000000,,,
0.5919999990,4,179220.2500000000,158962.8281250000,190707.8281250000,174114.9218750000,168350.2343750000,138161.1718750000,160372.5937500000,123161.2343750000,,,
0.5959999990,4,179268.2343750000,159000.5468750000,190760.9531250000,174203.7656250000,168397.9062500000,138194.7031250000,160424.7656250000,122636.9140625000,,,
0.5999999992,4,179259.2187500000,158991.4687500000,190757.8750000000,174169.6093750000,168395.7500000000,138195.3593750000,160416.0000000000,122079.6875000000,,,
0.6039999991,4,179224.5937500000,158965.3281250000,190723.1718750000,174089.3125000000,168362.7656250000,138163.5000000000,160382.1406250000,122291.6093750000,,,
0.6079999991,4,179224.7812500000,158962.9062500000,190716.7031250000,174131.0781250000,168354.5625000000,138148.6406250000,160367.6093750000,122959.1328125000,,,
0.6119999990,4,179252.1875000000,158982.0312500000,190738.9687500000,174217.3593750000,168374.8437500000,138160.2343750000,160372.6562500000,123178.6171875000,,,
0.6159999990,4,179284.6406250000,159005.8750000000,190775.6250000000,174246.7343750000,168407.7812500000,138194.9843750000,160411.8593750000,122641.8515625000,,,
0.6199999989,4,179255.1093750000,158978.4062500000,190761.2031250000,174130.5312500000,168392.7031250000,138180.0312500000,160414.9843750000,122074.6953125000,,,
0.6239999991,4,179233.3593750000,158970.2031250000,190731.8750000000,174108.6562500000,168367.1406250000,138164.5468750000,160383.3281250000,122222.5390625000,,,
0.6279999991,4,179216.1718750000,158959.1875000000,190699.7812500000,174114.1250000000,168340.1250000000,138148.7500000000,160339.0156250000,122867.2109375000,,,
0.6319999991,4,179249.4843750000,158981.9062500000,190736.7656250000,174135.4375000000,168374.2968750000,138171.0156250000,160371.4218750000,123027.8515625000,,,
0.6359999990,4,179297.3593750000,159020.2812500000,190790.1718750000,174200.1875000000,168421.9843750000,138203.9531250000,160440.8593750000,122428.4843750000,,,
0.6399999990,5,179299.4687500000,159028.2187500000,190799.3437500000,174185.5156250000,168427.7500000000,138210.1406250000,160463.0937500000,121862.5390625000,,,
0.6439999989,5,179253.0468750000,158992.1718750000,190746.5468750000,174166.7500000000,168379.2656250000,138172.2187500000,160405.8593750000,122071.1875000000,,,
0.6479999989,5,179240.4687500000,158992.4062500000,190719.9687500000,174182.5937500000,168355.1562500000,138160.0468750000,160369.1875000000,122754.2890625000,,,
0.6519999988,5,179239.3906250000,158978.5156250000,190724.9843750000,174139.0625000000,168359.2812500000,138150.5468750000,160369.5468750000,122988.5234375000,,,
0.6559999988,5,179261.3906250000,158980.1562500000,190759.5625000000,174169.3125000000,168391.3593750000,138170.7187500000,160400.5000000000,122413.8359375000,,,
0.6599999988,5,179266.4843750000,158985.7812500000,190767.5625000000,174177.8281250000,168401.4687500000,138181.0781250000,160398.8281250000,121791.7500000000,,,
0.6639999989,5,179208.4375000000,158938.9843750000,190705.0312500000,174131.2343750000,168343.0000000000,138128.2656250000,160355.8593750000,121998.7890625000,,,
0.6679999989,5,179204.5781250000,158938.6875000000,190699.5937500000,174129.3281250000,168335.0000000000,138119.4531250000,160351.2500000000,122662.9843750000,,,
0.6719999989,5,179248.6250000000,158975.3593750000,190740.5781250000,174199.3906250000,168371.5312500000,138138.7500000000,160366.0468750000,122835.0000000000,,,
0.6759999988,5,179273.8593750000,158990.7500000000,190766.8906250000,174261.6718750000,168394.6250000000,138154.6562500000,160396.6875000000,122297.5625000000,,,
0.6799999988,5,179281.9375000000,159002.5000000000,190782.6250000000,174285.6250000000,168409.2968750000,138171.2812500000,160423.6875000000,121681.1406250000,,,
0.6839999990,5,179233.0625000000,158966.3125000000,190735.9375000000,174199.6562500000,168367.0000000000,138136.1406250000,160368.0312500000,121841.9062500000,,,
0.6879999989,5,179212.5781250000,158955.2343750000,190708.0156250000,174139.4687500000,168345.0156250000,138121.6406250000,160341.5625000000,122495.2421875000,,,
0.6919999989,5,179252.5625000000,158983.0781250000,190752.7187500000,174204.5312500000,168386.1875000000,138148.5625000000,160395.5781250000,122678.8671875000,,,
0.6959999988,5,179292.7500000000,159007.4687500000,190803.7187500000,174258.0000000000,168432.4843750000,138182.5937500000,160463.2343750000,122102.9921875000,,,
0.6999999988,5,179301.2968750000,159019.7656250000,190815.4843750000,174257.3750000000,168444.1250000000,138196.9531250000,160471.2500000000,121471.6875000000,,,
0.7039999987,5,179264.6875000000,159003.7031250000,190766.8125000000,174224.6875000000,168404.0468750000,138179.5468750000,160410.1718750000,121618.7265625000,,,
0.7079999989,5,179240.8437500000,158987.3125000000,190733.8125000000,174191.8750000000,168373.0937500000,138154.1093750000,160368.7656250000,122279.6484375000,,,
0.7119999989,5,179251.8125000000,158988.6562500000,190738.5937500000,174188.9218750000,168378.8906250000,138153.3593750000,160398.5625000000,122498.9453125000,,,
0.7159999989,5,179269.0781250000,158996.9218750000,190764.7187500000,174186.3281250000,168401.3125000000,138165.6718750000,160431.3437500000,121945.8750000000,,,
0.7199999988,5,179269.4375000000,158995.9843750000,190772.4687500000,174195.0625000000,168408.2031250000,138173.2656250000,160434.3750000000,121363.1093750000,,,
0.7239999988,5,179246.5000000000,158989.3906250000,190739.4531250000,174172.7031250000,168378.6250000000,138166.4531250000,160401.7343750000,121549.3906250000,,,
0.7279999990,5,179226.2187500000,158982.6718750000,190711.1250000000,174151.1093750000,168353.1093750000,138156.5312500000,160364.1562500000,122248.4218750000,,,
0.7319999989,5,179246.6406250000,158993.0312500000,190739.0468750000,174195.8750000000,168377.2812500000,138164.8437500000,160380.7812500000,122505.7578125000,,,
0.7359999989,5,179290.9218750000,159013.2343750000,190797.0000000000,174241.5312500000,168428.9062500000,138191.2031250000,160450.8437500000,121985.0078125000,,,
0.7399999988,5,179282.1718750000,159003.4687500000,190790.0000000000,174214.6562500000,168424.5312500000,138193.7812500000,160450.8125000000,121385.2343750000,,,
0.7439999988,5,179251.5468750000,158988.5312500000,190749.7500000000,174186.4531250000,168387.9218750000,138173.7187500000,160407.3593750000,121554.7500000000,,,
0.7479999987,5,179227.3750000000,158971.0156250000,190717.4843750000,174148.8750000000,168359.2812500000,138150.8906250000,160367.0937500000,122225.2812500000,,,
0.7519999989,5,179249.1250000000,158984.9531250000,190738.6406250000,174189.9218750000,168378.6718750000,138167.0937500000,160393.9687500000,122425.1562500000,,,
0.7559999989,5,179289.5781250000,159012.7656250000,190785.0781250000,174256.2968750000,168419.3125000000,138199.1562500000,160445.9375000000,121883.1640625000,,,
0.7599999988,5,179269.7343750000,158992.8906250000,190768.8906250000,174237.5000000000,168404.9375000000,138187.9062500000,160457.5156250000,121321.3984375000,,,
0.7639999988,5,179216.0312500000,158954.1093750000,190712.0000000000,174164.4687500000,168350.9687500000,138148.9843750000,160409.2968750000,121540.0000000000,,,
0.7679999988,6,179212.8593750000,158954.6406250000,190703.6093750000,174174.6562500000,168341.2343750000,138139.7656250000,160387.4531250000,122251.0546875000,,,
0.7719999987,6,179251.1406250000,158986.4375000000,190744.4687500000,174195.7656250000,168376.6562500000,138165.4375000000,160417.1718750000,122510.5000000000,,,
0.7759999987,6,179279.0156250000,159006.7968750000,190777.2968750000,174219.5781250000,168406.5625000000,138189.7343750000,160435.4375000000,121999.0312500000,,,
0.7799999986,6,179265.1718750000,158994.0781250000,190767.2343750000,174212.1562500000,168398.3125000000,138186.3593750000,160428.6250000000,121429.7343750000,,,
0.7839999986,6,179230.2812500000,158971.3906250000,190726.7656250000,174188.1250000000,168359.0156250000,138161.7031250000,160398.6406250000,121625.2968750000,,,
0.7879999985,6,179216.5156250000,158968.9687500000,190706.2656250000,174150.7656250000,168339.5312500000,138152.2343750000,160368.5781250000,122329.6406250000,,,
0.7919999987,6,179231.5937500000,158979.2187500000,190722.7031250000,174169.3437500000,168354.4843750000,138157.8125000000,160361.5000000000,122609.5078125000,,,
0.7959999987,6,179281.9843750000,159020.3593750000,190780.4843750000,174243.1562500000,168407.3750000000,138202.6875000000,160423.3750000000,122104.1484375000,,,
0.7999999986,6,179291.8906250000,159021.5937500000,190799.3593750000,174271.4375000000,168421.9843750000,138209.6875000000,160463.6875000000,121492.4687500000,,,
0.8039999986,6,179245.5937500000,158984.4531250000,190743.0156250000,174217.9687500000,168371.2343750000,138171.2812500000,160418.2031250000,121650.4296875000,,,
0.8079999986,6,179209.0781250000,158956.5468750000,190699.1093750000,174160.4375000000,168329.9687500000,138138.8593750000,160374.5625000000,122386.9609375000,,,
0.8119999988,6,179231.8593750000,158971.5781250000,190722.4218750000,174163.0937500000,168350.5625000000,138151.1093750000,160395.8593750000,122684.3125000000,,,
0.8159999987,6,179252.2656250000,158984.7187500000,190744.2187500000,174220.0625000000,168371.4531250000,138163.3125000000,160405.1875000000,122221.8750000000,,,
0.8199999987,6,179241.4531250000,158973.8593750000,190738.7031250000,174234.9218750000,168365.8750000000,138155.6093750000,160392.4687500000,121696.3437500000,,,
0.8239999986,6,179218.9218750000,158960.7656250000,190711.7656250000,174204.2656250000,168340.7500000000,138141.6718750000,160366.2343750000,121888.0156250000,,,
0.8279999986,6,179224.5000000000,158970.7187500000,190710.1093750000,174232.2500000000,168338.4843750000,138140.9218750000,160354.7812500000,122598.6718750000,,,
0.8319999985,6,179227.7812500000,158972.8281250000,190714.7187500000,174167.8750000000,168345.8906250000,138149.0156250000,160361.1406250000,122904.3593750000,,,
0.8359999987,6,179246.3437500000,158977.3906250000,190746.9843750000,174159.0156250000,168373.9531250000,138165.1875000000,160417.3906250000,122428.2968750000,,,
0.8399999987,6,179258.2500000000,158980.5000000000,190767.9843750000,174203.1718750000,168390.5781250000,138173.0781250000,160434.1562500000,121846.5000000000,,,
0.8439999986,6,179218.2343750000,158952.0468750000,190720.8906250000,174187.8750000000,168349.0000000000,138147.4062500000,160354.3906250000,122003.8593750000,,,
0.8479999986,6,179194.9531250000,158938.2812500000,190685.4062500000,174155.3750000000,168319.5312500000,138130.4531250000,160327.4062500000,122696.7812500000,,,
0.8519999986,6,179211.0937500000,158944.8125000000,190700.0156250000,174169.1093750000,168329.3125000000,138132.7031250000,160388.9843750000,122989.7343750000,,,
0.8559999987,6,179266.6406250000,158983.9062500000,190765.2812500000,174214.1718750000,168387.2031250000,138175.2968750000,160456.9062500000,122545.2890625000,,,
0.8599999987,6,179261.7656250000,158969.9687500000,190767.0156250000,174231.5937500000,168389.7187500000,138169.9687500000,160446.4687500000,121940.6953125000,,,
0.8639999987,6,179227.0625000000,158947.1718750000,190727.6250000000,174233.0781250000,168355.3906250000,138139.5000000000,160375.8906250000,122079.8750000000,,,
0.8679999986,6,179233.9687500000,158961.4687500000,190724.5625000000,174243.7812500000,168352.5468750000,138139.9843750000,160381.6875000000,122753.5625000000,,,
0.8719999986,6,179232.1562500000,158957.8593750000,190717.5312500000,174175.4687500000,168343.0781250000,138140.5937500000,160404.8437500000,123055.5546875000,,,
0.8759999985,6,179253.9062500000,158970.4218750000,190746.1250000000,174207.8593750000,168368.2968750000,138157.5156250000,160426.1406250000,122572.8906250000,,,
0.8799999987,6,179256.1093750000,158977.4218750000,190755.7343750000,174219.5625000000,168379.1250000000,138160.7656250000,160381.3437500000,121972.0781250000,,,
0.8839999987,6,179244.4375000000,158976.4062500000,190740.3906250000,174225.4062500000,168367.6406250000,138151.7343750000,160335.5312500000,122121.1015625000,,,
0.8879999986,6,179215.6093750000,158950.4062500000,190698.6250000000,174181.0156250000,168328.8593750000,138122.1718750000,160362.0781250000,122813.2187500000,,,
0.8919999986,6,179234.4375000000,158961.2500000000,190711.7968750000,174194.2968750000,168339.3750000000,138130.9375000000,160397.8437500000,123115.0468750000,,,
0.8959999986,7,179259.6406250000,158974.6250000000,190750.5781250000,174186.7812500000,168373.1718750000,138153.9062500000,160412.9062500000,122632.5156250000,,,
0.8999999985,7,179237.9375000000,158954.8593750000,190732.5468750000,174171.5781250000,168356.8593750000,138142.8437500000,160410.5000000000,122046.5859375000,,,
0.9039999985,7,179209.0781250000,158945.0781250000,190695.3750000000,174149.4687500000,168322.2187500000,138132.3125000000,160361.5156250000,122174.6406250000,,,
0.9079999984,7,179200.6406250000,158942.1718750000,190685.0312500000,174154.8593750000,168314.1406250000,138124.1250000000,160328.7187500000,122856.4296875000,,,
0.9119999984,7,179204.0625000000,158929.3750000000,190688.8281250000,174177.2656250000,168316.9843750000,138113.3750000000,160365.3281250000,123177.0078125000,,,
0.9159999983,7,179247.7031250000,158963.2031250000,190737.6562500000,174230.7656250000,168361.4843750000,138152.8750000000,160423.2343750000,122699.0390625000,,,
0.9199999985,7,179247.3281250000,158963.8437500000,190743.1250000000,174239.0000000000,168368.0156250000,138159.0000000000,160423.1562500000,122114.6328125000,,,
0.9239999985,7,179197.4218750000,158926.9218750000,190689.9375000000,174180.5312500000,168321.1875000000,138123.6718750000,160353.9375000000,122254.3828125000,,,
0.9279999984,7,179175.0937500000,158925.5937500000,190656.2656250000,174100.7343750000,168290.7500000000,138111.1406250000,160304.4218750000,122962.1328125000,,,
0.9319999984,7,179210.9375000000,158958.2968750000,190687.5468750000,174147.5937500000,168320.6093750000,138134.4531250000,160333.3906250000,123307.5234375000,,,
0.9359999984,7,179246.4687500000,158965.7812500000,190734.0781250000,174235.8906250000,168361.7187500000,138152.1250000000,160401.8593750000,122837.3593750000,,,
0.9399999985,7,179239.3437500000,158949.5781250000,190733.7656250000,174257.0000000000,168359.5937500000,138142.6875000000,160399.9843750000,122258.5625000000,,,
0.9439999985,7,179199.5625000000,158921.6093750000,190698.0937500000,174190.7187500000,168325.7187500000,138109.5625000000,160341.9062500000,122418.4765625000,,,
0.9479999985,7,179152.6562500000,158884.5937500000,190640.7343750000,174118.2812500000,168272.3750000000,138073.5468750000,160312.3281250000,123155.1718750000,,,
0.9519999984,7,179188.2968750000,158916.0312500000,190669.8906250000,174166.2031250000,168297.1250000000,138102.3437500000,160371.9062500000,123483.0156250000,,,
0.9559999984,7,179256.7968750000,158976.0000000000,190744.4843750000,174249.2968750000,168368.2968750000,138164.1718750000,160412.4531250000,122995.4453125000,,,
0.9599999983,7,179265.0312500000,158979.1406250000,190771.7343750000,174223.2031250000,168398.6562500000,138177.2812500000,160366.7031250000,122348.7421875000,,,
0.9639999985,7,179220.2187500000,158939.5000000000,190731.0000000000,174199.3906250000,168365.1875000000,138137.1562500000,160288.0781250000,122427.1953125000,,,
0.9679999985,7,179194.2812500000,158926.1093750000,190677.2968750000,174186.9375000000,168314.1718750000,138117.5312500000,160349.5000000000,123074.7343750000,,,
0.9719999984,7,179232.7656250000,158965.8906250000,190705.5156250000,174188.3125000000,168334.9843750000,138150.7031250000,160441.2031250000,123346.8203125000,,,
0.9759999984,7,179259.5156250000,158980.0156250000,190743.8125000000,174202.9531250000,168368.5312500000,138169.0312500000,160462.6093750000,122826.4687500000,,,
0.9799999984,7,179243.9843750000,158958.9375000000,190739.0468750000,174205.2031250000,168365.4687500000,138163.0781250000,160440.7500000000,122170.2890625000,,,
0.9839999985,7,179214.3437500000,158938.9531250000,190705.0625000000,174193.7812500000,168335.9687500000,138142.5468750000,160388.7968750000,122255.9375000000,,,
0.9879999985,7,179207.7656250000,158941.6875000000,190690.9062500000,174190.8906250000,168320.5156250000,138126.4843750000,160362.2500000000,122953.2265625000,,,
0.9919999985,7,179243.7187500000,158965.3437500000,190734.9062500000,174208.9062500000,168358.3750000000,138147.1406250000,160382.6093750000,123260.8750000000,,,
0.9959999984,7,179267.2343750000,158980.1562500000,190761.1250000000,174245.8906250000,168383.5781250000,138174.2343750000,160416.7500000000,122751.3359375000,,,
0.9999999984,7,179254.1718750000,158976.6093750000,190749.9531250000,174234.2031250000,168374.8593750000,138178.4375000000,160423.8593750000,122092.8593750000,,,
1.0039999983,7,179229.3593750000,158967.6562500000,190721.0468750000,174196.9687500000,168348.0468750000,138157.2812500000,160391.4843750000,122174.7421875000,,,
1.0079999985,7,179207.1875000000,158947.4062500000,190694.9531250000,174179.2968750000,168325.7500000000,138126.3593750000,160340.6250000000,122836.6640625000,,,
1.0119999985,7,179229.2343750000,158952.0468750000,190717.6406250000,174225.6250000000,168345.9218750000,138131.0468750000,160369.6406250000,123164.0781250000,,,
1.0159999984,7,179268.8437500000,158979.2656250000,190761.3593750000,174276.7656250000,168383.7968750000,138165.8593750000,160444.9843750000,122686.2187500000,,,
1.0199999984,7,179250.4375000000,158964.5468750000,190744.9687500000,174243.0781250000,168366.8750000000,138160.0156250000,160428.9218750000,122080.3281250000,,,
1.0239999983,8,179218.4375000000,158944.5937500000,190711.3125000000,174180.9687500000,168338.8125000000,138144.2500000000,160388.1250000000,122177.5625000000,,,
1.0279999983,8,179234.6406250000,158973.7187500000,190723.2656250000,174181.6250000000,168351.5468750000,138158.1093750000,160374.9531250000,122828.1015625000,,,
1.0319999983,8,179266.6250000000,158994.6406250000,190751.9218750000,174260.6250000000,168376.4218750000,138175.5937500000,160398.4843750000,123144.9531250000,,,
1.0359999982,8,179304.7031250000,159025.3281250000,190790.4062500000,174319.3593750000,168414.4218750000,138211.7343750000,160438.2656250000,122686.9687500000,,,
1.0399999982,8,179310.4218750000,159031.5156250000,190799.2031250000,174332.0468750000,168424.9062500000,138223.2656250000,160457.8906250000,122063.7031250000,,,
1.0439999981,8,179264.3906250000,158996.4062500000,190749.1093750000,174291.3906250000,168376.4687500000,138195.4531250000,160432.4843750000,122126.4375000000,,,
1.0479999983,8,179262.3281250000,159003.9531250000,190741.1093750000,174288.4843750000,168368.8281250000,138198.6406250000,160416.6093750000,122769.1250000000,,,
1.0519999983,8,179309.9843750000,159042.2031250000,190792.5781250000,174336.7187500000,168414.4218750000,138222.0625000000,160447.4531250000,123073.6875000000,,,
1.0559999982,8,179381.2031250000,159108.4687500000,190876.5625000000,174396.9062500000,168492.4843750000,138280.2656250000,160503.0000000000,122599.7109375000,,,
1.0599999982,8,179348.7187500000,159077.0937500000,190848.5781250000,174353.7968750000,168472.9218750000,138265.1093750000,160438.6562500000,121944.2109375000,,,
1.0639999982,8,179263.4218750000,158993.9375000000,190755.7031250000,174282.0312500000,168389.1093750000,138195.2031250000,160405.2968750000,122027.8125000000,,,
1.0679999983,8,179229.9218750000,158967.8125000000,190707.3125000000,174255.3125000000,168338.6562500000,138161.7812500000,160419.0000000000,122715.4765625000,,,
1.0719999983,8,179255.6250000000,158991.9531250000,190729.8437500000,174268.7031250000,168356.8593750000,138176.6718750000,160436.7812500000,123078.0625000000,,,
1.0759999983,8,179297.4843750000,159035.7656250000,190774.4687500000,174277.0312500000,168399.8125000000,138216.4687500000,160464.4687500000,122620.7421875000,,,
1.0799999982,8,179261.9218750000,158983.1562500000,190755.0000000000,174277.3125000000,168379.7656250000,138183.8593750000,160439.5937500000,121990.1562500000,,,
1.0839999982,8,179235.6406250000,158959.3906250000,190736.9843750000,174240.5937500000,168358.9375000000,138161.5781250000,160413.0468750000,122073.2734375000,,,
1.0879999981,8,179216.2187500000,158948.8593750000,190704.9218750000,174230.9375000000,168331.7343750000,138141.5156250000,160371.8750000000,122769.2578125000,,,
1.0919999983,8,179235.6406250000,158968.1875000000,190721.7968750000,174253.3750000000,168349.1875000000,138154.8593750000,160385.3437500000,123144.7656250000,,,
1.0959999983,8,179277.5625000000,159004.1093750000,190767.2656250000,174276.5000000000,168393.6406250000,138197.1406250000,160437.9375000000,122694.5859375000,,,
1.0999999982,8,179271.4531250000,158995.0625000000,190770.9062500000,174262.5312500000,168396.9062500000,138193.3750000000,160442.4375000000,122058.2812500000,33029,1.1027012703,0.0000000000
1.1039999982,8,179232.6875000000,158953.0468750000,190731.1875000000,174242.8593750000,168359.5781250000,138152.7812500000,160400.5156250000,122126.7890625000,,,
1.1079999981,8,179210.7812500000,158940.8593750000,190697.0156250000,174221.0312500000,168325.6406250000,138130.7500000000,160362.4843750000,122838.9375000000,,,
1.1119999983,8,179234.4531250000,158967.3281250000,190715.0625000000,174241.1718750000,168338.5156250000,138146.6875000000,160367.9843750000,123248.9453125000,,,
1.1159999983,8,179293.1250000000,159026.5625000000,190779.5156250000,174271.2187500000,168396.1093750000,138201.7187500000,160417.9843750000,122821.2343750000,,,
1.1199999982,8,179282.5468750000,158995.6250000000,190785.1718750000,174268.3437500000,168402.4687500000,138190.5312500000,160445.5468750000,122175.4687500000,,,
1.1239999982,8,179225.9062500000,158952.9843750000,190713.3437500000,174234.1562500000,168342.0312500000,138155.3750000000,160402.8750000000,122241.3203125000,,,
1.1279999982,8,179231.1875000000,158966.9531250000,190716.9375000000,174218.6406250000,168344.9218750000,138160.1718750000,160394.2187500000,122930.9687500000,,,
1.1319999981,8,179268.1718750000,158999.0625000000,190751.1875000000,174251.9531250000,168380.1406250000,138186.0937500000,160401.7343750000,123307.0390625000,,,
1.1359999983,8,179272.2812500000,158986.5937500000,190759.1562500000,174282.1406250000,168390.2656250000,138184.3125000000,160393.8750000000,122876.8125000000,,,
1.1399999983,8,179258.0156250000,158972.9687500000,190747.7031250000,174268.8593750000,168382.6093750000,138181.9062500000,160389.9218750000,122273.7734375000,,,
1.1439999982,8,179235.0468750000,158966.9843750000,190716.5625000000,174237.0468750000,168352.1718750000,138173.5937500000,160425.0156250000,122355.1796875000,,,
1.1479999982,8,179223.0312500000,158960.8437500000,190697.8125000000,174227.6250000000,168334.0468750000,138160.9218750000,160404.1875000000,123040.6718750000,,,
1.1519999981,9,179235.9531250000,158972.5937500000,190709.0781250000,174249.5468750000,168341.3281250000,138164.1250000000,160397.9218750000,123454.1328125000,,,
1.1559999981,9,179286.0937500000,159008.6875000000,190768.9218750000,174308.7187500000,168395.3593750000,138205.1875000000,160449.2500000000,123036.9921875000,,,
1.1599999981,9,179286.8750000000,159007.3750000000,190777.0000000000,174287.9843750000,168401.2500000000,138213.9218750000,160453.2031250000,122396.1875000000,,,
1.1639999980,9,179260.0156250000,158990.7812500000,190749.5000000000,174247.7812500000,168375.9375000000,138196.8750000000,160418.6718750000,122458.2578125000,,,
1.1679999980,9,179225.7968750000,158960.7343750000,190707.4687500000,174214.8906250000,168337.2812500000,138164.4218750000,160374.8281250000,123142.0859375000,,,
1.1719999979,9,179232.9843750000,158963.1250000000,190711.2812500000,174233.0000000000,168339.2968750000,138161.0312500000,160381.6093750000,123563.6718750000,,,
1.1759999981,9,179265.7031250000,158984.6093750000,190749.3906250000,174263.9218750000,168374.7031250000,138186.4843750000,160419.4843750000,123186.5781250000,,,
1.1799999981,9,179268.6875000000,158991.0156250000,190752.1875000000,174268.9843750000,168379.6093750000,138200.5468750000,160424.9062500000,122555.8046875000,,,
1.1839999980,9,179253.2812500000,158984.2812500000,190741.1093750000,174246.1875000000,168372.2031250000,138194.1875000000,160404.4375000000,122597.3828125000,,,
1.1879999980,9,179227.3437500000,158967.4687500000,190705.3750000000,174221.2812500000,168341.2343750000,138171.4375000000,160370.5312500000,123309.6953125000,,,
1.1919999979,9,179233.7343750000,158965.6406250000,190707.8437500000,174243.5625000000,168340.0000000000,138164.2031250000,160382.3906250000,123756.2265625000,,,
1.1959999981,9,179265.9531250000,158988.3437500000,190745.2343750000,174284.2187500000,168373.4375000000,138192.3906250000,160425.4843750000,123360.0156250000,,,
1.1999999981,9,179253.1562500000,158977.0937500000,190738.7968750000,174244.6406250000,168368.8750000000,138194.9375000000,160424.2812500000,122720.0078125000,,,
1.2039999980,9,179199.6718750000,158934.9843750000,190682.9375000000,174182.6718750000,168314.8281250000,138155.5312500000,160367.7187500000,122763.4375000000,,,
1.2079999980,9,179177.5937500000,158917.6875000000,190652.5468750000,174182.8437500000,168283.9843750000,138126.2187500000,160330.6562500000,123452.7890625000,,,
1.2119999980,9,179221.4218750000,158954.8906250000,190693.5781250000,174242.3906250000,168322.4218750000,138154.8593750000,160364.6093750000,123864.7812500000,,,
1.2159999979,9,179257.3125000000,158979.3437500000,190739.1718750000,174268.9375000000,168366.7968750000,138191.7500000000,160402.9062500000,123473.0390625000,,,
1.2199999981,9,179267.3750000000,158990.4531250000,190756.5781250000,174261.9375000000,168385.3750000000,138216.0781250000,160411.2812500000,122791.0859375000,,,
1.2239999981,9,179228.3906250000,158962.6093750000,190714.6406250000,174217.2812500000,168343.0000000000,138188.9062500000,160377.9062500000,122781.2187500000,,,
1.2279999980,9,179187.3906250000,158921.2031250000,190668.4531250000,174198.9375000000,168295.7968750000,138144.5937500000,160343.5468750000,123436.5625000000,,,
1.2319999980,9,179222.1250000000,158952.5312500000,190698.1875000000,174244.7968750000,168323.9062500000,138167.1250000000,160379.6562500000,123836.5078125000,,,
1.2359999979,9,179255.6250000000,158976.5937500000,190736.2812500000,174282.7031250000,168360.7031250000,138193.9531250000,160421.5781250000,123456.7578125000,,,
1.2399999981,9,179238.7187500000,158956.5468750000,190729.4687500000,174239.4375000000,168351.7656250000,138181.4687500000,160412.5156250000,122835.8828125000,,,
1.2439999981,9,179214.7187500000,158945.6406250000,190699.2343750000,174215.1875000000,168326.0156250000,138166.2187500000,160375.3593750000,122861.7109375000,,,
1.2479999980,9,179201.9218750000,158941.1093750000,190682.9531250000,174191.7500000000,168312.8281250000,138152.5000000000,160347.8750000000,123519.4687500000,,,
1.2519999980,9,179247.5156250000,158983.9375000000,190731.6093750000,174243.8125000000,168358.6875000000,138181.8750000000,160371.2031250000,123915.1250000000,,,
1.2559999980,9,179276.1406250000,158995.9531250000,190764.7968750000,174287.5000000000,168389.1562500000,138201.4218750000,160414.2187500000,123536.0468750000,,,
1.2599999979,9,179265.4062500000,158982.2500000000,190755.3281250000,174279.0781250000,168379.5781250000,138201.6093750000,160438.4218750000,122888.3984375000,,,
1.2639999981,9,179218.0468750000,158951.0468750000,190704.3125000000,174200.2656250000,168330.4531250000,138171.2343750000,160393.1250000000,122882.6093750000,,,
1.2679999981,9,179191.1406250000,158930.9687500000,190670.5468750000,174179.9687500000,168298.1250000000,138139.5781250000,160350.9218750000,123566.4062500000,,,
1.2719999980,9,179205.0312500000,158939.7812500000,190683.4687500000,174211.8906250000,168310.5937500000,138141.2968750000,160354.9218750000,123995.8828125000,,,
1.2759999980,9,179239.4531250000,158962.9375000000,190726.7031250000,174252.1718750000,168350.8906250000,138173.0468750000,160374.3437500000,123628.7968750000,,,
1.2799999979,10,179256.0468750000,158978.6250000000,190748.5468750000,174245.2031250000,168373.4375000000,138201.5156250000,160408.2187500000,122937.4843750000,,,
1.2839999979,10,179224.3750000000,158960.0468750000,190712.0312500000,174200.0781250000,168341.5781250000,138181.6406250000,160398.1406250000,122881.3437500000,,,
1.2879999978,10,179190.7656250000,158937.4843750000,190672.0937500000,174156.0625000000,168304.5312500000,138149.7500000000,160349.1562500000,123534.7890625000,,,
1.2919999978,10,179200.3125000000,158937.5156250000,190677.7500000000,174203.9531250000,168308.9375000000,138148.4062500000,160357.2500000000,123956.8593750000,,,
1.2959999978,10,179233.4687500000,158960.1250000000,190715.8437500000,174242.4687500000,168344.0468750000,138178.0156250000,160400.7656250000,123571.7187500000,,,
1.2999999977,10,179250.9843750000,158977.1718750000,190739.6406250000,174242.5468750000,168367.4531250000,138200.0937500000,160427.2031250000,122915.2500000000,,,
1.3039999979,10,179222.5781250000,158953.7031250000,190712.5937500000,174190.8906250000,168340.9062500000,138174.0156250000,160396.0468750000,122905.3750000000,,,
1.3079999979,10,179185.4531250000,158927.1093750000,190662.8125000000,174171.2500000000,168294.9062500000,138136.6875000000,160339.3593750000,123557.9296875000,,,
1.3119999978,10,179202.5156250000,158940.3750000000,190678.6875000000,174207.7031250000,168309.4687500000,138147.6250000000,160341.1875000000,123980.5937500000,,,
1.3159999978,10,179225.0781250000,158951.5937500000,190703.3437500000,174236.1406250000,168333.7968750000,138167.3906250000,160385.0781250000,123618.2031250000,,,
1.3199999977,10,179236.7187500000,158961.4843750000,190722.8906250000,174200.1718750000,168353.5625000000,138184.6406250000,160394.8593750000,122988.3671875000,,,
1.3239999979,10,179221.6875000000,158949.5781250000,190715.3281250000,174185.4375000000,168346.5937500000,138176.0000000000,160362.1406250000,122924.0703125000,,,
1.3279999979,10,179192.0000000000,158927.1093750000,190675.3125000000,174171.0937500000,168305.2812500000,138154.7812500000,160349.0781250000,123548.1718750000,,,
1.3319999978,10,179189.9375000000,158926.4375000000,190659.8906250000,174195.6250000000,168289.8906250000,138149.5000000000,160360.5312500000,123973.0078125000,,,
1.3359999978,10,179223.4687500000,158954.9375000000,190703.0000000000,174228.3281250000,168327.6875000000,138178.2812500000,160403.1562500000,123579.8203125000,,,
1.3399999978,10,179224.4062500000,158952.5312500000,190707.7500000000,174245.4218750000,168334.6093750000,138190.8593750000,160411.3593750000,122876.7343750000,,,
1.3439999977,10,179187.6250000000,158927.9843750000,190668.1562500000,174197.6250000000,168297.7031250000,138166.9062500000,160368.6875000000,122796.4531250000,,,
1.3479999979,10,179162.5156250000,158911.7656250000,190638.2500000000,174164.0156250000,168268.5625000000,138139.7656250000,160331.2343750000,123424.0625000000,,,
1.3519999979,10,179184.8906250000,158929.4687500000,190658.4375000000,174204.1093750000,168286.4531250000,138149.0468750000,160335.7187500000,123822.4296875000,,,
1.3559999978,10,179237.7812500000,158972.0625000000,190718.5781250000,174245.0156250000,168345.4375000000,138196.3906250000,160399.0468750000,123417.7578125000,,,
1.3599999978,10,179259.7500000000,158992.5468750000,190748.8906250000,174242.4375000000,168375.0781250000,138222.0312500000,160430.8281250000,122746.9687500000,,,
1.3639999977,10,179227.6718750000,158968.9218750000,190718.8750000000,174205.7187500000,168345.7343750000,138196.2187500000,160402.1875000000,122716.6015625000,,,
1.3679999979,10,179187.7343750000,158934.8593750000,190668.6875000000,174190.2656250000,168297.9375000000,138153.9843750000,160360.8750000000,123390.6718750000,,,
1.3719999979,10,179220.8281250000,158963.6093750000,190700.0937500000,174259.6875000000,168325.2968750000,138171.4375000000,160381.9843750000,123836.3437500000,,,
1.3759999978,10,179250.6875000000,158980.9375000000,190740.2031250000,174289.0312500000,168361.6406250000,138195.4218750000,160391.0468750000,123486.9921875000,,,
1.3799999978,10,179216.9218750000,158946.8750000000,190711.4687500000,174201.0468750000,168335.9375000000,138181.9531250000,160351.8593750000,122876.8437500000,,,
1.3839999977,10,179177.7343750000,158918.8906250000,190668.5000000000,174136.3750000000,168295.8437500000,138158.7500000000,160350.4687500000,122866.4843750000,,,
1.3879999977,10,179166.4062500000,158916.0312500000,190646.5937500000,174153.2031250000,168272.4531250000,138143.8906250000,160364.0156250000,123545.7812500000,,,
1.3919999979,10,179184.3750000000,158931.5781250000,190662.2031250000,174184.0781250000,168284.6406250000,138149.8437500000,160368.7968750000,124042.7734375000,,,
1.3959999979,10,179230.0625000000,158970.7343750000,190714.0468750000,174230.1718750000,168331.0156250000,138185.9531250000,160402.2656250000,123721.2812500000,,,
1.3999999978,10,179225.5312500000,158957.2500000000,190721.2031250000,174222.4843750000,168339.0312500000,138183.0000000000,160409.6406250000,123099.2500000000,,,
1.4039999978,10,179180.0156250000,158922.2968750000,190672.6093750000,174136.4062500000,168296.7812500000,138157.7656250000,160369.8281250000,123063.0156250000,,,
1.4079999977,11,179164.5625000000,158919.2187500000,190649.7343750000,174131.7656250000,168272.3281250000,138141.2968750000,160343.0625000000,123748.9609375000,,,
1.4119999977,11,179184.4687500000,158938.0156250000,190666.3593750000,174164.0937500000,168286.2500000000,138153.3125000000,160352.0468750000,124250.5625000000,,,
1.4159999976,11,179238.3437500000,158983.6093750000,190726.2031250000,174223.7968750000,168342.5937500000,138197.2656250000,160406.7656250000,123902.0078125000,,,
1.4199999976,11,179247.5468750000,158990.1406250000,190740.0625000000,174253.4687500000,168355.8750000000,138210.9843750000,160426.5937500000,123205.2265625000,,,
1.4239999976,11,179207.6093750000,158960.0468750000,190699.2968750000,174193.6406250000,168317.3281250000,138180.7500000000,160391.6093750000,123125.9609375000,,,
1.4279999975,11,179177.7812500000,158938.3437500000,190662.9531250000,174145.9375000000,168283.5000000000,138153.3593750000,160356.0156250000,123763.7968750000,,,
1.4319999977,11,179206.0000000000,158960.7031250000,190686.4218750000,174216.0937500000,168305.3906250000,138171.2812500000,160357.9218750000,124234.4140625000,,,
1.4359999977,11,179258.1406250000,158997.1093750000,190746.6406250000,174291.0937500000,168360.2500000000,138208.4843750000,160409.3906250000,123914.4296875000,,,
1.4399999976,11,179263.4062500000,158999.8906250000,190758.9531250000,174246.2500000000,168373.3125000000,138222.2187500000,160445.8437500000,123253.8750000000,,,
1.4439999976,11,179219.3281250000,158968.8437500000,190712.4062500000,174159.0468750000,168333.8281250000,138201.3281250000,160414.9218750000,123152.9453125000,,,
1.4479999975,11,179189.1250000000,158952.0937500000,190673.2187500000,174158.9062500000,168298.3125000000,138176.5937500000,160368.6562500000,123767.2265625000,,,
1.4519999977,11,179208.2187500000,158971.0625000000,190684.0312500000,174189.7343750000,168307.6718750000,138185.2343750000,160378.6406250000,124217.5156250000,,,
1.4559999977,11,179248.8281250000,158999.4218750000,190732.2656250000,174231.7812500000,168348.1718750000,138208.2656250000,160428.2812500000,123905.0078125000,,,
1.4599999976,11,179253.8281250000,158999.9843750000,190747.8125000000,174213.2343750000,168364.1093750000,138219.9843750000,160444.7031250000,123258.1953125000,,,
1.4639999976,11,179208.7656250000,158954.1406250000,190705.7343750000,174171.1406250000,168325.8281250000,138183.7500000000,160403.0625000000,123191.4375000000,,,
1.4679999975,11,179195.7031250000,158943.8437500000,190687.0156250000,174152.2031250000,168307.4531250000,138163.6406250000,160375.5156250000,123831.6562500000,,,
1.4719999975,11,179224.4062500000,158968.5625000000,190710.3437500000,174184.7187500000,168329.6406250000,138177.6093750000,160364.6875000000,124291.7578125000,,,
1.4759999977,11,179258.1093750000,158991.6093750000,190745.5156250000,174238.6875000000,168363.1875000000,138199.7656250000,160404.7343750000,123978.7734375000,,,
1.4799999977,11,179254.0312500000,158982.5937500000,190750.7968750000,174235.3281250000,168364.1406250000,138190.2500000000,160438.9218750000,123339.0625000000,,,
1.4839999976,11,179222.5781250000,158958.9375000000,190716.7343750000,174194.8281250000,168329.5625000000,138161.0312500000,160408.2656250000,123243.0156250000,,,
1.4879999976,11,179198.3750000000,158946.8750000000,190679.3593750000,174148.1250000000,168295.6562500000,138144.3437500000,160367.5781250000,123853.1875000000,,,
1.4919999975,11,179212.3593750000,158963.1718750000,190687.9218750000,174176.4062500000,168301.9375000000,138154.2968750000,160371.0156250000,124344.6484375000,,,
1.4959999977,11,179252.8281250000,158996.9687500000,190734.9062500000,174222.7187500000,168344.6875000000,138190.2187500000,160421.0625000000,124041.0000000000,,,
1.4999999977,11,179268.2031250000,159008.9062500000,190759.5156250000,174235.6250000000,168368.0000000000,138209.5312500000,160441.9375000000,123361.7265625000,,,
1.5039999976,11,179245.8906250000,158992.4062500000,190737.0312500000,174210.3906250000,168348.0937500000,138195.7656250000,160420.4218750000,123233.0078125000,,,
1.5079999976,11,179234.2500000000,158991.3750000000,190718.9531250000,174197.7812500000,168331.8906250000,138189.5156250000,160405.2656250000,123806.1953125000,,,
1.5119999975,11,179233.0937500000,158985.8906250000,190715.2500000000,174215.1250000000,168327.5000000000,138184.5312500000,160401.5468750000,124260.0312500000,,,
1.5159999975,11,179258.9218750000,159001.9062500000,190746.6562500000,174243.2343750000,168356.2968750000,138207.5781250000,160434.1250000000,123939.6406250000,,,
1.5199999977,11,179264.5468750000,159004.2187500000,190760.3750000000,174250.6406250000,168369.2812500000,138222.9375000000,160456.7656250000,123268.2031250000,,,
1.5239999976,11,179244.3593750000,158991.5312500000,190739.2656250000,174230.8437500000,168350.7968750000,138214.7656250000,160435.8437500000,123146.2968750000,,,
1.5279999976,11,179230.0625000000,158988.3906250000,190716.7343750000,174209.5781250000,168330.7343750000,138206.1718750000,160415.1718750000,123711.0859375000,,,
1.5319999976,11,179251.3750000000,159012.1562500000,190734.3437500000,174231.9531250000,168347.6875000000,138231.3593750000,160438.4531250000,124133.1093750000,,,
1.5359999975,12,179265.2187500000,159006.7656250000,190760.5312500000,174240.4062500000,168372.1562500000,138233.9843750000,160460.4062500000,123773.9609375000,,,
1.5399999975,12,179273.2656250000,159004.8281250000,190778.4218750000,174239.9687500000,168391.8906250000,138242.5781250000,160476.5000000000,123049.9531250000,,,
1.5439999974,12,179237.2187500000,158984.6093750000,190728.9531250000,174218.1562500000,168349.8437500000,138226.0781250000,160457.3906250000,122901.4609375000,,,
1.5479999974,12,179215.0156250000,158972.8125000000,190700.7656250000,174206.2343750000,168323.0156250000,138208.8906250000,160447.0625000000,123480.7656250000,,,
1.5519999973,12,179235.2968750000,158983.0312500000,190722.0312500000,174210.7031250000,168341.8437500000,138211.6718750000,160467.8750000000,123931.9921875000,,,
1.5559999973,12,179265.4843750000,159005.0156250000,190760.6875000000,174190.7031250000,168380.6875000000,138238.7968750000,160506.7968750000,123614.7421875000,,,
1.5599999975,12,179273.3437500000,159016.6406250000,190777.8593750000,174181.5312500000,168400.4531250000,138263.8750000000,160506.0625000000,122971.2812500000,,,
1.5639999975,12,179271.6875000000,159026.7187500000,190776.7812500000,174179.9375000000,168398.7812500000,138267.2031250000,160490.1093750000,122826.3359375000,,,
1.5679999974,12,179233.7812500000,158985.9218750000,190727.4531250000,174174.8125000000,168353.0000000000,138221.4687500000,160463.0937500000,123372.5390625000,,,
1.5719999974,12,179244.1718750000,158988.9843750000,190729.1718750000,174193.2500000000,168356.2968750000,138222.9375000000,160470.9843750000,123826.5000000000,,,
1.5759999973,12,179289.8125000000,159024.0156250000,190783.5156250000,174226.7656250000,168408.6250000000,138261.8125000000,160526.2031250000,123508.7187500000,,,
1.5799999975,12,179300.3593750000,159028.7031250000,190803.2812500000,174241.4375000000,168427.0781250000,138280.2031250000,160564.4062500000,122818.7421875000,,,
1.5839999975,12,179265.8125000000,159003.4062500000,190764.1718750000,174214.7031250000,168392.6718750000,138259.1718750000,160543.7968750000,122667.3828125000,,,
1.5879999974,12,179244.5937500000,158995.9843750000,190735.4843750000,174188.4218750000,168367.3593750000,138248.3906250000,160519.2031250000,123225.9843750000,,,
1.5919999974,12,179253.8281250000,159006.1406250000,190741.5312500000,174200.3281250000,168372.0468750000,138254.5625000000,160521.0000000000,123690.7812500000,,,
1.5959999973,12,179297.1718750000,159034.3125000000,190789.6250000000,174260.0000000000,168414.9687500000,138277.9218750000,160561.8593750000,123379.3281250000,,,
1.5999999973,12,179304.6250000000,159036.0000000000,190802.9687500000,174258.6718750000,168427.4843750000,138283.8281250000,160570.7656250000,122666.2578125000,,,
1.6039999975,12,179257.4687500000,159000.5156250000,190753.3125000000,174189.7031250000,168380.5156250000,138250.1406250000,160519.0468750000,122489.6875000000,,,
1.6079999974,12,179233.1093750000,158992.1406250000,190718.5312500000,174171.1250000000,168346.7031250000,138232.7031250000,160480.6718750000,123069.9843750000,,,
1.6119999974,12,179261.3906250000,159018.9218750000,190741.9375000000,174206.1406250000,168367.0625000000,138248.3437500000,160494.0468750000,123564.8515625000,,,
1.6159999974,12,179281.1250000000,159021.7031250000,190768.3281250000,174233.7968750000,168390.6875000000,138255.8437500000,160517.3593750000,123286.3359375000,,,
1.6199999973,12,179284.0781250000,159018.2968750000,190779.8750000000,174228.9687500000,168403.6406250000,138267.4062500000,160541.8437500000,122585.4453125000,,,
1.6239999975,12,179244.9218750000,158988.9531250000,190738.7812500000,174190.8593750000,168367.0312500000,138244.1093750000,160508.6406250000,122430.3593750000,,,
1.6279999975,12,179221.5781250000,158977.0156250000,190712.4843750000,174175.7812500000,168343.7031250000,138224.1718750000,160471.4687500000,123033.5078125000,,,
1.6319999974,12,179240.2187500000,158990.0000000000,190736.3906250000,174195.5781250000,168362.9843750000,138231.3593750000,160468.7500000000,123586.9296875000,,,
1.6359999974,12,179270.2187500000,159006.7656250000,190767.1875000000,174226.2343750000,168392.4375000000,138258.0468750000,160511.4062500000,123317.5000000000,,,
1.6399999973,12,179282.3906250000,159017.5156250000,190779.4843750000,174245.3593750000,168405.7656250000,138276.9062500000,160534.1406250000,122629.0312500000,,,
1.6439999973,12,179246.7968750000,158993.7343750000,190740.5000000000,174199.3906250000,168371.0781250000,138252.3906250000,160508.3125000000,122499.3984375000,,,
1.6479999975,12,179237.4687500000,158997.9687500000,190722.4218750000,174199.3906250000,168354.5312500000,138241.7187500000,160508.5312500000,123096.9921875000,,,
1.6519999974,12,179263.8750000000,159023.8750000000,190747.0312500000,174219.7187500000,168374.5937500000,138253.5156250000,160531.7343750000,123609.2421875000,,,
1.6559999974,12,179282.1718750000,159026.8750000000,190774.0781250000,174218.9687500000,168398.7343750000,138260.5937500000,160553.7343750000,123378.6562500000,,,
1.6599999974,12,179271.2812500000,159012.0000000000,190771.5468750000,174217.4375000000,168397.9062500000,138253.9531250000,160550.1406250000,122762.9296875000,,,
1.6639999973,13,179239.7187500000,158986.5937500000,190740.1406250000,174196.7343750000,168369.7656250000,138224.7656250000,160514.2656250000,122645.1796875000,,,
1.6679999973,13,179224.2656250000,158976.9375000000,190717.7187500000,174233.3437500000,168347.8281250000,138198.5781250000,160467.9843750000,123277.7734375000,,,
1.6719999972,13,179237.3281250000,158982.6250000000,190731.7968750000,174219.6875000000,168359.5781250000,138196.5937500000,160480.2968750000,123806.1718750000,,,
1.6759999972,13,179268.4375000000,159004.5937500000,190766.5625000000,174204.7031250000,168393.6718750000,138222.8593750000,160530.8750000000,123543.5312500000,,,
1.6799999971,13,179265.6562500000,158998.7968750000,190766.9375000000,174231.4375000000,168390.8750000000,138218.1093750000,160529.5000000000,122901.8125000000,,,
1.6839999971,13,179221.4531250000,158962.0468750000,190726.0937500000,174167.2031250000,168350.2968750000,138184.7187500000,160473.7968750000,122754.1015625000,,,
1.6879999973,13,179193.4687500000,158945.2031250000,190690.8750000000,174152.7187500000,168314.4531250000,138154.5781250000,160434.0000000000,123316.1562500000,,,
1.6919999972,13,179228.7968750000,158981.9218750000,190715.1250000000,174208.9843750000,168335.4375000000,138178.6093750000,160457.3906250000,123828.4843750000,,,
1.6959999972,13,179263.9843750000,159007.6562500000,190754.5781250000,174205.7500000000,168369.6093750000,138200.1875000000,160495.3437500000,123610.4765625000,,,
1.6999999972,13,179254.4375000000,158988.7968750000,190751.9687500000,174189.0937500000,168367.8906250000,138198.2031250000,160508.5625000000,122969.1875000000,,,
1.7039999971,13,179211.4218750000,158955.2656250000,190708.1250000000,174140.9687500000,168324.6250000000,138171.7343750000,160466.7656250000,122820.8906250000,,,
1.7079999973,13,179164.1562500000,158912.9375000000,190655.3593750000,174111.6562500000,168273.4218750000,138124.0937500000,160403.9218750000,123445.4921875000,,,
1.7119999973,13,179178.8593750000,158928.2031250000,190664.1562500000,174137.7812500000,168282.3750000000,138131.7656250000,160401.4531250000,124009.8828125000,,,
1.7159999972,13,179219.5937500000,158960.7031250000,190707.7968750000,174173.9062500000,168321.4843750000,138160.1562500000,160439.3281250000,123809.0937500000,,,
1.7199999972,13,179237.6250000000,158974.0625000000,190733.8906250000,174182.9687500000,168346.8281250000,138180.8593750000,160469.3437500000,123171.9609375000,,,
1.7239999971,13,179215.1250000000,158961.7343750000,190710.4531250000,174153.6875000000,168327.5156250000,138168.4062500000,160451.0468750000,123007.3281250000,,,
1.7279999971,13,179197.6875000000,158956.9531250000,190684.0781250000,174144.3437500000,168302.7187500000,138150.7343750000,160418.0937500000,123609.2187500000,,,
1.7319999973,13,179213.4062500000,158970.6562500000,190694.3593750000,174167.4687500000,168310.0625000000,138152.7187500000,160422.7500000000,124165.8593750000,,,
1.7359999972,13,179246.7500000000,158994.0781250000,190734.7187500000,174193.7812500000,168346.0312500000,138178.3281250000,160462.7812500000,123968.9843750000,,,
1.7399999972,13,179251.6718750000,158987.9687500000,190749.0468750000,174194.7968750000,168359.0312500000,138186.2187500000,160478.2968750000,123345.2343750000,,,
1.7439999972,13,179228.9375000000,158968.1718750000,190726.8906250000,174183.3281250000,168339.7500000000,138172.3593750000,160456.4218750000,123181.3750000000,,,
1.7479999971,13,179191.5468750000,158941.1093750000,190678.3437500000,174141.8750000000,168296.3281250000,138142.0156250000,160413.4531250000,123747.1875000000,,,
1.7519999973,13,179190.5781250000,158940.5468750000,190671.3125000000,174156.7343750000,168287.1875000000,138133.3281250000,160405.9687500000,124287.2812500000,,,
1.7559999973,13,179207.7656250000,158947.5625000000,190693.2343750000,174191.6875000000,168304.7187500000,138140.0312500000,160432.4062500000,124060.9843750000,,,
1.7599999972,13,179224.1093750000,158960.0468750000,190719.0156250000,174210.2968750000,168328.5937500000,138161.4687500000,160458.8906250000,123422.6953125000,,,
1.7639999972,13,179237.8593750000,158990.1406250000,190733.1406250000,174195.1718750000,168343.4062500000,138185.1250000000,160471.1093750000,123201.0625000000,,,
1.7679999971,13,179212.5156250000,158976.0468750000,190697.8125000000,174174.7656250000,168311.8281250000,138162.1875000000,160431.9062500000,123756.2265625000,,,
1.7719999971,13,179209.3593750000,158957.7343750000,190692.6406250000,174203.9531250000,168306.9687500000,138144.6718750000,160426.3281250000,124270.6250000000,,,
1.7759999973,13,179252.0781250000,158987.3906250000,190740.7812500000,174240.3750000000,168351.2343750000,138179.0937500000,160479.5156250000,124048.8046875000,,,
1.7799999972,13,179262.4062500000,158994.0156250000,190764.1718750000,174219.1250000000,168373.7968750000,138198.4218750000,160505.3906250000,123390.9921875000,,,
1.7839999972,13,179233.4375000000,158976.0468750000,190736.7031250000,174164.2968750000,168349.6718750000,138184.3125000000,160472.2656250000,123204.7656250000,,,
1.7879999971,13,179196.5312500000,158954.8593750000,190683.6875000000,174146.1250000000,168300.3437500000,138156.9531250000,160447.1562500000,123781.1484375000,,,
1.7919999971,14,179209.2656250000,158969.0000000000,190688.6718750000,174177.0156250000,168306.2031250000,138176.4843750000,160463.9531250000,124366.7031250000,,,
1.7959999971,14,179253.9843750000,159000.1406250000,190742.2968750000,174234.3125000000,168358.4531250000,138219.4843750000,160505.7968750000,124174.4140625000,,,
1.7999999970,14,179291.7968750000,159034.0625000000,190790.0312500000,174262.1562500000,168408.5000000000,138266.6562500000,160544.9375000000,123492.1640625000,,,
1.8039999970,14,179260.8750000000,159011.4531250000,190760.9375000000,174217.5937500000,168382.3437500000,138251.5937500000,160523.0781250000,123262.3828125000,,,
1.8079999969,14,179244.4687500000,159002.8281250000,190737.9218750000,174245.0937500000,168358.8437500000,138235.5781250000,160495.6875000000,123826.4765625000,,,
1.8119999969,14,179250.4687500000,159009.5000000000,190742.2343750000,174228.8593750000,168364.1093750000,138240.0000000000,160510.6250000000,124388.8515625000,,,
1.8159999971,14,179252.1562500000,159001.1875000000,190750.3906250000,174182.0937500000,168371.8281250000,138238.2343750000,160536.8281250000,124209.4687500000,,,
1.8199999970,14,179256.1093750000,159001.5312500000,190759.3750000000,174211.9375000000,168383.5000000000,138244.7968750000,160530.3906250000,123577.4609375000,,,
1.8239999970,14,179219.4375000000,158973.8593750000,190721.0468750000,174174.4375000000,168349.4375000000,138217.0625000000,160499.2812500000,123404.4609375000,,,
1.8279999970,14,179179.8281250000,158943.4687500000,190671.6718750000,174132.7812500000,168297.8906250000,138183.8593750000,160493.5937500000,124023.6484375000,,,
1.8319999969,14,179199.5937500000,158964.2812500000,190684.8906250000,174167.6093750000,168308.4843750000,138192.7343750000,160503.4375000000,124625.7500000000,,,
1.8359999971,14,179242.0468750000,158994.8750000000,190733.0312500000,174223.6562500000,168353.1875000000,138218.0625000000,160536.4218750000,124486.0078125000,,,
1.8399999971,14,179241.9687500000,158985.7031250000,190744.7343750000,174215.7031250000,168363.1406250000,138219.3750000000,160534.3593750000,123888.9453125000,,,
1.8439999970,14,179215.9531250000,158964.9218750000,190721.1250000000,174169.9062500000,168339.4062500000,138201.8906250000,160512.6406250000,123713.7187500000,,,
1.8479999970,14,179185.2187500000,158944.8593750000,190677.5625000000,174149.4375000000,168298.1718750000,138169.8593750000,160471.8593750000,124268.6093750000,,,
1.8519999969,14,179202.0000000000,158961.4375000000,190685.1093750000,174198.5781250000,168302.7656250000,138169.2500000000,160459.2343750000,124835.3593750000,,,
1.8559999969,14,179241.4843750000,158986.0312500000,190730.0781250000,174239.6406250000,168342.0000000000,138188.3906250000,160498.4218750000,124684.0859375000,,,
1.8599999971,14,179265.8125000000,158998.3437500000,190766.5156250000,174238.1718750000,168374.8437500000,138206.5312500000,160518.1875000000,124049.6875000000,,,
1.8639999970,14,179242.4218750000,158984.1562500000,190743.3593750000,174192.0312500000,168353.4062500000,138194.1093750000,160484.3437500000,123846.9453125000,,,
1.8679999970,14,179221.3437500000,158970.2343750000,190710.2343750000,174177.2656250000,168322.1250000000,138171.0156250000,160464.8437500000,124437.9687500000,,,
1.8719999969,14,179237.4062500000,158982.7656250000,190723.0625000000,174210.3906250000,168331.8125000000,138169.0312500000,160474.9531250000,125038.3828125000,,,
1.8759999969,14,179245.1875000000,158981.2031250000,190735.6093750000,174204.8593750000,168341.3125000000,138169.8593750000,160484.7968750000,124904.1640625000,,,
1.8799999971,14,179261.1250000000,158987.1875000000,190761.0937500000,174211.4062500000,168366.0937500000,138185.0625000000,160508.9062500000,124308.5000000000,,,
1.8839999971,14,179239.4687500000,158970.6406250000,190741.2656250000,174179.5468750000,168347.6406250000,138168.2031250000,160487.2968750000,124138.7421875000,,,
1.8879999970,14,179194.2812500000,158932.4062500000,190684.8906250000,174135.1562500000,168295.7031250000,138120.9062500000,160420.5781250000,124755.5390625000,,,
1.8919999970,14,179194.7656250000,158935.7968750000,190676.8125000000,174154.8125000000,168288.0625000000,138111.7968750000,160392.0468750000,125386.9296875000,,,
1.8959999969,14,179243.5000000000,158975.5156250000,190728.7656250000,174218.8281250000,168337.3593750000,138150.5937500000,160443.9375000000,125250.6250000000,,,
1.8999999969,14,179264.6093750000,158992.7656250000,190759.8281250000,174213.8750000000,168365.8750000000,138175.5781250000,160489.4843750000,124621.2421875000,,,
1.9039999971,14,179244.0000000000,158982.5937500000,190737.4687500000,174192.0937500000,168345.2031250000,138167.8750000000,160477.4531250000,124385.5312500000,,,
1.9079999970,14,179202.0625000000,158949.4218750000,190682.9531250000,174173.0156250000,168296.4843750000,138134.4062500000,160426.4843750000,124942.3593750000,,,
1.9119999970,14,179192.4062500000,158939.2031250000,190668.4687500000,174169.2343750000,168281.0156250000,138119.8125000000,160408.2500000000,125550.7109375000,,,
1.9159999969,14,179224.2968750000,158965.4062500000,190701.6875000000,174201.3125000000,168312.9843750000,138150.3906250000,160440.8125000000,125409.1953125000,,,
1.9199999969,15,179243.8125000000,158979.6718750000,190730.3750000000,174213.4218750000,168341.7343750000,138171.0156250000,160457.5781250000,124764.5546875000,,,
1.9239999969,15,179217.7500000000,158960.2812500000,190708.5156250000,174175.6718750000,168320.7031250000,138152.5312500000,160419.8125000000,124520.2578125000,,,
1.9279999968,15,179185.4218750000,158935.9218750000,190672.2031250000,174144.8593750000,168285.0625000000,138125.7656250000,160407.3593750000,125028.1875000000,,,
1.9319999968,15,179192.1875000000,158942.9531250000,190673.7656250000,174153.1718750000,168284.5312500000,138129.1093750000,160416.9843750000,125576.8828125000,,,
1.9359999967,15,179240.1406250000,158982.8125000000,190726.5468750000,174200.7343750000,168332.5156250000,138166.5625000000,160458.0312500000,125411.7968750000,,,
1.9399999967,15,179259.3281250000,158998.0468750000,190752.1875000000,174210.1406250000,168358.6406250000,138191.0781250000,160485.4062500000,124747.9765625000,,,
1.9439999969,15,179245.9843750000,158997.3437500000,190740.7343750000,174184.1250000000,168352.1718750000,138196.1718750000,160475.8593750000,124498.1796875000,,,
1.9479999968,15,179195.7031250000,158955.4843750000,190687.8437500000,174139.7031250000,168301.8281250000,138150.5000000000,160421.9531250000,125034.7031250000,,,
1.9519999968,15,179187.4687500000,158945.5625000000,190673.2187500000,174147.4531250000,168286.0781250000,138135.2812500000,160401.1562500000,125633.3750000000,,,
1.9559999967,15,179215.0625000000,158962.3750000000,190707.9843750000,174185.5156250000,168316.5781250000,138150.8125000000,160434.8281250000,125511.2265625000,,,
1.9599999967,15,179223.1093750000,158965.2656250000,190727.3437500000,174191.8281250000,168335.7500000000,138163.5625000000,160462.2343750000,124862.6953125000,,,
1.9639999969,15,179197.1250000000,158946.6875000000,190699.1406250000,174157.2031250000,168312.4531250000,138154.8593750000,160438.3906250000,124601.3125000000,,,
1.9679999969,15,179166.8906250000,158923.5312500000,190657.5000000000,174138.1250000000,168272.9375000000,138127.2187500000,160393.4687500000,125150.8203125000,,,
1.9719999968,15,179169.4218750000,158927.1562500000,190651.3125000000,174159.8593750000,168263.9531250000,138122.2500000000,160389.3125000000,125774.0546875000,,,
1.9759999968,15,179208.6093750000,158952.5781250000,190694.4375000000,174190.8906250000,168303.8437500000,138147.0000000000,160432.9687500000,125645.3125000000,,,
1.9799999967,15,179215.5781250000,158949.5000000000,190710.6875000000,174202.6875000000,168320.2500000000,138149.8281250000,160442.1406250000,125019.8437500000,,,
1.9839999967,15,179183.0468750000,158920.9375000000,190680.7812500000,174171.4375000000,168292.7031250000,138121.0937500000,160415.4062500000,124758.3593750000,,,
1.9879999969,15,179151.7187500000,158903.5781250000,190638.0312500000,174143.5937500000,168251.9843750000,138090.7656250000,160380.7031250000,125288.8984375000,,,
1.9919999968,15,179171.9843750000,158925.0937500000,190650.2031250000,174172.2500000000,168260.9531250000,138096.7968750000,160393.3281250000,125891.0546875000,,,
1.9959999968,15,179200.7187500000,158938.5312500000,190684.7343750000,174216.8750000000,168291.9218750000,138110.3437500000,160425.5781250000,125777.6796875000,,,
1.9999999967,15,179201.7656250000,158935.3593750000,190694.5000000000,174203.2812500000,168301.3750000000,138119.8125000000,160437.1250000000,125141.6718750000,,,
2.0039999967,15,179181.7812500000,158921.9843750000,190678.3125000000,174162.2187500000,168285.2500000000,138115.2187500000,160417.6875000000,124840.7031250000,,,
2.0079999969,15,179178.5937500000,158931.7968750000,190667.8281250000,174158.3437500000,168276.2968750000,138121.4687500000,160404.0312500000,125306.4687500000,,,
2.0119999968,15,179211.4687500000,158968.6250000000,190696.1250000000,174182.9218750000,168301.5000000000,138150.0625000000,160428.7656250000,125839.5000000000,,,
2.0159999968,15,179236.4218750000,158980.0156250000,190725.1718750000,174222.3750000000,168326.3437500000,138161.3593750000,160446.3281250000,125670.5781250000,,,
2.0199999968,15,179232.1250000000,158967.1406250000,190727.1562500000,174213.2812500000,168331.2812500000,138164.6562500000,160430.4843750000,124991.7109375000,,,
2.0239999967,15,179200.9843750000,158943.3593750000,190697.5312500000,174181.1250000000,168305.1562500000,138147.4375000000,160418.5937500000,124668.1796875000,,,
2.0279999967,15,179180.6875000000,158935.5468750000,190669.7656250000,174177.1562500000,168277.2812500000,138130.2187500000,160405.7187500000,125119.6796875000,,,
2.0319999969,15,179188.3750000000,158945.3125000000,190672.6093750000,174187.0468750000,168276.3125000000,138130.5156250000,160408.7343750000,125688.8437500000,,,
2.0359999968,15,179205.2500000000,158958.4843750000,190691.1718750000,174166.3750000000,168292.5468750000,138148.8281250000,160439.0625000000,125563.7187500000,,,
2.0399999968,15,179219.8906250000,158969.7500000000,190713.8906250000,174173.7187500000,168314.0625000000,138172.1093750000,160456.1562500000,124876.3203125000,,,
2.0439999967,15,179197.0937500000,158947.0312500000,190697.6562500000,174167.4218750000,168297.6718750000,138158.6718750000,160437.0312500000,124541.1796875000,,,
2.0479999967,16,179171.5312500000,158930.7812500000,190666.5937500000,174140.5937500000,168270.6875000000,138135.9062500000,160387.0781250000,125016.4140625000,,,
2.0519999966,16,179164.4843750000,158926.7812500000,190654.8281250000,174148.5000000000,168259.7187500000,138122.8125000000,160368.7343750000,125608.3750000000,,,
2.0559999966,16,179191.5468750000,158941.0468750000,190685.2343750000,174192.1250000000,168287.1250000000,138141.2343750000,160420.9531250000,125450.5234375000,,,
2.0599999966,16,179202.9218750000,158945.0781250000,190702.2656250000,174180.5625000000,168304.3750000000,138157.6562500000,160452.8281250000,124736.6562500000,,,
2.0639999965,16,179191.1093750000,158940.5625000000,190691.2187500000,174158.6250000000,168296.1718750000,138158.3750000000,160439.8125000000,124408.0312500000,,,
2.0679999965,16,179159.7656250000,158921.5781250000,190652.7500000000,174129.2500000000,168260.5937500000,138129.5468750000,160382.7968750000,124898.5312500000,,,
2.0719999967,16,179173.9687500000,158934.7500000000,190660.8281250000,174154.7500000000,168267.0937500000,138130.0312500000,160378.8437500000,125465.6015625000,,,
2.0759999966,16,179211.3125000000,158958.8906250000,190700.3125000000,174195.3593750000,168301.7500000000,138155.9375000000,160438.0781250000,125320.3593750000,,,
2.0799999966,16,179218.6406250000,158957.5781250000,190712.1875000000,174215.6406250000,168312.2812500000,138160.3593750000,160456.6250000000,124626.2812500000,,,
2.0839999965,16,179196.2968750000,158940.4375000000,190694.4062500000,174189.6718750000,168295.0937500000,138142.3906250000,160423.8593750000,124291.3828125000,,,
2.0879999965,16,179174.7187500000,158930.4062500000,190664.3125000000,174162.2656250000,168267.9218750000,138122.1718750000,160390.8906250000,124752.7265625000,,,
2.0919999967,16,179178.2343750000,158932.4375000000,190662.2812500000,174165.0000000000,168264.6250000000,138116.0312500000,160398.7187500000,125314.5390625000,,,
2.0959999966,16,179210.8281250000,158954.7031250000,190694.9531250000,174202.2343750000,168292.8125000000,138135.6875000000,160430.2187500000,125210.8437500000,,,
2.0999999966,16,179234.4375000000,158969.5937500000,190723.0312500000,174244.8437500000,168317.6562500000,138150.6250000000,160454.7812500000,124595.9453125000,,,
2.1039999966,16,179214.8281250000,158954.1406250000,190705.7343750000,174207.7343750000,168302.4375000000,138136.7343750000,160433.4531250000,124340.2031250000,,,
2.1079999965,16,179187.7812500000,158936.8906250000,190675.6562500000,174157.0312500000,168274.4218750000,138115.3906250000,160398.0312500000,124893.8359375000,,,
2.1119999965,16,179196.2031250000,158945.6093750000,190678.0000000000,174161.9687500000,168273.5000000000,138118.4375000000,160395.0000000000,125587.1875000000,,,
2.1159999967,16,179232.3125000000,158972.2968750000,190717.7968750000,174211.0781250000,168308.9062500000,138145.1562500000,160434.9843750000,125578.3046875000,,,
2.1199999966,16,179262.0625000000,158996.5156250000,190756.3750000000,174240.0000000000,168346.8125000000,138180.9843750000,160466.7187500000,125000.9062500000,,,
2.1239999966,16,179240.0937500000,158982.2500000000,190736.2343750000,174197.4531250000,168329.1250000000,138175.2031250000,160444.0781250000,124743.9296875000,,,
2.1279999965,16,179193.5000000000,158947.0000000000,190681.4062500000,174121.7968750000,168276.6875000000,138138.3125000000,160401.3750000000,125289.3281250000,,,
2.1319999965,16,179191.7812500000,158947.2187500000,190672.5312500000,174139.9843750000,168267.6875000000,138130.5312500000,160393.7812500000,125929.4375000000,,,
2.1359999967,16,179224.9375000000,158970.0781250000,190712.4062500000,174194.4062500000,168305.5000000000,138155.9843750000,160428.9531250000,125854.9218750000,,,
2.1399999966,16,179236.3593750000,158975.7343750000,190729.8437500000,174217.5781250000,168322.1875000000,138171.7031250000,160440.4062500000,125214.0937500000,,,
2.1439999966,16,179214.9531250000,158954.0781250000,190711.4218750000,174196.7031250000,168306.1718750000,138158.4843750000,160424.8750000000,124864.2500000000,,,
2.1479999966,16,179194.6875000000,158946.3593750000,190688.0781250000,174169.2968750000,168287.2031250000,138144.9687500000,160405.5312500000,125308.6953125000,,,
2.1519999965,16,179203.5781250000,158957.8125000000,190692.0312500000,174175.6562500000,168292.0312500000,138147.6562500000,160412.2187500000,125894.2968750000,,,
2.1559999965,16,179237.1875000000,158977.0468750000,190730.2187500000,174228.1718750000,168326.5625000000,138168.0625000000,160455.8750000000,125771.3437500000,,,
2.1599999967,16,179236.5156250000,158973.7187500000,190734.3437500000,174212.2031250000,168331.1406250000,138175.0625000000,160474.6875000000,125137.8906250000,,,
2.1639999966,16,179223.8125000000,158972.7812500000,190727.4375000000,174180.7500000000,168328.1875000000,138174.8750000000,160458.3437500000,124794.3750000000,,,
2.1679999966,16,179198.5625000000,158958.1406250000,190694.4687500000,174151.0781250000,168303.2500000000,138159.2031250000,160418.2812500000,125227.4453125000,,,
2.1719999965,16,179179.6093750000,158939.8906250000,190663.2187500000,174151.0468750000,168272.7187500000,138135.4687500000,160401.4531250000,125822.9531250000,,,
2.1759999965,17,179224.1093750000,158973.0468750000,190710.3437500000,174203.1718750000,168314.5625000000,138172.8906250000,160467.1718750000,125719.3359375000,,,
2.1799999964,17,179258.6562500000,158999.0937500000,190753.9843750000,174224.8906250000,168355.0468750000,138207.3593750000,160515.4062500000,125048.6484375000,,,
2.1839999964,17,179230.9375000000,158975.7812500000,190730.7031250000,174187.8750000000,168332.7500000000,138190.1875000000,160485.4687500000,124674.2187500000,,,
2.1879999964,17,179178.7187500000,158934.6875000000,190670.0312500000,174144.8125000000,168273.8750000000,138140.2500000000,160421.3593750000,125121.5312500000,,,
2.1919999963,17,179178.6406250000,158938.0937500000,190663.6250000000,174145.0468750000,168267.9843750000,138135.3125000000,160414.9218750000,125726.8203125000,,,
2.1959999963,17,179227.3281250000,158982.5937500000,190714.1562500000,174204.3281250000,168315.0468750000,138177.1562500000,160458.3750000000,125607.8906250000,,,
2.1999999965,17,179240.2500000000,158993.5156250000,190734.8593750000,174194.3437500000,168333.4687500000,138188.9843750000,160471.0312500000,124925.5390625000,,,
2.2039999964,17,179203.4531250000,158950.5781250000,190707.9843750000,174182.2187500000,168309.8750000000,138156.8437500000,160452.5000000000,124513.8984375000,,,
2.2079999964,17,179161.6562500000,158919.5937500000,190659.3281250000,174139.5156250000,168266.2656250000,138120.7187500000,160409.0000000000,124932.2968750000,,,
2.2119999963,17,179175.1250000000,158933.2968750000,190664.6093750000,174185.5781250000,168270.1250000000,138118.9531250000,160398.8906250000,125538.4531250000,,,
2.2159999963,17,179226.7812500000,158973.5625000000,190717.0000000000,174255.2656250000,168318.7968750000,138155.5312500000,160447.2500000000,125443.4765625000,,,
2.2199999965,17,179254.1406250000,158994.4062500000,190753.6093750000,174232.4062500000,168357.6718750000,138188.4531250000,160497.4062500000,124736.5781250000,,,
2.2239999964,17,179225.5468750000,158972.0781250000,190728.3750000000,174174.6250000000,168336.2343750000,138173.0312500000,160485.9218750000,124335.3750000000,,,
2.2279999964,17,179208.2031250000,158963.7968750000,190705.8593750000,174170.5000000000,168315.0468750000,138158.3593750000,160467.7656250000,124754.6015625000,,,
2.2319999964,17,179199.0312500000,158955.5937500000,190689.3125000000,174179.7031250000,168297.0781250000,138139.5156250000,160441.0156250000,125389.8593750000,,,
2.2359999963,17,179231.7500000000,158981.2031250000,190725.9843750000,174213.1406250000,168327.7031250000,138165.9218750000,160461.2500000000,125370.4062500000,,,
2.2399999963,17,179252.0312500000,158992.2031250000,190756.2968750000,174235.4687500000,168357.2343750000,138190.5937500000,160490.0468750000,124713.4531250000,,,
2.2439999965,17,179217.7500000000,158960.2343750000,190723.0000000000,174196.7656250000,168328.8437500000,138170.8281250000,160473.0156250000,124330.7578125000,,,
2.2479999964,17,179179.7187500000,158937.6093750000,190675.0781250000,174131.0781250000,168284.0625000000,138143.7656250000,160433.8281250000,124780.3203125000,,,
2.2519999964,17,179180.2187500000,158940.2656250000,190666.5937500000,174153.9218750000,168273.3750000000,138133.2812500000,160421.2031250000,125408.9531250000,,,
2.2559999963,17,179227.1875000000,158976.1093750000,190714.9375000000,174207.1718750000,168318.3281250000,138165.8281250000,160464.8125000000,125338.0078125000,,,
2.2599999963,17,179258.5781250000,159001.0000000000,190754.5937500000,174233.3750000000,168357.1562500000,138197.8281250000,160502.4687500000,124647.5312500000,,,
2.2639999965,17,179226.8125000000,158974.2343750000,190725.8750000000,174186.5625000000,168330.1250000000,138176.5156250000,160471.4687500000,124221.6484375000,,,
2.2679999964,17,179172.6562500000,158932.2031250000,190665.2031250000,174121.1406250000,168272.6406250000,138128.2343750000,160398.5156250000,124664.4531250000,,,
2.2719999964,17,179171.4062500000,158933.5156250000,190656.7343750000,174132.9687500000,168264.5781250000,138119.7812500000,160389.4375000000,125308.8828125000,,,
2.2759999963,17,179209.8125000000,158961.8437500000,190698.8906250000,174163.9218750000,168302.6562500000,138150.2500000000,160448.3437500000,125205.0234375000,,,
2.2799999963,17,179229.6093750000,158971.7656250000,190724.8750000000,174191.5625000000,168327.5156250000,138172.2187500000,160483.9843750000,124523.8515625000,,,
2.2839999963,17,179222.0156250000,158969.0312500000,190720.1093750000,174187.8750000000,168325.4843750000,138168.0625000000,160476.0781250000,124118.5390625000,,,
2.2879999964,17,179199.7187500000,158959.2812500000,190692.7500000000,174156.9531250000,168298.7187500000,138150.5156250000,160441.3906250000,124515.4296875000,,,
2.2919999964,17,179203.1250000000,158968.6562500000,190692.7812500000,174141.5000000000,168294.9375000000,138153.6250000000,160419.5312500000,125136.8984375000,,,
2.2959999964,17,179252.1562500000,159004.5156250000,190749.6875000000,174206.0937500000,168346.0625000000,138184.4843750000,160460.0156250000,125062.9453125000,,,
2.2999999963,17,179268.6875000000,159010.2187500000,190768.2812500000,174221.5156250000,168365.7968750000,138198.1562500000,160507.3281250000,124366.6484375000,,,
2.3039999963,18,179230.9687500000,158980.8750000000,190728.5781250000,174170.5000000000,168331.4062500000,138177.8593750000,160486.0625000000,123958.5468750000,,,
2.3079999962,18,179196.6406250000,158954.9218750000,190693.7656250000,174135.0625000000,168298.2656250000,138147.5625000000,160450.5156250000,124359.7812500000,,,
2.3119999962,18,179210.0156250000,158968.6250000000,190701.5000000000,174161.1718750000,168303.3281250000,138149.8281250000,160448.7968750000,124949.9453125000,,,
2.3159999961,18,179248.7500000000,158997.5312500000,190740.5781250000,174203.1093750000,168341.8437500000,138178.7031250000,160476.5312500000,124873.6875000000,,,
2.3199999961,18,179273.9687500000,159011.3437500000,190772.7656250000,174239.4375000000,168373.4687500000,138197.4531250000,160495.7968750000,124179.5390625000,,,
2.3239999961,18,179256.5937500000,158997.5156250000,190755.9687500000,174221.1718750000,168359.2812500000,138190.2656250000,160476.6875000000,123745.6875000000,,,
2.3279999963,18,179215.1406250000,158971.3593750000,190708.8437500000,174165.2656250000,168313.5156250000,138161.1718750000,160451.1562500000,124137.7734375000,,,
2.3319999962,18,179207.3750000000,158965.0000000000,190698.2187500000,174173.7500000000,168299.0625000000,138145.6406250000,160447.6718750000,124787.1328125000,,,
2.3359999962,18,179240.8437500000,158988.1718750000,190733.8437500000,174213.2343750000,168331.3906250000,138170.3437500000,160484.5781250000,124740.7578125000,,,
2.3399999961,18,179257.6562500000,159003.1406250000,190753.4218750000,174236.2656250000,168350.5156250000,138195.8750000000,160508.2968750000,124082.0390625000,,,
2.3439999961,18,179246.1718750000,159000.3281250000,190743.1250000000,174207.3750000000,168344.7343750000,138201.8281250000,160501.7812500000,123647.1718750000,,,
2.3479999963,18,179195.4843750000,158961.6250000000,190687.8125000000,174156.2031250000,168293.6406250000,138157.8906250000,160433.1875000000,124062.8046875000,,,
2.3519999962,18,179178.8593750000,158945.9531250000,190672.6562500000,174141.0781250000,168278.7656250000,138138.3437500000,160399.5781250000,124706.6718750000,,,
2.3559999962,18,179207.3437500000,158962.6406250000,190704.6093750000,174183.5312500000,168306.0312500000,138157.0625000000,160440.2187500000,124659.3281250000,,,
2.3599999961,18,179232.2812500000,158980.9531250000,190731.7812500000,174215.8281250000,168331.0156250000,138183.1875000000,160480.8281250000,123947.6015625000,,,
2.3639999961,18,179220.6250000000,158977.9843750000,190719.6562500000,174199.4687500000,168321.7500000000,138183.2968750000,160475.4687500000,123479.6093750000,,,
2.3679999961,18,179189.9062500000,158958.5625000000,190684.4062500000,174166.7968750000,168289.9375000000,138155.6718750000,160442.7343750000,123877.3281250000,,,
2.3719999962,18,179195.7031250000,158966.5312500000,190689.7500000000,174144.6093750000,168294.9375000000,138155.7187500000,160451.2343750000,124525.9453125000,,,
2.3759999962,18,179239.2031250000,158988.7343750000,190741.0625000000,174204.1406250000,168340.6406250000,138174.9218750000,160496.1875000000,124500.8125000000,,,
2.3799999962,18,179284.0468750000,159022.1093750000,190791.9843750000,174268.4531250000,168389.7500000000,138214.2968750000,160536.7500000000,123855.3359375000,,,
2.3839999961,18,179247.3906250000,158996.0937500000,190755.0000000000,174189.8593750000,168361.1250000000,138204.2968750000,160494.6093750000,123431.3593750000,,,
2.3879999961,18,179189.7968750000,158949.2500000000,190692.1250000000,174138.3906250000,168299.0156250000,138155.6093750000,160436.8437500000,123842.4609375000,,,
2.3919999963,18,179198.2968750000,158957.9531250000,190691.3750000000,174167.6093750000,168294.6406250000,138149.0937500000,160438.7343750000,124499.5234375000,,,
2.3959999962,18,179234.6406250000,158985.8437500000,190728.3125000000,174205.7656250000,168331.1093750000,138178.5156250000,160484.3437500000,124461.3515625000,,,
2.3999999962,18,179263.9687500000,159005.2812500000,190767.2656250000,174235.6250000000,168368.0156250000,138203.0937500000,160521.9218750000,123809.9531250000,,,
2.4039999961,18,179252.4843750000,158998.8281250000,190760.7656250000,174207.4687500000,168361.0000000000,138195.5312500000,160509.1562500000,123410.0937500000,,,
2.4079999961,18,179205.7812500000,158970.7187500000,190704.6250000000,174137.4218750000,168308.7656250000,138156.2812500000,160447.0000000000,123839.2734375000,,,
2.4119999961,18,179189.5312500000,158956.1718750000,190681.6250000000,174156.7656250000,168285.0625000000,138132.1250000000,160416.2187500000,124534.8515625000,,,
2.4159999962,18,179226.0156250000,158979.1406250000,190722.9843750000,174201.9062500000,168322.0156250000,138155.5625000000,160461.9375000000,124557.2421875000,,,
2.4199999962,18,179260.6093750000,159003.2031250000,190767.8281250000,174249.8906250000,168361.9062500000,138180.5312500000,160501.8750000000,123935.8593750000,,,
2.4239999962,18,179244.6562500000,158988.9218750000,190753.7187500000,174199.6875000000,168350.0312500000,138173.4218750000,160493.4531250000,123501.2578125000,,,
2.4279999961,18,179189.2968750000,158946.0625000000,190686.5468750000,174130.3281250000,168288.6093750000,138128.2656250000,160436.5468750000,123930.6250000000,,,
2.4319999961,19,179208.9843750000,158966.0468750000,190698.7812500000,174183.1093750000,168299.3281250000,138137.2187500000,160447.8125000000,124589.2734375000,,,
2.4359999960,19,179255.8906250000,159008.2968750000,190748.0625000000,174214.9687500000,168342.8593750000,138175.4062500000,160495.6093750000,124610.0546875000,,,
2.4399999960,19,179268.0937500000,159014.2187500000,190773.7031250000,174223.0156250000,168368.8750000000,138191.9843750000,160513.3125000000,124047.7031250000,,,
2.4439999959,19,179222.0937500000,158969.3125000000,190734.6718750000,174170.1718750000,168334.7656250000,138157.0156250000,160458.4218750000,123683.1406250000,,,
2.4479999959,19,179180.7343750000,158940.3750000000,190682.1875000000,174132.9687500000,168287.3125000000,138127.9687500000,160411.8437500000,124131.5234375000,,,
2.4519999959,19,179185.9843750000,158953.0937500000,190673.6562500000,174161.5156250000,168276.4062500000,138135.8750000000,160429.5156250000,124806.8750000000,,,
2.4559999960,19,179219.4062500000,158981.6875000000,190706.1875000000,174181.3437500000,168305.4687500000,138167.2343750000,160481.1718750000,124829.2500000000,,,
2.4599999960,19,179239.2812500000,158991.7968750000,190734.0000000000,174202.7343750000,168332.2187500000,138186.5937500000,160516.2500000000,124188.0625000000,,,
2.4639999960,19,179239.4687500000,158992.4687500000,190741.8125000000,174202.6562500000,168340.3125000000,138193.1718750000,160510.9531250000,123718.1953125000,,,
2.4679999959,19,179225.5781250000,158990.3437500000,190721.2656250000,174175.0937500000,168322.1875000000,138183.7031250000,160481.9218750000,124068.7031250000,,,
2.4719999959,19,179243.2343750000,159008.4531250000,190734.7031250000,174190.0000000000,168335.9375000000,138192.8750000000,160493.0312500000,124691.3515625000,,,
2.4759999961,19,179277.0312500000,159037.6562500000,190771.3906250000,174220.2031250000,168370.9531250000,138222.6718750000,160526.0468750000,124700.2578125000,,,
2.4799999960,19,179266.5625000000,159015.5000000000,190766.2343750000,174233.5625000000,168364.8906250000,138210.4218750000,160510.4062500000,124075.7890625000,,,
2.4839999960,19,179235.3125000000,158984.8750000000,190739.1250000000,174214.8125000000,168338.9531250000,138184.1875000000,160476.6718750000,123635.6093750000,,,
2.4879999959,19,179207.2812500000,158966.0781250000,190702.4375000000,174186.6406250000,168301.8281250000,138157.9531250000,160454.7031250000,123996.2031250000,,,
2.4919999959,19,179191.0312500000,158950.2968750000,190682.5781250000,174168.8906250000,168280.3125000000,138137.4843750000,160450.0625000000,124602.4921875000,,,
2.4959999959,19,179221.7968750000,158973.2031250000,190712.2812500000,174208.1875000000,168307.4062500000,138157.8750000000,160482.7031250000,124605.3593750000,,,
2.4999999960,19,179254.6562500000,159002.1250000000,190750.2031250000,174235.9531250000,168343.7812500000,138190.7500000000,160522.0781250000,124014.5781250000,,,
2.5039999960,19,179249.7187500000,159001.4843750000,190750.7187500000,174223.0781250000,168346.5156250000,138194.0312500000,160517.8593750000,123572.2812500000,,,
2.5079999960,19,179210.2343750000,158970.8750000000,190708.4062500000,174174.2343750000,168307.8281250000,138157.7343750000,160459.4687500000,123963.8828125000,,,
2.5119999959,19,179213.8281250000,158971.8125000000,190709.8906250000,174208.3125000000,168305.1718750000,138143.7343750000,160449.5468750000,124648.9453125000,,,
2.5159999959,19,179248.0781250000,158995.2812500000,190743.9843750000,174244.5312500000,168337.4218750000,138168.5937500000,160485.8437500000,124679.8203125000,,,
2.5199999961,19,179263.2656250000,159012.9843750000,190765.4375000000,174206.9531250000,168360.3593750000,138196.2031250000,160515.5937500000,124071.8984375000,,,
2.5239999960,19,179251.6718750000,159003.6250000000,190756.0781250000,174199.7968750000,168354.3437500000,138196.0625000000,160523.2031250000,123602.6484375000,,,
2.5279999960,19,179207.8750000000,158966.1250000000,190704.9218750000,174194.8593750000,168304.3437500000,138153.6093750000,160482.0312500000,123963.7500000000,,,
2.5319999959,19,179196.6406250000,158958.0625000000,190686.2031250000,174191.6875000000,168285.1718750000,138140.9687500000,160461.0625000000,124655.6796875000,,,
2.5359999959,19,179232.3437500000,158980.8593750000,190724.6093750000,174221.4687500000,168321.3281250000,138167.2500000000,160498.3906250000,124733.7031250000,,,
2.5399999958,19,179287.1875000000,159022.1250000000,190789.3906250000,174272.2031250000,168384.0312500000,138214.5937500000,160557.2343750000,124087.5859375000,,,
2.5439999960,19,179268.3125000000,159009.2656250000,190779.7343750000,174200.8906250000,168378.0000000000,138206.3125000000,160523.3593750000,123614.1562500000,,,
2.5479999960,19,179232.6875000000,158994.4062500000,190732.7968750000,174151.8593750000,168339.7031250000,138186.5937500000,160480.4531250000,124003.1015625000,,,
2.5519999960,19,179214.9531250000,158983.6406250000,190704.3593750000,174165.3281250000,168313.3125000000,138170.2812500000,160476.6093750000,124672.2812500000,,,
2.5559999959,19,179242.7656250000,158998.3906250000,190736.5000000000,174218.6406250000,168339.5625000000,138186.5937500000,160524.2812500000,124703.2343750000,,,
2.5599999959,20,179250.7343750000,158998.2656250000,190752.7187500000,174222.0781250000,168352.5937500000,138197.2187500000,160540.1875000000,124088.3671875000,,,
2.5639999958,20,179222.7343750000,158977.0468750000,190727.0625000000,174195.5781250000,168330.2500000000,138180.3750000000,160506.9218750000,123662.6171875000,,,
2.5679999958,20,179191.1093750000,158957.5781250000,190687.9531250000,174163.0156250000,168294.6875000000,138156.3125000000,160467.2812500000,124062.9140625000,,,
2.5719999957,20,179208.9531250000,158976.5625000000,190698.7343750000,174179.5937500000,168303.8593750000,138165.7343750000,160475.2187500000,124725.0468750000,,,
2.5759999957,20,179236.2031250000,158989.7812500000,190732.5000000000,174203.9687500000,168333.3906250000,138179.6718750000,160496.4843750000,124801.1875000000,,,
2.5799999957,20,179258.7812500000,159000.1875000000,190765.9531250000,174230.7656250000,168364.9062500000,138198.9687500000,160525.7500000000,124219.3671875000,,,
2.5839999958,20,179245.8593750000,158995.3437500000,190754.9531250000,174191.6406250000,168353.7812500000,138196.6250000000,160526.3750000000,123819.0468750000,,,
2.5879999958,20,179202.2656250000,158957.0937500000,190702.7812500000,174156.4687500000,168303.1093750000,138157.1406250000,160473.8593750000,124230.4453125000,,,
2.5919999958,20,179201.6875000000,158946.4062500000,190693.3906250000,174180.9687500000,168294.2343750000,138144.2500000000,160463.3125000000,124919.4531250000,,,
2.5959999957,20,179237.3593750000,158972.8125000000,190728.5000000000,174223.8437500000,168325.6406250000,138166.4531250000,160502.3437500000,124962.8515625000,,,
2.5999999957,20,179272.5781250000,159006.6875000000,190771.9062500000,174263.0312500000,168367.1093750000,138203.9218750000,160537.2812500000,124335.2343750000,,,
2.6039999959,20,179257.3125000000,159002.2500000000,190759.0468750000,174223.2031250000,168357.3281250000,138203.3906250000,160530.7968750000,123885.1328125000,,,
2.6079999958,20,179214.1875000000,158972.7812500000,190709.5937500000,174177.5000000000,168310.4062500000,138167.6562500000,160485.6562500000,124271.9609375000,,,
2.6119999958,20,179211.2031250000,158971.9218750000,190702.8906250000,174196.4687500000,168302.9843750000,138161.7656250000,160469.1875000000,124953.4296875000,,,
2.6159999957,20,179250.0156250000,159002.0156250000,190744.8906250000,174264.0625000000,168338.0312500000,138187.9843750000,160502.2500000000,125021.1328125000,,,
2.6199999957,20,179246.9843750000,158992.2031250000,190747.7812500000,174251.9843750000,168337.6093750000,138184.2343750000,160515.0468750000,124465.3515625000,,,
2.6239999956,20,179221.7187500000,158976.0000000000,190725.7343750000,174219.5000000000,168317.5781250000,138173.4218750000,160498.5781250000,124015.7343750000,,,
2.6279999958,20,179201.2187500000,158969.4843750000,190699.5937500000,174201.2656250000,168293.3437500000,138158.2656250000,160468.1093750000,124380.8359375000,,,
2.6319999958,20,179161.1875000000,158927.4218750000,190651.9843750000,174133.8281250000,168250.7031250000,138119.4375000000,160428.8125000000,125092.5078125000,,,
2.6359999957,20,179196.9062500000,158954.0312500000,190690.2500000000,174161.7812500000,168285.5781250000,138147.7812500000,160468.4843750000,125166.3984375000,,,
2.6399999957,20,179228.6718750000,158978.9531250000,190728.3125000000,174209.0156250000,168321.8125000000,138180.2187500000,160501.6093750000,124578.2734375000,,,
2.6439999957,20,179221.9531250000,158977.7968750000,190725.3906250000,174198.5000000000,168320.7968750000,138187.7031250000,160501.6406250000,124126.5859375000,,,
2.6479999959,20,179205.2968750000,158970.9531250000,190703.0468750000,174175.7343750000,168301.8750000000,138174.3125000000,160482.1093750000,124448.1015625000,,,
2.6519999958,20,179197.4375000000,158965.0625000000,190689.0937500000,174156.0625000000,168289.2812500000,138158.6250000000,160461.0625000000,125102.7500000000,,,
2.6559999958,20,179248.7500000000,159006.5781250000,190755.8906250000,174198.1250000000,168348.1406250000,138193.1406250000,160495.7343750000,125171.6875000000,,,
2.6599999957,20,179273.7031250000,159026.5312500000,190781.8750000000,174244.1562500000,168375.4843750000,138220.6093750000,160520.6093750000,124564.8359375000,,,
2.6639999957,20,179235.5312500000,158983.8906250000,190740.2031250000,174226.5000000000,168335.9375000000,138189.5156250000,160522.4531250000,124069.3750000000,,,
2.6679999956,20,179201.6875000000,158961.5156250000,190696.5781250000,174189.6718750000,168293.5937500000,138162.0468750000,160492.3906250000,124383.1718750000,,,
2.6719999958,20,179201.5781250000,158968.3281250000,190689.5312500000,174194.6718750000,168285.1718750000,138163.0937500000,160477.8437500000,125029.3906250000,,,
2.6759999958,20,179234.5156250000,158991.1250000000,190724.5625000000,174219.5000000000,168319.0937500000,138193.8437500000,160517.3593750000,125097.1484375000,,,
2.6799999957,20,179275.2031250000,159012.2343750000,190778.0781250000,174256.0625000000,168369.6875000000,138227.5000000000,160567.8125000000,124450.2812500000,,,
2.6839999957,20,179278.6875000000,159014.3281250000,190784.2968750000,174252.0625000000,168377.6562500000,138236.9687500000,160570.7656250000,123960.8046875000,,,
2.6879999957,21,179246.1250000000,158990.6718750000,190745.6093750000,174226.8750000000,168341.9843750000,138207.6718750000,160528.4687500000,124256.7812500000,,,
2.6919999956,21,179209.9218750000,158963.0781250000,190702.9218750000,174200.2500000000,168300.4843750000,138169.2500000000,160484.3906250000,124928.7578125000,,,
2.6959999956,21,179228.6875000000,158975.4687500000,190725.5781250000,174221.1406250000,168319.5312500000,138178.0156250000,160505.9062500000,125021.1093750000,,,
2.6999999955,21,179248.8906250000,158991.6875000000,190755.2187500000,174243.1093750000,168347.6718750000,138198.7187500000,160531.5468750000,124390.1953125000,,,
2.7039999955,21,179239.2343750000,158990.1093750000,190756.5625000000,174214.0937500000,168349.2968750000,138201.8593750000,160529.5937500000,123884.4140625000,,,
2.7079999954,21,179212.7343750000,158971.2812500000,190730.0625000000,174196.5156250000,168322.9062500000,138178.8437500000,160487.0781250000,124193.0546875000,,,
2.7119999956,21,179192.2656250000,158961.4062500000,190686.0156250000,174210.9218750000,168284.8437500000,138159.5000000000,160451.8906250000,124883.6953125000,,,
2.7159999956,21,179204.3906250000,158965.5156250000,190694.4375000000,174207.5468750000,168294.9375000000,138171.4687500000,160483.3437500000,125000.1562500000,,,
2.7199999955,21,179233.6250000000,158987.3125000000,190728.8281250000,174235.7343750000,168328.1718750000,138199.6093750000,160523.0781250000,124376.3828125000,,,
2.7239999955,21,179243.9843750000,159001.5000000000,190742.4531250000,174239.7812500000,168343.7500000000,138215.4531250000,160534.3593750000,123838.3046875000,,,
2.7279999955,21,179215.9218750000,158982.6718750000,190712.2187500000,174205.2031250000,168315.6875000000,138192.4687500000,160493.2187500000,124115.0781250000,,,
2.7319999957,21,179198.8593750000,158967.2031250000,190692.5625000000,174197.0468750000,168295.9531250000,138172.1875000000,160465.5625000000,124788.1562500000,,,
2.7359999956,21,179217.6718750000,158975.6562500000,190717.7968750000,174198.3125000000,168318.4062500000,138184.1250000000,160492.0156250000,124929.5078125000,,,
2.7399999956,21,179251.5937500000,158997.4218750000,190762.2187500000,174217.2187500000,168361.8593750000,138214.2187500000,160539.2656250000,124345.2968750000,,,
2.7439999955,21,179251.1406250000,158997.1406250000,190765.5468750000,174218.0312500000,168365.3125000000,138216.0000000000,160547.1250000000,123840.2343750000,,,
2.7479999955,21,179230.8906250000,158982.5468750000,190742.1250000000,174200.6406250000,168343.1562500000,138195.0781250000,160504.7031250000,124121.1953125000,,,
2.7519999954,21,179213.2343750000,158967.0937500000,190719.6562500000,174180.6875000000,168320.3281250000,138170.7656250000,160466.9375000000,124804.1406250000,,,
2.7559999956,21,179250.5000000000,158998.3437500000,190757.7343750000,174216.3125000000,168354.0781250000,138196.8125000000,160522.0000000000,124944.6328125000,,,
2.7599999956,21,179284.6406250000,159027.6875000000,190795.2343750000,174253.5156250000,168388.2812500000,138228.0937500000,160580.3281250000,124359.4062500000,,,
2.7639999955,21,179274.0937500000,159017.3281250000,190787.2656250000,174242.3906250000,168382.5000000000,138224.2343750000,160565.7187500000,123875.3750000000,,,
2.7679999955,21,179234.5625000000,158988.2031250000,190739.3593750000,174228.0312500000,168338.8750000000,138190.6250000000,160519.0781250000,124203.5156250000,,,
2.7719999955,21,179215.1718750000,158971.8125000000,190709.8125000000,174209.3593750000,168307.6406250000,138163.1875000000,160493.0781250000,124896.6250000000,,,
2.7759999956,21,179240.9687500000,158986.2500000000,190734.1406250000,174243.9687500000,168325.3750000000,138174.6093750000,160508.3750000000,125024.4296875000,,,
2.7799999956,21,179268.7343750000,159004.4531250000,190768.8906250000,174259.0937500000,168357.2656250000,138198.5781250000,160540.2656250000,124449.5781250000,,,
2.7839999956,21,179263.3437500000,159001.5312500000,190770.1875000000,174218.6718750000,168362.1250000000,138206.0468750000,160538.9531250000,123942.1328125000,,,
2.7879999955,21,179232.3906250000,158983.4843750000,190734.1562500000,174179.7500000000,168330.4687500000,138188.6562500000,160501.7968750000,124229.5312500000,,,
2.7919999955,21,179219.7031250000,158975.6250000000,190715.2031250000,174182.2500000000,168312.6093750000,138171.3125000000,160487.6093750000,124926.0781250000,,,
2.7959999954,21,179253.8281250000,159007.5625000000,190752.7812500000,174211.7500000000,168350.1093750000,138199.7656250000,160533.6875000000,125072.6015625000,,,
2.7999999956,21,179274.3125000000,159020.6875000000,190777.8750000000,174256.7812500000,168375.5937500000,138219.5000000000,160568.6718750000,124495.9843750000,,,
2.8039999956,21,179260.0000000000,159009.2031250000,190767.3750000000,174267.2968750000,168365.6093750000,138216.5781250000,160562.6562500000,123981.2656250000,,,
2.8079999955,21,179211.5312500000,158972.2500000000,190715.9218750000,174211.7187500000,168317.8437500000,138179.7343750000,160511.1093750000,124242.5703125000,,,
2.8119999955,21,179182.2968750000,158953.0625000000,190682.3906250000,174157.4843750000,168286.8906250000,138157.5781250000,160468.7500000000,124908.1875000000,,,
2.8159999955,22,179215.3281250000,158979.6718750000,190718.2500000000,174200.6250000000,168319.5312500000,138185.7343750000,160492.6250000000,125055.7578125000,,,
2.8199999954,22,179253.6093750000,159009.9218750000,190759.5625000000,174244.2812500000,168358.4218750000,138221.3906250000,160537.6406250000,124498.3437500000,,,
2.8239999954,22,179243.9531250000,159000.5625000000,190752.2343750000,174227.7656250000,168349.9218750000,138221.5156250000,160539.5937500000,124002.2968750000,,,
2.8279999953,22,179214.2656250000,158977.3593750000,190716.4843750000,174184.7968750000,168314.2968750000,138198.3125000000,160510.9531250000,124279.2890625000,,,
2.8319999953,22,179213.2343750000,158977.5312500000,190705.1718750000,174196.0625000000,168302.8125000000,138188.4531250000,160501.3125000000,124953.1640625000,,,
2.8359999952,22,179245.0468750000,158999.5156250000,190736.7968750000,174227.7187500000,168332.0781250000,138208.7031250000,160527.1718750000,125116.9140625000,,,
2.8399999954,22,179267.0156250000,159012.6718750000,190770.6718750000,174232.7031250000,168364.2656250000,138228.9687500000,160559.0625000000,124564.4609375000,,,
2.8439999954,22,179248.0000000000,158994.7812500000,190759.2343750000,174207.0625000000,168353.0781250000,138218.2500000000,160543.8593750000,124039.6875000000,,,
2.8479999953,22,179199.0312500000,158957.3906250000,190705.5625000000,174181.9843750000,168301.9062500000,138173.1250000000,160481.7031250000,124336.0390625000,,,
2.8519999953,22,179185.4062500000,158951.0000000000,190686.6093750000,174192.2812500000,168281.0468750000,138155.0000000000,160444.4062500000,125099.6406250000,,,
2.8559999953,22,179201.8437500000,158956.2812500000,190703.7500000000,174192.2187500000,168296.0000000000,138163.9843750000,160474.8906250000,125297.5625000000,,,
2.8599999954,22,179220.3750000000,158962.1875000000,190728.9531250000,174203.1718750000,168320.9531250000,138184.9531250000,160524.6718750000,124717.0234375000,,,
2.8639999954,22,179213.6406250000,158961.8437500000,190727.7031250000,174200.0625000000,168320.2187500000,138191.4843750000,160513.5000000000,124188.7890625000,,,
2.8679999954,22,179199.6406250000,158957.4062500000,190706.4843750000,174225.5468750000,168300.3437500000,138177.7500000000,160490.2968750000,124437.8828125000,,,
2.8719999953,22,179212.3593750000,158970.2656250000,190708.2500000000,174281.0000000000,168301.4843750000,138176.4531250000,160498.8281250000,125097.1484375000,,,
2.8759999953,22,179235.2031250000,158985.9843750000,190730.6718750000,174228.1718750000,168324.7812500000,138194.4062500000,160523.6406250000,125225.4062500000,,,
2.8799999952,22,179239.5312500000,158983.2968750000,190739.2031250000,174210.7031250000,168334.0156250000,138196.6875000000,160537.8437500000,124671.0468750000,,,
2.8839999954,22,179236.7656250000,158983.9375000000,190740.1718750000,174216.7968750000,168334.5468750000,138197.8125000000,160539.8593750000,124168.0312500000,,,
2.8879999954,22,179200.5000000000,158961.2187500000,190704.2343750000,174152.3437500000,168301.7968750000,138172.1406250000,160496.2812500000,124431.5546875000,,,
2.8919999953,22,179195.4375000000,158959.9531250000,190699.3437500000,174155.7187500000,168296.9218750000,138162.9687500000,160471.2187500000,125099.5859375000,,,
2.8959999953,22,179232.8281250000,158992.4687500000,190732.6562500000,174205.0156250000,168328.5625000000,138189.0156250000,160505.0937500000,125249.4921875000,,,
2.8999999953,22,179250.7656250000,159002.2343750000,190756.7968750000,174231.2031250000,168348.5312500000,138202.9531250000,160537.3906250000,124702.9140625000,,,
2.9039999954,22,179245.5625000000,158999.5156250000,190757.6093750000,174214.1093750000,168349.2500000000,138206.0468750000,160545.6250000000,124140.4843750000,,,
2.9079999954,22,179231.9687500000,158997.4531250000,190736.8437500000,174185.9843750000,168332.7812500000,138200.0625000000,160527.2500000000,124343.0937500000,,,
2.9119999954,22,179226.8125000000,158997.6250000000,190721.6875000000,174193.6718750000,168318.2343750000,138196.0312500000,160501.2343750000,124998.4921875000,,,
2.9159999953,22,179242.2656250000,159005.6406250000,190742.4531250000,174227.1718750000,168335.2500000000,138202.8750000000,160490.8281250000,125191.9375000000,,,
2.9199999953,22,179258.7812500000,159007.4062500000,190769.9375000000,174239.4375000000,168360.4843750000,138214.4687500000,160521.1875000000,124628.6718750000,,,
2.9239999952,22,179242.6406250000,158989.8125000000,190759.5625000000,174207.0625000000,168352.5000000000,138206.5000000000,160541.6093750000,124076.2421875000,,,
2.9279999954,22,179218.5468750000,158977.2656250000,190727.6406250000,174182.0625000000,168323.2343750000,138190.7343750000,160518.0000000000,124304.4453125000,,,
2.9319999954,22,179209.9218750000,158971.4375000000,190708.7812500000,174184.8750000000,168308.0000000000,138177.0000000000,160494.9062500000,124995.9453125000,,,
2.9359999953,22,179239.8437500000,158992.9531250000,190737.2500000000,174226.9375000000,168336.1093750000,138194.5625000000,160523.3906250000,125199.6640625000,,,
2.9399999953,22,179279.2812500000,159020.9218750000,190783.7031250000,174272.0000000000,168382.9687500000,138228.1093750000,160571.9375000000,124623.5781250000,,,
2.9439999952,23,179264.6875000000,159010.6562500000,190772.4375000000,174260.2812500000,168373.3125000000,138222.4531250000,160561.1250000000,124047.0625000000,,,
