Time:250Hz,Epoch,Channel 1,Channel 2,Channel 3,Channel 4,Channel 5,Channel 6,Channel 7,Channel 8,Event Id,Event Date,Event Duration
0.0000000000,0,178245.8437500000,207010.8281250000,170064.6875000000,171579.6718750000,140096.0625000000,122529.8437500000,136046.7812500000,158256.2031250000,,,
0.0040000000,0,178097.5781250000,210368.3437500000,169886.3125000000,171412.1718750000,139955.9218750000,122386.2109375000,135898.5312500000,158298.7343750000,,,
0.0079999999,0,178236.5468750000,211921.3906250000,169968.6093750000,171506.9531250000,139975.6875000000,122399.2187500000,135903.2812500000,158767.4531250000,,,
0.0119999999,0,178477.7812500000,209870.4062500000,170173.6875000000,171718.7500000000,140093.9687500000,122523.9687500000,136018.8125000000,159146.2187500000,,,
0.0159999998,0,178509.5156250000,206515.4843750000,170254.6093750000,171790.2031250000,140178.9375000000,122598.1875000000,136117.3593750000,158907.3125000000,,,
0.0199999998,0,178254.1718750000,206967.6718750000,170070.2656250000,171590.0312500000,140101.0000000000,122548.0000000000,136071.1875000000,158280.3906250000,,,
0.0240000000,0,178093.1250000000,210317.0781250000,169897.3906250000,171410.2968750000,139966.7500000000,122378.4062500000,135915.9687500000,158291.9062500000,,,
0.0279999999,0,178226.0312500000,211913.0468750000,169968.2500000000,171499.6406250000,139973.8125000000,122375.8281250000,135891.8125000000,158781.1093750000,,,
0.0319999999,0,178449.7187500000,209913.9687500000,170142.8906250000,171715.2812500000,140063.4531250000,122521.8750000000,135982.2500000000,159128.6718750000,,,
0.0359999998,0,178480.6718750000,206551.8437500000,170228.4843750000,171786.2031250000,140153.0312500000,122599.9843750000,136091.5000000000,158875.1406250000,,,
0.0399999998,0,178259.1250000000,206982.5000000000,170070.7656250000,171584.7187500000,140103.5468750000,122545.5859375000,136059.0468750000,158328.7500000000,,,
0.0440000000,0,178092.1093750000,210331.4531250000,169888.2187500000,171409.9218750000,139958.5781250000,122420.0859375000,135877.4843750000,158288.6250000000,,,
0.0480000000,0,178219.1875000000,211959.5625000000,169950.7187500000,171493.3281250000,139955.0000000000,122404.5312500000,135864.4531250000,158772.5781250000,,,
0.0519999999,0,178470.5312500000,209997.9218750000,170170.8750000000,171726.7656250000,140088.6093750000,122540.7890625000,136012.3125000000,159156.3750000000,,,
0.0559999999,0,178488.9687500000,206620.9375000000,170249.8125000000,171799.9062500000,140177.5468750000,122629.2734375000,136144.7968750000,158866.5312500000,,,
0.0599999998,0,178242.0468750000,206935.0781250000,170072.2968750000,171598.0468750000,140111.7187500000,122552.0781250000,136100.2187500000,158272.3750000000,,,
0.0639999998,0,178098.1875000000,210368.5312500000,169904.4531250000,171425.2656250000,139980.6406250000,122380.9765625000,135947.5625000000,158329.6406250000,,,
0.0680000000,0,178239.7656250000,212056.2500000000,169989.8750000000,171518.5000000000,140000.3906250000,122468.0468750000,135954.6562500000,158793.9843750000,,,
0.0719999999,0,178472.6250000000,209827.7343750000,170180.1718750000,171754.7968750000,140116.0468750000,122585.0937500000,136101.5468750000,159101.5781250000,,,
0.0759999999,0,178520.5937500000,206226.0625000000,170275.6718750000,171835.1562500000,140219.6875000000,122683.5312500000,136245.7500000000,158858.3906250000,,,
0.0799999998,0,178281.7031250000,206792.1250000000,170100.3593750000,171613.8125000000,140147.6406250000,122583.4843750000,136188.4375000000,158334.2812500000,,,
0.0839999998,0,178118.5000000000,210480.1875000000,169919.4375000000,171423.6718750000,140006.0000000000,122389.0546875000,136016.7656250000,158363.0625000000,,,
0.0880000000,0,178246.1406250000,212173.4375000000,169994.0625000000,171509.0000000000,140023.3750000000,122367.2187500000,136034.9218750000,158810.5000000000,,,
0.0919999999,0,178488.7968750000,209947.6093750000,170221.0000000000,171758.2500000000,140169.6562500000,122600.0625000000,136202.4062500000,159089.1093750000,,,
0.0959999999,0,178544.6250000000,206318.5156250000,170322.8125000000,171850.8437500000,140272.9531250000,122712.2890625000,136339.0937500000,158872.2187500000,,,
0.0999999999,0,178314.8125000000,206829.7031250000,170157.4375000000,171645.9218750000,140209.6718750000,122644.9375000000,136303.2343750000,158355.5781250000,,,
0.1039999998,0,178154.4375000000,210495.5781250000,169977.2656250000,171456.2343750000,140072.3750000000,122416.4140625000,136150.9062500000,158384.8125000000,,,
0.1079999998,0,178276.8750000000,212191.1406250000,170043.8750000000,171545.3750000000,140080.5000000000,122475.4218750000,136143.6875000000,158811.8281250000,,,
0.1120000000,0,178533.0312500000,209978.6406250000,170249.2500000000,171798.1406250000,140204.3906250000,122618.8906250000,136277.4218750000,159132.2968750000,,,
0.1159999999,0,178581.7187500000,206308.8750000000,170346.5625000000,171881.5000000000,140304.2812500000,122706.8984375000,136415.3125000000,158867.4218750000,,,
0.1199999999,0,178351.7968750000,206772.7500000000,170179.7968750000,171663.0312500000,140241.0937500000,122620.3437500000,136376.6406250000,158355.4375000000,,,
0.1239999998,0,178193.5781250000,210434.8281250000,170009.5156250000,171476.8593750000,140110.3906250000,122451.9218750000,136209.6718750000,158375.9843750000,,,
0.1279999998,1,178313.3906250000,212145.3593750000,170066.7812500000,171570.0937500000,140108.2343750000,122446.6406250000,136222.0625000000,158800.1875000000,,,
0.1319999998,1,178560.7968750000,209928.6718750000,170290.6093750000,171817.3437500000,140244.3906250000,122637.1562500000,136352.9531250000,159112.1406250000,,,
0.1359999997,1,178614.6250000000,206235.1875000000,170392.7500000000,171909.8750000000,140353.5000000000,122712.1015625000,136490.3593750000,158894.7343750000,,,
0.1399999997,1,178372.3125000000,206687.7343750000,170218.7812500000,171689.7812500000,140277.9687500000,122643.1640625000,136435.2968750000,158366.8750000000,,,
0.1439999996,1,178201.6718750000,210483.4062500000,170029.2968750000,171490.9531250000,140129.0312500000,122471.3203125000,136269.5468750000,158410.6406250000,,,
0.1479999996,1,178328.4062500000,212287.5937500000,170108.0312500000,171576.9375000000,140149.4843750000,122453.4296875000,136250.0468750000,158848.3593750000,,,
0.1519999998,1,178577.0156250000,209921.2968750000,170315.8750000000,171832.0937500000,140275.8437500000,122620.3671875000,136407.9218750000,159087.0156250000,,,
0.1559999997,1,178629.2187500000,206040.5937500000,170407.2187500000,171915.3593750000,140369.7812500000,122721.6171875000,136529.3125000000,158842.8281250000,,,
0.1599999997,1,178366.0937500000,206521.8281250000,170207.8281250000,171667.0312500000,140274.3437500000,122612.5312500000,136453.2187500000,158319.1562500000,,,
0.1639999996,1,178199.9062500000,210403.0156250000,170024.5781250000,171472.7812500000,140132.5468750000,122430.6015625000,136293.2500000000,158354.9531250000,,,
0.1679999996,1,178323.1718750000,212184.1406250000,170092.6093750000,171568.1093750000,140143.9375000000,122428.1093750000,136305.6406250000,158763.0625000000,,,
0.1719999998,1,178572.8437500000,209776.4218750000,170316.6250000000,171823.1718750000,140284.4843750000,122603.6328125000,136427.7031250000,159031.8437500000,,,
0.1759999997,1,178626.9375000000,205825.7968750000,170407.4218750000,171916.1250000000,140373.4062500000,122725.1875000000,136533.9062500000,158774.9375000000,,,
0.1799999997,1,178384.5937500000,206301.8437500000,170229.7500000000,171681.0937500000,140296.7500000000,122627.9062500000,136475.4843750000,158279.6718750000,,,
0.1839999997,1,178200.9218750000,210276.0156250000,170042.7187500000,171477.9687500000,140152.5000000000,122409.3281250000,136308.7031250000,158303.8593750000,,,
0.1879999996,1,178308.5312500000,212137.3593750000,170089.2968750000,171570.8437500000,140139.3281250000,122416.8984375000,136302.5781250000,158686.2968750000,,,
0.1919999996,1,178565.4843750000,209729.5468750000,170313.0781250000,171820.1093750000,140286.3437500000,122591.7187500000,136458.4687500000,158971.0156250000,,,
0.1959999998,1,178643.7812500000,205696.3593750000,170435.7187500000,171929.0000000000,140405.7187500000,122678.0625000000,136581.3750000000,158731.4375000000,,,
0.1999999997,1,178394.9218750000,206132.8125000000,170241.0156250000,171697.3125000000,140313.7968750000,122599.3671875000,136530.3125000000,158177.6406250000,,,
0.2039999997,1,178220.7187500000,210178.1718750000,170046.4218750000,171486.0312500000,140161.3750000000,122439.8515625000,136354.4062500000,158229.2656250000,,,
0.2079999996,1,178345.2812500000,212124.8906250000,170118.1718750000,171577.7500000000,140174.1718750000,122399.1093750000,136342.5312500000,158674.4687500000,,,
0.2119999996,1,178594.0781250000,209899.2656250000,170333.5937500000,171828.0937500000,140305.2656250000,122542.7968750000,136467.5625000000,159012.7500000000,,,
0.2159999998,1,178619.5312500000,205953.6562500000,170399.3125000000,171899.7187500000,140374.2343750000,122642.4921875000,136576.7343750000,158721.2968750000,,,
0.2199999997,1,178374.4843750000,206180.9843750000,170220.4375000000,171673.8125000000,140295.7500000000,122576.1875000000,136506.3593750000,158163.6093750000,,,
0.2239999997,1,178206.6406250000,209961.5468750000,170041.4062500000,171473.1875000000,140161.5937500000,122404.7187500000,136354.6406250000,158186.7343750000,,,
0.2279999997,1,178326.7187500000,211879.5156250000,170114.2812500000,171554.4843750000,140176.0468750000,122417.6718750000,136362.1250000000,158605.4843750000,,,
0.2319999996,1,178581.5312500000,209704.0156250000,170329.0156250000,171801.2812500000,140298.6250000000,122539.1796875000,136482.7187500000,158907.3906250000,,,
0.2359999996,1,178617.4218750000,205770.2812500000,170390.9531250000,171889.0468750000,140360.2343750000,122618.7578125000,136560.2343750000,158630.2656250000,,,
0.2399999998,1,178376.1250000000,205989.3593750000,170230.2031250000,171671.3593750000,140305.7031250000,122548.4062500000,136521.4531250000,158090.3125000000,,,
0.2439999997,1,178204.8593750000,209833.1250000000,170048.4843750000,171469.2187500000,140172.8750000000,122425.4765625000,136388.5468750000,158113.0312500000,,,
0.2479999997,1,178317.9531250000,211813.4375000000,170104.4531250000,171548.0468750000,140170.1406250000,122384.8984375000,136351.5625000000,158536.0937500000,,,
0.2519999996,1,178567.6406250000,209623.3593750000,170300.9375000000,171793.8281250000,140279.9843750000,122523.7578125000,136468.9375000000,158826.3593750000,,,
0.2559999996,2,178619.1093750000,205623.3437500000,170398.5625000000,171877.6875000000,140371.9062500000,122621.6796875000,136585.0156250000,158557.5000000000,,,
0.2599999995,2,178365.5312500000,205792.7500000000,170229.7187500000,171645.5156250000,140304.7343750000,122540.8906250000,136548.6562500000,157999.4375000000,,,
0.2639999995,2,178185.0937500000,209673.5156250000,170045.0468750000,171441.8906250000,140166.6562500000,122378.3281250000,136375.3593750000,158012.2031250000,,,
0.2679999995,2,178295.6562500000,211696.5156250000,170081.0156250000,171522.1406250000,140144.2656250000,122376.9843750000,136322.1718750000,158445.6718750000,,,
0.2719999994,2,178528.4687500000,209519.3593750000,170262.4062500000,171771.3906250000,140243.9062500000,122463.0312500000,136430.9843750000,158725.9062500000,,,
0.2759999994,2,178604.7343750000,205459.6875000000,170380.2187500000,171876.4375000000,140356.6875000000,122558.8125000000,136567.7968750000,158495.4218750000,,,
0.2799999996,2,178377.9531250000,205567.3906250000,170233.7343750000,171667.5625000000,140306.4843750000,122556.4218750000,136530.3906250000,157974.7500000000,,,
0.2839999995,2,178192.3437500000,209505.0468750000,170048.7187500000,171463.2968750000,140177.5937500000,122369.7656250000,136403.1093750000,157982.2968750000,,,
0.2879999995,2,178307.0625000000,211654.2500000000,170100.8437500000,171553.9218750000,140174.1718750000,122369.0156250000,136362.0781250000,158416.9531250000,,,
0.2919999994,2,178539.3906250000,209507.7500000000,170289.0000000000,171779.7968750000,140254.8437500000,122485.2890625000,136435.0937500000,158706.0000000000,,,
0.2959999994,2,178610.4687500000,205326.5625000000,170387.9375000000,171880.0312500000,140347.9531250000,122592.1796875000,136582.8281250000,158507.0156250000,,,
0.2999999996,2,178373.5156250000,205383.4218750000,170245.0625000000,171667.7500000000,140310.8593750000,122538.4531250000,136571.4531250000,158068.5468750000,,,
0.3039999995,2,178175.2500000000,209520.5937500000,170041.5937500000,171463.2187500000,140168.5000000000,122372.3984375000,136402.8437500000,158166.7500000000,,,
0.3079999995,2,178287.6093750000,211825.1718750000,170082.8593750000,171546.3281250000,140156.6250000000,122342.2187500000,136361.0312500000,158652.3125000000,,,
0.3119999995,2,178536.4375000000,209556.8125000000,170276.0156250000,171784.5625000000,140256.0625000000,122474.9375000000,136449.5937500000,158989.9218750000,,,
0.3159999994,2,178588.0937500000,205010.2187500000,170369.1875000000,171873.8281250000,140337.0781250000,122580.5937500000,136570.3437500000,158740.1250000000,,,
0.3199999994,2,178332.7500000000,204978.3906250000,170207.1875000000,171654.5000000000,140274.6093750000,122497.2031250000,136533.6093750000,158198.4843750000,,,
0.3239999996,2,178166.7812500000,209489.1406250000,170053.0937500000,171464.6562500000,140176.7968750000,122362.8203125000,136402.6250000000,158257.2968750000,,,
0.3279999995,2,178275.0000000000,212129.2031250000,170088.1562500000,171551.0781250000,140156.2812500000,122360.0078125000,136352.8750000000,158728.5312500000,,,
0.3319999995,2,178523.1875000000,209627.2656250000,170276.1406250000,171780.6562500000,140239.7500000000,122454.9531250000,136438.6562500000,159058.8281250000,,,
0.3359999994,2,178599.9843750000,204197.5937500000,170396.0937500000,171887.2500000000,140329.3906250000,122558.4609375000,136568.9218750000,158815.5156250000,,,
0.3399999994,2,178343.0781250000,203735.5000000000,170232.0000000000,171670.9531250000,140271.8750000000,122495.7265625000,136554.9218750000,158248.3125000000,,,
0.3439999996,2,178166.8593750000,209164.3281250000,170060.2343750000,171474.7968750000,140177.8750000000,122405.9765625000,136419.3750000000,158252.4531250000,,,
0.3479999995,2,178261.7500000000,212521.4218750000,170076.4843750000,171562.2656250000,140149.4843750000,122361.6718750000,136348.1875000000,158663.4375000000,,,
0.3519999995,2,178489.6093750000,209372.8906250000,170227.0625000000,171796.1562500000,140212.6562500000,122446.8515625000,136419.2812500000,158977.7968750000,,,
0.3559999994,2,178571.5781250000,202951.7812500000,170355.0625000000,171889.5000000000,140318.7343750000,122586.1171875000,136571.4218750000,158752.8125000000,,,
0.3599999994,2,178330.5312500000,202563.4375000000,170220.2187500000,171669.8281250000,140288.1562500000,122558.1640625000,136584.8125000000,158219.8906250000,,,
0.3639999994,2,178134.7500000000,208402.3906250000,170014.6562500000,171440.2187500000,140166.8125000000,122381.1406250000,136427.1718750000,158274.6250000000,,,
0.3679999996,2,178236.8125000000,211905.2656250000,170021.7968750000,171491.8593750000,140134.9218750000,122335.6796875000,136345.3125000000,158731.4843750000,,,
0.3719999995,2,178481.7812500000,208905.1093750000,170184.8437500000,171730.2187500000,140206.9687500000,122461.6328125000,136414.4375000000,158978.6562500000,,,
0.3759999995,2,178553.7187500000,202522.0781250000,170292.3437500000,171829.4375000000,140294.2031250000,122570.3437500000,136545.0625000000,158658.8281250000,,,
0.3799999994,2,178335.5625000000,202132.6875000000,170190.3750000000,171633.6093750000,140288.7031250000,122522.6796875000,136570.5312500000,158161.3281250000,,,
0.3839999994,3,178156.6875000000,208025.7031250000,170013.0781250000,171422.8437500000,140187.5000000000,122394.3125000000,136443.1406250000,158265.7031250000,,,
0.3879999993,3,178236.9375000000,211554.8906250000,170011.5468750000,171479.6250000000,140148.8750000000,122361.2656250000,136358.4843750000,158677.1718750000,,,
0.3919999993,3,178507.0156250000,208516.6250000000,170226.2656250000,171740.8281250000,140268.2343750000,122445.9687500000,136460.0312500000,158919.0625000000,,,
0.3959999993,3,178568.1093750000,201964.3125000000,170321.3906250000,171837.5937500000,140339.9062500000,122537.8125000000,136571.7500000000,158607.3593750000,,,
0.3999999992,3,178352.8750000000,201415.8437500000,170209.3125000000,171639.9218750000,140315.6562500000,122513.9609375000,136601.0156250000,158164.2031250000,,,
0.4039999992,3,178194.8125000000,207368.5312500000,170053.0156250000,171447.5000000000,140229.6093750000,122401.0390625000,136485.5625000000,158346.4375000000,,,
0.4079999994,3,178309.6875000000,211081.7812500000,170084.6875000000,171509.0312500000,140229.4687500000,122387.3671875000,136423.3593750000,158837.4687500000,,,
0.4119999993,3,178551.4375000000,208126.3906250000,170253.6718750000,171760.9843750000,140307.2031250000,122493.8437500000,136474.2187500000,159047.0781250000,,,
0.4159999993,3,178571.6562500000,201487.4843750000,170307.1875000000,171853.0468750000,140335.1562500000,122523.8046875000,136570.2187500000,158659.1562500000,,,
0.4199999992,3,178387.0937500000,200781.8281250000,170234.3281250000,171679.6718750000,140346.4687500000,122514.5781250000,136626.5937500000,158229.1093750000,,,
0.4239999992,3,178231.1250000000,206510.4843750000,170077.0468750000,171470.9062500000,140260.9375000000,122414.2656250000,136514.0312500000,158434.4375000000,,,
0.4279999994,3,178312.5000000000,209978.6093750000,170073.6093750000,171513.4218750000,140219.9062500000,122367.2968750000,136415.5937500000,158899.7968750000,,,
0.4319999993,3,178510.7656250000,207735.4062500000,170182.8281250000,171693.7500000000,140236.3906250000,122394.4687500000,136415.2343750000,159196.3125000000,,,
0.4359999993,3,178577.4218750000,202432.1562500000,170287.6875000000,171788.0781250000,140309.1406250000,122507.6640625000,136526.5781250000,158943.0312500000,,,
0.4399999992,3,178422.3437500000,201549.8437500000,170266.5468750000,171667.9531250000,140379.7656250000,122612.5625000000,136683.0000000000,158364.5937500000,,,
0.4439999992,3,178302.4218750000,205829.3750000000,170169.4218750000,171523.4843750000,140352.8281250000,122555.5078125000,136645.0000000000,158402.5468750000,,,
0.4479999992,3,178361.1875000000,208948.1093750000,170126.6718750000,171539.5781250000,140266.8437500000,122426.6875000000,136497.1250000000,158956.5000000000,,,
0.4519999993,3,178493.5000000000,207878.8125000000,170152.5468750000,171666.1406250000,140190.5781250000,122384.1953125000,136369.3437500000,159414.5625000000,,,
0.4559999993,3,178547.5156250000,204276.7500000000,170240.5781250000,171710.5937500000,140246.4062500000,122454.6093750000,136442.4843750000,159283.9687500000,,,
0.4599999993,3,178452.3281250000,203358.4843750000,170311.1718750000,171684.0156250000,140409.4531250000,122634.4453125000,136696.2500000000,158522.1718750000,,,
0.4639999992,3,178335.3750000000,206225.2968750000,170232.0000000000,171579.9375000000,140409.6718750000,122644.0546875000,136721.5781250000,158308.3125000000,,,
0.4679999992,3,178350.2187500000,208936.1406250000,170129.5312500000,171545.3125000000,140262.6875000000,122477.7578125000,136508.7343750000,158847.2187500000,,,
0.4719999994,3,178481.3437500000,208968.3281250000,170129.7500000000,171614.2812500000,140149.9687500000,122327.2812500000,136324.6093750000,159508.9218750000,,,
0.4759999993,3,178497.5156250000,206684.8281250000,170179.9843750000,171670.6875000000,140164.9062500000,122350.7500000000,136363.0937500000,159410.8437500000,,,
0.4799999993,3,178399.4843750000,205361.4843750000,170277.0000000000,171699.2500000000,140369.0781250000,122602.5546875000,136695.7500000000,158413.2656250000,,,
0.4839999992,3,178326.9375000000,206910.2656250000,170250.7656250000,171648.4531250000,140426.0312500000,122655.9296875000,136766.8750000000,158077.7500000000,,,
0.4879999992,3,178348.7343750000,209254.5156250000,170139.3750000000,171586.8125000000,140263.9375000000,122451.3359375000,136508.1718750000,158751.0156250000,,,
0.4919999992,3,178397.6093750000,209973.2187500000,170036.0156250000,171580.0468750000,140052.3750000000,122215.2968750000,136230.1093750000,159564.7187500000,,,
0.4959999993,3,178440.4375000000,208397.0156250000,170115.0312500000,171633.4218750000,140093.6718750000,122280.1562500000,136271.6875000000,159569.3281250000,,,
0.4999999993,3,178416.7656250000,206718.2187500000,170302.8281250000,171740.6093750000,140396.7031250000,122650.9453125000,136710.7343750000,158504.8750000000,,,
0.5039999993,3,178350.7968750000,207400.2656250000,170275.4218750000,171701.3437500000,140466.9062500000,122722.1328125000,136815.4218750000,158107.8750000000,,,
0.5079999992,3,178342.1406250000,209407.9531250000,170118.7500000000,171590.6718750000,140260.5937500000,122458.2031250000,136533.8750000000,158807.1875000000,,,
0.5119999992,4,178383.6406250000,210445.7656250000,169998.1562500000,171534.9375000000,140017.3906250000,122182.8984375000,136170.8281250000,159715.6718750000,,,
0.5159999991,4,178420.7031250000,209327.6093750000,170076.7500000000,171584.4218750000,140055.7500000000,122245.1796875000,136230.5937500000,159777.8125000000,,,
0.5199999991,4,178396.8906250000,207395.0312500000,170300.1250000000,171681.5156250000,140391.0781250000,122621.7656250000,136725.0625000000,158665.4062500000,,,
0.5239999990,4,178342.0937500000,207364.1875000000,170304.1562500000,171654.1250000000,140487.0468750000,122711.3984375000,136856.9375000000,158194.3750000000,,,
0.5279999990,4,178345.0156250000,209128.1718750000,170151.7500000000,171574.4687500000,140284.4843750000,122463.4609375000,136551.5468750000,158924.2343750000,,,
0.5319999990,4,178407.4218750000,210554.4062500000,170034.9375000000,171544.0781250000,140048.5312500000,122218.7343750000,136203.7500000000,159916.0937500000,,,
0.5359999991,4,178447.5468750000,209919.7187500000,170113.6562500000,171575.7343750000,140087.4843750000,122259.2890625000,136252.5625000000,159993.0312500000,,,
0.5399999991,4,178455.4687500000,207981.3125000000,170369.8593750000,171697.9062500000,140453.5156250000,122684.0156250000,136776.2031250000,158818.9531250000,,,
0.5439999991,4,178373.8437500000,207612.8750000000,170344.4375000000,171660.7031250000,140524.0000000000,122743.6406250000,136892.4843750000,158238.0468750000,,,
0.5479999990,4,178354.9375000000,209190.8437500000,170165.5625000000,171561.5937500000,140294.6250000000,122478.9062500000,136569.0312500000,158874.7187500000,,,
0.5519999990,4,178412.5781250000,210692.9687500000,170048.2187500000,171509.3750000000,140062.1093750000,122220.2656250000,136219.6250000000,159879.6875000000,,,
0.5559999992,4,178442.7968750000,210262.5781250000,170101.1875000000,171560.6562500000,140078.6875000000,122254.7812500000,136234.6406250000,159983.1093750000,,,
0.5599999991,4,178432.0000000000,208304.2968750000,170344.5937500000,171704.2343750000,140430.9843750000,122647.8593750000,136759.5000000000,158745.5156250000,,,
0.5639999991,4,178369.9843750000,207752.3281250000,170346.9531250000,171691.2500000000,140523.5781250000,122740.3125000000,136906.3437500000,158146.5781250000,,,
0.5679999990,4,178365.0156250000,209263.7812500000,170183.4531250000,171585.9218750000,140314.4531250000,122485.6406250000,136601.5468750000,158824.7031250000,,,
0.5719999990,4,178413.0625000000,210899.4218750000,170055.2656250000,171537.2187500000,140065.8906250000,122194.5937500000,136226.6250000000,159812.5781250000,,,
0.5759999990,4,178415.5781250000,210743.5781250000,170087.9062500000,171568.4687500000,140056.7187500000,122198.5078125000,136200.4687500000,159908.6093750000,,,
0.5799999991,4,178412.1718750000,208903.9843750000,170319.2812500000,171710.6406250000,140403.3593750000,122617.7656250000,136736.4531250000,158722.4531250000,,,
0.5839999991,4,178374.5468750000,208199.5781250000,170356.0781250000,171718.9062500000,140533.9531250000,122767.2421875000,136928.1250000000,158125.5000000000,,,
0.5879999991,4,178366.0468750000,209581.9687500000,170190.1250000000,171636.9375000000,140324.2031250000,122508.3046875000,136611.2500000000,158850.3437500000,,,
0.5919999990,4,178395.6250000000,211277.5781250000,170037.7812500000,171551.2500000000,140063.1718750000,122205.1093750000,136212.8125000000,159903.6093750000,,,
0.5959999990,4,178398.1718750000,211256.3906250000,170064.5781250000,171565.4062500000,140050.8906250000,122203.5546875000,136196.3437500000,159988.9687500000,,,
0.5999999992,4,178404.0156250000,209394.0781250000,170330.9375000000,171674.0312500000,140423.6875000000,122619.6953125000,136759.0937500000,158744.6093750000,,,
0.6039999991,4,178329.9687500000,208503.2343750000,170326.0312500000,171660.1093750000,140515.3906250000,122737.7968750000,136905.0937500000,158092.5312500000,,,
0.6079999991,4,178308.3750000000,209707.4375000000,170142.9531250000,171564.0312500000,140289.2812500000,122470.6484375000,136574.2343750000,158801.2500000000,,,
0.6119999990,4,178362.9531250000,211340.1250000000,170014.2812500000,171498.1562500000,140049.1718750000,122206.1250000000,136197.3906250000,159891.2968750000,,,
0.6159999990,4,178387.3906250000,211318.1093750000,170066.3906250000,171539.3125000000,140058.5625000000,122209.3984375000,136198.1406250000,160012.3750000000,,,
0.6199999989,4,178398.8125000000,209375.9531250000,170318.6093750000,171680.0937500000,140411.0625000000,122601.1328125000,136730.0781250000,158723.7031250000,,,
0.6239999991,4,178387.8750000000,208309.7656250000,170375.3125000000,171699.4375000000,140556.5937500000,122763.8359375000,136951.2812500000,158069.5937500000,,,
0.6279999991,4,178371.0000000000,209383.3750000000,170198.3437500000,171591.9062500000,140342.2812500000,122536.8437500000,136634.2656250000,158750.7812500000,,,
0.6319999991,4,178378.5625000000,211017.7500000000,170016.3437500000,171505.0000000000,140058.5937500000,122192.0156250000,136197.6250000000,159793.9062500000,,,
0.6359999990,4,178416.1093750000,211141.9687500000,170075.4843750000,171552.5781250000,140076.8906250000,122208.1406250000,136210.1093750000,159948.4531250000,,,
0.6399999990,5,178452.9687500000,209286.0468750000,170367.6562500000,171732.9375000000,140460.9218750000,122657.3828125000,136779.3437500000,158669.8281250000,,,
0.6439999989,5,178425.7500000000,208133.5000000000,170411.5156250000,171740.7656250000,140587.9531250000,122793.9609375000,136972.3281250000,157952.6562500000,,,
0.6479999989,5,178383.2812500000,209150.9375000000,170209.3593750000,171584.0156250000,140349.2031250000,122508.6796875000,136628.0781250000,158579.0781250000,,,
0.6519999988,5,178408.2343750000,210855.4531250000,170052.0156250000,171485.9375000000,140087.4531250000,122213.6640625000,136220.4218750000,159661.9687500000,,,
0.6559999988,5,178431.0781250000,211122.2031250000,170098.9062500000,171516.3750000000,140091.6406250000,122219.8046875000,136202.6718750000,159864.4062500000,,,
0.6599999988,5,178458.7031250000,209349.3593750000,170387.7500000000,171677.3906250000,140470.4375000000,122639.9453125000,136762.3125000000,158588.4218750000,,,
0.6639999989,5,178421.9843750000,208204.1718750000,170423.9375000000,171706.3750000000,140590.5781250000,122809.1406250000,136977.5156250000,157849.6093750000,,,
0.6679999989,5,178389.9062500000,209220.1875000000,170228.2500000000,171592.7656250000,140358.0625000000,122533.0625000000,136639.0156250000,158511.8125000000,,,
0.6719999989,5,178434.0625000000,210928.1093750000,170085.7031250000,171519.5937500000,140112.5625000000,122238.6093750000,136243.4375000000,159620.5937500000,,,
0.6759999988,5,178396.6718750000,211145.0781250000,170056.4531250000,171533.8906250000,140055.0156250000,122185.6875000000,136170.3750000000,159768.3281250000,,,
0.6799999988,5,178413.8437500000,209353.3437500000,170330.1718750000,171685.7031250000,140418.0000000000,122610.0937500000,136723.2968750000,158472.1250000000,,,
0.6839999990,5,178410.2187500000,208229.8906250000,170405.1562500000,171719.9843750000,140569.8750000000,122795.1093750000,136954.7656250000,157736.0156250000,,,
0.6879999989,5,178407.8281250000,209240.7968750000,170238.0937500000,171620.1250000000,140365.6250000000,122580.4296875000,136648.0312500000,158449.5937500000,,,
0.6919999989,5,178397.7500000000,210945.1250000000,170046.3593750000,171524.7656250000,140074.9843750000,122216.1328125000,136208.0937500000,159570.5625000000,,,
0.6959999988,5,178393.9062500000,211177.2656250000,170057.6875000000,171568.1406250000,140048.3906250000,122208.1406250000,136144.3125000000,159772.3437500000,,,
0.6999999988,5,178435.4843750000,209408.5937500000,170352.4218750000,171728.9375000000,140425.4843750000,122654.9687500000,136707.6718750000,158481.7968750000,,,
0.7039999987,5,178420.1718750000,208296.7656250000,170408.6406250000,171728.2656250000,140562.4687500000,122817.5625000000,136958.9531250000,157708.9843750000,,,
0.7079999989,5,178407.9843750000,209324.2812500000,170238.1718750000,171626.9375000000,140357.1718750000,122582.7109375000,136639.8125000000,158438.3437500000,,,
0.7119999989,5,178415.3906250000,211037.2812500000,170058.5468750000,171543.7343750000,140084.6406250000,122254.6718750000,136210.3125000000,159599.0781250000,,,
0.7159999989,5,178420.0000000000,211307.0312500000,170077.3750000000,171547.2968750000,140071.0156250000,122231.3125000000,136173.2031250000,159781.5468750000,,,
0.7199999988,5,178493.9531250000,209582.7500000000,170404.3281250000,171718.9687500000,140479.6718750000,122703.4609375000,136764.4843750000,158524.3125000000,,,
0.7239999988,5,178503.5312500000,208402.7031250000,170499.5000000000,171768.2343750000,140648.4375000000,122877.6171875000,137019.9687500000,157828.8125000000,,,
0.7279999990,5,178473.1406250000,209313.4843750000,170305.4062500000,171658.2968750000,140422.1562500000,122633.4843750000,136682.2500000000,158528.5468750000,,,
0.7319999989,5,178440.4218750000,211021.9062500000,170075.7343750000,171541.4531250000,140105.1875000000,122272.3750000000,136208.7812500000,159626.8125000000,,,
0.7359999989,5,178421.2187500000,211417.3281250000,170069.4062500000,171548.0312500000,140062.1875000000,122214.5468750000,136136.1250000000,159825.2968750000,,,
0.7399999988,5,178487.4062500000,209672.1718750000,170395.0781250000,171722.0156250000,140464.5625000000,122687.8515625000,136736.1718750000,158598.8281250000,,,
0.7439999988,5,178502.1875000000,208317.0312500000,170500.5937500000,171765.5781250000,140645.1562500000,122898.5625000000,137014.8437500000,157861.0312500000,,,
0.7479999987,5,178461.6093750000,209168.5781250000,170302.0312500000,171643.1406250000,140417.4218750000,122627.2578125000,136682.2031250000,158555.9687500000,,,
0.7519999989,5,178454.3593750000,211009.4687500000,170099.0937500000,171539.2812500000,140122.1875000000,122289.5937500000,136221.3125000000,159667.5000000000,,,
0.7559999989,5,178453.3125000000,211636.2656250000,170100.8437500000,171565.6718750000,140088.0156250000,122263.1796875000,136158.3125000000,159891.9531250000,,,
0.7599999988,5,178472.7656250000,209895.2031250000,170374.9531250000,171727.6718750000,140443.3750000000,122696.1640625000,136717.4687500000,158602.0937500000,,,
0.7639999988,5,178490.5781250000,208336.0312500000,170486.7812500000,171796.3437500000,140630.2031250000,122898.7812500000,137005.4843750000,157834.1875000000,,,
0.7679999988,6,178493.1562500000,209152.3593750000,170319.2968750000,171733.5312500000,140428.7968750000,122662.5546875000,136686.8906250000,158546.2812500000,,,
0.7719999987,6,178423.8906250000,211206.5781250000,170045.7656250000,171568.2968750000,140065.4062500000,122260.6328125000,136163.7500000000,159656.8750000000,,,
0.7759999987,6,178397.0781250000,212162.7968750000,170027.8281250000,171499.8750000000,140013.7656250000,122188.1328125000,136086.7968750000,159904.7656250000,,,
0.7799999986,6,178459.4843750000,210401.1875000000,170363.8281250000,171688.6562500000,140428.7968750000,122685.4609375000,136698.8281250000,158551.2968750000,,,
0.7839999986,6,178482.5468750000,208426.9843750000,170486.0781250000,171781.0781250000,140628.5312500000,122914.5234375000,137012.0625000000,157682.6718750000,,,
0.7879999985,6,178436.7656250000,209021.6250000000,170271.2343750000,171664.7812500000,140382.0937500000,122632.1406250000,136653.3437500000,158380.5468750000,,,
0.7919999987,6,178382.1250000000,211361.6875000000,170001.3281250000,171516.4218750000,140022.0625000000,122214.3906250000,136124.7812500000,159606.1562500000,,,
0.7959999987,6,178392.0000000000,212818.0781250000,170016.0781250000,171525.7812500000,139997.2812500000,122178.3359375000,136059.1718750000,159947.5000000000,,,
0.7999999986,6,178468.8750000000,211016.4062500000,170372.8437500000,171747.5468750000,140438.2343750000,122689.0312500000,136703.1718750000,158573.9062500000,,,
0.8039999986,6,178495.3281250000,208508.5781250000,170504.3281250000,171822.2187500000,140654.0625000000,122935.6875000000,137035.5312500000,157624.4843750000,,,
0.8079999986,6,178459.5156250000,208859.9375000000,170285.9062500000,171674.0000000000,140405.3125000000,122651.1562500000,136674.7656250000,158335.2187500000,,,
0.8119999988,6,178416.0156250000,211454.0937500000,170021.0468750000,171510.5000000000,140044.0000000000,122237.8828125000,136128.4062500000,159627.7812500000,,,
0.8159999987,6,178404.5781250000,213305.4843750000,170014.3593750000,171489.8437500000,139997.5156250000,122175.1171875000,136033.0468750000,159991.7812500000,,,
0.8199999987,6,178517.2656250000,211408.8437500000,170427.2343750000,171739.7500000000,140488.8437500000,122713.4921875000,136733.0781250000,158573.1250000000,,,
0.8239999986,6,178574.5000000000,208443.9062500000,170594.7187500000,171877.1250000000,140735.0156250000,123007.3046875000,137107.0312500000,157582.3281250000,,,
0.8279999986,6,178522.5156250000,208636.4375000000,170364.5781250000,171762.9687500000,140469.8593750000,122708.0234375000,136729.8125000000,158309.3593750000,,,
0.8319999985,6,178389.7031250000,211450.1875000000,169997.2812500000,171503.3906250000,140015.1718750000,122207.1171875000,136096.8125000000,159610.0468750000,,,
0.8359999987,6,178375.3125000000,213572.4218750000,169984.4531250000,171451.9531250000,139962.9218750000,122141.8906250000,136005.9375000000,160017.9062500000,,,
0.8399999987,6,178489.1250000000,211541.1406250000,170397.1093750000,171721.8281250000,140463.8125000000,122718.9140625000,136733.7187500000,158562.3750000000,,,
0.8439999986,6,178552.3437500000,208198.6250000000,170575.7187500000,171851.9218750000,140722.0312500000,122990.1093750000,137119.3437500000,157520.7656250000,,,
0.8479999986,6,178473.2812500000,208208.9375000000,170311.6875000000,171698.9843750000,140421.4687500000,122657.2734375000,136698.4843750000,158222.2187500000,,,
0.8519999986,6,178371.4062500000,211167.0468750000,169968.4218750000,171486.0625000000,139983.5937500000,122187.0312500000,136066.9843750000,159592.5312500000,,,
0.8559999987,6,178360.7031250000,213592.4843750000,169957.0781250000,171476.8593750000,139932.9218750000,122126.5703125000,135968.3593750000,160056.9218750000,,,
0.8599999987,6,178480.4843750000,211611.2500000000,170385.0937500000,171771.7500000000,140448.3437500000,122698.2890625000,136710.4375000000,158583.4531250000,,,
0.8639999987,6,178539.7968750000,208032.2656250000,170567.1718750000,171906.5781250000,140715.5468750000,122990.5390625000,137114.3281250000,157480.7187500000,,,
0.8679999986,6,178484.1562500000,207951.7812500000,170323.3750000000,171741.9531250000,140439.0625000000,122690.0000000000,136719.6718750000,158219.0781250000,,,
0.8719999986,6,178402.5156250000,211053.8593750000,170002.2343750000,171536.7031250000,140018.9218750000,122222.0859375000,136100.1562500000,159661.3593750000,,,
0.8759999985,6,178376.6562500000,213686.1718750000,169972.9531250000,171517.9218750000,139946.5312500000,122133.4921875000,135979.3281250000,160147.9062500000,,,
0.8799999987,6,178501.6718750000,211706.0156250000,170407.5781250000,171812.6250000000,140469.1875000000,122717.5468750000,136724.3906250000,158655.3906250000,,,
0.8839999987,6,178559.3437500000,207937.5000000000,170595.7343750000,171942.5781250000,140747.2968750000,123014.1718750000,137136.9687500000,157512.1875000000,,,
0.8879999986,6,178503.3437500000,207757.9531250000,170345.7500000000,171782.3437500000,140465.0781250000,122707.1093750000,136730.6875000000,158253.5937500000,,,
0.8919999986,6,178430.1093750000,210915.3750000000,170029.3281250000,171544.4843750000,140046.5781250000,122234.1328125000,136113.1875000000,159720.7656250000,,,
0.8959999986,7,178401.7187500000,213665.3125000000,169999.2031250000,171511.4062500000,139976.8906250000,122134.0312500000,135992.3281250000,160226.3593750000,,,
0.8999999985,7,178506.9375000000,211710.6250000000,170412.2968750000,171787.0156250000,140486.5625000000,122706.0078125000,136724.9062500000,158714.7500000000,,,
0.9039999985,7,178578.9062500000,207862.0781250000,170603.5156250000,171933.9687500000,140769.0312500000,123047.5078125000,137155.3906250000,157568.2343750000,,,
0.9079999984,7,178531.5312500000,207618.5312500000,170369.7500000000,171774.4218750000,140498.7656250000,122745.0625000000,136763.7343750000,158295.7343750000,,,
0.9119999984,7,178463.4375000000,210802.6875000000,170063.4531250000,171545.6875000000,140083.8281250000,122253.9218750000,136141.2031250000,159759.5312500000,,,
0.9159999983,7,178427.3593750000,213635.5312500000,170014.4218750000,171515.4843750000,139992.7656250000,122160.8203125000,135993.5468750000,160275.3906250000,,,
0.9199999985,7,178515.7812500000,211690.4843750000,170418.0937500000,171779.3125000000,140487.9062500000,122718.5390625000,136720.2031250000,158710.8593750000,,,
0.9239999985,7,178572.3593750000,207743.4218750000,170611.2031250000,171912.2343750000,140772.2187500000,123047.5078125000,137155.9062500000,157480.1875000000,,,
0.9279999984,7,178528.5000000000,207440.1093750000,170382.6250000000,171757.9375000000,140505.3593750000,122741.7656250000,136772.8281250000,158204.7812500000,,,
0.9319999984,7,178450.4531250000,210645.0312500000,170047.8906250000,171537.0781250000,140070.1250000000,122242.5781250000,136126.8750000000,159708.4843750000,,,
0.9359999984,7,178417.5625000000,213603.5156250000,169996.8437500000,171490.3593750000,139973.5312500000,122115.5234375000,135973.9843750000,160269.5468750000,,,
0.9399999985,7,178535.0781250000,211723.1718750000,170428.6250000000,171796.9062500000,140494.0937500000,122738.6015625000,136722.7500000000,158710.6250000000,,,
0.9439999985,7,178597.2656250000,207681.7812500000,170629.5312500000,171957.2187500000,140786.9218750000,123037.5859375000,137163.5000000000,157438.9062500000,,,
0.9479999985,7,178516.4375000000,207305.0468750000,170357.9531250000,171787.2968750000,140480.9531250000,122693.8046875000,136742.3593750000,158118.0468750000,,,
0.9519999984,7,178407.9843750000,210592.3750000000,169992.2031250000,171539.1250000000,140011.2500000000,122180.7500000000,136073.9531250000,159627.6093750000,,,
0.9559999984,7,178385.1406250000,213704.3906250000,169959.0781250000,171493.8750000000,139929.8125000000,122097.0390625000,135936.4062500000,160226.0156250000,,,
0.9599999983,7,178499.9843750000,211872.7656250000,170391.9843750000,171795.3750000000,140453.7343750000,122704.9140625000,136690.7343750000,158666.6875000000,,,
0.9639999985,7,178540.8437500000,207733.2500000000,170578.4062500000,171945.2812500000,140732.7656250000,123017.5234375000,137121.0156250000,157328.0156250000,,,
0.9679999985,7,178467.6718750000,207328.5625000000,170319.3593750000,171755.9687500000,140436.9687500000,122676.1875000000,136703.7031250000,157996.4531250000,,,
0.9719999984,7,178381.7343750000,210512.6875000000,169982.4218750000,171510.1250000000,139993.3906250000,122179.7578125000,136061.4062500000,159483.9218750000,,,
0.9759999984,7,178391.8125000000,213442.6875000000,169981.3437500000,171484.4531250000,139945.7812500000,122108.4687500000,135957.2968750000,160082.0312500000,,,
0.9799999984,7,178517.2343750000,211696.5937500000,170411.8437500000,171776.3906250000,140467.5156250000,122679.2656250000,136694.6718750000,158568.2500000000,,,
0.9839999985,7,178564.2500000000,207849.3437500000,170594.4687500000,171907.3281250000,140742.3906250000,122977.2656250000,137108.3437500000,157271.1875000000,,,
0.9879999985,7,178481.1093750000,207532.5156250000,170319.6562500000,171721.0468750000,140435.7656250000,122655.5859375000,136693.0625000000,157942.9531250000,,,
0.9919999985,7,178418.6093750000,210652.4375000000,170015.9687500000,171490.7656250000,140023.1875000000,122179.0390625000,136085.2187500000,159471.8281250000,,,
0.9959999984,7,178402.1093750000,213583.8437500000,169986.1718750000,171463.4843750000,139940.9531250000,122096.2109375000,135938.1562500000,160088.8750000000,,,
0.9999999984,7,178505.1093750000,211928.1562500000,170388.1562500000,171749.1093750000,140436.1718750000,122682.1093750000,136649.6093750000,158585.3281250000,,,
1.0039999983,7,178534.7968750000,208095.4531250000,170552.6250000000,171868.5000000000,140698.9375000000,122995.1484375000,137058.4843750000,157278.9062500000,,,
1.0079999985,7,178472.8906250000,207691.2187500000,170310.8593750000,171693.0312500000,140423.8750000000,122687.6875000000,136682.0312500000,157948.1562500000,,,
1.0119999985,7,178396.7187500000,210708.9218750000,169998.6718750000,171469.7031250000,140001.6718750000,122202.6093750000,136076.7500000000,159451.4531250000,,,
1.0159999984,7,178356.3281250000,213583.9531250000,169944.0625000000,171415.4218750000,139898.6562500000,122070.3281250000,135915.6250000000,160052.8750000000,,,
1.0199999984,7,178471.2031250000,211997.4375000000,170357.8125000000,171706.0625000000,140404.1093750000,122630.8828125000,136629.8437500000,158594.0312500000,,,
1.0239999983,8,178519.7031250000,208253.7343750000,170544.1250000000,171853.2812500000,140693.4375000000,122964.3593750000,137061.6562500000,157306.1406250000,,,
1.0279999983,8,178451.7031250000,207758.6250000000,170295.9687500000,171691.6875000000,140415.2187500000,122659.1015625000,136677.2343750000,157940.3437500000,,,
1.0319999983,8,178386.1562500000,210572.6875000000,169989.7968750000,171484.6718750000,140000.9843750000,122191.9921875000,136079.0156250000,159406.3593750000,,,
1.0359999982,8,178376.5312500000,213403.2500000000,169958.2187500000,171450.6562500000,139914.4218750000,122089.5312500000,135929.2187500000,160052.8281250000,,,
1.0399999982,8,178485.6093750000,211958.3437500000,170363.2343750000,171745.8593750000,140403.5156250000,122642.2812500000,136609.2187500000,158642.5781250000,,,
1.0439999981,8,178497.6562500000,208179.1250000000,170518.1406250000,171877.4218750000,140665.6875000000,122949.3906250000,137033.6562500000,157300.2812500000,,,
1.0479999983,8,178431.6406250000,207566.8437500000,170273.5781250000,171725.8593750000,140399.1250000000,122658.8046875000,136672.8437500000,157903.8906250000,,,
1.0519999983,8,178377.8437500000,210432.9218750000,169979.5156250000,171506.4687500000,139996.9531250000,122188.8828125000,136080.2812500000,159388.1250000000,,,
1.0559999982,8,178365.3750000000,213431.5781250000,169945.8281250000,171458.8593750000,139904.6250000000,122075.6093750000,135924.2812500000,160055.5937500000,,,
1.0599999982,8,178471.0781250000,211949.1562500000,170348.1875000000,171744.6562500000,140396.0468750000,122639.8906250000,136619.9687500000,158641.0468750000,,,
1.0639999982,8,178510.5781250000,207922.7812500000,170531.6250000000,171892.0468750000,140685.2812500000,122967.6093750000,137055.2968750000,157298.7031250000,,,
1.0679999983,8,178459.4062500000,207220.7656250000,170304.6875000000,171731.0781250000,140426.5625000000,122656.5000000000,136691.3125000000,157919.2656250000,,,
1.0719999983,8,178393.9531250000,210262.5781250000,169993.7968750000,171489.9062500000,140002.4531250000,122169.4375000000,136075.5937500000,159436.0000000000,,,
1.0759999983,8,178378.4062500000,213681.7187500000,169945.1875000000,171424.9687500000,139893.2343750000,122077.9687500000,135895.4843750000,160149.9531250000,,,
1.0799999982,8,178477.1875000000,212450.4062500000,170344.0625000000,171708.3906250000,140384.9843750000,122629.1953125000,136596.2343750000,158723.9218750000,,,
1.0839999982,8,178511.7968750000,208178.5312500000,170535.2187500000,171874.3750000000,140686.6562500000,122973.6171875000,137053.6093750000,157310.7500000000,,,
1.0879999981,8,178439.1875000000,207215.8593750000,170285.1250000000,171693.0312500000,140410.9062500000,122661.2734375000,136681.0468750000,157885.2500000000,,,
1.0919999983,8,178369.0625000000,210262.3125000000,169965.8437500000,171449.6093750000,139977.3750000000,122169.8359375000,136048.7968750000,159411.2343750000,,,
1.0959999983,8,178358.2656250000,213797.7500000000,169923.7031250000,171395.4843750000,139873.0625000000,122037.3046875000,135867.7656250000,160160.3750000000,,,
1.0999999982,8,178473.3750000000,212658.1406250000,170339.9531250000,171696.2500000000,140381.6406250000,122615.1640625000,136576.2187500000,158778.7812500000,,,
1.1039999982,8,178535.8437500000,208448.6250000000,170562.0781250000,171895.8593750000,140716.2656250000,122999.4687500000,137066.6406250000,157390.0156250000,,,
1.1079999981,8,178472.0156250000,207483.1406250000,170322.2812500000,171753.1562500000,140452.5781250000,122709.7656250000,136711.9218750000,157956.4062500000,,,
1.1119999983,8,178400.6093750000,210421.7656250000,170001.8437500000,171520.4531250000,140017.8750000000,122210.4453125000,136093.5937500000,159445.7812500000,,,
1.1159999983,8,178364.6406250000,213907.8593750000,169932.6093750000,171424.3750000000,139886.9062500000,122041.1406250000,135894.1718750000,160180.0156250000,,,
1.1199999982,8,178449.2968750000,212836.3750000000,170315.4375000000,171674.6562500000,140362.8125000000,122597.5156250000,136570.6718750000,158794.5156250000,,,
1.1239999982,8,178509.8125000000,208633.3437500000,170536.3750000000,171867.4531250000,140694.4062500000,122993.3046875000,137055.9062500000,157380.4843750000,,,
1.1279999982,8,178462.5468750000,207592.8125000000,170317.2968750000,171736.7187500000,140449.1718750000,122706.1171875000,136714.0156250000,157926.1093750000,,,
1.1319999981,8,178403.1093750000,210467.0468750000,170010.0468750000,171508.8906250000,140025.4375000000,122216.2421875000,136090.6093750000,159422.1875000000,,,
1.1359999983,8,178361.2343750000,213941.5156250000,169926.3906250000,171436.6562500000,139878.2343750000,122041.3593750000,135876.6718750000,160168.1875000000,,,
1.1399999983,8,178440.7968750000,212932.4531250000,170301.9531250000,171707.2968750000,140345.3437500000,122564.9531250000,136551.6562500000,158801.6250000000,,,
1.1439999982,8,178503.3750000000,208752.2187500000,170533.3437500000,171892.6562500000,140690.9687500000,122978.0390625000,137056.5000000000,157376.4375000000,,,
1.1479999982,8,178438.2500000000,207649.8906250000,170296.3750000000,171740.7187500000,140430.3125000000,122691.2578125000,136701.6250000000,157898.0156250000,,,
1.1519999981,9,178381.8593750000,210440.0937500000,169988.3125000000,171519.3437500000,140008.4843750000,122225.8125000000,136094.3437500000,159391.6562500000,,,
1.1559999981,9,178361.9375000000,213942.8593750000,169923.8906250000,171457.3125000000,139876.3125000000,122070.2734375000,135879.2812500000,160185.5468750000,,,
1.1599999981,9,178454.5781250000,213022.3281250000,170310.1250000000,171726.7187500000,140352.8750000000,122589.9765625000,136549.8281250000,158850.6250000000,,,
1.1639999980,9,178520.7187500000,208839.4218750000,170544.7656250000,171914.0937500000,140702.2187500000,122979.1953125000,137056.5312500000,157422.9687500000,,,
1.1679999980,9,178481.3750000000,207686.3906250000,170334.5312500000,171755.8437500000,140470.2031250000,122718.8281250000,136732.2187500000,157943.8281250000,,,
1.1719999979,9,178412.3593750000,210478.3593750000,170014.8750000000,171501.2187500000,140036.1093750000,122237.0234375000,136113.1406250000,159426.1250000000,,,
1.1759999981,9,178374.5468750000,214295.6562500000,169924.7500000000,171407.0156250000,139876.0937500000,122058.8203125000,135872.2187500000,160266.9531250000,,,
1.1799999981,9,178460.9062500000,213781.9375000000,170300.9062500000,171661.5156250000,140342.6406250000,122587.7265625000,136534.2812500000,158965.6406250000,,,
1.1839999980,9,178520.0468750000,209475.4375000000,170544.0000000000,171862.0000000000,140703.9062500000,122979.2187500000,137061.9531250000,157450.2187500000,,,
1.1879999980,9,178472.1406250000,207984.3125000000,170338.0781250000,171718.0781250000,140478.5156250000,122721.2421875000,136750.4062500000,157898.4218750000,,,
1.1919999979,9,178400.6718750000,210655.4687500000,170014.8125000000,171486.2187500000,140041.5000000000,122238.5781250000,136129.8750000000,159389.1718750000,,,
1.1959999981,9,178364.8125000000,214559.8593750000,169923.8437500000,171394.2187500000,139877.2968750000,122060.8281250000,135874.7968750000,160264.2343750000,,,
1.1999999981,9,178469.1406250000,214205.4218750000,170315.9531250000,171669.8437500000,140355.2656250000,122595.1015625000,136538.7343750000,158994.8593750000,,,
1.2039999980,9,178553.0468750000,209888.7343750000,170584.3125000000,171881.6562500000,140742.2343750000,123023.0234375000,137091.0000000000,157477.6562500000,,,
1.2079999980,9,178511.5781250000,208265.5937500000,170382.5468750000,171748.3281250000,140521.0000000000,122767.7812500000,136782.5937500000,157912.2812500000,,,
1.2119999980,9,178420.6562500000,210764.0156250000,170034.6718750000,171503.1562500000,140058.1562500000,122258.6953125000,136135.4531250000,159371.2500000000,33029,1.2129743956,0.0000000000
1.2159999979,9,178383.2656250000,214680.3593750000,169930.7656250000,171412.3906250000,139878.9843750000,122073.7343750000,135867.6093750000,160283.3593750000,,,
1.2199999981,9,178448.9531250000,214604.7187500000,170281.2187500000,171671.4843750000,140313.0781250000,122553.9296875000,136488.2812500000,159039.4375000000,,,
1.2239999981,9,178505.1093750000,210418.3281250000,170529.5312500000,171882.0156250000,140682.7968750000,122960.3906250000,137029.7343750000,157475.7343750000,,,
1.2279999980,9,178465.4375000000,208592.4218750000,170338.4843750000,171769.9843750000,140471.1406250000,122717.2187500000,136741.7500000000,157845.2343750000,,,
1.2319999980,9,178404.6406250000,210846.3593750000,170025.2187500000,171543.0937500000,140042.4375000000,122234.1328125000,136127.2500000000,159309.2656250000,,,
1.2359999979,9,178352.3281250000,214922.0625000000,169900.0781250000,171416.2187500000,139840.5000000000,121999.2734375000,135833.6250000000,160279.6093750000,,,
1.2399999981,9,178415.2343750000,215496.5312500000,170238.7500000000,171655.9843750000,140265.0625000000,122464.2890625000,136438.8125000000,159141.0625000000,,,
1.2439999981,9,178499.7187500000,211415.6093750000,170527.8750000000,171903.4218750000,140681.0312500000,122932.6562500000,137027.7187500000,157528.7812500000,,,
1.2479999980,9,178478.0156250000,209174.9375000000,170360.3750000000,171809.8125000000,140499.5937500000,122749.5156250000,136767.5156250000,157823.1250000000,,,
1.2519999980,9,178413.0312500000,211001.0468750000,170038.6875000000,171555.7812500000,140063.5000000000,122264.9453125000,136148.4062500000,159250.5000000000,,,
1.2559999980,9,178336.2343750000,215069.1250000000,169871.0000000000,171388.8906250000,139815.5781250000,121996.0312500000,135807.1250000000,160266.1093750000,,,
1.2599999979,9,178389.7031250000,216291.9218750000,170192.9687500000,171601.7500000000,140215.5312500000,122449.2421875000,136367.5468750000,159230.4531250000,,,
1.2639999981,9,178483.5937500000,212634.6406250000,170498.7656250000,171857.9531250000,140649.7812500000,122933.9687500000,136981.0781250000,157631.8125000000,,,
1.2679999981,9,178467.9375000000,210247.9531250000,170345.1875000000,171773.2500000000,140488.1406250000,122745.1171875000,136761.1562500000,157854.5625000000,,,
1.2719999980,9,178416.0312500000,211668.6406250000,170044.3750000000,171551.7812500000,140074.2500000000,122271.9765625000,136170.8281250000,159215.5781250000,,,
1.2759999980,9,178352.2031250000,215414.5468750000,169894.3125000000,171404.7343750000,139839.8906250000,121996.5156250000,135829.6093750000,160222.8281250000,,,
1.2799999979,10,178410.1406250000,216693.8437500000,170218.1093750000,171607.0625000000,140239.3750000000,122448.1171875000,136385.8125000000,159247.3593750000,,,
1.2839999979,10,178498.3750000000,213006.1562500000,170524.7656250000,171850.3125000000,140677.7500000000,122934.7500000000,137005.6406250000,157638.5937500000,,,
1.2879999978,10,178489.5781250000,210500.8437500000,170383.0937500000,171776.5781250000,140527.9843750000,122768.9375000000,136794.5312500000,157837.2187500000,,,
1.2919999978,10,178450.0937500000,211815.3593750000,170093.9218750000,171564.6250000000,140123.6875000000,122313.6015625000,136210.5312500000,159208.7343750000,,,
1.2959999978,10,178381.7031250000,215417.7500000000,169929.4687500000,171407.6875000000,139874.2656250000,122026.6875000000,135855.5937500000,160221.3281250000,,,
1.2999999977,10,178425.0468750000,216507.6406250000,170237.6875000000,171628.0937500000,140258.9843750000,122467.2109375000,136402.4218750000,159221.0937500000,,,
1.3039999979,10,178511.9218750000,212665.6562500000,170539.2656250000,171870.2656250000,140691.2656250000,122955.9375000000,137018.6250000000,157608.5312500000,,,
1.3079999979,10,178488.3437500000,210200.4531250000,170374.3906250000,171766.0312500000,140521.3750000000,122773.3359375000,136789.5937500000,157831.2343750000,,,
1.3119999978,10,178432.8593750000,211630.4218750000,170062.1875000000,171547.6250000000,140092.7656250000,122296.1171875000,136181.4843750000,159202.8906250000,,,
1.3159999978,10,178361.0156250000,215316.1250000000,169899.1406250000,171409.9375000000,139844.4687500000,122007.9140625000,135834.1093750000,160210.2968750000,,,
1.3199999977,10,178404.8437500000,216219.8125000000,170216.1718750000,171613.5156250000,140238.5468750000,122457.8281250000,136401.5781250000,159179.4375000000,,,
1.3239999979,10,178484.1562500000,212029.9687500000,170511.2500000000,171876.1093750000,140667.4531250000,122954.3046875000,137019.2656250000,157518.7500000000,,,
1.3279999979,10,178453.7187500000,209500.5937500000,170344.2187500000,171783.9218750000,140493.0312500000,122747.0468750000,136782.0781250000,157746.4687500000,,,
1.3319999978,10,178394.6093750000,211180.2968750000,170030.3281250000,171559.4531250000,140062.2343750000,122256.9531250000,136166.5468750000,159176.3593750000,,,
1.3359999978,10,178330.5312500000,215199.5312500000,169870.9531250000,171404.1562500000,139817.4843750000,121968.9921875000,135810.6718750000,160239.4062500000,,,
1.3399999978,10,178396.1875000000,216128.0312500000,170209.2031250000,171635.4843750000,140232.9687500000,122466.1640625000,136394.3125000000,159190.4375000000,,,
1.3439999977,10,178479.3906250000,211552.9843750000,170512.6718750000,171898.3281250000,140672.2031250000,122968.7890625000,137031.1250000000,157445.7968750000,,,
1.3479999979,10,178471.6875000000,208776.8437500000,170358.7656250000,171799.4218750000,140511.6406250000,122780.3906250000,136804.2968750000,157692.8906250000,,,
1.3519999979,10,178405.7656250000,210680.3281250000,170028.4218750000,171550.9687500000,140062.7968750000,122258.9687500000,136160.3281250000,159193.9218750000,,,
1.3559999978,10,178327.9218750000,214982.8593750000,169854.7187500000,171381.0000000000,139800.5937500000,121962.5546875000,135783.4375000000,160285.0468750000,,,
1.3599999978,10,178390.4218750000,215829.6875000000,170197.3437500000,171608.7968750000,140223.0625000000,122438.0546875000,136380.5781250000,159183.5781250000,,,
1.3639999977,10,178519.6250000000,211007.0312500000,170558.2343750000,171903.2031250000,140718.2187500000,122996.9531250000,137076.3437500000,157421.5312500000,,,
1.3679999979,10,178501.2968750000,208232.8437500000,170392.6093750000,171825.5000000000,140543.5937500000,122793.9609375000,136834.3281250000,157680.8125000000,,,
1.3719999979,10,178421.7812500000,210206.3125000000,170049.0468750000,171561.5625000000,140080.9531250000,122272.1328125000,136178.6875000000,159190.4218750000,,,
1.3759999978,10,178327.6250000000,214777.4843750000,169858.7968750000,171371.3750000000,139803.0000000000,121937.3671875000,135788.2656250000,160324.6718750000,,,
1.3799999978,10,178386.6406250000,215792.9687500000,170200.4062500000,171596.0312500000,140222.5000000000,122425.4531250000,136383.7812500000,159208.4062500000,,,
1.3839999977,10,178532.2500000000,210784.4062500000,170585.8593750000,171896.3906250000,140740.5468750000,122998.3437500000,137106.4687500000,157391.8281250000,,,
1.3879999977,10,178513.0312500000,207772.3281250000,170416.7500000000,171811.5312500000,140565.4218750000,122805.6250000000,136869.3906250000,157622.3437500000,,,
1.3919999979,10,178420.6718750000,209642.5000000000,170044.7500000000,171552.3906250000,140078.8750000000,122278.3828125000,136189.8593750000,159131.8906250000,,,
1.3959999979,10,178343.1562500000,214219.6093750000,169865.0781250000,171381.8906250000,139809.8125000000,121964.8593750000,135791.2968750000,160295.2500000000,,,
1.3999999978,10,178413.4531250000,215310.8437500000,170219.3906250000,171626.1093750000,140238.2656250000,122438.1093750000,136391.0937500000,159219.8593750000,,,
1.4039999978,10,178524.8593750000,210369.0937500000,170568.0781250000,171919.4843750000,140722.1406250000,122999.0156250000,137086.5937500000,157383.8125000000,,,
1.4079999977,11,178490.9218750000,207313.8906250000,170395.4218750000,171821.0781250000,140543.9687500000,122803.3437500000,136850.3437500000,157582.0468750000,,,
1.4119999977,11,178413.9375000000,209237.7656250000,170043.9687500000,171564.5156250000,140075.5468750000,122278.7343750000,136191.0625000000,159122.8437500000,,,
1.4159999976,11,178337.9218750000,213885.4843750000,169868.5000000000,171381.2187500000,139809.2031250000,121966.2812500000,135797.0937500000,160300.5781250000,,,
1.4199999976,11,178393.2343750000,215096.6406250000,170205.7343750000,171611.2656250000,140219.7656250000,122435.7500000000,136377.3593750000,159239.1250000000,,,
1.4239999976,11,178520.7812500000,210161.3750000000,170573.1250000000,171936.4843750000,140725.5781250000,123013.0937500000,137105.1093750000,157391.2187500000,,,
1.4279999975,11,178502.2656250000,207214.3750000000,170409.9843750000,171858.9531250000,140557.1562500000,122803.5078125000,136872.4687500000,157605.8437500000,,,
1.4319999977,11,178421.5312500000,209253.5312500000,170054.0625000000,171585.5156250000,140085.5937500000,122256.8750000000,136194.5000000000,159145.2187500000,,,
1.4359999977,11,178304.0468750000,213810.4218750000,169832.4218750000,171369.7343750000,139778.0000000000,121925.8359375000,135774.8125000000,160256.6250000000,,,
1.4399999976,11,178372.5625000000,214647.7968750000,170178.3593750000,171594.5625000000,140198.4375000000,122436.2343750000,136369.7968750000,159163.2656250000,,,
1.4439999976,11,178489.1250000000,209740.2187500000,170535.8906250000,171889.6562500000,140688.0000000000,122972.2187500000,137065.2187500000,157343.4218750000,,,
1.4479999975,11,178473.7500000000,206938.9687500000,170379.8125000000,171804.8750000000,140526.6562500000,122780.9218750000,136844.2343750000,157590.0000000000,,,
1.4519999977,11,178397.0468750000,209070.6093750000,170028.7656250000,171546.3125000000,140059.9843750000,122267.2031250000,136183.3593750000,159133.0468750000,,,
1.4559999977,11,178327.0468750000,213684.8593750000,169854.0781250000,171378.5937500000,139795.5156250000,121962.1015625000,135788.8125000000,160283.6562500000,,,
1.4599999976,11,178406.8281250000,214788.2187500000,170209.0156250000,171621.8593750000,140222.6562500000,122436.9062500000,136380.7656250000,159246.1562500000,,,
1.4639999976,11,178522.7656250000,210056.0468750000,170562.8750000000,171911.2812500000,140712.1718750000,122995.5000000000,137078.2031250000,157438.2656250000,,,
1.4679999975,11,178509.9062500000,207256.8125000000,170414.5468750000,171827.8593750000,140557.8906250000,122801.3593750000,136857.9375000000,157645.7343750000,,,
1.4719999975,11,178427.9375000000,209270.3750000000,170064.6250000000,171570.4531250000,140089.7656250000,122272.9140625000,136194.7031250000,159140.4218750000,,,
1.4759999977,11,178352.7812500000,213788.3125000000,169882.3750000000,171399.4531250000,139819.9843750000,121989.8593750000,135806.3750000000,160284.8593750000,,,
1.4799999977,11,178434.0625000000,214821.0156250000,170238.9687500000,171637.6406250000,140246.5937500000,122463.5390625000,136401.9375000000,159260.0156250000,,,
1.4839999976,11,178538.9843750000,209945.2187500000,170583.9843750000,171937.5937500000,140727.7500000000,122993.4609375000,137096.6562500000,157421.7656250000,,,
1.4879999976,11,178499.2343750000,207032.0468750000,170399.2656250000,171842.6406250000,140542.7812500000,122797.0468750000,136857.2656250000,157610.1093750000,,,
1.4919999975,11,178412.4375000000,209066.5312500000,170045.4843750000,171577.4687500000,140073.3125000000,122301.0468750000,136190.2812500000,159117.9687500000,,,
1.4959999977,11,178333.6406250000,213731.2343750000,169860.2968750000,171401.0312500000,139798.0156250000,121971.1406250000,135788.9375000000,160296.4531250000,,,
1.4999999977,11,178417.3281250000,214820.0468750000,170215.8281250000,171640.0468750000,140230.0625000000,122462.1406250000,136388.3906250000,159285.0625000000,,,
1.5039999976,11,178530.1093750000,209795.5468750000,170580.9062500000,171938.6406250000,140735.0781250000,123012.1328125000,137116.1250000000,157419.8281250000,,,
1.5079999976,11,178507.9843750000,206854.5312500000,170425.5468750000,171843.4218750000,140575.5625000000,122817.7500000000,136892.5625000000,157625.7500000000,,,
1.5119999975,11,178431.3750000000,208930.6250000000,170076.4843750000,171581.5312500000,140110.1093750000,122302.5781250000,136226.1406250000,159153.3750000000,,,
1.5159999975,11,178331.2968750000,213645.0312500000,169865.1562500000,171382.0156250000,139809.8125000000,121958.4765625000,135802.5625000000,160314.9062500000,,,
1.5199999977,11,178421.3437500000,214716.6562500000,170224.5156250000,171630.8750000000,140239.2968750000,122426.0156250000,136392.8437500000,159297.2187500000,,,
1.5239999976,11,178548.2343750000,209691.5312500000,170594.6250000000,171952.7656250000,140746.1250000000,123030.7421875000,137108.8593750000,157437.7500000000,,,
1.5279999976,11,178505.3593750000,206787.7187500000,170410.2500000000,171839.7187500000,140562.1562500000,122831.2656250000,136865.2656250000,157616.9531250000,,,
1.5319999976,11,178418.5000000000,208935.5000000000,170053.2343750000,171562.4062500000,140089.7656250000,122291.2031250000,136202.8125000000,159142.0781250000,,,
1.5359999975,12,178352.6562500000,213689.1562500000,169878.5156250000,171404.4687500000,139825.8281250000,121996.7265625000,135822.4375000000,160342.5781250000,,,
1.5399999975,12,178430.0156250000,214771.9687500000,170232.7187500000,171641.8437500000,140249.0781250000,122461.4453125000,136405.1875000000,159320.7968750000,,,
1.5439999974,12,178558.7500000000,209663.3125000000,170611.5625000000,171949.4375000000,140763.2812500000,123040.1562500000,137135.3281250000,157436.0312500000,,,
1.5479999974,12,178539.7187500000,206625.6406250000,170454.9687500000,171860.6875000000,140603.5156250000,122855.6484375000,136920.3281250000,157618.7500000000,,,
1.5519999973,12,178470.3750000000,208772.0781250000,170114.2812500000,171604.1875000000,140145.4062500000,122330.9531250000,136259.9687500000,159173.7343750000,,,
1.5559999973,12,178389.0468750000,213540.4218750000,169918.6093750000,171421.4531250000,139859.7656250000,122005.2265625000,135849.2187500000,160369.0000000000,,,
1.5599999975,12,178442.0468750000,214395.4531250000,170239.8593750000,171639.2187500000,140255.6250000000,122466.4062500000,136412.3125000000,159292.2031250000,,,
1.5639999975,12,178563.4843750000,209049.7343750000,170612.5000000000,171959.2031250000,140766.3437500000,123041.2890625000,137141.2031250000,157361.6875000000,,,
1.5679999974,12,178548.4218750000,205991.2656250000,170456.4218750000,171877.4843750000,140607.1093750000,122862.0625000000,136914.1562500000,157577.7968750000,,,
1.5719999974,12,178456.8906250000,208401.8437500000,170088.1562500000,171612.0781250000,140122.6093750000,122310.5703125000,136227.4843750000,159178.0781250000,,,
1.5759999973,12,178366.2500000000,213697.9531250000,169881.4062500000,171418.9843750000,139821.5312500000,121959.6015625000,135798.2968750000,160452.8281250000,,,
1.5799999975,12,178417.7500000000,214989.8593750000,170214.2968750000,171625.6250000000,140225.9375000000,122429.4218750000,136377.9531250000,159379.0468750000,,,
1.5839999975,12,178538.5625000000,209473.0625000000,170605.0156250000,171939.6250000000,140757.4062500000,123034.6640625000,137142.5156250000,157354.6875000000,,,
1.5879999974,12,178509.5625000000,206169.4687500000,170435.5000000000,171845.1562500000,140588.2187500000,122846.2890625000,136916.4843750000,157517.8125000000,,,
1.5919999974,12,178422.2812500000,208513.2968750000,170064.6562500000,171573.6406250000,140101.6093750000,122297.5937500000,136224.6093750000,159131.0625000000,,,
1.5959999973,12,178339.1406250000,213732.6406250000,169858.5781250000,171382.9062500000,139800.0468750000,121962.9843750000,135788.8281250000,160402.0156250000,,,
1.5999999973,12,178418.1250000000,214789.8750000000,170210.4843750000,171634.2812500000,140220.9687500000,122441.4921875000,136375.1718750000,159347.0000000000,,,
1.6039999975,12,178553.4375000000,209214.7500000000,170606.7343750000,171970.0468750000,140761.9218750000,123050.0859375000,137145.4687500000,157361.6250000000,,,
1.6079999974,12,178520.3125000000,205864.2968750000,170435.2031250000,171873.6406250000,140590.7187500000,122857.3671875000,136917.0000000000,157506.0156250000,,,
1.6119999974,12,178428.1093750000,208216.7968750000,170060.6875000000,171588.7968750000,140097.0468750000,122298.7187500000,136208.5937500000,159113.9218750000,,,
1.6159999974,12,178347.5625000000,213530.2031250000,169864.6406250000,171398.6562500000,139804.3750000000,121957.9921875000,135782.1250000000,160409.1093750000,,,
1.6199999973,12,178438.2187500000,214666.2500000000,170232.1562500000,171646.0781250000,140239.6718750000,122461.3125000000,136385.8125000000,159379.6718750000,,,
1.6239999975,12,178572.3281250000,209087.4531250000,170627.3750000000,171983.6875000000,140777.5000000000,123063.3359375000,137154.9375000000,157373.7812500000,,,
1.6279999975,12,178536.6250000000,205756.5156250000,170452.7656250000,171876.8906250000,140602.0625000000,122858.0937500000,136918.6562500000,157516.2031250000,,,
1.6319999974,12,178449.3437500000,208115.2500000000,170079.4062500000,171598.4531250000,140112.1562500000,122309.7109375000,136228.3750000000,159131.1093750000,,,
1.6359999974,12,178362.3437500000,213509.6093750000,169873.1250000000,171397.3593750000,139808.7500000000,121964.2187500000,135788.8125000000,160429.0781250000,,,
1.6399999973,12,178416.9687500000,214787.7031250000,170206.2968750000,171596.7656250000,140211.5781250000,122423.1953125000,136359.3437500000,159385.7656250000,,,
1.6439999973,12,178572.8906250000,209188.1718750000,170638.1406250000,171941.1250000000,140783.5937500000,123057.8906250000,137160.2500000000,157365.8437500000,,,
1.6479999975,12,178561.4843750000,205793.4218750000,170489.2968750000,171867.7656250000,140637.2812500000,122884.4296875000,136951.1093750000,157520.4687500000,,,
1.6519999974,12,178457.4218750000,208106.0000000000,170093.8906250000,171579.6250000000,140128.7031250000,122338.6796875000,136238.7812500000,159124.5937500000,,,
1.6559999974,12,178342.3593750000,213510.6562500000,169851.0156250000,171354.0468750000,139790.8281250000,121944.5546875000,135767.5625000000,160419.1406250000,,,
1.6599999974,12,178413.4062500000,214783.6562500000,170197.3125000000,171593.3593750000,140202.7343750000,122408.0937500000,136343.2500000000,159397.0312500000,,,
1.6639999973,13,178567.9062500000,209154.6718750000,170625.0000000000,171966.4218750000,140772.0625000000,123046.8906250000,137148.0156250000,157373.9375000000,,,
1.6679999973,13,178549.8750000000,205721.8906250000,170466.9531250000,171889.0156250000,140618.3906250000,122879.0625000000,136941.4531250000,157508.3437500000,,,
1.6719999972,13,178441.4843750000,208001.3906250000,170075.2968750000,171574.4687500000,140113.5000000000,122310.0859375000,136233.5156250000,159100.2343750000,,,
1.6759999972,13,178347.8281250000,213394.2187500000,169855.8125000000,171355.6250000000,139795.8437500000,121954.5859375000,135780.2500000000,160426.7812500000,,,
1.6799999971,13,178425.2656250000,214723.5156250000,170206.8906250000,171587.3125000000,140209.0312500000,122426.5234375000,136355.4843750000,159428.4531250000,,,
1.6839999971,13,178555.6718750000,209137.9843750000,170608.6406250000,171955.1875000000,140754.8906250000,123053.4062500000,137134.3593750000,157380.2968750000,,,
1.6879999973,13,178516.4375000000,205713.9062500000,170438.1250000000,171878.1718750000,140587.9843750000,122862.0312500000,136918.4218750000,157486.8437500000,,,
1.6919999972,13,178405.7968750000,208005.8281250000,170048.1875000000,171587.9375000000,140081.3125000000,122285.5234375000,136208.8437500000,159058.7968750000,,,
1.6959999972,13,178310.4687500000,213443.2812500000,169819.6875000000,171378.8906250000,139755.9375000000,121894.4296875000,135734.8437500000,160398.6093750000,,,
1.6999999972,13,178381.3750000000,215119.0468750000,170152.9062500000,171609.2656250000,140154.8750000000,122375.5078125000,136295.9531250000,159454.5625000000,,,
1.7039999971,13,178555.0468750000,209617.8281250000,170605.5468750000,171984.3125000000,140753.3437500000,123036.0546875000,137126.9687500000,157399.7656250000,,,
1.7079999973,13,178568.0312500000,206063.8437500000,170488.3437500000,171921.2031250000,140640.8906250000,122913.4218750000,136964.0468750000,157516.8750000000,,,
1.7119999973,13,178447.1562500000,208189.7187500000,170089.1718750000,171612.6406250000,140127.9531250000,122342.1171875000,136249.8593750000,159085.8125000000,,,
1.7159999972,13,178332.1875000000,213492.2812500000,169846.5937500000,171386.1718750000,139786.5625000000,121954.2109375000,135771.7187500000,160401.7031250000,,,
1.7199999972,13,178401.0156250000,215117.5156250000,170176.3437500000,171602.5781250000,140179.0468750000,122389.7812500000,136319.7812500000,159479.6718750000,,,
1.7239999971,13,178553.6875000000,209682.6093750000,170611.4531250000,171952.0156250000,140759.8750000000,123039.1640625000,137129.4531250000,157418.4687500000,,,
1.7279999971,13,178540.4843750000,206111.3750000000,170466.5781250000,171871.6250000000,140624.5312500000,122897.3593750000,136946.3437500000,157490.7187500000,,,
1.7319999973,13,178452.7031250000,208183.7343750000,170098.9843750000,171583.5937500000,140146.1718750000,122357.3203125000,136277.8281250000,159068.3437500000,,,
1.7359999972,13,178383.9062500000,213424.0468750000,169895.5156250000,171385.9687500000,139842.7031250000,121985.2968750000,135818.2031250000,160426.0625000000,,,
1.7399999972,13,178434.7812500000,214911.1093750000,170203.9687500000,171594.1093750000,140213.1875000000,122412.2812500000,136343.9218750000,159480.3125000000,,,
1.7439999972,13,178580.0468750000,209545.4062500000,170632.8593750000,171928.3281250000,140786.1875000000,123057.6171875000,137154.9843750000,157429.9687500000,,,
1.7479999971,13,178570.3437500000,206033.6406250000,170507.1406250000,171845.9687500000,140668.0625000000,122908.0859375000,136990.9687500000,157504.1093750000,,,
1.7519999973,13,178472.6562500000,208077.2187500000,170126.0781250000,171587.6093750000,140173.9218750000,122363.5703125000,136288.7187500000,159078.1406250000,,,
1.7559999973,13,178362.7968750000,213312.0625000000,169874.0312500000,171390.1718750000,139817.5468750000,121997.8515625000,135791.7812500000,160406.0781250000,,,
1.7599999972,13,178422.5781250000,215080.8437500000,170186.1875000000,171595.5312500000,140185.5625000000,122414.1875000000,136313.1875000000,159533.5000000000,,,
1.7639999972,13,178573.6718750000,209800.7031250000,170625.6875000000,171956.2500000000,140767.0937500000,123072.4531250000,137141.1562500000,157475.4375000000,,,
1.7679999971,13,178568.6562500000,206181.6562500000,170500.8593750000,171909.7500000000,140650.2656250000,122900.3593750000,136980.7031250000,157517.4375000000,,,
1.7719999971,13,178460.2968750000,208054.0937500000,170111.4375000000,171634.8125000000,140149.9687500000,122362.5781250000,136281.3906250000,159042.0156250000,,,
1.7759999973,13,178339.1093750000,213206.5156250000,169857.4218750000,171400.2031250000,139795.5468750000,121968.9921875000,135786.4218750000,160353.6875000000,,,
1.7799999972,13,178395.3593750000,214890.8906250000,170166.6875000000,171603.4062500000,140162.8281250000,122389.2656250000,136298.0781250000,159487.6562500000,,,
1.7839999972,13,178546.0937500000,209593.6093750000,170605.6875000000,171964.2500000000,140746.5468750000,123037.6406250000,137117.4687500000,157432.8906250000,,,
1.7879999971,13,178528.0156250000,205969.4843750000,170466.3750000000,171895.8593750000,140617.3750000000,122876.1718750000,136951.8125000000,157454.5156250000,,,
1.7919999971,14,178408.4218750000,207918.2500000000,170070.9843750000,171599.6093750000,140113.2812500000,122314.7265625000,136248.3437500000,158974.5781250000,,,
1.7959999971,14,178326.3750000000,213144.6718750000,169845.5781250000,171400.7656250000,139789.1406250000,121963.7656250000,135782.8593750000,160365.9531250000,,,
1.7999999970,14,178401.5468750000,214972.2187500000,170166.8125000000,171617.0156250000,140165.2031250000,122404.2578125000,136290.8593750000,159540.2500000000,,,
1.8039999970,14,178540.0312500000,209708.2500000000,170590.6406250000,171966.4531250000,140733.8593750000,123027.6093750000,137102.6562500000,157448.0781250000,,,
1.8079999969,14,178518.8437500000,205891.0937500000,170453.0156250000,171895.6718750000,140607.9062500000,122904.2812500000,136940.9843750000,157413.9843750000,,,
1.8119999969,14,178430.3281250000,207738.7812500000,170088.9062500000,171614.0000000000,140134.7656250000,122376.9843750000,136277.3750000000,158959.8281250000,,,
1.8159999971,14,178349.7031250000,213018.5468750000,169865.1562500000,171410.4531250000,139807.8906250000,121969.3671875000,135793.0937500000,160370.6718750000,,,
1.8199999970,14,178399.2187500000,214838.4218750000,170164.1406250000,171585.4062500000,140164.3750000000,122369.7656250000,136296.0156250000,159530.6562500000,,,
1.8239999970,14,178524.3750000000,209603.4531250000,170573.2500000000,171908.0000000000,140723.0312500000,123039.4609375000,137107.1093750000,157448.8593750000,,,
1.8279999970,14,178504.4687500000,205887.5781250000,170441.1875000000,171829.0156250000,140604.4531250000,122920.3984375000,136942.1093750000,157426.1718750000,,,
1.8319999969,14,178424.1875000000,207749.6718750000,170082.6718750000,171556.3437500000,140134.8125000000,122384.0937500000,136261.9531250000,158974.6562500000,,,
1.8359999971,14,178334.5781250000,213020.2187500000,169846.2968750000,171345.2968750000,139794.2031250000,121962.6640625000,135766.5468750000,160372.8906250000,,,
1.8399999971,14,178384.3125000000,214898.5312500000,170140.7968750000,171539.1718750000,140142.2968750000,122363.9218750000,136252.1875000000,159551.4062500000,,,
1.8439999970,14,178529.0937500000,209662.5625000000,170575.1562500000,171898.7187500000,140719.8906250000,123026.9375000000,137076.9062500000,157458.0781250000,,,
1.8479999970,14,178535.6406250000,205843.5000000000,170468.1093750000,171855.9687500000,140624.5312500000,122927.7500000000,136948.9375000000,157425.9218750000,,,
1.8519999969,14,178477.5312500000,207637.6875000000,170131.8750000000,171602.7343750000,140174.8437500000,122376.6328125000,136298.7812500000,158995.6093750000,,,
1.8559999969,14,178370.1093750000,213004.5000000000,169877.5156250000,171382.9062500000,139818.1875000000,121975.1093750000,135784.8906250000,160418.0312500000,,,
1.8599999971,14,178415.1718750000,215231.5000000000,170164.6406250000,171577.4531250000,140157.4062500000,122373.2265625000,136270.6093750000,159637.0312500000,,,
1.8639999970,14,178563.7187500000,210018.2031250000,170623.2187500000,171941.3906250000,140760.9843750000,123049.8671875000,137122.8281250000,157505.1093750000,,,
1.8679999970,14,178557.7343750000,206067.4375000000,170508.4062500000,171894.1093750000,140662.9687500000,122947.3828125000,136990.8750000000,157436.5468750000,,,
1.8719999969,14,178443.3906250000,207758.2031250000,170110.7031250000,171615.1562500000,140159.3281250000,122377.1718750000,136290.5468750000,158947.7812500000,,,
1.8759999969,14,178338.2500000000,212997.7031250000,169849.7031250000,171398.3593750000,139794.0468750000,121981.0390625000,135775.6718750000,160363.8593750000,,,
1.8799999971,14,178379.9843750000,214992.7656250000,170129.1406250000,171579.0625000000,140126.1562500000,122370.1171875000,136251.1718750000,159584.7031250000,,,
1.8839999971,14,178538.7656250000,209769.5625000000,170587.9218750000,171964.1718750000,140731.0781250000,123039.8125000000,137105.9375000000,157476.5312500000,,,
1.8879999970,14,178549.0156250000,205841.7656250000,170491.7656250000,171925.6250000000,140649.5156250000,122942.2343750000,136984.4375000000,157416.8593750000,,,
1.8919999970,14,178441.7343750000,207564.7656250000,170101.1250000000,171624.8437500000,140152.1250000000,122402.4140625000,136284.4843750000,158936.8906250000,,,
1.8959999969,14,178323.0468750000,212891.0625000000,169827.4062500000,171382.6093750000,139779.1250000000,121966.9296875000,135753.5312500000,160364.7187500000,,,
1.8999999969,14,178371.7812500000,214994.6406250000,170115.4062500000,171564.5000000000,140119.7187500000,122344.1015625000,136227.2187500000,159608.8125000000,,,
1.9039999971,14,178523.9062500000,209774.9843750000,170574.4687500000,171931.5781250000,140724.0937500000,123019.6953125000,137082.4375000000,157491.9531250000,,,
1.9079999970,14,178515.7656250000,205758.6718750000,170467.7031250000,171862.4062500000,140633.0468750000,122951.3515625000,136959.3437500000,157385.0937500000,,,
1.9119999970,14,178420.8125000000,207326.1562500000,170084.2343750000,171577.6093750000,140137.0781250000,122402.0625000000,136273.5312500000,158898.4062500000,,,
1.9159999969,14,178319.9375000000,212655.9687500000,169821.9687500000,171347.3125000000,139767.7343750000,121986.9062500000,135747.0468750000,160367.7968750000,,,
1.9199999969,15,178385.5312500000,214907.0312500000,170120.8750000000,171553.8125000000,140115.1250000000,122377.6796875000,136222.6093750000,159656.9531250000,,,
1.9239999969,15,178553.5781250000,209740.1718750000,170592.9218750000,171937.9062500000,140733.8906250000,123062.8281250000,137096.0625000000,157524.7968750000,,,
1.9279999968,15,178555.3437500000,205772.9375000000,170489.6250000000,171888.3750000000,140648.2500000000,122961.1406250000,136980.2500000000,157431.3750000000,,,
1.9319999968,15,178460.1093750000,207462.8125000000,170114.2812500000,171616.7187500000,140162.5000000000,122415.4453125000,136294.4375000000,158936.4062500000,,,
1.9359999967,15,178370.9687500000,212689.0937500000,169872.0937500000,171387.0625000000,139815.1250000000,122025.8828125000,135788.4062500000,160380.0625000000,,,
1.9399999967,15,178423.7343750000,214688.1093750000,170160.4687500000,171560.9218750000,140151.5625000000,122393.1328125000,136249.6406250000,159641.1562500000,,,
1.9439999969,15,178568.6562500000,209571.5000000000,170603.4062500000,171914.7656250000,140740.4687500000,123051.1562500000,137094.2343750000,157537.7968750000,,,
1.9479999968,15,178574.3437500000,205833.0937500000,170513.0468750000,171868.1406250000,140667.5000000000,122948.8828125000,136990.4375000000,157472.9375000000,,,
1.9519999968,15,178489.7656250000,207475.2500000000,170159.1718750000,171604.9062500000,140205.9531250000,122432.5078125000,136333.1562500000,158950.5468750000,,,
1.9559999967,15,178394.9218750000,212432.4531250000,169911.0937500000,171394.1406250000,139852.9531250000,122039.2968750000,135826.5468750000,160335.9375000000,,,
1.9599999967,15,178437.0156250000,214502.2343750000,170180.9218750000,171565.7500000000,140169.3593750000,122407.9609375000,136273.6406250000,159649.8750000000,,,
1.9639999969,15,178589.2812500000,209677.2187500000,170633.9218750000,171933.4843750000,140769.0000000000,123076.6953125000,137115.9375000000,157612.8750000000,,,
1.9679999969,15,178572.0000000000,205952.7500000000,170513.4218750000,171902.3125000000,140671.4218750000,122987.8281250000,136984.6250000000,157500.2500000000,,,
1.9719999968,15,178477.9375000000,207572.1875000000,170147.3281250000,171627.3593750000,140199.9375000000,122450.0703125000,136325.7656250000,158952.8750000000,,,
1.9759999968,15,178365.2031250000,212679.2500000000,169876.6093750000,171407.2343750000,139827.8906250000,122019.6875000000,135803.0781250000,160357.0625000000,,,
1.9799999967,15,178407.1093750000,214959.7187500000,170140.1562500000,171581.0937500000,140140.0468750000,122381.8125000000,136235.3750000000,159690.2500000000,,,
1.9839999967,15,178553.4375000000,210063.5312500000,170590.2343750000,171947.8125000000,140736.7343750000,123058.2343750000,137075.7343750000,157602.7812500000,,,
1.9879999969,15,178541.7812500000,206142.2187500000,170486.0625000000,171900.0937500000,140650.7968750000,122958.9140625000,136964.4218750000,157465.9218750000,,,
1.9919999968,15,178447.0156250000,207638.7812500000,170121.7031250000,171621.5468750000,140178.0000000000,122426.2265625000,136303.8750000000,158922.7812500000,,,
1.9959999968,15,178354.7500000000,212714.5781250000,169870.3593750000,171406.3750000000,139819.2500000000,122029.0234375000,135786.5312500000,160355.3593750000,,,
1.9999999967,15,178405.7343750000,215202.4062500000,170136.3750000000,171572.2968750000,140128.5625000000,122372.7968750000,136217.0000000000,159748.0156250000,,,
2.0039999967,15,178541.7812500000,210366.3281250000,170578.3437500000,171919.9062500000,140722.2031250000,123031.9218750000,137062.9687500000,157633.5000000000,,,
2.0079999969,15,178540.0312500000,206357.8125000000,170481.6562500000,171878.1250000000,140649.7968750000,122952.0234375000,136967.8593750000,157467.4375000000,,,
2.0119999968,15,178473.3593750000,207748.6562500000,170146.0625000000,171636.5312500000,140207.2968750000,122449.8046875000,136339.3125000000,158917.5000000000,,,
2.0159999968,15,178390.0156250000,212687.6250000000,169895.7500000000,171425.8437500000,139844.5781250000,122049.9453125000,135815.3125000000,160348.5312500000,,,
2.0199999968,15,178420.9687500000,214909.5625000000,170136.0312500000,171552.4531250000,140125.5156250000,122384.8125000000,136219.4375000000,159717.8750000000,,,
2.0239999967,15,178552.0312500000,210027.7031250000,170583.0156250000,171890.8593750000,140718.8750000000,123052.9531250000,137073.1875000000,157598.5468750000,,,
2.0279999967,15,178544.5468750000,206036.0000000000,170488.7656250000,171852.0312500000,140647.8437500000,122961.1718750000,136979.2812500000,157430.7500000000,,,
2.0319999969,15,178456.9375000000,207466.6718750000,170133.3750000000,171592.0312500000,140187.6875000000,122427.4062500000,136328.6562500000,158875.3125000000,,,
2.0359999968,15,178374.1875000000,212454.8750000000,169890.5000000000,171381.0781250000,139837.4687500000,122027.6796875000,135814.3750000000,160321.5000000000,,,
2.0399999968,15,178422.0156250000,214922.8437500000,170153.6250000000,171536.7656250000,140139.4375000000,122364.1093750000,136224.4062500000,159745.4375000000,,,
2.0439999967,15,178561.0312500000,210186.0781250000,170604.3437500000,171893.9687500000,140741.4843750000,123026.5078125000,137072.1406250000,157639.1562500000,,,
2.0479999967,16,178556.2656250000,206145.1718750000,170508.1562500000,171854.5781250000,140672.4687500000,122945.5546875000,136980.5937500000,157429.2031250000,,,
2.0519999966,16,178476.4687500000,207509.8750000000,170159.0625000000,171592.7343750000,140217.4062500000,122450.8281250000,136340.6718750000,158862.5156250000,,,
2.0559999966,16,178373.4687500000,212443.6093750000,169890.6406250000,171375.0468750000,139842.8281250000,122042.5625000000,135814.4531250000,160299.5625000000,,,
2.0599999966,16,178395.4687500000,214693.4218750000,170124.0156250000,171536.2500000000,140118.1875000000,122358.8515625000,136206.1875000000,159689.0937500000,,,
2.0639999965,16,178531.9843750000,209873.1250000000,170574.4687500000,171907.5937500000,140715.9218750000,123031.3593750000,137063.0781250000,157591.7031250000,,,
2.0679999965,16,178524.1875000000,205855.3593750000,170480.3750000000,171877.5312500000,140647.3125000000,122951.9687500000,136977.7031250000,157399.1875000000,,,
2.0719999967,16,178431.5156250000,207261.0312500000,170115.4062500000,171613.2343750000,140175.2343750000,122422.5781250000,136314.9843750000,158837.3750000000,,,
2.0759999966,16,178338.4062500000,212306.9531250000,169854.7500000000,171383.2031250000,139802.9687500000,122005.2812500000,135781.5625000000,160284.6562500000,,,
2.0799999966,16,178383.4218750000,214872.4687500000,170104.8281250000,171540.5156250000,140089.2187500000,122328.7578125000,136179.5000000000,159730.6875000000,,,
2.0839999965,16,178540.5468750000,210111.4375000000,170578.1562500000,171926.6718750000,140711.0625000000,123027.5546875000,137057.4687500000,157619.3906250000,,,
2.0879999965,16,178533.3750000000,205927.8125000000,170487.2656250000,171888.9062500000,140648.2968750000,122964.3906250000,136984.5625000000,157385.8750000000,,,
2.0919999967,16,178421.3750000000,207130.7031250000,170102.1718750000,171611.2187500000,140160.4062500000,122429.9609375000,136313.1250000000,158786.4218750000,,,
2.0959999966,16,178323.5468750000,212193.7968750000,169829.1875000000,171373.6250000000,139776.0781250000,122006.3281250000,135765.7343750000,160274.8281250000,,,
2.0999999966,16,178370.4843750000,214866.7187500000,170075.8906250000,171540.7812500000,140060.1718750000,122336.5390625000,136156.2968750000,159761.2187500000,,,
2.1039999966,16,178520.5000000000,210018.7656250000,170547.4218750000,171911.9218750000,140681.1562500000,123048.2578125000,137035.7968750000,157618.5312500000,,,
2.1079999965,16,178500.7968750000,205793.1875000000,170456.1718750000,171874.4531250000,140615.5781250000,122938.8281250000,136962.8437500000,157368.5468750000,,,
2.1119999965,16,178403.5156250000,207089.7968750000,170090.5937500000,171603.8750000000,140146.2656250000,122432.2656250000,136302.2656250000,158782.2656250000,,,
2.1159999967,16,178317.2812500000,212135.5937500000,169833.1875000000,171376.5000000000,139779.6093750000,122028.0000000000,135768.7968750000,160265.5781250000,,,
2.1199999966,16,178362.6562500000,214842.9531250000,170078.4687500000,171523.3750000000,140061.8593750000,122322.9375000000,136156.4843750000,159767.5781250000,,,
2.1239999966,16,178515.9687500000,210139.5781250000,170550.5937500000,171906.3906250000,140686.4375000000,123016.0468750000,137043.1406250000,157621.8906250000,,,
2.1279999965,16,178522.9687500000,205708.0312500000,170486.4843750000,171897.6562500000,140653.7968750000,122983.0859375000,137012.2968750000,157312.5468750000,,,
2.1319999965,16,178450.9062500000,206372.8593750000,170145.5781250000,171639.4062500000,140208.7187500000,122476.0078125000,136379.7812500000,158677.8437500000,,,
2.1359999967,16,178362.7656250000,211560.1562500000,169872.8437500000,171399.4531250000,139816.8437500000,122034.4375000000,135803.1875000000,160262.7031250000,,,
2.1399999966,16,178414.4843750000,214649.8750000000,170121.2812500000,171538.3750000000,140097.5937500000,122348.7656250000,136175.9062500000,159832.7500000000,,,
2.1439999966,16,178569.4843750000,210031.1250000000,170602.1406250000,171922.5156250000,140730.6718750000,123065.3203125000,137070.6406250000,157673.6250000000,,,
2.1479999966,16,178554.4687500000,205711.7031250000,170509.6562500000,171905.3750000000,140668.7343750000,122997.0000000000,137002.6093750000,157370.7500000000,,,
2.1519999965,16,178452.8281250000,206947.5781250000,170135.6562500000,171625.5156250000,140190.8281250000,122453.3750000000,136336.7343750000,158786.5781250000,,,
2.1559999965,16,178351.5781250000,212106.2500000000,169855.8750000000,171382.9375000000,139795.5000000000,122005.0390625000,135775.3750000000,160295.0781250000,,,
2.1599999967,16,178390.5000000000,214908.1875000000,170097.9375000000,171533.5937500000,140071.0937500000,122339.4609375000,136159.6250000000,159805.7343750000,,,
2.1639999966,16,178543.5781250000,210209.0156250000,170573.7656250000,171918.5937500000,140701.5468750000,123055.9609375000,137056.7968750000,157669.5468750000,,,
2.1679999966,16,178530.4375000000,205877.8437500000,170484.2031250000,171902.4843750000,140649.4531250000,123005.1875000000,137003.7187500000,157363.7031250000,,,
2.1719999965,16,178446.1875000000,206972.3125000000,170128.5937500000,171653.5625000000,140192.2656250000,122486.8750000000,136352.9531250000,158764.8593750000,,,
2.1759999965,17,178357.1562500000,212086.3437500000,169859.6250000000,171411.7968750000,139809.0156250000,122044.9765625000,135795.8906250000,160291.4062500000,,,
2.1799999964,17,178402.2812500000,214784.9218750000,170102.8750000000,171545.3437500000,140083.1875000000,122348.2031250000,136166.1875000000,159813.1093750000,,,
2.1839999964,17,178552.1250000000,210076.2500000000,170577.0937500000,171926.3437500000,140706.7500000000,123058.3203125000,137049.6093750000,157674.6250000000,,,
2.1879999964,17,178542.8281250000,205778.0000000000,170497.0468750000,171906.9843750000,140658.5000000000,122997.1093750000,136996.7343750000,157367.1562500000,,,
2.1919999963,17,178447.9062500000,206916.0625000000,170134.7968750000,171637.9062500000,140190.3437500000,122473.3046875000,136342.1250000000,158749.7343750000,,,
2.1959999963,17,178354.5312500000,212012.2656250000,169864.4062500000,171402.6406250000,139802.8906250000,122035.0312500000,135787.5468750000,160279.8281250000,,,
2.1999999965,17,178400.7500000000,214988.5000000000,170101.5312500000,171543.9218750000,140068.1406250000,122334.2031250000,136151.7656250000,159871.4062500000,,,
2.2039999964,17,178550.9531250000,210379.8437500000,170579.2343750000,171934.5312500000,140699.2031250000,123046.5703125000,137048.9375000000,157709.5937500000,,,
2.2079999964,17,178533.7812500000,205906.5312500000,170493.2656250000,171911.4687500000,140653.6875000000,123004.0312500000,137012.3750000000,157350.8437500000,,,
2.2119999963,17,178450.9531250000,206994.4375000000,170138.8125000000,171643.4531250000,140199.0625000000,122506.8828125000,136372.8906250000,158755.8750000000,,,
2.2159999963,17,178353.1406250000,212081.8437500000,169861.1250000000,171404.4375000000,139809.3281250000,122039.4531250000,135807.3125000000,160281.5312500000,,,
2.2199999965,17,178377.1406250000,215005.0468750000,170075.0312500000,171532.3593750000,140055.7968750000,122317.7578125000,136148.3593750000,159848.6875000000,,,
2.2239999964,17,178541.2343750000,210421.0156250000,170571.9687500000,171931.8437500000,140707.2343750000,123057.4609375000,137055.4843750000,157698.5156250000,,,
2.2279999964,17,178536.4687500000,205950.9062500000,170500.3593750000,171901.9375000000,140675.2812500000,123018.1406250000,137022.0000000000,157351.6562500000,,,
2.2319999964,17,178434.8125000000,207029.2031250000,170128.2968750000,171610.4062500000,140201.0625000000,122497.7890625000,136367.1718750000,158743.3750000000,,,
2.2359999963,17,178340.8750000000,212202.1875000000,169845.9687500000,171370.9375000000,139800.2343750000,122058.8984375000,135797.4687500000,160292.1875000000,,,
2.2399999963,17,178395.5468750000,215275.9531250000,170084.2812500000,171516.4531250000,140062.8593750000,122352.1171875000,136146.3437500000,159918.2031250000,,,
2.2439999965,17,178538.1250000000,210613.2187500000,170560.8593750000,171917.7968750000,140687.3593750000,123040.9140625000,137034.9062500000,157697.8750000000,,,
2.2479999964,17,178559.7187500000,206039.0937500000,170521.4843750000,171931.7343750000,140682.3593750000,123028.2265625000,137028.9531250000,157331.7968750000,,,
2.2519999964,17,178456.7500000000,207034.7500000000,170142.6250000000,171649.1093750000,140205.3281250000,122499.3750000000,136368.5625000000,158721.1093750000,,,
2.2559999963,17,178349.6562500000,212122.6562500000,169854.6718750000,171397.0156250000,139803.1406250000,122056.2968750000,135789.3437500000,160260.3437500000,,,
2.2599999963,17,178375.4062500000,214956.1250000000,170069.8906250000,171525.5156250000,140046.3125000000,122328.2500000000,136119.2812500000,159845.8125000000,,,
2.2639999965,17,178525.6875000000,210303.7187500000,170556.3906250000,171914.3593750000,140682.7968750000,123041.7656250000,137021.8125000000,157688.5156250000,,,
2.2679999964,17,178523.5312500000,205774.6718750000,170495.6093750000,171901.6718750000,140658.9218750000,123006.0156250000,137006.0781250000,157318.7343750000,,,
2.2719999964,17,178439.4218750000,206748.1562500000,170139.0000000000,171642.9218750000,140200.0312500000,122487.4921875000,136362.4218750000,158712.2031250000,,,
2.2759999963,17,178350.2968750000,211902.7968750000,169861.4531250000,171403.2187500000,139803.1562500000,122069.4140625000,135789.1093750000,160274.5937500000,,,
2.2799999963,17,178393.9531250000,214885.3906250000,170087.7187500000,171541.8750000000,140054.2968750000,122325.8046875000,136134.4687500000,159892.7031250000,,,
2.2839999963,17,178547.5781250000,210259.7656250000,170574.6718750000,171941.7656250000,140694.2187500000,123050.2187500000,137045.6875000000,157750.3437500000,,,
2.2879999964,17,178547.6718750000,205753.2500000000,170513.8750000000,171929.7812500000,140672.7343750000,123016.4765625000,137025.4687500000,157421.6562500000,,,
2.2919999964,17,178457.4687500000,206805.2656250000,170154.1093750000,171658.5000000000,140215.3906250000,122486.5000000000,136384.5312500000,158816.5468750000,,,
2.2959999964,17,178348.4375000000,212019.8281250000,169854.1875000000,171394.8750000000,139803.2500000000,122027.4140625000,135802.2656250000,160377.9375000000,,,
2.2999999963,17,178381.4375000000,215051.5312500000,170067.6562500000,171532.3281250000,140045.3750000000,122314.8125000000,136130.6562500000,159999.7656250000,,,
2.3039999963,18,178537.2187500000,210409.5312500000,170558.9843750000,171935.6250000000,140687.4843750000,123043.7812500000,137029.8125000000,157820.9062500000,,,
2.3079999962,18,178539.6093750000,205853.2343750000,170507.0000000000,171914.1718750000,140673.1875000000,123020.8750000000,137017.7187500000,157432.7968750000,,,
2.3119999962,18,178461.5468750000,206863.8125000000,170161.3281250000,171645.7968750000,140228.1562500000,122519.1171875000,136391.5781250000,158826.5156250000,,,
2.3159999961,18,178352.4375000000,212086.9843750000,169862.1406250000,171396.1875000000,139811.7187500000,122032.4531250000,135800.0781250000,160395.8750000000,,,
2.3199999961,18,178366.7968750000,215333.7500000000,170054.5156250000,171493.9218750000,140027.9843750000,122278.1171875000,136100.3750000000,160044.5937500000,,,
2.3239999961,18,178533.8906250000,210741.6406250000,170564.5625000000,171887.4843750000,140688.2187500000,123024.1171875000,137025.3906250000,157851.0000000000,,,
2.3279999963,18,178556.1875000000,206014.4375000000,170532.2968750000,171895.5781250000,140694.8437500000,123028.3593750000,137035.7968750000,157429.8125000000,,,
2.3319999962,18,178458.1406250000,206886.3437500000,170164.0625000000,171642.2500000000,140227.6250000000,122517.1328125000,136394.0781250000,158797.0156250000,,,
2.3359999962,18,178358.2343750000,212038.5468750000,169873.5781250000,171403.9375000000,139816.5781250000,122061.2578125000,135806.3281250000,160383.2500000000,,,
2.3399999961,18,178383.8750000000,215171.0156250000,170076.3281250000,171524.1718750000,140041.2656250000,122315.8281250000,136108.6875000000,160046.3593750000,,,
2.3439999961,18,178543.6250000000,210491.5781250000,170581.0625000000,171924.5468750000,140698.8125000000,123035.9453125000,137035.8437500000,157839.7656250000,,,
2.3479999963,18,178542.8437500000,205667.3906250000,170529.1406250000,171905.6406250000,140690.9687500000,123020.4687500000,137039.5781250000,157384.4218750000,,,
2.3519999962,18,178461.9843750000,206533.5625000000,170176.2812500000,171648.8281250000,140242.0781250000,122522.8671875000,136410.2187500000,158768.9843750000,,,
2.3559999962,18,178369.0468750000,211682.3281250000,169886.8437500000,171408.1718750000,139832.9375000000,122051.6875000000,135817.8593750000,160367.7656250000,,,
2.3599999961,18,178395.0625000000,214876.9687500000,170080.0781250000,171530.0781250000,140042.8437500000,122291.9296875000,136109.2187500000,160053.7031250000,,,
2.3639999961,18,178551.5468750000,210405.0625000000,170579.8593750000,171932.9218750000,140694.5156250000,123041.2343750000,137033.7500000000,157870.9531250000,,,
2.3679999961,18,178553.3593750000,205668.9531250000,170532.6250000000,171936.6250000000,140692.8593750000,123027.0156250000,137047.7812500000,157411.5156250000,,,
2.3719999962,18,178470.4843750000,206546.0312500000,170174.7343750000,171680.0156250000,140237.5000000000,122514.1796875000,136409.6250000000,158778.4531250000,,,
2.3759999962,18,178381.5156250000,211579.8125000000,169889.5000000000,171443.3593750000,139837.8437500000,122074.0312500000,135829.8437500000,160348.1875000000,,,
2.3799999962,18,178396.7031250000,214476.4062500000,170073.3125000000,171547.0312500000,140044.8593750000,122314.4062500000,136111.5000000000,160002.9375000000,,,
2.3839999961,18,178542.5781250000,210050.7031250000,170556.6562500000,171931.4687500000,140679.7968750000,123028.7578125000,137006.9375000000,157859.0468750000,,,
2.3879999961,18,178551.5625000000,205445.5937500000,170518.2187500000,171927.0781250000,140686.5156250000,123029.2187500000,137027.0000000000,157417.2812500000,,,
2.3919999963,18,178455.2812500000,206376.6250000000,170154.4062500000,171648.9062500000,140226.4218750000,122509.1640625000,136386.8593750000,158762.8906250000,,,
2.3959999962,18,178367.2187500000,211503.8750000000,169874.6406250000,171403.3125000000,139827.3593750000,122060.9921875000,135818.1718750000,160346.3593750000,,,
2.3999999962,18,178394.8437500000,214713.4375000000,170072.2968750000,171518.2812500000,140043.4687500000,122297.4296875000,136114.4843750000,160067.3906250000,,,
2.4039999961,18,178547.9218750000,210315.3906250000,170567.6718750000,171917.1250000000,140690.2187500000,123035.3046875000,137027.3125000000,157899.5468750000,,,
2.4079999961,18,178551.8125000000,205627.8750000000,170524.3593750000,171920.3437500000,140689.6875000000,123040.0000000000,137039.3125000000,157422.7812500000,,,
2.4119999961,18,178465.3906250000,206473.6875000000,170170.9531250000,171653.7343750000,140238.7812500000,122527.2109375000,136408.7968750000,158759.7812500000,,,
2.4159999962,18,178371.5312500000,211566.8281250000,169877.5156250000,171387.5156250000,139829.3125000000,122072.4453125000,135826.5000000000,160349.7968750000,,,
2.4199999962,18,178379.1875000000,214811.2500000000,170046.1406250000,171483.8437500000,140019.4843750000,122280.8281250000,136094.9531250000,160078.7343750000,,,
2.4239999962,18,178536.7656250000,210456.3125000000,170547.3125000000,171892.7187500000,140675.2031250000,123034.4453125000,137020.0156250000,157915.0000000000,,,
2.4279999961,18,178548.0000000000,205715.8281250000,170511.1562500000,171909.6875000000,140690.1718750000,123029.2187500000,137049.7343750000,157432.0312500000,,,
2.4319999961,19,178467.0781250000,206491.4687500000,170166.7656250000,171663.8750000000,140250.8281250000,122526.3593750000,136429.5000000000,158760.5156250000,,,
2.4359999960,19,178381.9687500000,211609.7656250000,169890.5000000000,171421.6718750000,139851.7968750000,122076.3593750000,135849.3125000000,160361.4687500000,,,
2.4399999960,19,178415.2812500000,214948.4218750000,170089.5781250000,171548.0781250000,140062.8750000000,122315.8281250000,136127.7656250000,160139.4531250000,,,
2.4439999959,19,178550.5000000000,210587.8750000000,170577.0156250000,171927.0468750000,140697.7812500000,123035.6015625000,137035.0937500000,157955.2031250000,,,
2.4479999959,19,178541.4062500000,205777.0312500000,170528.0937500000,171922.6718750000,140694.4687500000,123038.0156250000,137048.7968750000,157421.5781250000,,,
2.4519999959,19,178461.4218750000,206510.5156250000,170178.7343750000,171668.6093750000,140246.4062500000,122540.9765625000,136421.7500000000,158744.5468750000,,,
2.4559999960,19,178387.1250000000,211590.0000000000,169902.5156250000,171434.0312500000,139847.7656250000,122077.2968750000,135841.6718750000,160361.2812500000,,,
2.4599999960,19,178407.6718750000,214880.8906250000,170081.5312500000,171537.9375000000,140041.8593750000,122283.5625000000,136108.8281250000,160121.5468750000,,,
2.4639999960,19,178545.4062500000,210541.2031250000,170565.0781250000,171923.7968750000,140678.2031250000,123011.7031250000,137014.2500000000,157937.1562500000,,,
2.4679999959,19,178562.1093750000,205656.6093750000,170547.5625000000,171941.3437500000,140710.4687500000,123041.0156250000,137064.5468750000,157398.2500000000,,,
2.4719999959,19,178484.7500000000,206296.2656250000,170203.9375000000,171689.1406250000,140273.4062500000,122546.6875000000,136445.4687500000,158723.6093750000,,,
2.4759999961,19,178373.6562500000,211422.9062500000,169891.4375000000,171424.5625000000,139843.0468750000,122061.7734375000,135836.8125000000,160335.7500000000,,,
2.4799999960,19,178392.4062500000,214840.2031250000,170067.2343750000,171518.4062500000,140037.4218750000,122284.2890625000,136098.9531250000,160136.0000000000,,,
2.4839999960,19,178540.7031250000,210548.1562500000,170565.7187500000,171912.3750000000,140688.7500000000,123001.0234375000,137022.1718750000,157956.2187500000,,,
2.4879999959,19,178547.9531250000,205677.6406250000,170537.3906250000,171925.4062500000,140709.3281250000,123049.2500000000,137066.2031250000,157399.8750000000,,,
2.4919999959,19,178466.8125000000,206340.5937500000,170192.2500000000,171672.4218750000,140269.5156250000,122567.9062500000,136455.5468750000,158717.1406250000,,,
2.4959999959,19,178360.2968750000,211523.9687500000,169876.3125000000,171406.9062500000,139831.0000000000,122077.9140625000,135831.8281250000,160356.3750000000,,,
2.4999999960,19,178372.7187500000,215158.0156250000,170036.1406250000,171501.7500000000,140001.7031250000,122279.9921875000,136059.4218750000,160182.3750000000,,,
2.5039999960,19,178534.1093750000,210868.7031250000,170548.4218750000,171907.7343750000,140664.2812500000,123022.1640625000,136992.4531250000,157983.4218750000,,,
2.5079999960,19,178551.1093750000,205851.2343750000,170534.3125000000,171916.7187500000,140701.6718750000,123060.8125000000,137058.2968750000,157398.3281250000,,,
2.5119999959,19,178480.1093750000,206424.6875000000,170196.4843750000,171681.8125000000,140271.8593750000,122573.0546875000,136451.4531250000,158713.7343750000,,,
2.5159999959,19,178393.4531250000,211456.4531250000,169901.0937500000,171458.2968750000,139855.7812500000,122094.2500000000,135846.2343750000,160349.9531250000,,,
2.5199999961,19,178418.3750000000,214917.2812500000,170073.6875000000,171549.5312500000,140041.5312500000,122290.0781250000,136092.7812500000,160197.2031250000,,,
2.5239999960,19,178557.6093750000,210767.1875000000,170561.5312500000,171933.1406250000,140682.5312500000,123023.4531250000,137009.1562500000,158017.2968750000,,,
2.5279999960,19,178568.9218750000,205834.4687500000,170544.0156250000,171938.2812500000,140719.3593750000,123077.0390625000,137079.2656250000,157424.6562500000,,,
2.5319999959,19,178491.2187500000,206392.3906250000,170208.2656250000,171682.5156250000,140288.4843750000,122592.3906250000,136470.0312500000,158718.4218750000,,,
2.5359999959,19,178373.2031250000,211433.8750000000,169883.3437500000,171424.3125000000,139838.5468750000,122084.5156250000,135841.6250000000,160334.7187500000,,,
2.5399999958,19,178386.1250000000,215025.5312500000,170044.1093750000,171507.5468750000,140007.2500000000,122269.6718750000,136066.3437500000,160193.1562500000,,,
2.5439999960,19,178535.6562500000,210901.4531250000,170552.9218750000,171912.6093750000,140665.3281250000,123005.4765625000,137001.5625000000,158000.7968750000,,,
2.5479999960,19,178550.2812500000,205903.4218750000,170543.0781250000,171938.2343750000,140707.6250000000,123051.4765625000,137074.7656250000,157380.4531250000,,,
2.5519999960,19,178475.7656250000,206350.9218750000,170207.0000000000,171695.2187500000,140277.2187500000,122565.8906250000,136462.3906250000,158655.8437500000,,,
2.5559999959,19,178379.7500000000,211363.8437500000,169899.5156250000,171436.2500000000,139847.6562500000,122072.5546875000,135845.1875000000,160301.8125000000,,,
2.5599999959,20,178390.0156250000,214990.2656250000,170051.2500000000,171512.2500000000,140008.5468750000,122246.1718750000,136061.3281250000,160178.1406250000,,,
2.5639999958,20,178538.6093750000,210902.6406250000,170553.2187500000,171896.2500000000,140661.8750000000,122989.7109375000,136987.0625000000,158008.5781250000,,,
2.5679999958,20,178554.0156250000,205931.5000000000,170543.6093750000,171917.7187500000,140709.4062500000,123038.3593750000,137062.0312500000,157389.5312500000,,,
2.5719999957,20,178476.7343750000,206333.0312500000,170204.3437500000,171659.4687500000,140282.2031250000,122571.7109375000,136455.9062500000,158656.8750000000,,,
2.5759999957,20,178385.1093750000,211309.5312500000,169899.2656250000,171401.6093750000,139856.1406250000,122096.6640625000,135839.7187500000,160312.3750000000,,,
2.5799999957,20,178405.0937500000,214995.5000000000,170055.6093750000,171492.1250000000,140020.6093750000,122272.4296875000,136061.2187500000,160229.9062500000,,,
2.5839999958,20,178563.0937500000,211004.7968750000,170565.7656250000,171905.9687500000,140679.6875000000,123018.4062500000,136992.8593750000,158069.7812500000,,,
2.5879999958,20,178570.1250000000,205950.6250000000,170556.6250000000,171940.7500000000,140725.7031250000,123072.3203125000,137077.0156250000,157401.8906250000,,,
2.5919999958,20,178470.9375000000,206213.4687500000,170198.4218750000,171684.3281250000,140278.1562500000,122577.8281250000,136461.0468750000,158644.5625000000,,,
2.5959999957,20,178352.2031250000,211160.7968750000,169869.8437500000,171416.7343750000,139824.3593750000,122080.7578125000,135821.0468750000,160278.9843750000,,,
2.5999999957,20,178360.2968750000,214810.3125000000,170016.0312500000,171496.9531250000,139973.2500000000,122243.1406250000,136020.7187500000,160178.8593750000,,,
2.6039999959,20,178528.1718750000,210852.2812500000,170539.1406250000,171908.0000000000,140642.4531250000,122991.2343750000,136962.2500000000,158021.9687500000,,,
2.6079999958,20,178556.5312500000,205822.4218750000,170549.0312500000,171945.0156250000,140708.2500000000,123064.5703125000,137068.2968750000,157366.5937500000,,,
2.6119999958,20,178469.2968750000,206188.3750000000,170199.0937500000,171700.6718750000,140271.0781250000,122576.0546875000,136458.0468750000,158624.5468750000,,,
2.6159999957,20,178372.7656250000,211187.8906250000,169890.0937500000,171440.3906250000,139840.1250000000,122097.9531250000,135834.7031250000,160292.5625000000,,,
2.6199999957,20,178396.0781250000,215024.7812500000,170046.8750000000,171516.7968750000,140002.0156250000,122282.7343750000,136039.0625000000,160252.1718750000,,,
2.6239999956,20,178578.0468750000,211138.3750000000,170586.8750000000,171932.1718750000,140691.0625000000,123036.3203125000,136995.2656250000,158113.1250000000,,,
2.6279999958,20,178587.2968750000,206030.9843750000,170580.6875000000,171959.7968750000,140744.3281250000,123104.6640625000,137095.1250000000,157419.2968750000,,,
2.6319999958,20,178498.0625000000,206299.4218750000,170229.0000000000,171718.1093750000,140306.2187500000,122624.7109375000,136489.1562500000,158650.2968750000,,,
2.6359999957,20,178388.8906250000,211305.0468750000,169901.6875000000,171452.9375000000,139854.1562500000,122106.5937500000,135843.6093750000,160317.1562500000,,,
2.6399999957,20,178399.4062500000,215368.3437500000,170038.5312500000,171506.8281250000,139994.5156250000,122262.5078125000,136025.3750000000,160310.4531250000,,,
2.6439999957,20,178573.5937500000,211496.0781250000,170573.2343750000,171928.0468750000,140680.7812500000,123035.4687500000,136992.5312500000,158135.7500000000,,,
2.6479999959,20,178580.7187500000,206188.5625000000,170571.6406250000,171960.5781250000,140740.1093750000,123099.5937500000,137093.4687500000,157386.7031250000,,,
2.6519999958,20,178481.4062500000,206225.1250000000,170214.6406250000,171694.9843750000,140296.4531250000,122604.8359375000,136477.4062500000,158593.9687500000,,,
2.6559999958,20,178376.7343750000,211109.3281250000,169895.9375000000,171418.5781250000,139852.3593750000,122091.6484375000,135840.1250000000,160281.1406250000,,,
2.6599999957,20,178359.0312500000,214915.0000000000,170005.1562500000,171472.5000000000,139961.7343750000,122244.8593750000,135994.4062500000,160239.1562500000,,,
2.6639999957,20,178531.0781250000,211113.9062500000,170536.2656250000,171900.5156250000,140639.9843750000,123022.5078125000,136946.5000000000,158091.5156250000,,,
2.6679999956,20,178570.2968750000,205972.0625000000,170564.6250000000,171964.9218750000,140727.9687500000,123110.1640625000,137080.9062500000,157388.1250000000,,,
2.6719999958,20,178481.3750000000,206175.5625000000,170213.2500000000,171706.5625000000,140288.4218750000,122619.1640625000,136475.3437500000,158607.7343750000,,,
2.6759999958,20,178370.9531250000,211136.0937500000,169879.7500000000,171433.5156250000,139831.1093750000,122118.0156250000,135829.9218750000,160282.2343750000,,,
2.6799999957,20,178385.5156250000,215106.7343750000,170018.7656250000,171501.0312500000,139968.8750000000,122270.0156250000,136006.6250000000,160293.7343750000,,,
2.6839999957,20,178556.9531250000,211311.4531250000,170550.5937500000,171923.1250000000,140649.9062500000,123028.3046875000,136960.0156250000,158135.5781250000,,,
2.6879999957,21,178574.6875000000,206086.8906250000,170562.8437500000,171960.4062500000,140725.4218750000,123113.3828125000,137078.3281250000,157389.3437500000,,,
2.6919999956,21,178501.7031250000,206220.2968750000,170233.4531250000,171717.4062500000,140312.6718750000,122648.8828125000,136493.9062500000,158617.2031250000,,,
2.6959999956,21,178396.9062500000,211205.6406250000,169909.2812500000,171454.0937500000,139865.6562500000,122138.2968750000,135854.1250000000,160317.5000000000,,,
2.6999999955,21,178399.1406250000,215256.5781250000,170038.2343750000,171514.0468750000,139993.4687500000,122276.5312500000,136018.6250000000,160337.6718750000,,,
2.7039999955,21,178545.6093750000,211421.0312500000,170550.5312500000,171918.7031250000,140656.1093750000,123021.0390625000,136958.1250000000,158142.0937500000,,,
2.7079999954,21,178571.6562500000,205877.0000000000,170580.6875000000,171980.6718750000,140753.0468750000,123131.8671875000,137118.0781250000,157331.3750000000,,,
2.7119999956,21,178499.4531250000,205587.4843750000,170253.8593750000,171733.0468750000,140340.4062500000,122678.1406250000,136537.2500000000,158518.6562500000,,,
2.7159999956,21,178377.3906250000,210714.7656250000,169890.1718750000,171438.4218750000,139846.6406250000,122124.3203125000,135835.3125000000,160292.7031250000,,,
2.7199999955,21,178375.9843750000,214973.7500000000,170008.5468750000,171486.3281250000,139960.1875000000,122239.7109375000,135985.1406250000,160346.7187500000,,,
2.7239999955,21,178561.0156250000,211067.8906250000,170565.1562500000,171919.8593750000,140667.0781250000,123019.8828125000,136977.8593750000,158136.0625000000,,,
2.7279999955,21,178601.1093750000,205471.3437500000,170610.0625000000,171987.1875000000,140777.0781250000,123131.1171875000,137144.1562500000,157327.7031250000,,,
2.7319999957,21,178508.1093750000,205479.0468750000,170255.4062500000,171724.0625000000,140339.8750000000,122639.0859375000,136536.7656250000,158549.4531250000,,,
2.7359999956,21,178384.0312500000,210857.8437500000,169893.2343750000,171406.1406250000,139853.6093750000,122102.2421875000,135845.6250000000,160342.7968750000,,,
2.7399999956,21,178373.3906250000,215340.2187500000,169998.3281250000,171445.4843750000,139957.7187500000,122233.2734375000,135983.5625000000,160414.5468750000,,,
2.7439999955,21,178550.1406250000,211432.3437500000,170548.9218750000,171888.7500000000,140660.7656250000,123028.9453125000,136973.0000000000,158166.1093750000,,,
2.7479999955,21,178602.7968750000,205685.7031250000,170610.4843750000,171977.4531250000,140786.9218750000,123158.9843750000,137157.6718750000,157332.5625000000,,,
2.7519999954,21,178506.9687500000,205535.0156250000,170258.7343750000,171719.9531250000,140347.2187500000,122672.3515625000,136550.2656250000,158529.5156250000,,,
2.7559999956,21,178377.7031250000,210831.5000000000,169895.8593750000,171406.5937500000,139852.4062500000,122112.2187500000,135848.1875000000,160315.3593750000,,,
2.7599999956,21,178367.7343750000,215455.5468750000,169998.9687500000,171447.4218750000,139946.6562500000,122206.8203125000,135972.5468750000,160425.7343750000,,,
2.7639999955,21,178546.2031250000,211586.7656250000,170556.8906250000,171904.8906250000,140653.6718750000,123018.2968750000,136965.6562500000,158158.2500000000,,,
2.7679999955,21,178597.1718750000,205648.9687500000,170618.6093750000,171991.3593750000,140785.2343750000,123173.1953125000,137154.8593750000,157275.3750000000,,,
2.7719999955,21,178490.9687500000,205482.3437500000,170241.1406250000,171717.0625000000,140321.3593750000,122656.6875000000,136518.6406250000,158506.8750000000,,,
2.7759999956,21,178350.9062500000,210909.6406250000,169863.9375000000,171410.9687500000,139815.5000000000,122087.9218750000,135807.2031250000,160294.2500000000,,,
2.7799999956,21,178348.0937500000,215506.6250000000,169977.2656250000,171459.0000000000,139922.6250000000,122201.0546875000,135945.2656250000,160388.1562500000,,,
2.7839999956,21,178533.1093750000,211596.0312500000,170537.5312500000,171913.0937500000,140635.9687500000,123003.3046875000,136950.6875000000,158131.0156250000,,,
2.7879999955,21,178577.6406250000,205658.4843750000,170584.5781250000,171997.3750000000,140757.9843750000,123145.6796875000,137130.6562500000,157246.0781250000,,,
2.7919999955,21,178494.8906250000,205577.0781250000,170227.2500000000,171737.8437500000,140317.8750000000,122665.6406250000,136515.8281250000,158509.0000000000,,,
2.7959999954,21,178383.7968750000,211096.1875000000,169875.7968750000,171440.6250000000,139836.5312500000,122121.1562500000,135826.0312500000,160351.0937500000,,,
2.7999999956,21,178389.5625000000,215889.7187500000,169999.3125000000,171465.2500000000,139949.7656250000,122237.9609375000,135967.9218750000,160492.1718750000,,,
2.8039999956,21,178541.1875000000,211727.5468750000,170540.9375000000,171891.4531250000,140645.8281250000,123025.1640625000,136965.3593750000,158129.3281250000,,,
2.8079999955,21,178576.9375000000,205315.5156250000,170592.1718750000,171988.5468750000,140768.4843750000,123162.1718750000,137162.0468750000,157170.1718750000,,,
2.8119999955,21,178497.2500000000,205103.9843750000,170240.0468750000,171731.5468750000,140326.6562500000,122672.7265625000,136542.1406250000,158466.7343750000,,,
2.8159999955,22,178373.4375000000,210870.0468750000,169867.2656250000,171409.8125000000,139817.2500000000,122096.1796875000,135811.2031250000,160372.9531250000,,,
2.8199999954,22,178359.2031250000,215829.5781250000,169968.9843750000,171446.6562500000,139905.9687500000,122191.4296875000,135923.8593750000,160508.7500000000,,,
2.8239999954,22,178537.0000000000,211756.0312500000,170546.6406250000,171890.6718750000,140637.0312500000,123000.3593750000,136951.2187500000,158155.5156250000,,,
2.8279999953,22,178592.2031250000,205325.6718750000,170619.0937500000,171973.4531250000,140788.6406250000,123175.6093750000,137171.7500000000,157194.3125000000,,,
2.8319999953,22,178525.1718750000,205105.5000000000,170276.7968750000,171729.9062500000,140365.2968750000,122695.6015625000,136570.7500000000,158479.5781250000,,,
2.8359999952,22,178405.8437500000,210887.8593750000,169905.8750000000,171404.5468750000,139858.2500000000,122116.1640625000,135843.0625000000,160387.4375000000,,,
2.8399999954,22,178378.9062500000,215917.2187500000,169988.5000000000,171427.0000000000,139927.6250000000,122190.0625000000,135935.5312500000,160536.7812500000,,,
2.8439999954,22,178536.6562500000,211883.7031250000,170545.3125000000,171874.0000000000,140641.1406250000,122989.4375000000,136955.5156250000,158163.6718750000,,,
2.8479999953,22,178601.9375000000,205376.5781250000,170633.6250000000,171994.0156250000,140808.1562500000,123168.0781250000,137197.1875000000,157179.0781250000,,,
2.8519999953,22,178540.5781250000,205128.4062500000,170298.6718750000,171767.3750000000,140387.2187500000,122691.7109375000,136595.4218750000,158468.1250000000,,,
2.8559999953,22,178403.9062500000,210887.0468750000,169910.7500000000,171445.5625000000,139864.9687500000,122105.7890625000,135856.0781250000,160358.5156250000,,,
2.8599999954,22,178357.8125000000,215691.0468750000,169970.7031250000,171444.9687500000,139915.0156250000,122185.4453125000,135931.4687500000,160477.5000000000,,,
2.8639999954,22,178536.8125000000,211643.8593750000,170539.2656250000,171896.9218750000,140635.5937500000,123004.3281250000,136945.8281250000,158155.4375000000,,,
2.8679999954,22,178590.2500000000,205169.2500000000,170615.4218750000,172006.3593750000,140789.1718750000,123169.6328125000,137175.0781250000,157166.2343750000,,,
2.8719999953,22,178508.9218750000,204965.7968750000,170256.9375000000,171747.4218750000,140343.5781250000,122668.5156250000,136555.1093750000,158441.7343750000,,,
2.8759999953,22,178390.5468750000,210816.6406250000,169882.4843750000,171445.4218750000,139833.2812500000,122099.5859375000,135829.9843750000,160368.6875000000,,,
2.8799999952,22,178364.1093750000,215952.8125000000,169960.9062500000,171464.4531250000,139900.2031250000,122188.5312500000,135921.2500000000,160560.3593750000,,,
2.8839999954,22,178506.3437500000,212001.3437500000,170505.5312500000,171888.0937500000,140601.6562500000,122985.2031250000,136926.5937500000,158175.2500000000,,,
2.8879999954,22,178571.7656250000,205287.6406250000,170604.6562500000,172007.3750000000,140782.3593750000,123176.9765625000,137186.0312500000,157124.7656250000,,,
2.8919999953,22,178507.1250000000,204767.8906250000,170267.6718750000,171740.8750000000,140363.2656250000,122706.1406250000,136586.1250000000,158392.8281250000,,,
2.8959999953,22,178380.3125000000,210610.1093750000,169884.9218750000,171410.6718750000,139843.3750000000,122112.2500000000,135844.0937500000,160350.9843750000,,,
2.8999999953,22,178334.3906250000,215789.0781250000,169941.8437500000,171413.9375000000,139885.9062500000,122152.8281250000,135914.5468750000,160542.0625000000,,,
2.9039999954,22,178484.1875000000,211929.0937500000,170484.1718750000,171859.9843750000,140583.7187500000,122955.3984375000,136911.6093750000,158177.1093750000,,,
2.9079999954,22,178560.0156250000,205213.3750000000,170588.4375000000,171981.9531250000,140769.1875000000,123170.1640625000,137179.4218750000,157117.4375000000,,,
2.9119999954,22,178501.6250000000,204643.1562500000,170253.7187500000,171729.3750000000,140351.0000000000,122709.0156250000,136592.2656250000,158369.0156250000,,,
2.9159999953,22,178390.0468750000,210457.2187500000,169883.0468750000,171403.9375000000,139840.2343750000,122126.1718750000,135859.2500000000,160344.1406250000,,,
2.9199999953,22,178360.1718750000,215836.5781250000,169952.1875000000,171411.4531250000,139889.9375000000,122172.8125000000,135921.3437500000,160586.4843750000,,,
2.9239999952,22,178538.4843750000,211912.5937500000,170535.1093750000,171879.7343750000,140626.6562500000,122995.0156250000,136957.9218750000,158206.6562500000,,,
2.9279999954,22,178604.9218750000,205105.3125000000,170640.8750000000,172012.7656250000,140813.8750000000,123191.6796875000,137230.5156250000,157119.3437500000,,,
2.9319999954,22,178529.0156250000,204666.6250000000,170295.8281250000,171757.8593750000,140385.1718750000,122706.8125000000,136622.3281250000,158378.4062500000,,,
2.9359999953,22,178402.4375000000,210562.1250000000,169908.1406250000,171427.5156250000,139860.1875000000,122117.1328125000,135873.7031250000,160352.5937500000,,,
2.9399999953,22,178356.9687500000,216011.7343750000,169954.2343750000,171405.2968750000,139892.6406250000,122159.4062500000,135920.3437500000,160610.1093750000,,,
2.9439999952,23,178523.5312500000,212181.7812500000,170520.2031250000,171863.7500000000,140614.4531250000,122980.3437500000,136942.5312500000,158235.5000000000,,,
