Time:250Hz,Epoch,Channel 1,Channel 2,Channel 3,Channel 4,Channel 5,Channel 6,Channel 7,Channel 8,Event Id,Event Date,Event Duration
0.0000000000,0,159153.2968750000,144112.9375000000,169241.9375000000,161132.6875000000,126771.8359375000,22246.3515625000,97049.7656250000,149847.8750000000,,,
0.0040000000,0,158888.9843750000,143989.0156250000,168993.4375000000,160897.1562500000,126511.2031250000,21958.2558593750,96812.8984375000,150061.2500000000,,,
0.0079999999,0,159530.8906250000,144083.2656250000,169649.8437500000,161472.9687500000,127131.3593750000,22456.1015625000,97426.0000000000,148773.3906250000,,,
0.0119999999,0,160195.1718750000,144262.5468750000,170310.3437500000,162070.7343750000,127780.0234375000,23053.8320312500,98051.9765625000,147750.8125000000,,,
0.0159999998,0,159959.0000000000,144273.0156250000,170057.6875000000,161867.1250000000,127555.1250000000,22921.3828125000,97816.7421875000,148392.5312500000,,,
0.0199999998,0,159150.3437500000,144104.1875000000,169243.5156250000,161145.6093750000,126768.6953125000,22244.9296875000,97056.1250000000,149824.2812500000,,,
0.0240000000,0,158880.7500000000,143980.8437500000,168986.3281250000,160894.6406250000,126498.4921875000,21956.5664062500,96812.2031250000,150059.3125000000,,,
0.0279999999,0,159522.4218750000,144076.4843750000,169640.0625000000,161470.1093750000,127116.0468750000,22458.4082031250,97421.8984375000,148784.8906250000,,,
0.0319999999,0,160194.1718750000,144260.2500000000,170306.7812500000,162079.5000000000,127771.6875000000,23064.2656250000,98052.0781250000,147756.9843750000,,,
0.0359999998,0,159978.9375000000,144283.4218750000,170075.7343750000,161892.6875000000,127570.7578125000,22947.0253906250,97845.0703125000,148392.0000000000,,,
0.0399999998,0,159158.0937500000,144106.9843750000,169250.6562500000,161155.6406250000,126775.8046875000,22264.8046875000,97074.4140625000,149819.8437500000,,,
0.0440000000,0,158874.5625000000,143977.5937500000,168980.9062500000,160896.7343750000,126494.8203125000,21969.4667968750,96817.5390625000,150060.8437500000,,,
0.0480000000,0,159520.0625000000,144078.6562500000,169640.0000000000,161472.5156250000,127118.1640625000,22471.1738281250,97436.5156250000,148792.8593750000,,,
0.0519999999,0,160193.4218750000,144261.5781250000,170309.0625000000,162081.6250000000,127776.0859375000,23075.0214843750,98070.2656250000,147756.0000000000,,,
0.0559999999,0,159968.6875000000,144273.3906250000,170070.3437500000,161886.3281250000,127568.0781250000,22954.9648437500,97858.1796875000,148373.2500000000,,,
0.0599999998,0,159154.8750000000,144100.5156250000,169252.6718750000,161153.8437500000,126781.8437500000,22273.5488281250,97096.7578125000,149806.2500000000,,,
0.0639999998,0,158859.4531250000,143969.0156250000,168968.2968750000,160880.2343750000,126487.3359375000,21961.8496093750,96825.1328125000,150062.2343750000,,,
0.0680000000,0,159499.1562500000,144069.3593750000,169621.5312500000,161451.9218750000,127101.5625000000,22462.2167968750,97434.9296875000,148800.0156250000,,,
0.0719999999,0,160196.4062500000,144264.1562500000,170313.5625000000,162076.8750000000,127780.3515625000,23085.9375000000,98090.0859375000,147755.5468750000,,,
0.0759999999,0,159986.0625000000,144283.9218750000,170084.8281250000,161888.2343750000,127580.9218750000,22974.4101562500,97881.0390625000,148368.6093750000,,,
0.0799999998,0,159171.1093750000,144112.5156250000,169262.1875000000,161149.1562500000,126787.8515625000,22295.2753906250,97107.0312500000,149808.7968750000,,,
0.0839999998,0,158888.7656250000,143993.2812500000,168990.9375000000,160885.8125000000,126504.7187500000,21993.6601562500,96844.9218750000,150089.6250000000,,,
0.0880000000,0,159541.4687500000,144105.2968750000,169654.5781250000,161468.0156250000,127130.9062500000,22498.7480468750,97468.6718750000,148842.3437500000,,,
0.0919999999,0,160228.5156250000,144292.5156250000,170336.0156250000,162092.9062500000,127801.1328125000,23113.6445312500,98115.3828125000,147785.7343750000,,,
0.0959999999,0,160023.8281250000,144310.3750000000,170116.2812500000,161915.4843750000,127610.3515625000,23007.6699218750,97917.0312500000,148380.5468750000,,,
0.0999999999,0,159192.4531250000,144124.5312500000,169278.3437500000,161170.7968750000,126804.0000000000,22309.8925781250,97128.8671875000,149809.6250000000,,,
0.1039999998,0,158869.9218750000,143976.2500000000,168967.0468750000,160876.4218750000,126483.0156250000,21974.9667968750,96829.8515625000,150080.9062500000,,,
0.1079999998,0,159508.1718750000,144075.8906250000,169618.4218750000,161450.7968750000,127096.1171875000,22470.7714843750,97439.1953125000,148827.1093750000,,,
0.1120000000,0,160211.3437500000,144272.4218750000,170317.7500000000,162094.0468750000,127782.1718750000,23104.2031250000,98101.6484375000,147762.7343750000,,,
0.1159999999,0,160020.3750000000,144299.1406250000,170110.6250000000,161937.0468750000,127605.1484375000,23012.6328125000,97912.9531250000,148353.7812500000,,,
0.1199999999,0,159189.9062500000,144115.2656250000,169274.5312500000,161191.2031250000,126801.1250000000,22320.8359375000,97124.1718750000,149789.4375000000,,,
0.1239999998,0,158869.6250000000,143974.2968750000,168966.9375000000,160893.5156250000,126483.8984375000,21991.3535156250,96836.2109375000,150082.5156250000,,,
0.1279999998,1,159498.8125000000,144075.5781250000,169609.5937500000,161455.2968750000,127090.0000000000,22480.0800781250,97439.8671875000,148841.3750000000,,,
0.1319999998,1,160204.0156250000,144271.5156250000,170311.8281250000,162094.2343750000,127779.8671875000,23112.2226562500,98107.5234375000,147768.4375000000,,,
0.1359999997,1,160021.1562500000,144299.2187500000,170115.0468750000,161936.6250000000,127611.5859375000,23022.9589843750,97930.7656250000,148344.3906250000,,,
0.1399999997,1,159201.0937500000,144122.9375000000,169289.9531250000,161196.3593750000,126818.1015625000,22342.5351562500,97157.5625000000,149786.9843750000,,,
0.1439999996,1,158870.5312500000,143976.0625000000,168970.3593750000,160889.3281250000,126490.4218750000,22005.7304687500,96855.7578125000,150090.1406250000,,,
0.1479999996,1,159492.0625000000,144069.4531250000,169605.7812500000,161442.4218750000,127089.0859375000,22488.8769531250,97447.1093750000,148851.5937500000,,,
0.1519999998,1,160204.2968750000,144265.1562500000,170315.0156250000,162087.3906250000,127783.8906250000,23129.6562500000,98119.8593750000,147768.4375000000,,,
0.1559999997,1,160015.0625000000,144285.1093750000,170110.4375000000,161924.1250000000,127608.2343750000,23040.5546875000,97939.5625000000,148324.6562500000,,,
0.1599999997,1,159186.2500000000,144106.1562500000,169274.5312500000,161178.9218750000,126805.4218750000,22350.4492187500,97159.4140625000,149762.7968750000,,,
0.1639999996,1,158855.2500000000,143966.2968750000,168952.2656250000,160867.3281250000,126475.2421875000,22007.6347656250,96852.3828125000,150083.9843750000,,,
0.1679999996,1,159488.4375000000,144071.5000000000,169597.6562500000,161428.3125000000,127082.9765625000,22494.8320312500,97456.3593750000,148861.8750000000,,,
0.1719999998,1,160212.5312500000,144276.5312500000,170318.4531250000,162082.0781250000,127789.2265625000,23143.9531250000,98139.3828125000,147776.9218750000,,,
0.1759999997,1,160034.9843750000,144302.7031250000,170124.6562500000,161928.1406250000,127624.7031250000,23065.3378906250,97967.3750000000,148326.2031250000,,,
0.1799999997,1,159205.9375000000,144121.0312500000,169287.2656250000,161180.0000000000,126819.7968750000,22373.1132812500,97183.2031250000,149765.8750000000,,,
0.1839999997,1,158865.5937500000,143976.3125000000,168958.8906250000,160864.7812500000,126483.5546875000,22020.2675781250,96869.3593750000,150096.9531250000,,,
0.1879999996,1,159486.7968750000,144074.2343750000,169593.5000000000,161420.4375000000,127082.8359375000,22503.5761718750,97465.0000000000,148876.8593750000,,,
0.1919999996,1,160206.7812500000,144271.1093750000,170310.7968750000,162074.2656250000,127786.3593750000,23149.4257812500,98140.3281250000,147777.2343750000,,,
0.1959999998,1,160048.4531250000,144302.7343750000,170140.1250000000,161943.0312500000,127643.5859375000,23082.2363281250,97987.9218750000,148313.6875000000,,,
0.1999999997,1,159222.2031250000,144122.7812500000,169308.6406250000,161203.5781250000,126845.3828125000,22394.4375000000,97208.8203125000,149756.5468750000,,,
0.2039999997,1,158866.9687500000,143971.6875000000,168963.8437500000,160879.4843750000,126494.0156250000,22029.9238281250,96884.5390625000,150099.6562500000,,,
0.2079999996,1,159485.6250000000,144067.4687500000,169594.3281250000,161431.3125000000,127086.6718750000,22506.4199218750,97479.0234375000,148884.5625000000,,,
0.2119999996,1,160211.5312500000,144269.1562500000,170317.0781250000,162084.4062500000,127792.4687500000,23156.2656250000,98159.4453125000,147780.9375000000,,,
0.2159999998,1,160042.5781250000,144293.5625000000,170134.0937500000,161940.2656250000,127637.5703125000,23084.2207031250,97990.0390625000,148303.1093750000,,,
0.2199999997,1,159211.5312500000,144110.3906250000,169296.5781250000,161195.5000000000,126833.2578125000,22395.8847656250,97203.2968750000,149745.2500000000,,,
0.2239999997,1,158850.4687500000,143959.3750000000,168946.1406250000,160859.9062500000,126476.4453125000,22031.0781250000,96869.1718750000,150102.3125000000,,,
0.2279999997,1,159459.6562500000,144051.2187500000,169567.9843750000,161402.7343750000,127061.4062500000,22497.5136718750,97452.6875000000,148889.9218750000,,,
0.2319999996,1,160194.8281250000,144256.2812500000,170302.2968750000,162072.5312500000,127781.0156250000,23152.8046875000,98154.2734375000,147774.4218750000,,,
0.2359999996,1,160042.0156250000,144289.1250000000,170135.2187500000,161944.8593750000,127642.6718750000,23095.8085937500,98006.3515625000,148282.3281250000,,,
0.2399999998,1,159215.4687500000,144113.2812500000,169299.6093750000,161202.2343750000,126839.3515625000,22407.9550781250,97221.6171875000,149730.6875000000,,,
0.2439999997,1,158851.2500000000,143965.8750000000,168945.7500000000,160868.1875000000,126476.0703125000,22037.8378906250,96880.2265625000,150111.0312500000,,,
0.2479999997,1,159454.4843750000,144054.9218750000,169562.2187500000,161403.2343750000,127054.0625000000,22501.2421875000,97455.9843750000,148905.0468750000,,,
0.2519999996,1,160186.4531250000,144252.8125000000,170291.6718750000,162063.5468750000,127768.4140625000,23150.8203125000,98144.6171875000,147771.8750000000,,,
0.2559999996,2,160048.3437500000,144290.7187500000,170138.8125000000,161944.4843750000,127642.4531250000,23100.7968750000,98007.5312500000,148270.5156250000,,,
0.2599999995,2,159228.0468750000,144120.4218750000,169311.3593750000,161203.6875000000,126847.8203125000,22419.8632812500,97235.0000000000,149729.2656250000,,,
0.2639999995,2,158857.5781250000,143971.2968750000,168953.5468750000,160856.2343750000,126483.8203125000,22045.0781250000,96896.4218750000,150124.3125000000,,,
0.2679999995,2,159466.2812500000,144066.2343750000,169577.1562500000,161398.8593750000,127071.2500000000,22509.5312500000,97481.7109375000,148924.5781250000,,,
0.2719999994,2,160204.3750000000,144266.8125000000,170311.5468750000,162068.1562500000,127791.5625000000,23164.1503906250,98175.0078125000,147777.9062500000,,,
0.2759999994,2,160059.1875000000,144295.8906250000,170151.9843750000,161945.3125000000,127658.6562500000,23112.1152343750,98033.9765625000,148257.0781250000,,,
0.2799999996,2,159229.2500000000,144117.9062500000,169317.7656250000,161200.2812500000,126855.0937500000,22427.3750000000,97252.2734375000,149717.7656250000,,,
0.2839999995,2,158848.9218750000,143965.3593750000,168949.0625000000,160852.0468750000,126479.1250000000,22048.0019531250,96901.0390625000,150127.8125000000,,,
0.2879999995,2,159447.2343750000,144053.5312500000,169560.7500000000,161383.9531250000,127054.0312500000,22507.9746093750,97472.1875000000,148928.5781250000,,,
0.2919999994,2,160203.7812500000,144261.2343750000,170314.3750000000,162066.1718750000,127791.7187500000,23178.5273437500,98178.4921875000,147770.1093750000,,,
0.2959999994,2,160079.9687500000,144306.2968750000,170175.6718750000,161960.8437500000,127680.8906250000,23141.8613281250,98052.1328125000,148250.0781250000,,,
0.2999999996,2,159236.2812500000,144125.9687500000,169324.7968750000,161203.5781250000,126866.4140625000,22452.5878906250,97265.1171875000,149722.9375000000,,,
0.3039999995,2,158826.1093750000,143957.7500000000,168925.5781250000,160828.4375000000,126461.9062500000,22050.6855468750,96891.8125000000,150144.2031250000,,,
0.3079999995,2,159437.3906250000,144052.7968750000,169551.2812500000,161375.0156250000,127047.4843750000,22516.5585937500,97476.0781250000,148948.6875000000,,,
0.3119999995,2,160212.3593750000,144267.2656250000,170321.8593750000,162080.0156250000,127801.5625000000,23206.1796875000,98201.2890625000,147770.7187500000,,,
0.3159999994,2,160088.6093750000,144305.2187500000,170180.2656250000,161981.3906250000,127686.5000000000,23172.6523437500,98075.7656250000,148231.0937500000,,,
0.3199999994,2,159248.3437500000,144124.9218750000,169332.6875000000,161225.8125000000,126871.0000000000,22479.1406250000,97282.1796875000,149711.3281250000,,,
0.3239999996,2,158835.1093750000,143954.6562500000,168933.0625000000,160847.6718750000,126464.2421875000,22072.5175781250,96895.6484375000,150151.1250000000,,,
0.3279999995,2,159425.5312500000,144032.2500000000,169540.9531250000,161375.5000000000,127033.2968750000,22523.5585937500,97463.6562500000,148942.7656250000,,,
0.3319999995,2,160192.9687500000,144232.8125000000,170307.7187500000,162075.0468750000,127782.7890625000,23203.1230468750,98188.2578125000,147738.1250000000,,,
0.3359999994,2,160078.5000000000,144266.0625000000,170178.8906250000,161983.8593750000,127681.2656250000,23181.2363281250,98076.7031250000,148188.5625000000,,,
0.3399999994,2,159222.2812500000,144071.5312500000,169315.1093750000,161214.4843750000,126853.9140625000,22478.3906250000,97270.7812500000,149680.7187500000,,,
0.3439999996,2,158800.6875000000,143899.5156250000,168905.6250000000,160824.9062500000,126440.9062500000,22064.1757812500,96883.6796875000,150142.2500000000,,,
0.3479999995,2,159400.5625000000,143985.4062500000,169517.8125000000,161364.2656250000,127017.7421875000,22521.2519531250,97458.8281250000,148939.9687500000,,,
0.3519999995,2,160204.3125000000,144209.7656250000,170316.0625000000,162091.8437500000,127798.9062500000,23231.6621093750,98213.4921875000,147726.3281250000,,,
0.3559999994,2,160100.5625000000,144252.4062500000,170193.6093750000,161997.5000000000,127704.5781250000,23214.0937500000,98105.9375000000,148169.5937500000,,,
0.3599999994,2,159241.9062500000,144067.7187500000,169325.6250000000,161217.3906250000,126872.9531250000,22505.1308593750,97289.2578125000,149689.2187500000,,,
0.3639999994,2,158805.5156250000,143898.0937500000,168898.8906250000,160811.2812500000,126440.3984375000,22077.9628906250,96884.9453125000,150181.0000000000,,,
0.3679999996,2,159418.7500000000,143995.0312500000,169525.9062500000,161359.6562500000,127028.8984375000,22543.6484375000,97472.8281250000,148975.1718750000,,,
0.3719999995,2,160234.6250000000,144218.6093750000,170339.8437500000,162100.1093750000,127825.4609375000,23265.8320312500,98237.7187500000,147725.4218750000,,,
0.3759999995,2,160126.1250000000,144257.5625000000,170218.2187500000,162005.9062500000,127731.6640625000,23252.2343750000,98129.0625000000,148156.5781250000,,,
0.3799999994,2,159245.8281250000,144064.6250000000,169331.6406250000,161206.0468750000,126881.7031250000,22525.8105468750,97300.4453125000,149699.2343750000,,,
0.3839999994,3,158785.2187500000,143885.9375000000,168882.5312500000,160780.6406250000,126430.8750000000,22072.6250000000,96877.3828125000,150210.6718750000,,,
0.3879999993,3,159402.2031250000,143984.0000000000,169512.9843750000,161333.4531250000,127022.7343750000,22540.6445312500,97467.3281250000,148997.7812500000,,,
0.3919999993,3,160241.7031250000,144219.6093750000,170349.0468750000,162096.3750000000,127838.5546875000,23282.8652343750,98254.8515625000,147727.4531250000,,,
0.3959999993,3,160149.5156250000,144270.2031250000,170242.7343750000,162018.8281250000,127759.2890625000,23279.9414062500,98162.0468750000,148152.5312500000,,,
0.3999999992,3,159246.0937500000,144064.3906250000,169333.1562500000,161204.2187500000,126886.8515625000,22532.8652343750,97306.4531250000,149705.7968750000,,,
0.4039999992,3,158771.1250000000,143877.1250000000,168869.7343750000,160771.0468750000,126418.0546875000,22066.8046875000,96866.0859375000,150233.4687500000,,,
0.4079999994,3,159384.0625000000,143970.6406250000,169493.8593750000,161325.5312500000,127001.5390625000,22528.3593750000,97452.5234375000,149012.6875000000,,,
0.4119999993,3,160234.7656250000,144208.0156250000,170339.4687500000,162100.6406250000,127828.6250000000,23282.3554687500,98253.9687500000,147712.2500000000,,,
0.4159999993,3,160156.1406250000,144263.0625000000,170245.1406250000,162036.5937500000,127762.9921875000,23293.4062500000,98174.4453125000,148124.9843750000,,,
0.4199999992,3,159253.3437500000,144062.1093750000,169335.6875000000,161221.7812500000,126892.5078125000,22550.5957031250,97324.3984375000,149706.0468750000,,,
0.4239999992,3,158773.5468750000,143880.7968750000,168867.5312500000,160783.1406250000,126421.1953125000,22080.0273437500,96879.7656250000,150275.8281250000,,,
0.4279999994,3,159393.7187500000,143979.3593750000,169501.6093750000,161345.0312500000,127014.7343750000,22546.9199218750,97472.4296875000,149047.0468750000,,,
0.4319999993,3,160263.1875000000,144220.2187500000,170368.2812500000,162145.1406250000,127859.6640625000,23316.6601562500,98288.7031250000,147694.2031250000,,,
0.4359999993,3,160186.2187500000,144269.6875000000,170277.1093750000,162086.5781250000,127794.1328125000,23330.9570312500,98210.4609375000,148085.1250000000,,,
0.4399999992,3,159233.7656250000,144049.1250000000,169319.5156250000,161220.5000000000,126875.0234375000,22547.1894531250,97317.6875000000,149720.9218750000,,,
0.4439999992,3,158690.1562500000,143836.4531250000,168788.3750000000,160715.8750000000,126342.4687500000,22024.6679687500,96816.4687500000,150323.3750000000,,,
0.4479999992,3,159328.0156250000,143935.8281250000,169441.9062500000,161296.7031250000,126955.2500000000,22505.9355468750,97429.8359375000,149046.6250000000,,,
0.4519999993,3,160259.0937500000,144201.5000000000,170368.8125000000,162155.6718750000,127861.0312500000,23327.1757812500,98304.4765625000,147628.6406250000,,,
0.4559999993,3,160199.5468750000,144265.3906250000,170292.3437500000,162104.5312500000,127813.2578125000,23355.9550781250,98244.6093750000,148029.5468750000,,,
0.4599999993,3,159225.7656250000,144042.7656250000,169312.4218750000,161205.0468750000,126873.2265625000,22553.9199218750,97330.5156250000,149725.3593750000,,,
0.4639999992,3,158673.5000000000,143827.6093750000,168772.3125000000,160684.5625000000,126331.2578125000,22024.3457031250,96819.1484375000,150357.3593750000,,,
0.4679999992,3,159326.2656250000,143931.9687500000,169438.0937500000,161277.5156250000,126955.5703125000,22516.7187500000,97437.1875000000,149057.5156250000,,,
0.4719999994,3,160291.8593750000,144213.5468750000,170398.1093750000,162168.8281250000,127893.0000000000,23364.8867187500,98336.1796875000,147607.0312500000,,,
0.4759999993,3,160231.2500000000,144276.0468750000,170320.6718750000,162117.2187500000,127844.5312500000,23394.3652343750,98273.9531250000,148000.7187500000,,,
0.4799999993,3,159230.0625000000,144041.0468750000,169313.3906250000,161189.9531250000,126878.7265625000,22568.5664062500,97335.0156250000,149720.1718750000,,,
0.4839999992,3,158662.6562500000,143823.7343750000,168757.2656250000,160659.6562500000,126319.8593750000,22020.1875000000,96807.9375000000,150381.6093750000,,,
0.4879999992,3,159318.1093750000,143928.9843750000,169426.0937500000,161258.4531250000,126945.8359375000,22513.1503906250,97431.8437500000,149074.4375000000,,,
0.4919999992,3,160303.8281250000,144216.5468750000,170408.6718750000,162172.2031250000,127904.8593750000,23378.6191406250,98358.2812500000,147590.7968750000,,,
0.4959999993,3,160259.2187500000,144285.5312500000,170347.7343750000,162139.3906250000,127873.1250000000,23425.3164062500,98309.9765625000,147975.4218750000,,,
0.4999999993,3,159244.1875000000,144046.2343750000,169325.7812500000,161205.4843750000,126892.6171875000,22588.7363281250,97354.5703125000,149719.1093750000,,,
0.5039999993,3,158654.5937500000,143820.6250000000,168747.2812500000,160659.7812500000,126310.2812500000,22021.8515625000,96806.5390625000,150394.6406250000,,,
0.5079999992,3,159308.1093750000,143922.6406250000,169412.6562500000,161263.5000000000,126931.3515625000,22513.5527343750,97428.0625000000,149076.4531250000,,,
0.5119999992,4,160311.1250000000,144215.9843750000,170410.1250000000,162197.5156250000,127904.0781250000,23392.3789062500,98364.5546875000,147575.9843750000,,,
0.5159999991,4,160269.0625000000,144286.5312500000,170350.5000000000,162166.9687500000,127874.0078125000,23442.4570312500,98315.2890625000,147954.7187500000,,,
0.5199999991,4,159239.5312500000,144037.1406250000,169315.4062500000,161215.5937500000,126882.2656250000,22593.0820312500,97350.1718750000,149700.7343750000,,,
0.5239999990,4,158645.7343750000,143809.9843750000,168735.4375000000,160659.8125000000,126301.0546875000,22018.1503906250,96805.9765625000,150396.5781250000,,,
0.5279999990,4,159301.4062500000,143918.7187500000,169404.7031250000,161268.1562500000,126928.0234375000,22511.9707031250,97434.8515625000,149085.3281250000,,,
0.5319999990,4,160302.1406250000,144208.1250000000,170401.6718750000,162199.9531250000,127901.7734375000,23389.2949218750,98377.7578125000,147563.7812500000,,,
0.5359999991,4,160274.1562500000,144282.0468750000,170361.6875000000,162182.7187500000,127891.0937500000,23450.2070312500,98351.3359375000,147925.8125000000,,,
0.5399999991,4,159245.7500000000,144035.5781250000,169331.3437500000,161226.4062500000,126905.4687500000,22610.6503906250,97386.9453125000,149685.8750000000,,,
0.5439999991,4,158631.8125000000,143798.8281250000,168732.0781250000,160650.2656250000,126304.5390625000,22023.4335937500,96814.6406250000,150398.7031250000,,,
0.5479999990,4,159288.4531250000,143905.7343750000,169403.8125000000,161253.7343750000,126931.7812500000,22514.6269531250,97433.7265625000,149092.3281250000,,,
0.5519999990,4,160316.1406250000,144210.6250000000,170426.9375000000,162206.5000000000,127928.9453125000,23413.6503906250,98399.8515625000,147565.1562500000,,,
0.5559999992,4,160295.0000000000,144286.0468750000,170388.2031250000,162188.3437500000,127920.1484375000,23476.9765625000,98378.7734375000,147916.4375000000,,,
0.5599999991,4,159259.8593750000,144034.7031250000,169347.8281250000,161230.9843750000,126925.7968750000,22621.1914062500,97410.4140625000,149676.7187500000,,,
0.5639999991,4,158643.8125000000,143802.3437500000,168746.7812500000,160655.7343750000,126323.1328125000,22028.9316406250,96835.2421875000,150407.8750000000,,,
0.5679999990,4,159293.0937500000,143909.5000000000,169409.0468750000,161248.9062500000,126942.5078125000,22510.7636718750,97449.6562500000,149108.1562500000,,,
0.5719999990,4,160311.7343750000,144206.8750000000,170422.1406250000,162191.9375000000,127931.8125000000,23401.9023437500,98406.7187500000,147564.0625000000,,,
0.5759999990,4,160302.5468750000,144291.0312500000,170395.9687500000,162187.8125000000,127934.8125000000,23479.9804687500,98391.7265625000,147907.7343750000,,,
0.5799999991,4,159273.0312500000,144045.9843750000,169359.1875000000,161233.9687500000,126941.0859375000,22633.7441406250,97420.1796875000,149674.9062500000,,,
0.5839999991,4,158635.8750000000,143802.4218750000,168734.8437500000,160637.5781250000,126315.3750000000,22024.2382812500,96827.9765625000,150419.1406250000,,,
0.5879999991,4,159282.3906250000,143908.1718750000,169395.1562500000,161231.8437500000,126930.6250000000,22504.8105468750,97439.5156250000,149131.8125000000,,,
0.5919999990,4,160320.1562500000,144216.3906250000,170426.0781250000,162196.6406250000,127934.7343750000,23413.8378906250,98410.5000000000,147583.3750000000,,,
0.5959999990,4,160318.5468750000,144299.8906250000,170409.2968750000,162199.3437500000,127946.5625000000,23499.8281250000,98408.1953125000,147904.2343750000,,,
0.5999999992,4,159279.8906250000,144047.7343750000,169366.7656250000,161239.4375000000,126949.3750000000,22647.8515625000,97432.7578125000,149665.2656250000,,,
0.6039999991,4,158637.7968750000,143802.0156250000,168738.7812500000,160641.6250000000,126321.9765625000,22034.1621093750,96839.3203125000,150422.6250000000,,,
0.6079999991,4,159281.2343750000,143909.9687500000,169396.4843750000,161238.8906250000,126935.3203125000,22511.6484375000,97454.6484375000,149149.6406250000,,,
0.6119999990,4,160316.2187500000,144212.8437500000,170426.8125000000,162205.6718750000,127939.5937500000,23422.2050781250,98429.3593750000,147587.1718750000,,,
0.6159999990,4,160320.6718750000,144293.2343750000,170414.0156250000,162215.2968750000,127954.2343750000,23516.4863281250,98424.4531250000,147887.3750000000,,,
0.6199999989,4,159287.6406250000,144045.5000000000,169374.3281250000,161258.7500000000,126959.6171875000,22667.1093750000,97447.0546875000,149652.6875000000,,,
0.6239999991,4,158625.8906250000,143796.0937500000,168726.5312500000,160643.8437500000,126312.2656250000,22034.7265625000,96829.1796875000,150430.0468750000,,,
0.6279999991,4,159247.1718750000,143890.0937500000,169361.5156250000,161216.3125000000,126901.2265625000,22492.9277343750,97419.4296875000,149154.3125000000,,,
0.6319999991,4,160301.2031250000,144203.2500000000,170409.8593750000,162195.7500000000,127922.4218750000,23414.0253906250,98412.1640625000,147584.1718750000,,,
0.6359999990,4,160320.3281250000,144293.6718750000,170411.6250000000,162221.9218750000,127953.0859375000,23518.3632812500,98426.8359375000,147875.9218750000,,,
0.6399999990,5,159274.3750000000,144040.1718750000,169359.5000000000,161257.0781250000,126948.0546875000,22663.1406250000,97441.9062500000,149636.2031250000,,,
0.6439999989,5,158604.7343750000,143786.6406250000,168704.6406250000,160627.8437500000,126294.4843750000,22026.4101562500,96818.1015625000,150422.7500000000,,,
0.6479999989,5,159242.4531250000,143893.2187500000,169357.9218750000,161212.4218750000,126903.8593750000,22497.4609375000,97427.2578125000,149170.9218750000,,,
0.6519999988,5,160302.8125000000,144209.6562500000,170413.2656250000,162195.1093750000,127933.8515625000,23422.6894531250,98428.6640625000,147601.2812500000,,,
0.6559999988,5,160323.6250000000,144294.1250000000,170415.7343750000,162218.8906250000,127965.0156250000,23526.3828125000,98441.8828125000,147873.0468750000,,,
0.6599999988,5,159289.9843750000,144042.8281250000,169375.7812500000,161259.4218750000,126968.9765625000,22676.3105468750,97464.5703125000,149631.5781250000,,,
0.6639999989,5,158619.7500000000,143793.4062500000,168717.8906250000,160628.3437500000,126311.5156250000,22038.9902343750,96839.0781250000,150439.3281250000,,,
0.6679999989,5,159242.2656250000,143893.2656250000,169356.2031250000,161198.7968750000,126905.6250000000,22498.5332031250,97437.5625000000,149192.2343750000,,,
0.6719999989,5,160295.2187500000,144201.7187500000,170405.9687500000,162175.8281250000,127928.2187500000,23418.1816406250,98429.5234375000,147604.1562500000,,,
0.6759999988,5,160329.4375000000,144290.0937500000,170425.2031250000,162212.7343750000,127974.9921875000,23533.8125000000,98457.2812500000,147855.7500000000,,,
0.6799999988,5,159309.9062500000,144047.3281250000,169400.1406250000,161270.1250000000,126994.3828125000,22699.5117187500,97500.0781250000,149615.7343750000,,,
0.6839999990,5,158635.4375000000,143798.8281250000,168740.0468750000,160639.7500000000,126335.4921875000,22057.1757812500,96874.5078125000,150441.5312500000,,,
0.6879999989,5,159242.7656250000,143894.3906250000,169362.7812500000,161198.7187500000,126916.8906250000,22504.7285156250,97454.0312500000,149207.0156250000,,,
0.6919999989,5,160296.1093750000,144202.1718750000,170409.8593750000,162178.9062500000,127939.9140625000,23427.5156250000,98441.8046875000,147611.4531250000,,,
0.6959999988,5,160339.7343750000,144297.0781250000,170434.6718750000,162223.4062500000,127994.5781250000,23552.5605468750,98470.4765625000,147855.7656250000,,,
0.6999999988,5,159310.3125000000,144052.6406250000,169397.7187500000,161272.2343750000,127004.1953125000,22708.8730468750,97500.6953125000,149615.6250000000,,,
0.7039999987,5,158624.0937500000,143801.0468750000,168724.8906250000,160635.2968750000,126333.2421875000,22059.4023437500,96865.8750000000,150455.7968750000,,,
0.7079999989,5,159231.7187500000,143895.0312500000,169346.6875000000,161193.6718750000,126908.6328125000,22497.1113281250,97445.7656250000,149228.4218750000,,,
0.7119999989,5,160290.6875000000,144201.1093750000,170399.2656250000,162178.4531250000,127931.6250000000,23413.3535156250,98435.4453125000,147618.7500000000,,,
0.7159999989,5,160342.7656250000,144296.1250000000,170433.0625000000,162234.0000000000,127991.6015625000,23545.4531250000,98472.1406250000,147842.2031250000,,,
0.7199999988,5,159324.8750000000,144058.2187500000,169409.0625000000,161295.7656250000,127012.1328125000,22715.7656250000,97516.6562500000,149603.8281250000,,,
0.7239999988,5,158633.1875000000,143807.8437500000,168728.6406250000,160651.5468750000,126333.9140625000,22063.3984375000,96872.6562500000,150461.8281250000,,,
0.7279999990,5,159232.7656250000,143899.6250000000,169342.6875000000,161201.0000000000,126904.8203125000,22502.4492187500,97440.5390625000,149245.2656250000,,,
0.7319999989,5,160298.9218750000,144207.0000000000,170406.6875000000,162191.8281250000,127939.7265625000,23431.9960937500,98439.6875000000,147627.2812500000,,,
0.7359999989,5,160361.7656250000,144303.3437500000,170455.5625000000,162255.4062500000,128014.6953125000,23573.8046875000,98491.5078125000,147832.4062500000,,,
0.7399999988,5,159337.5937500000,144055.9062500000,169425.4062500000,161309.1718750000,127031.2578125000,22739.4218750000,97530.7421875000,149587.6562500000,,,
0.7439999988,5,158632.2187500000,143795.9218750000,168733.3437500000,160653.3125000000,126343.2500000000,22074.1542968750,96876.8984375000,150458.9687500000,,,
0.7479999987,5,159219.7031250000,143883.3906250000,169334.9062500000,161191.3750000000,126902.9140625000,22501.1347656250,97437.9062500000,149256.8593750000,,,
0.7519999989,5,160291.8906250000,144197.2187500000,170403.0937500000,162183.3906250000,127941.7343750000,23434.0878906250,98444.9453125000,147638.0312500000,,,
0.7559999989,5,160369.7812500000,144299.9375000000,170462.4531250000,162259.0156250000,128025.1796875000,23584.5058593750,98508.4062500000,147831.4218750000,,,
0.7599999988,5,159347.2656250000,144054.5000000000,169432.0000000000,161309.9843750000,127037.9687500000,22748.8632812500,97541.3046875000,149580.4843750000,,,
0.7639999988,5,158631.2343750000,143792.4687500000,168728.9687500000,160637.8750000000,126338.6875000000,22076.1933593750,96875.5312500000,150460.7656250000,,,
0.7679999988,6,159209.0781250000,143881.2187500000,169322.4062500000,161172.7812500000,126889.0781250000,22490.6738281250,97427.8750000000,149271.9843750000,,,
0.7719999987,6,160285.2343750000,144189.7812500000,170393.9531250000,162166.1875000000,127930.0703125000,23421.9375000000,98436.6250000000,147635.7187500000,,,
0.7759999987,6,160381.7500000000,144303.8281250000,170468.6562500000,162258.1406250000,128029.6328125000,23584.7753906250,98514.8437500000,147821.0625000000,,,
0.7799999986,6,159367.8125000000,144069.3750000000,169445.8750000000,161319.7187500000,127051.9921875000,22754.7382812500,97557.6406250000,149577.7031250000,,,
0.7839999986,6,158646.8593750000,143807.5937500000,168739.8906250000,160646.5937500000,126349.8750000000,22079.4121093750,96891.4062500000,150472.5937500000,,,
0.7879999985,6,159209.0781250000,143881.6250000000,169320.1562500000,161162.2656250000,126887.2812500000,22489.2792968750,97434.6640625000,149285.0937500000,,,
0.7919999987,6,160286.5468750000,144190.9062500000,170395.3750000000,162162.2812500000,127934.1484375000,23424.0839843750,98449.9062500000,147645.8437500000,,,
0.7959999987,6,160385.0781250000,144304.0156250000,170474.6250000000,162262.5156250000,128040.2578125000,23589.5761718750,98529.6171875000,147816.2656250000,,,
0.7999999986,6,159366.6406250000,144065.4375000000,169450.2656250000,161324.5937500000,127063.6640625000,22761.1757812500,97570.4921875000,149566.8906250000,,,
0.8039999986,6,158632.9687500000,143798.5781250000,168731.1718750000,160640.0625000000,126349.9218750000,22073.0000000000,96893.3671875000,150471.6250000000,,,
0.8079999986,6,159187.5468750000,143869.4687500000,169301.8125000000,161150.8125000000,126876.5781250000,22472.9726562500,97421.6796875000,149293.0625000000,,,
0.8119999988,6,160265.8125000000,144178.1406250000,170377.8593750000,162155.7656250000,127921.4296875000,23409.1972656250,98439.2812500000,147644.3281250000,,,
0.8159999987,6,160379.3281250000,144299.9375000000,170471.0156250000,162271.1406250000,128040.8671875000,23584.0234375000,98539.6015625000,147800.5937500000,,,
0.8199999987,6,159368.2968750000,144063.9062500000,169454.6406250000,161340.5468750000,127069.8593750000,22758.5996093750,97586.9296875000,149548.3593750000,,,
0.8239999986,6,158627.1562500000,143793.4062500000,168729.7187500000,160650.6093750000,126348.2343750000,22065.2500000000,96901.1406250000,150465.2656250000,,,
0.8279999986,6,159172.1718750000,143862.0156250000,169293.7031250000,161153.0156250000,126869.7109375000,22457.0937500000,97427.2578125000,149296.7031250000,,,
0.8319999985,6,160257.6875000000,144170.8750000000,170377.1093750000,162158.1406250000,127923.5781250000,23393.8554687500,98448.2421875000,147641.2187500000,,,
0.8359999987,6,160391.5937500000,144298.9218750000,170493.7500000000,162286.0937500000,128065.5703125000,23586.6250000000,98564.2500000000,147787.9687500000,,,
0.8399999987,6,159387.2812500000,144069.7343750000,169482.1093750000,161354.8750000000,127102.4218750000,22770.8046875000,97612.7890625000,149539.2343750000,,,
0.8439999986,6,158639.7812500000,143804.9062500000,168747.3906250000,160656.2343750000,126374.6796875000,22077.2109375000,96922.6796875000,150481.8437500000,,,
0.8479999986,6,159180.7031250000,143875.2187500000,169305.2343750000,161150.4375000000,126889.5859375000,22469.6191406250,97446.4921875000,149333.2343750000,,,
0.8519999986,6,160265.3906250000,144184.0156250000,170385.7968750000,162151.0312500000,127940.8515625000,23411.1289062500,98468.6250000000,147672.8125000000,,,
0.8559999987,6,160399.6875000000,144309.4843750000,170498.2656250000,162280.4843750000,128079.7109375000,23606.4199218750,98582.9453125000,147797.7031250000,,,
0.8599999987,6,159399.5468750000,144079.3281250000,169488.4843750000,161355.1406250000,127117.1953125000,22790.7070312500,97637.8359375000,149538.7500000000,,,
0.8639999987,6,158648.6875000000,143811.8593750000,168752.6562500000,160654.7343750000,126384.8515625000,22090.3007812500,96940.5156250000,150489.8906250000,,,
0.8679999986,6,159171.9062500000,143874.3750000000,169292.3437500000,161134.8750000000,126881.7265625000,22469.3769531250,97441.6640625000,149348.1250000000,,,
0.8719999986,6,160246.9375000000,144174.8437500000,170364.6406250000,162127.7031250000,127923.5234375000,23409.8671875000,98450.9218750000,147674.2968750000,,,
0.8759999985,6,160390.4687500000,144303.7031250000,170487.4218750000,162265.1718750000,128072.2265625000,23615.1367187500,98570.6875000000,147781.9843750000,,,
0.8799999987,6,159406.2812500000,144083.6250000000,169494.9218750000,161355.8750000000,127127.5000000000,22811.6269531250,97641.8125000000,149525.0781250000,,,
0.8839999987,6,158645.3437500000,143812.5312500000,168749.0312500000,160641.7656250000,126386.4062500000,22101.2441406250,96939.5234375000,150489.5937500000,,,
0.8879999986,6,159166.6562500000,143874.9531250000,169287.8593750000,161123.4218750000,126880.9218750000,22473.3203125000,97440.3203125000,149360.9687500000,,,
0.8919999986,6,160242.1406250000,144174.1250000000,170359.7031250000,162122.2500000000,127920.1718750000,23404.7714843750,98442.9609375000,147680.4687500000,,,
0.8959999986,7,160394.5312500000,144304.8281250000,170492.4375000000,162271.8750000000,128077.2968750000,23614.0917968750,98571.4062500000,147771.4375000000,,,
0.8999999985,7,159411.3437500000,144084.0781250000,169500.7968750000,161364.6875000000,127131.4140625000,22814.5234375000,97645.4843750000,149507.1875000000,,,
0.9039999985,7,158643.2968750000,143810.2187500000,168745.8437500000,160649.8281250000,126380.8515625000,22104.5703125000,96934.9921875000,150484.9062500000,,,
0.9079999984,7,159159.1718750000,143872.0468750000,169276.9218750000,161120.8750000000,126868.7187500000,22468.1171875000,97428.5468750000,149370.5781250000,,,
0.9119999984,7,160254.5312500000,144184.3906250000,170369.6250000000,162134.5625000000,127930.0703125000,23417.5664062500,98454.8125000000,147691.6718750000,,,
0.9159999983,7,160406.8281250000,144309.7343750000,170502.5468750000,162284.2343750000,128088.9375000000,23631.8750000000,98586.2968750000,147763.5625000000,,,
0.9199999985,7,159412.3750000000,144079.6562500000,169501.5000000000,161369.4687500000,127136.0000000000,22827.9082031250,97653.1562500000,149488.9375000000,,,
0.9239999985,7,158628.7656250000,143799.2031250000,168732.0468750000,160641.2968750000,126373.4765625000,22102.6132812500,96929.2500000000,150476.0468750000,,,
0.9279999984,7,159132.7500000000,143852.9218750000,169252.8593750000,161100.7656250000,126850.2890625000,22450.8710937500,97409.2656250000,149368.6406250000,,,
0.9319999984,7,160236.0937500000,144168.4375000000,170353.3750000000,162120.5156250000,127917.2734375000,23395.8125000000,98440.5468750000,147686.8437500000,,,
0.9359999984,7,160413.0781250000,144310.2656250000,170510.0937500000,162289.9687500000,128098.9687500000,23629.5664062500,98596.0078125000,147751.0312500000,,,
0.9399999985,7,159428.1875000000,144089.8750000000,169516.0625000000,161379.3125000000,127153.9687500000,22835.5527343750,97668.2031250000,149479.1875000000,,,
0.9439999985,7,158639.3593750000,143811.3750000000,168739.6406250000,160642.3281250000,126384.8750000000,22108.8085937500,96937.1953125000,150487.7968750000,,,
0.9479999985,7,159148.0156250000,143873.8750000000,169265.9687500000,161107.3593750000,126868.1796875000,22467.0175781250,97425.8671875000,149402.8750000000,,,
0.9519999984,7,160244.1406250000,144183.0781250000,170360.8750000000,162120.2656250000,127930.6328125000,23414.9902343750,98454.5468750000,147708.2812500000,,,
0.9559999984,7,160427.6875000000,144321.9375000000,170523.9062500000,162293.8437500000,128117.0156250000,23652.3652343750,98619.3125000000,147754.5468750000,,,
0.9599999983,7,159450.2187500000,144101.8593750000,169536.6406250000,161387.5468750000,127178.3828125000,22862.2402343750,97701.1640625000,149482.7812500000,,,
0.9639999985,7,158653.1875000000,143817.8750000000,168753.6406250000,160640.1562500000,126403.6250000000,22125.3847656250,96963.9609375000,150503.2187500000,,,
0.9679999985,7,159147.1718750000,143871.1406250000,169265.5468750000,161087.6250000000,126873.3281250000,22472.5703125000,97438.3671875000,149426.9843750000,,,
0.9719999984,7,160252.9687500000,144188.5468750000,170368.3593750000,162108.0625000000,127943.0234375000,23427.1953125000,98473.7734375000,147730.4843750000,,,
0.9759999984,7,160445.2812500000,144331.7812500000,170540.0468750000,162292.8750000000,128135.2031250000,23669.7734375000,98639.0000000000,147758.9687500000,,,
0.9799999984,7,159474.0625000000,144117.2031250000,169558.9218750000,161395.2656250000,127199.8671875000,22886.0312500000,97718.8671875000,149485.7812500000,,,
0.9839999985,7,158674.0312500000,143836.9843750000,168772.2656250000,160649.6718750000,126422.2109375000,22149.1210937500,96974.4453125000,150521.6250000000,,,
0.9879999985,7,159150.0781250000,143882.3750000000,169265.5781250000,161089.5312500000,126872.7968750000,22476.5390625000,97436.1093750000,149452.8125000000,,,
0.9919999985,7,160253.1875000000,144191.9062500000,170368.7031250000,162120.3281250000,127941.2265625000,23425.3984375000,98477.8828125000,147741.6406250000,,,
0.9959999984,7,160447.4843750000,144329.1718750000,170544.0937500000,162314.2812500000,128139.3593750000,23672.6445312500,98652.1718750000,147748.9687500000,,,
0.9999999984,7,159465.4218750000,144103.9531250000,169553.2656250000,161407.7656250000,127197.9609375000,22885.2539062500,97729.3593750000,149461.7656250000,,,
1.0039999983,7,158639.8437500000,143809.2812500000,168741.7343750000,160645.8281250000,126396.4921875000,22130.8828125000,96966.3750000000,150500.4843750000,,,
1.0079999985,7,159091.4687500000,143840.0468750000,169210.9062500000,161066.0312500000,126823.2578125000,22434.5898437500,97399.3359375000,149434.5000000000,,,
1.0119999985,7,160193.1875000000,144146.2500000000,170309.6718750000,162094.6562500000,127888.9218750000,23367.7304687500,98431.1562500000,147714.2031250000,,,
1.0159999984,7,160397.1718750000,144287.5468750000,170493.2187500000,162297.9218750000,128094.6484375000,23614.4667968750,98610.7343750000,147701.5156250000,,,
1.0199999984,7,159429.9375000000,144072.9687500000,169517.2656250000,161409.4843750000,127166.8437500000,22830.0000000000,97696.6093750000,149415.5000000000,,,
1.0239999983,8,158628.8906250000,143798.5781250000,168731.4062500000,160661.4687500000,126390.3437500000,22084.0507812500,96954.3359375000,150487.0781250000,,,
1.0279999983,8,159103.6406250000,143850.8593750000,169225.6562500000,161096.7187500000,126840.9843750000,22405.4335937500,97416.6953125000,149451.1250000000,,,
1.0319999983,8,160212.6875000000,144162.4843750000,170332.0468750000,162118.7968750000,127913.0625000000,23353.2734375000,98461.8437500000,147731.8281250000,,,
1.0359999982,8,160428.9531250000,144307.9375000000,170526.0468750000,162322.8281250000,128129.1953125000,23613.1523437500,98650.7500000000,147710.0156250000,,,
1.0399999982,8,159470.2031250000,144096.0625000000,169557.4531250000,161433.2187500000,127209.8437500000,22836.8671875000,97743.2812500000,149418.5312500000,,,
1.0439999981,8,158654.3437500000,143815.8906250000,168752.2968750000,160665.7031250000,126414.9921875000,22085.0703125000,96982.9218750000,150496.7031250000,,,
1.0479999983,8,159107.2968750000,143858.1875000000,169221.4687500000,161074.6875000000,126842.2968750000,22387.6503906250,97419.5625000000,149472.2656250000,,,
1.0519999983,8,160214.6718750000,144170.5312500000,170329.1250000000,162095.6250000000,127914.6718750000,23332.7812500000,98462.4843750000,147752.1875000000,,,
1.0559999982,8,160449.8750000000,144326.8906250000,170546.2187500000,162317.3281250000,128152.1328125000,23611.0605468750,98670.1406250000,147719.3593750000,,,
1.0599999982,8,159493.5000000000,144118.9531250000,169580.4843750000,161429.9218750000,127235.8046875000,22845.6386718750,97768.5703125000,149423.4375000000,,,
1.0639999982,8,158653.2187500000,143824.6562500000,168752.6250000000,160643.2031250000,126418.8281250000,22082.7910156250,96991.6171875000,150505.9843750000,,,
1.0679999983,8,159101.1250000000,143864.3437500000,169217.7500000000,161054.9531250000,126844.0390625000,22389.2871093750,97426.3203125000,149496.2343750000,,,
1.0719999983,8,160214.7031250000,144176.0468750000,170331.6093750000,162088.4843750000,127923.3125000000,23351.5566406250,98473.9921875000,147773.4843750000,,,
1.0759999983,8,160452.1250000000,144325.9062500000,170550.2343750000,162318.0312500000,128163.0468750000,23643.4882812500,98685.6953125000,147717.6718750000,,,
1.0799999982,8,159495.1875000000,144111.4687500000,169583.1406250000,161439.6875000000,127245.4609375000,22875.3300781250,97784.0468750000,149407.0000000000,,,
1.0839999982,8,158650.8906250000,143815.2187500000,168751.0937500000,160650.4687500000,126423.3125000000,22099.2324218750,96994.8046875000,150503.1718750000,,,
1.0879999981,8,159079.1875000000,143846.5937500000,169198.2187500000,161040.0625000000,126828.9140625000,22386.4160156250,97408.1328125000,149500.0156250000,,,
1.0919999983,8,160187.7968750000,144153.8125000000,170307.5625000000,162071.3437500000,127903.5156250000,23338.1191406250,98451.4843750000,147764.7656250000,,,
1.0959999983,8,160436.7343750000,144307.2343750000,170536.0000000000,162309.8437500000,128152.6406250000,23631.3652343750,98678.1640625000,147689.2812500000,,,
1.0999999982,8,159484.0625000000,144094.4062500000,169572.9062500000,161437.7031250000,127236.9843750000,22867.2304687500,97781.6562500000,149373.9531250000,,,
1.1039999982,8,158631.9218750000,143796.4687500000,168735.6718750000,160648.5468750000,126409.6015625000,22090.3554687500,96992.5546875000,150482.0781250000,,,
1.1079999981,8,159052.9531250000,143826.9843750000,169176.8437500000,161035.6406250000,126810.4843750000,22375.2851562500,97401.9140625000,149495.5156250000,,,
1.1119999983,8,160169.1562500000,144139.0312500000,170293.4687500000,162070.9687500000,127892.8671875000,23335.2480468750,98454.0625000000,147760.6406250000,,,
1.1159999983,8,160429.7500000000,144296.9843750000,170535.3750000000,162323.3750000000,128156.5781250000,23642.2539062500,98687.6015625000,147673.2187500000,,,
1.1199999982,8,159477.3906250000,144082.7656250000,169570.8281250000,161444.0000000000,127241.6250000000,22879.2734375000,97787.5859375000,149354.4375000000,,,
1.1239999982,8,158623.7500000000,143790.4531250000,168729.3437500000,160649.6093750000,126410.3828125000,22095.7988281250,96995.6953125000,150480.3750000000,,,
1.1279999982,8,159036.6718750000,143819.5312500000,169160.0781250000,161025.8437500000,126801.0468750000,22364.6367187500,97392.6328125000,149506.8593750000,,,
1.1319999981,8,160146.2812500000,144124.7343750000,170269.5156250000,162053.4375000000,127877.0937500000,23318.5917968750,98438.2656250000,147764.2031250000,,,
1.1359999983,8,160410.2812500000,144282.8281250000,170513.1718750000,162305.0000000000,128141.9609375000,23626.4824218750,98678.2968750000,147659.1718750000,,,
1.1399999983,8,159479.6406250000,144083.4531250000,169569.6875000000,161443.2031250000,127246.3750000000,22880.4804687500,97800.3281250000,149340.1406250000,,,
1.1439999982,8,158628.3906250000,143793.4062500000,168730.0625000000,160645.5937500000,126416.6015625000,22102.5312500000,97009.3750000000,150480.2812500000,,,
1.1479999982,8,159038.7656250000,143822.5937500000,169159.7500000000,161014.7500000000,126807.5625000000,22374.4804687500,97406.6562500000,149524.0312500000,,,
1.1519999981,9,160151.9531250000,144132.6718750000,170274.5156250000,162046.4843750000,127887.2890625000,23332.9140625000,98452.1875000000,147783.2500000000,,,
1.1559999981,9,160440.9375000000,144302.2812500000,170543.1562500000,162319.3750000000,128174.9531250000,23661.3242187500,98709.0859375000,147669.3281250000,,,
1.1599999981,9,159515.8125000000,144103.3281250000,169606.3750000000,161462.2656250000,127285.5625000000,22922.2695312500,97830.9843750000,149341.0937500000,,,
1.1639999980,9,158638.3906250000,143798.1562500000,168741.1718750000,160643.7968750000,126430.7421875000,22125.2226562500,97015.1093750000,150481.4218750000,,,
1.1679999980,9,159034.3437500000,143823.6406250000,169154.8437500000,161004.4218750000,126804.1875000000,22386.0683593750,97400.9765625000,149536.3437500000,,,
1.1719999979,9,160146.6562500000,144129.6718750000,170266.8593750000,162034.6875000000,127879.7812500000,23340.8007812500,98448.9687500000,147785.5468750000,,,
1.1759999981,9,160435.8750000000,144294.4375000000,170536.0468750000,162312.7812500000,128167.9843750000,23665.6972656250,98707.4765625000,147647.2656250000,,,
1.1799999981,9,159508.1562500000,144094.4062500000,169597.0625000000,161459.7500000000,127277.3828125000,22924.7636718750,97828.7890625000,149312.6718750000,,,
1.1839999980,9,158631.1718750000,143793.0000000000,168734.0312500000,160646.3125000000,126427.2265625000,22136.6503906250,97016.7500000000,150472.7031250000,,,
1.1879999980,9,159011.0000000000,143805.4531250000,169134.0312500000,160994.6875000000,126788.6015625000,22384.8066406250,97388.9296875000,149534.6250000000,,,
1.1919999979,9,160134.9843750000,144116.5625000000,170258.7187500000,162037.6875000000,127878.7812500000,23346.9960937500,98447.8437500000,147782.7031250000,,,
1.1959999981,9,160440.0781250000,144288.5625000000,170543.0000000000,162325.3281250000,128182.5468750000,23689.9179687500,98719.0625000000,147630.9218750000,,,
1.1999999981,9,159501.2343750000,144079.0625000000,169590.5156250000,161463.1875000000,127278.3750000000,22940.3203125000,97826.6953125000,149283.2656250000,,,
1.2039999980,9,158611.5625000000,143769.4843750000,168714.1093750000,160636.4531250000,126413.3906250000,22131.0429687500,97003.1718750000,150448.7187500000,,,
1.2079999980,9,158993.0781250000,143786.7500000000,169116.6875000000,160985.5625000000,126775.0546875000,22381.1875000000,97376.9375000000,149533.8125000000,,,
1.2119999980,9,160106.2031250000,144092.2031250000,170231.2187500000,162017.7343750000,127851.6171875000,23334.2031250000,98425.6562500000,147779.5781250000,,,
1.2159999979,9,160412.5312500000,144263.5468750000,170515.9843750000,162311.7031250000,128154.3046875000,23677.4707031250,98701.9531250000,147611.2968750000,,,
1.2199999981,9,159494.6562500000,144066.2343750000,169586.2031250000,161467.4687500000,127272.6093750000,22948.4746093750,97833.2109375000,149259.8906250000,,,
1.2239999981,9,158614.8593750000,143768.4843750000,168718.8281250000,160645.5625000000,126417.7343750000,22148.2363281250,97013.2890625000,150446.5156250000,,,
1.2279999980,9,158990.2968750000,143789.2500000000,169109.1406250000,160985.8281250000,126767.7890625000,22385.6660156250,97370.9609375000,149550.5312500000,,,
1.2319999980,9,160118.4531250000,144104.0625000000,170237.1406250000,162026.9843750000,127857.3281250000,23345.6562500000,98427.5625000000,147795.3437500000,,,
1.2359999979,9,160447.4531250000,144283.7968750000,170548.3437500000,162332.4062500000,128186.0312500000,23710.0058593750,98729.2343750000,147611.3437500000,,,
1.2399999981,9,159533.8906250000,144089.1718750000,169622.3906250000,161487.0781250000,127308.4140625000,22988.7597656250,97869.7421875000,149257.1406250000,,,
1.2439999981,9,158634.3593750000,143782.5625000000,168732.8281250000,160646.2343750000,126432.4062500000,22176.1308593750,97030.3750000000,150457.7031250000,,,
1.2479999980,9,158991.9062500000,143792.5937500000,169110.5625000000,160970.1093750000,126770.5781250000,22401.6250000000,97378.0703125000,149573.3281250000,,,
1.2519999980,9,160116.3906250000,144105.0312500000,170235.8281250000,162010.8125000000,127858.7500000000,23362.0976562500,98434.7265625000,147815.2500000000,,,
1.2559999980,9,160448.3906250000,144284.1093750000,170547.1093750000,162326.0000000000,128187.5859375000,23725.5644531250,98733.6562500000,147615.0937500000,,,
1.2599999979,9,159542.9843750000,144089.7343750000,169630.4843750000,161488.6093750000,127317.7187500000,23005.2031250000,97871.6484375000,149249.3750000000,,,
1.2639999981,9,158641.2656250000,143782.5625000000,168741.5000000000,160646.1250000000,126441.8437500000,22192.3320312500,97031.7656250000,150459.9062500000,,,
1.2679999981,9,158984.5312500000,143787.9375000000,169102.1093750000,160958.9531250000,126764.8125000000,22409.8320312500,97367.0703125000,149587.1406250000,,,
1.2719999980,9,160109.0937500000,144099.9843750000,170227.6718750000,162002.2500000000,127853.3281250000,23371.7792968750,98429.2812500000,147823.5625000000,,,
1.2759999980,9,160451.5312500000,144281.7031250000,170548.3125000000,162325.6718750000,128192.4687500000,23744.0703125000,98739.4531250000,147606.3593750000,,,
1.2799999979,10,159545.1562500000,144085.9062500000,169628.0937500000,161486.0156250000,127321.3671875000,23019.6328125000,97877.4140625000,149236.8437500000,,,
1.2839999979,10,158639.4843750000,143781.6562500000,168734.7656250000,160642.1875000000,126443.0781250000,22195.6855468750,97032.8906250000,150464.3281250000,,,
1.2879999978,10,158979.7343750000,143788.7968750000,169093.6718750000,160950.8281250000,126763.7890625000,22403.4492187500,97360.8515625000,149606.0781250000,,,
1.2919999978,10,160105.2968750000,144096.8906250000,170219.4375000000,161991.6562500000,127851.0781250000,23365.7714843750,98419.9453125000,147834.6875000000,,,
1.2959999978,10,160454.6250000000,144277.4687500000,170550.2656250000,162324.1406250000,128198.3671875000,23745.1445312500,98738.3203125000,147598.7343750000,,,
1.2999999977,10,159554.0468750000,144082.1406250000,169639.7343750000,161496.5000000000,127336.1484375000,23032.3457031250,97890.2109375000,149218.9843750000,,,
1.3039999979,10,158643.2656250000,143775.3750000000,168740.2656250000,160650.2343750000,126451.1015625000,22210.6777343750,97042.7656250000,150452.5468750000,,,
1.3079999979,10,158971.7343750000,143778.3125000000,169088.8437500000,160954.5000000000,126760.7890625000,22412.9433593750,97366.8281250000,149608.4843750000,,,
1.3119999978,10,160092.4687500000,144086.5937500000,170212.9218750000,161998.4531250000,127845.4453125000,23370.5996093750,98427.1093750000,147835.2812500000,,,
1.3159999978,10,160456.9531250000,144274.2187500000,170559.2812500000,162345.0156250000,128206.5000000000,23760.2988281250,98754.3906250000,147584.0625000000,,,
1.3199999977,10,159563.0781250000,144084.4062500000,169654.5468750000,161518.5937500000,127350.1718750000,23051.6582031250,97908.3671875000,149199.7187500000,,,
1.3239999979,10,158638.9531250000,143772.4062500000,168741.0625000000,160655.3593750000,126452.0390625000,22216.0429687500,97047.3750000000,150447.5625000000,,,
1.3279999979,10,158963.7343750000,143774.5312500000,169082.9062500000,160950.4062500000,126755.0703125000,22409.9394531250,97358.7812500000,149619.0312500000,,,
1.3319999978,10,160082.9218750000,144080.1875000000,170200.7187500000,161988.7031250000,127835.3359375000,23361.4804687500,98412.5156250000,147842.2500000000,,,
1.3359999978,10,160452.1250000000,144267.4062500000,170550.0000000000,162333.2968750000,128202.2031250000,23752.6816406250,98755.4062500000,147576.9843750000,,,
1.3399999978,10,159572.8437500000,144084.1875000000,169660.2343750000,161515.6562500000,127363.1875000000,23058.0957031250,97929.4531250000,149191.4843750000,,,
1.3439999977,10,158645.7968750000,143773.3437500000,168745.9218750000,160648.7656250000,126465.5859375000,22218.4296875000,97066.5000000000,150451.4218750000,,,
1.3479999979,10,158960.3906250000,143769.6718750000,169078.2500000000,160936.8281250000,126760.5156250000,22399.8007812500,97372.1406250000,149635.7187500000,,,
1.3519999979,10,160086.1406250000,144076.1875000000,170205.6562500000,161980.7968750000,127846.9218750000,23363.3574218750,98432.7421875000,147856.3906250000,,,
1.3559999978,10,160461.5156250000,144264.7031250000,170563.1406250000,162330.7500000000,128218.7031250000,23771.6699218750,98776.7578125000,147572.4531250000,,,
1.3599999978,10,159579.1718750000,144080.5312500000,169668.5468750000,161513.2812500000,127373.5937500000,23076.1464843750,97941.2812500000,149177.6250000000,,,
1.3639999977,10,158661.8281250000,143784.1250000000,168762.2343750000,160655.9687500000,126481.7031250000,22251.9042968750,97081.4687500000,150461.3281250000,,,
1.3679999979,10,158964.7343750000,143784.9531250000,169082.7500000000,160933.5781250000,126764.6718750000,22434.4023437500,97381.5781250000,149668.2500000000,,,
1.3719999979,10,160080.9062500000,144085.6406250000,170200.2968750000,161972.9375000000,127844.2343750000,23381.3828125000,98435.9843750000,147881.2343750000,,,
1.3759999978,10,160468.9218750000,144275.6718750000,170570.6250000000,162339.8593750000,128228.3593750000,23789.1855468750,98790.6250000000,147578.6718750000,,,
1.3799999978,10,159603.3437500000,144098.3125000000,169694.2656250000,161541.6718750000,127398.9921875000,23108.0917968750,97971.2421875000,149178.7968750000,,,
1.3839999977,10,158668.6250000000,143788.1562500000,168771.0781250000,160670.0312500000,126491.4687500000,22266.1191406250,97098.1015625000,150466.4687500000,,,
1.3879999977,10,158956.3906250000,143776.2187500000,169077.0937500000,160934.3593750000,126760.3046875000,22420.8027343750,97379.2187500000,149676.0781250000,,,
1.3919999979,10,160066.1562500000,144069.1406250000,170188.6562500000,161965.8593750000,127833.0546875000,23358.4492187500,98424.5859375000,147880.0156250000,,,
1.3959999979,10,160460.2031250000,144257.7500000000,170564.5312500000,162337.1875000000,128223.9062500000,23768.9355468750,98781.6953125000,147557.7187500000,,,
1.3999999978,10,159609.9375000000,144091.5937500000,169702.7656250000,161555.0781250000,127410.2031250000,23099.8847656250,97975.4218750000,149154.6093750000,,,
1.4039999978,10,158677.7343750000,143791.8750000000,168781.8125000000,160688.4062500000,126505.4140625000,22265.1015625000,97109.0703125000,150460.0156250000,,,
1.4079999977,11,158952.0937500000,143777.6406250000,169072.4843750000,160938.2968750000,126757.8906250000,22422.5722656250,97380.8046875000,149688.2656250000,,,
1.4119999977,11,160062.8906250000,144071.2500000000,170183.6718750000,161968.8125000000,127829.0000000000,23364.0292968750,98425.7109375000,147892.0625000000,,,
1.4159999976,11,160464.4375000000,144261.6406250000,170566.2812500000,162347.1093750000,128226.3984375000,23785.1347656250,98788.2656250000,147553.2812500000,,,
1.4199999976,11,159615.6250000000,144092.4687500000,169705.6406250000,161562.4531250000,127413.2109375000,23119.2773437500,97982.0781250000,149140.6562500000,,,
1.4239999976,11,158688.2812500000,143795.4218750000,168787.7343750000,160697.1250000000,126512.7343750000,22285.8339843750,97121.3281250000,150464.3281250000,,,
1.4279999975,11,158951.0468750000,143775.3281250000,169069.4687500000,160940.2343750000,126759.5000000000,22432.5507812500,97384.6953125000,149704.3281250000,33029,1.4282168406,0.0000000000
1.4319999977,11,160054.7031250000,144063.3750000000,170177.3906250000,161967.3593750000,127826.5078125000,23367.0332031250,98425.8437500000,147901.0781250000,,,
1.4359999977,11,160470.0468750000,144258.8281250000,170572.5781250000,162359.6562500000,128235.3828125000,23796.2128906250,98801.7578125000,147549.2812500000,,,
1.4399999976,11,159626.1093750000,144091.1093750000,169715.0000000000,161577.8281250000,127427.6406250000,23135.4765625000,98002.1093750000,149130.5156250000,,,
1.4439999976,11,158686.8593750000,143789.6562500000,168786.2656250000,160700.6250000000,126516.8359375000,22291.5468750000,97129.6171875000,150462.6875000000,,,
1.4479999975,11,158949.5781250000,143776.6718750000,169067.5156250000,160936.7968750000,126762.2343750000,22434.6425781250,97392.2578125000,149724.8437500000,,,
1.4519999977,11,160053.5000000000,144066.9843750000,170172.2187500000,161953.8906250000,127826.9921875000,23370.7617187500,98429.7890625000,147922.0312500000,,,
1.4559999977,11,160471.4375000000,144261.9843750000,170570.8750000000,162346.0625000000,128237.2656250000,23800.7988281250,98806.7187500000,147551.6406250000,,,
1.4599999976,11,159631.0781250000,144095.6093750000,169719.7812500000,161572.2187500000,127433.1875000000,23142.9882812500,98013.5625000000,149119.4218750000,,,
1.4639999976,11,158674.8437500000,143785.0625000000,168775.4218750000,160686.4218750000,126507.2109375000,22289.1328125000,97126.8750000000,150454.8593750000,,,
1.4679999975,11,158911.5156250000,143757.4687500000,169030.1250000000,160903.5937500000,126725.7031250000,22410.9863281250,97359.4531250000,149729.0000000000,,,
1.4719999975,11,160023.4218750000,144051.1875000000,170142.8125000000,161932.0937500000,127796.6328125000,23351.0996093750,98400.5234375000,147925.4062500000,,,
1.4759999977,11,160465.7187500000,144255.1562500000,170565.2343750000,162347.8906250000,128231.0156250000,23801.4960937500,98801.2187500000,147538.5781250000,,,
1.4799999977,11,159638.6406250000,144095.6875000000,169725.4843750000,161583.1562500000,127439.7890625000,23153.1269531250,98021.5000000000,149101.0156250000,,,
1.4839999976,11,158675.5937500000,143784.3593750000,168773.2031250000,160683.1718750000,126505.8125000000,22292.6738281250,97125.3750000000,150447.2187500000,,,
1.4879999976,11,158903.7187500000,143753.2500000000,169017.9687500000,160887.8750000000,126715.2968750000,22402.6445312500,97348.9140625000,149731.8906250000,,,
1.4919999975,11,160002.2343750000,144036.3593750000,170117.9531250000,161907.1250000000,127775.6015625000,23332.5664062500,98380.9218750000,147924.6718750000,,,
1.4959999977,11,160442.3593750000,144232.8125000000,170542.0625000000,162322.3750000000,128211.3281250000,23787.0390625000,98781.7187500000,147517.1718750000,,,
1.4999999977,11,159628.4218750000,144079.3281250000,169716.3437500000,161570.0468750000,127434.2109375000,23157.5781250000,98009.5703125000,149078.1093750000,,,
1.5039999976,11,158675.1093750000,143780.4218750000,168772.8750000000,160684.4843750000,126509.9218750000,22313.2187500000,97125.6953125000,150448.4843750000,,,
1.5079999976,11,158900.7343750000,143754.0781250000,169017.2031250000,160889.6718750000,126718.0625000000,22420.2929687500,97350.9765625000,149753.2812500000,,,
1.5119999975,11,160003.2343750000,144039.0625000000,170122.9687500000,161913.8750000000,127781.7421875000,23343.8847656250,98391.1953125000,147944.5781250000,,,
1.5159999975,11,160456.1718750000,144241.3281250000,170556.7031250000,162345.7968750000,128226.0781250000,23806.7011718750,98801.6796875000,147521.8906250000,,,
1.5199999977,11,159646.7968750000,144090.0000000000,169733.5312500000,161601.4843750000,127450.6484375000,23177.3203125000,98034.3203125000,149066.1250000000,,,
1.5239999976,11,158689.1562500000,143787.2343750000,168786.2031250000,160710.9062500000,126523.3828125000,22321.5351562500,97145.0078125000,150439.2031250000,,,
1.5279999976,11,158894.1875000000,143748.7500000000,169009.1250000000,160899.6562500000,126711.7031250000,22415.2500000000,97351.0312500000,149754.7500000000,,,
1.5319999976,11,159994.1875000000,144032.8125000000,170110.5781250000,161924.8750000000,127772.0078125000,23341.4980468750,98389.9843750000,147944.1718750000,,,
1.5359999975,12,160452.1562500000,144237.8437500000,170549.1093750000,162360.3906250000,128223.1250000000,23807.3984375000,98810.7734375000,147505.1250000000,,,
1.5399999975,12,159643.8437500000,144088.6875000000,169729.1875000000,161611.1093750000,127452.0156250000,23182.1210937500,98046.2343750000,149043.2968750000,,,
1.5439999974,12,158682.5312500000,143787.8750000000,168780.2187500000,160708.1406250000,126523.0078125000,22326.3886718750,97147.6406250000,150431.6093750000,,,
1.5479999974,12,158894.8125000000,143758.2187500000,169015.2187500000,160893.0781250000,126723.0234375000,22428.9843750000,97361.6015625000,149771.8437500000,,,
1.5519999973,12,159988.7968750000,144037.1718750000,170114.1093750000,161906.4687500000,127781.5312500000,23351.4218750000,98392.0000000000,147960.2656250000,,,
1.5559999973,12,160455.4843750000,144243.2343750000,170560.4687500000,162343.3750000000,128240.2109375000,23825.2070312500,98819.0312500000,147505.2812500000,,,
1.5599999975,12,159650.4062500000,144093.9687500000,169740.1562500000,161600.0000000000,127469.3437500000,23205.6972656250,98059.2656250000,149032.1562500000,,,
1.5639999975,12,158680.5468750000,143790.0468750000,168779.6875000000,160692.2968750000,126528.1328125000,22342.9375000000,97156.9765625000,150432.8593750000,,,
1.5679999974,12,158886.2500000000,143759.7500000000,169005.6093750000,160873.7500000000,126716.1250000000,22435.1796875000,97362.7812500000,149794.4531250000,,,
1.5719999974,12,159984.6406250000,144038.8281250000,170108.2656250000,161891.4218750000,127777.3203125000,23356.6250000000,98395.0312500000,147978.6718750000,,,
1.5759999973,12,160455.1875000000,144238.8437500000,170559.9843750000,162333.1562500000,128242.4375000000,23829.1777343750,98824.9062500000,147500.1718750000,,,
1.5799999975,12,159665.5156250000,144093.4687500000,169757.9375000000,161603.4843750000,127489.3828125000,23217.5800781250,98078.2890625000,149018.4531250000,,,
1.5839999975,12,158695.3125000000,143793.3750000000,168797.2343750000,160698.0781250000,126548.7031250000,22355.2500000000,97173.3359375000,150429.7343750000,,,
1.5879999974,12,158880.1562500000,143756.2500000000,168999.2500000000,160866.0468750000,126715.6484375000,22428.3398437500,97353.8203125000,149803.2968750000,,,
1.5919999974,12,159974.3125000000,144034.5312500000,170095.5000000000,161883.2187500000,127769.1093750000,23347.6679687500,98381.7812500000,147989.6718750000,,,
1.5959999973,12,160451.7968750000,144235.3593750000,170554.2656250000,162338.4687500000,128236.7265625000,23829.3925781250,98816.8593750000,147490.0781250000,,,
1.5999999973,12,159682.9531250000,144102.7656250000,169770.7343750000,161629.2968750000,127499.9218750000,23234.3437500000,98087.1640625000,149000.1875000000,,,
1.6039999975,12,158705.5468750000,143799.3593750000,168801.0312500000,160716.0625000000,126550.1250000000,22371.7460937500,97174.0859375000,150422.1406250000,,,
1.6079999974,12,158873.0000000000,143751.0781250000,168986.1406250000,160869.2656250000,126701.0781250000,22430.4042968750,97339.4140625000,149809.3281250000,,,
1.6119999974,12,159963.0312500000,144025.3437500000,170080.0000000000,161885.5000000000,127753.9531250000,23341.0156250000,98359.6796875000,147994.2343750000,,,
1.6159999974,12,160458.1093750000,144235.5468750000,170557.4843750000,162355.0468750000,128241.0156250000,23831.5917968750,98816.7812500000,147484.5312500000,,,
1.6199999973,12,159683.6250000000,144098.5625000000,169770.0468750000,161643.7187500000,127500.4062500000,23238.2070312500,98087.9375000000,148984.6406250000,,,
1.6239999975,12,158699.4375000000,143797.2187500000,168794.4687500000,160726.9687500000,126546.0468750000,22368.1503906250,97171.7265625000,150420.0156250000,,,
1.6279999975,12,158865.9531250000,143754.1875000000,168978.6562500000,160874.2812500000,126696.8671875000,22427.1054687500,97340.5937500000,149827.8750000000,,,
1.6319999974,12,159956.4531250000,144025.1562500000,170074.0937500000,161885.7187500000,127750.2812500000,23342.2753906250,98369.0937500000,148010.9062500000,,,
1.6359999974,12,160453.2031250000,144230.7968750000,170552.4218750000,162358.4531250000,128237.6406250000,23834.2734375000,98824.0468750000,147482.6718750000,,,
1.6399999973,12,159679.6562500000,144090.6562500000,169764.1093750000,161642.6250000000,127498.2890625000,23235.3906250000,98091.4531250000,148973.9843750000,,,
1.6439999973,12,158696.3750000000,143789.9218750000,168792.5937500000,160715.4062500000,126549.6171875000,22366.4335937500,97178.2968750000,150415.3281250000,,,
1.6479999975,12,158854.9531250000,143743.1718750000,168971.0312500000,160851.1875000000,126693.6796875000,22416.5390625000,97339.8984375000,149831.6250000000,,,
1.6519999974,12,159937.5781250000,144010.2031250000,170060.5468750000,161857.7656250000,127739.5000000000,23324.1171875000,98357.5546875000,148011.9062500000,,,
1.6559999974,12,160455.3750000000,144228.8125000000,170560.6562500000,162346.5156250000,128247.7734375000,23839.4511718750,98829.6015625000,147475.4687500000,,,
1.6599999974,12,159695.2812500000,144097.2812500000,169787.0937500000,161643.6406250000,127522.7187500000,23257.9199218750,98111.1718750000,148957.8906250000,,,
1.6639999973,13,158706.0937500000,143796.0312500000,168807.5625000000,160714.7343750000,126567.3203125000,22383.4667968750,97193.7968750000,150414.2187500000,,,
1.6679999973,13,158860.2812500000,143751.5156250000,168980.1562500000,160846.8125000000,126709.4218750000,22430.9960937500,97353.3125000000,149855.7031250000,,,
1.6719999972,13,159948.0781250000,144024.7500000000,170071.2812500000,161853.7343750000,127758.8125000000,23337.5820312500,98376.4921875000,148040.2812500000,,,
1.6759999972,13,160472.4531250000,144244.3125000000,170575.9375000000,162347.6406250000,128272.3984375000,23856.1328125000,98856.7421875000,147486.8593750000,,,
1.6799999971,13,159720.7968750000,144116.2968750000,169806.6875000000,161653.4062500000,127552.0078125000,23286.2441406250,98144.9921875000,148961.0000000000,,,
1.6839999971,13,158730.0468750000,143817.5000000000,168821.7968750000,160726.8906250000,126588.0546875000,22410.4765625000,97217.4609375000,150427.6562500000,,,
1.6879999973,13,158864.1562500000,143766.1250000000,168972.4375000000,160845.5468750000,126702.4765625000,22435.5546875000,97347.4609375000,149879.6875000000,,,
1.6919999972,13,159949.1875000000,144036.2031250000,170061.6718750000,161850.1406250000,127745.8046875000,23340.3437500000,98364.5312500000,148063.5625000000,,,
1.6959999972,13,160482.4375000000,144254.4218750000,170578.0781250000,162349.4375000000,128268.1093750000,23862.7324218750,98848.6953125000,147490.1562500000,,,
1.6999999972,13,159742.6875000000,144130.8750000000,169827.0625000000,161665.7656250000,127564.0781250000,23294.3457031250,98148.2343750000,148954.5156250000,,,
1.7039999971,13,158743.1562500000,143830.0781250000,168838.8281250000,160737.6406250000,126598.3515625000,22414.1250000000,97218.7187500000,150431.1562500000,,,
1.7079999973,13,158866.5312500000,143773.3437500000,168983.2343750000,160853.3281250000,126708.3203125000,22435.3671875000,97343.6250000000,149899.1562500000,,,
1.7119999973,13,159940.5156250000,144034.3750000000,170062.6093750000,161854.2500000000,127744.3281250000,23327.7910156250,98357.0468750000,148076.0937500000,,,
1.7159999972,13,160474.5781250000,144250.7812500000,170579.4843750000,162360.6562500000,128269.6093750000,23851.3867187500,98859.3984375000,147479.7343750000,,,
1.7199999972,13,159739.0000000000,144128.0312500000,169828.7031250000,161683.9375000000,127568.5859375000,23297.0800781250,98164.9453125000,148929.0312500000,,,
1.7239999971,13,158743.8593750000,143828.8593750000,168840.7343750000,160755.2968750000,126606.5859375000,22427.4824218750,97241.4609375000,150414.3281250000,,,
1.7279999971,13,158857.4687500000,143770.1562500000,168969.5937500000,160851.5000000000,126705.7500000000,22442.6367187500,97360.2031250000,149901.0156250000,,,
1.7319999973,13,159934.8125000000,144031.9375000000,170048.5625000000,161851.1718750000,127741.0546875000,23338.5742187500,98369.6562500000,148085.3125000000,,,
1.7359999972,13,160485.9687500000,144254.6093750000,170579.6718750000,162367.7343750000,128278.9140625000,23878.7167968750,98872.0078125000,147482.2968750000,,,
1.7399999972,13,159752.1562500000,144130.8593750000,169829.6406250000,161685.7500000000,127577.9765625000,23319.8789062500,98173.1796875000,148922.9218750000,,,
1.7439999972,13,158747.2656250000,143830.7656250000,168835.2656250000,160744.6406250000,126607.3906250000,22434.6425781250,97236.4218750000,150417.8750000000,,,
1.7479999971,13,158855.1093750000,143773.9843750000,168964.7031250000,160836.1718750000,126703.4921875000,22438.5585937500,97344.4062500000,149922.2812500000,,,
1.7519999973,13,159924.5937500000,144034.0781250000,170042.1562500000,161833.0625000000,127733.5156250000,23322.7226562500,98350.2109375000,148101.1093750000,,,
1.7559999973,13,160479.1562500000,144253.8906250000,170582.1406250000,162358.9843750000,128277.2812500000,23862.8652343750,98864.1484375000,147472.2500000000,,,
1.7599999972,13,159757.0781250000,144133.7031250000,169847.2343750000,161690.3906250000,127590.5000000000,23317.7343750000,98183.5859375000,148900.5781250000,,,
1.7639999972,13,158763.1406250000,143840.2343750000,168862.9218750000,160758.2500000000,126630.8359375000,22444.4335937500,97261.6562500000,150410.9062500000,,,
1.7679999971,13,158855.7343750000,143775.5937500000,168971.2500000000,160835.1718750000,126708.4296875000,22441.7246093750,97358.0312500000,149932.1562500000,,,
1.7719999971,13,159923.7343750000,144036.1406250000,170041.6875000000,161826.8593750000,127734.9375000000,23334.1757812500,98361.6875000000,148117.3437500000,,,
1.7759999973,13,160490.5156250000,144263.1875000000,170588.2968750000,162361.3750000000,128286.8593750000,23888.1855468750,98881.2343750000,147477.2031250000,,,
1.7799999972,13,159787.8281250000,144153.9218750000,169870.5937500000,161711.2343750000,127616.1406250000,23360.5683593750,98210.4140625000,148900.7812500000,,,
1.7839999972,13,158773.8906250000,143851.8750000000,168864.7343750000,160759.8750000000,126634.2968750000,22468.3593750000,97266.0859375000,150416.5000000000,,,
1.7879999971,13,158833.4062500000,143769.4218750000,168942.6875000000,160809.2031250000,126679.6484375000,22431.9335937500,97331.5859375000,149942.1562500000,,,
1.7919999971,14,159896.7187500000,144023.9687500000,170010.9375000000,161801.4843750000,127701.8359375000,23310.7070312500,98332.1015625000,148117.3906250000,,,
1.7959999971,14,160474.3593750000,144252.5937500000,170569.8437500000,162348.1875000000,128267.2187500000,23870.4023437500,98863.5859375000,147456.1718750000,,,
1.7999999970,14,159767.5468750000,144135.6562500000,169850.6093750000,161700.3750000000,127597.5546875000,23345.0117187500,98194.3203125000,148860.0937500000,,,
1.8039999970,14,158756.2968750000,143834.7187500000,168848.1093750000,160757.1250000000,126621.7656250000,22463.1289062500,97252.1953125000,150385.8281250000,,,
1.8079999969,14,158821.7656250000,143759.8750000000,168931.0156250000,160813.8281250000,126674.6640625000,22435.4199218750,97327.0234375000,149933.5937500000,,,
1.8119999969,14,159883.0156250000,144012.7031250000,169997.2187500000,161805.2500000000,127696.1250000000,23315.2128906250,98328.5625000000,148113.0468750000,,,
1.8159999971,14,160462.7968750000,144235.3281250000,170559.7968750000,162351.0781250000,128263.6796875000,23874.8554687500,98859.6953125000,147438.2812500000,,,
1.8199999970,14,159771.9375000000,144124.9062500000,169856.0937500000,161710.2500000000,127607.1562500000,23354.0234375000,98208.5312500000,148832.5312500000,,,
1.8239999970,14,158749.0625000000,143815.7500000000,168843.1250000000,160755.1562500000,126619.5390625000,22456.1542968750,97262.1171875000,150360.3125000000,,,
1.8279999970,14,158811.1562500000,143742.3125000000,168923.5156250000,160807.6562500000,126670.0468750000,22420.6953125000,97328.8203125000,149929.2812500000,,,
1.8319999969,14,159871.4531250000,143997.9531250000,169988.2187500000,161789.9062500000,127690.1718750000,23294.6132812500,98323.4687500000,148115.2500000000,,,
1.8359999971,14,160467.4375000000,144231.5937500000,170569.0156250000,162347.4531250000,128275.8359375000,23871.7714843750,98873.7734375000,147430.8281250000,,,
1.8399999971,14,159794.9375000000,144136.4531250000,169882.3750000000,161723.1718750000,127636.3671875000,23369.2851562500,98237.1796875000,148824.8281250000,,,
1.8439999970,14,158777.5625000000,143839.7500000000,168872.2812500000,160771.9531250000,126651.6171875000,22478.5781250000,97285.7187500000,150374.8750000000,,,
1.8479999970,14,158825.7187500000,143764.3281250000,168938.9375000000,160814.3906250000,126686.8125000000,22435.6347656250,97338.2890625000,149963.6718750000,,,
1.8519999969,14,159874.0625000000,144017.7500000000,169993.0156250000,161795.5625000000,127693.0703125000,23306.4140625000,98327.7343750000,148151.7812500000,,,
1.8559999969,14,160465.5156250000,144246.8906250000,170567.3593750000,162357.0312500000,128266.1796875000,23878.6113281250,98875.8671875000,147444.5937500000,,,
1.8599999971,14,159787.8437500000,144138.9531250000,169873.1250000000,161729.9843750000,127618.6875000000,23368.0527343750,98234.4140625000,148813.4531250000,,,
1.8639999970,14,158761.0937500000,143833.1250000000,168852.4375000000,160762.1093750000,126627.0234375000,22469.6992187500,97277.4609375000,150365.7031250000,,,
1.8679999970,14,158802.1875000000,143752.9843750000,168910.5312500000,160784.7187500000,126657.1171875000,22424.0214843750,97328.8203125000,149968.9218750000,,,
1.8719999969,14,159861.8750000000,144008.6875000000,169975.3437500000,161767.1562500000,127678.9062500000,23305.5566406250,98325.1562500000,148161.3281250000,,,
1.8759999969,14,160477.5000000000,144246.9687500000,170575.6093750000,162342.8906250000,128284.7109375000,23899.2636718750,98888.7968750000,147440.9375000000,,,
1.8799999971,14,159810.5937500000,144145.7656250000,169896.4843750000,161723.6562500000,127653.9609375000,23401.7402343750,98250.2968750000,148803.0468750000,,,
1.8839999971,14,158779.3593750000,143842.2031250000,168874.9843750000,160758.5625000000,126658.5703125000,22498.9082031250,97290.0937500000,150362.2500000000,,,
1.8879999970,14,158800.5000000000,143755.4062500000,168915.1093750000,160773.5156250000,126666.3750000000,22425.4960937500,97322.7890625000,149979.8125000000,,,
1.8919999970,14,159852.2031250000,144007.9531250000,169972.1250000000,161752.7500000000,127675.7421875000,23289.8652343750,98311.6875000000,148171.9531250000,,,
1.8959999969,14,160467.5000000000,144244.3437500000,170569.8750000000,162334.7343750000,128275.0546875000,23882.0976562500,98877.2656250000,147432.8750000000,,,
1.8999999969,14,159798.4218750000,144139.4843750000,169885.4843750000,161722.3125000000,127637.7109375000,23384.4667968750,98241.0937500000,148778.6406250000,,,
1.9039999971,14,158762.0937500000,143834.9843750000,168854.8906250000,160757.8125000000,126634.8593750000,22482.7890625000,97279.5781250000,150344.0625000000,,,
1.9079999970,14,158759.5937500000,143736.2968750000,168867.2343750000,160755.0468750000,126620.0234375000,22401.3027343750,97290.8125000000,149969.5156250000,,,
1.9119999970,14,159798.7187500000,143976.2812500000,169909.9375000000,161724.5156250000,127617.8593750000,23251.6171875000,98263.8671875000,148156.5000000000,,,
1.9159999969,14,160432.0156250000,144214.1718750000,170525.7031250000,162318.8437500000,128234.9843750000,23851.6015625000,98841.8046875000,147403.9843750000,,,
1.9199999969,15,159795.8750000000,144125.7656250000,169875.7500000000,161730.1406250000,127630.9453125000,23380.1210937500,98237.7968750000,148751.0468750000,,,
1.9239999969,15,158776.1718750000,143832.0312500000,168867.2656250000,160777.9531250000,126649.5859375000,22492.2832031250,97291.4843750000,150338.8750000000,,,
1.9279999968,15,158784.0625000000,143745.5312500000,168896.6093750000,160780.1875000000,126649.8515625000,22411.8984375000,97313.7734375000,149992.3437500000,,,
1.9319999968,15,159826.6562500000,143992.4218750000,169947.6093750000,161750.9843750000,127655.0078125000,23266.5839843750,98296.2968750000,148188.3437500000,,,
1.9359999967,15,160455.2656250000,144229.7968750000,170563.2500000000,162342.9687500000,128270.3046875000,23864.0468750000,98876.1640625000,147420.6875000000,,,
1.9399999967,15,159813.7656250000,144140.8906250000,169909.4843750000,161747.9531250000,127660.3750000000,23389.8574218750,98267.0312500000,148751.3906250000,,,
1.9439999969,15,158785.7812500000,143847.4531250000,168889.0468750000,160786.3593750000,126666.7734375000,22495.0468750000,97307.6328125000,150345.7187500000,,,
1.9479999968,15,158780.6562500000,143756.1250000000,168902.5937500000,160781.2343750000,126652.6953125000,22410.7714843750,97313.8828125000,150012.2968750000,,,
1.9519999968,15,159816.6562500000,143998.2500000000,169946.3750000000,161748.6718750000,127650.9296875000,23265.7792968750,98298.7109375000,148206.7343750000,,,
1.9559999967,15,160448.7187500000,144226.9375000000,170562.2031250000,162343.0625000000,128268.2968750000,23866.5664062500,98880.4843750000,147413.5312500000,,,
1.9599999967,15,159818.1250000000,144131.8281250000,169916.7343750000,161750.3437500000,127670.3750000000,23399.6757812500,98277.8984375000,148723.1250000000,,,
1.9639999969,15,158798.7031250000,143840.5937500000,168904.9687500000,160788.3437500000,126686.1406250000,22508.0019531250,97325.2578125000,150328.3906250000,,,
1.9679999969,15,158785.0468750000,143744.5937500000,168908.1875000000,160765.7812500000,126664.3046875000,22412.0859375000,97324.5859375000,150012.4375000000,,,
1.9719999968,15,159813.1718750000,143980.5781250000,169939.9375000000,161721.3750000000,127655.1718750000,23259.6914062500,98294.6093750000,148207.7031250000,,,
1.9759999968,15,160461.4531250000,144219.0468750000,170570.6250000000,162329.8281250000,128286.7500000000,23877.0546875000,98890.1328125000,147407.2812500000,,,
1.9799999967,15,159842.2500000000,144137.5000000000,169934.7031250000,161755.7031250000,127696.3437500000,23420.2753906250,98294.5781250000,148716.5937500000,,,
1.9839999967,15,158801.7343750000,143843.2968750000,168900.8437500000,160783.5468750000,126689.9765625000,22516.5585937500,97325.0156250000,150326.4375000000,,,
1.9879999969,15,158773.2187500000,143750.0625000000,168888.6406250000,160753.3437500000,126649.6875000000,22411.7636718750,97314.0703125000,150033.4843750000,,,
1.9919999968,15,159798.0625000000,143988.5937500000,169918.7656250000,161704.2031250000,127634.2500000000,23251.4023437500,98279.7187500000,148235.3281250000,,,
1.9959999968,15,160464.0625000000,144238.1093750000,170569.8437500000,162332.7343750000,128286.5312500000,23879.7910156250,98894.4843750000,147424.6093750000,,,
1.9999999967,15,159848.0625000000,144155.5312500000,169940.8906250000,161769.1718750000,127703.3671875000,23427.7050781250,98307.5078125000,148719.5000000000,,,
2.0039999967,15,158799.3750000000,143851.6875000000,168900.2812500000,160793.5156250000,126689.6796875000,22514.3046875000,97328.7656250000,150329.2500000000,,,
2.0079999969,15,158767.7812500000,143752.7656250000,168887.1406250000,160760.4531250000,126647.3828125000,22404.5214843750,97310.6093750000,150047.0312500000,,,
2.0119999968,15,159784.5468750000,143982.3125000000,169910.4218750000,161710.7812500000,127625.3671875000,23241.9609375000,98269.9062500000,148243.9218750000,,,
2.0159999968,15,160446.8906250000,144219.5000000000,170557.1875000000,162336.2656250000,128271.1953125000,23868.3378906250,98879.6796875000,147406.9531250000,,,
2.0199999968,15,159841.6562500000,144137.5312500000,169937.6718750000,161779.9843750000,127695.5390625000,23421.2128906250,98306.2187500000,148685.9687500000,,,
2.0239999967,15,158793.0937500000,143838.3906250000,168895.4843750000,160799.3437500000,126681.8203125000,22505.7207031250,97329.3828125000,150310.7187500000,,,
2.0279999967,15,158751.9062500000,143740.2187500000,168869.4375000000,160749.3125000000,126628.8203125000,22392.4511718750,97300.7421875000,150051.5312500000,,,
2.0319999969,15,159778.9218750000,143979.4687500000,169902.7812500000,161702.3906250000,127615.4687500000,23242.2285156250,98268.6171875000,148264.0000000000,,,
2.0359999968,15,160467.3125000000,144234.6093750000,170575.8593750000,162345.6875000000,128287.3671875000,23892.5585937500,98903.8125000000,147431.1562500000,,,
2.0399999968,15,159868.2968750000,144153.9687500000,169960.9531250000,161785.6718750000,127720.5312500000,23451.2011718750,98331.3750000000,148700.0781250000,,,
2.0439999967,15,158813.0000000000,143850.1406250000,168914.9062500000,160798.4218750000,126703.1718750000,22529.7265625000,97344.5156250000,150324.0468750000,,,
2.0479999967,16,158764.4531250000,143751.6718750000,168886.6875000000,160747.3906250000,126646.5234375000,22404.1992187500,97303.5546875000,150076.0312500000,,,
2.0519999966,16,159789.1718750000,143991.1406250000,169920.5625000000,161700.9843750000,127632.4218750000,23244.2949218750,98269.6328125000,148287.1562500000,,,
2.0559999966,16,160469.7187500000,144236.0312500000,170586.8750000000,162340.5312500000,128297.5312500000,23883.6796875000,98904.1093750000,147422.7031250000,,,
2.0599999966,16,159880.7031250000,144162.3906250000,169980.6250000000,161797.3281250000,127737.9140625000,23451.2539062500,98347.6093750000,148677.9843750000,,,
2.0639999965,16,158812.5781250000,143854.3750000000,168916.8593750000,160801.8281250000,126704.1093750000,22529.3515625000,97349.6640625000,150306.3437500000,,,
2.0679999965,16,158744.5781250000,143745.0781250000,168866.8906250000,160733.9687500000,126627.2890625000,22388.0800781250,97298.4609375000,150067.8125000000,,,
2.0719999967,16,159758.1250000000,143976.2187500000,169885.8593750000,161675.9062500000,127600.6406250000,23217.1777343750,98254.6953125000,148277.4375000000,,,
2.0759999966,16,160437.4218750000,144218.7968750000,170550.1406250000,162316.2031250000,128263.9765625000,23860.2382812500,98881.8203125000,147398.8281250000,,,
2.0799999966,16,159852.9531250000,144143.9687500000,169950.3593750000,161779.8437500000,127709.6718750000,23439.3183593750,98323.1953125000,148644.0000000000,,,
2.0839999965,16,158805.1093750000,143851.7500000000,168906.5312500000,160795.6093750000,126696.4687500000,22532.3300781250,97343.8125000000,150294.2031250000,,,
2.0879999965,16,158723.8125000000,143737.2968750000,168839.2031250000,160708.3593750000,126603.9843750000,22379.9804687500,97280.1953125000,150075.4375000000,,,
2.0919999967,16,159742.8750000000,143972.9062500000,169861.5312500000,161651.6875000000,127579.1250000000,23212.8867187500,98241.1796875000,148297.0468750000,,,
2.0959999966,16,160445.5781250000,144225.9375000000,170544.6093750000,162312.2343750000,128259.9531250000,23872.6015625000,98886.3046875000,147410.4531250000,,,
2.0999999966,16,159875.1093750000,144155.9375000000,169956.1875000000,161787.4687500000,127717.2109375000,23461.1250000000,98340.9843750000,148643.4375000000,,,
2.1039999966,16,158807.9531250000,143850.0781250000,168898.0781250000,160793.8906250000,126689.5468750000,22536.7539062500,97351.1640625000,150290.7968750000,,,
2.1079999965,16,158723.2500000000,143733.0000000000,168835.3125000000,160706.8593750000,126602.0546875000,22380.9726562500,97289.2578125000,150083.8593750000,,,
2.1119999965,16,159731.3593750000,143955.0625000000,169854.7656250000,161645.8125000000,127573.9531250000,23205.6445312500,98237.0468750000,148297.7812500000,,,
2.1159999967,16,160434.9531250000,144200.9218750000,170545.4687500000,162313.3437500000,128262.1250000000,23861.3105468750,98888.4453125000,147388.7968750000,,,
2.1199999966,16,159874.9218750000,144134.4687500000,169969.6718750000,161801.0156250000,127730.6484375000,23453.8027343750,98354.0937500000,148609.4218750000,,,
2.1239999966,16,158819.3906250000,143843.3750000000,168922.2187500000,160811.0625000000,126713.2343750000,22537.7480468750,97369.7812500000,150274.2968750000,,,
2.1279999965,16,158713.9218750000,143724.3437500000,168836.9843750000,160708.0156250000,126600.5234375000,22369.7871093750,97281.7500000000,150086.4375000000,,,
2.1319999965,16,159714.3281250000,143950.7968750000,169846.2656250000,161642.7656250000,127561.4765625000,23194.0039062500,98223.5546875000,148306.0625000000,,,
2.1359999967,16,160423.2968750000,144200.2187500000,170542.1406250000,162311.8906250000,128253.3046875000,23859.9960937500,98879.5937500000,147384.9375000000,,,
2.1399999966,16,159877.0937500000,144137.3125000000,169982.1718750000,161806.4218750000,127737.0859375000,23470.9140625000,98360.8593750000,148589.0937500000,,,
2.1439999966,16,158821.5625000000,143844.1250000000,168932.2812500000,160818.4062500000,126720.7968750000,22557.3281250000,97373.7187500000,150253.3750000000,,,
2.1479999966,16,158721.4375000000,143730.0000000000,168848.2187500000,160716.2656250000,126613.9375000000,22385.8808593750,97289.3906250000,150088.1562500000,,,
2.1519999965,16,159719.7812500000,143954.5000000000,169851.9062500000,161645.6093750000,127573.4453125000,23203.3632812500,98232.9140625000,148315.8750000000,,,
2.1559999965,16,160434.8750000000,144205.8437500000,170549.5468750000,162315.1093750000,128270.9218750000,23873.9433593750,98893.9687500000,147382.7187500000,,,
2.1599999967,16,159889.0468750000,144146.2500000000,169984.4531250000,161809.1562500000,127751.5703125000,23482.5820312500,98371.5078125000,148579.7812500000,,,
2.1639999966,16,158829.7343750000,143855.2812500000,168928.3593750000,160814.7031250000,126726.3984375000,22568.2441406250,97383.3281250000,150254.7968750000,,,
2.1679999966,16,158722.3125000000,143742.9062500000,168836.8437500000,160703.6562500000,126611.3906250000,22397.0644531250,97294.0859375000,150106.7968750000,,,
2.1719999965,16,159718.2656250000,143968.0781250000,169837.5781250000,161627.2500000000,127566.7343750000,23212.6171875000,98232.5390625000,148339.9687500000,,,
2.1759999965,17,160434.3125000000,144216.2812500000,170537.5781250000,162302.2031250000,128262.1250000000,23879.5214843750,98893.7343750000,147389.0625000000,,,
2.1799999964,17,159891.4843750000,144153.1250000000,169977.9375000000,161803.3906250000,127746.8984375000,23493.1230468750,98374.0234375000,148571.3593750000,,,
2.1839999964,17,158828.1250000000,143861.7187500000,168922.7500000000,160813.9062500000,126723.1250000000,22581.0117187500,97382.4140625000,150255.8906250000,,,
2.1879999964,17,158699.9687500000,143737.4531250000,168814.0468750000,160692.4843750000,126591.5390625000,22393.9804687500,97281.5625000000,150118.8906250000,,,
2.1919999963,17,159691.4218750000,143955.2031250000,169813.7031250000,161615.2187500000,127543.9375000000,23206.0195312500,98219.0468750000,148349.6718750000,,,
2.1959999963,17,160421.1406250000,144203.8125000000,170530.7187500000,162298.4531250000,128255.4453125000,23886.6308593750,98891.5078125000,147382.1562500000,,,
2.1999999965,17,159897.5468750000,144151.1250000000,169994.5156250000,161818.0468750000,127762.5937500000,23514.2050781250,98395.6718750000,148554.0625000000,,,
2.2039999964,17,158833.0156250000,143857.7187500000,168936.9531250000,160824.7187500000,126735.5468750000,22591.7402343750,97402.6640625000,150241.2187500000,,,
2.2079999964,17,158704.8281250000,143736.2968750000,168827.1406250000,160702.9375000000,126600.7109375000,22395.3496093750,97293.2031250000,150125.1406250000,,,
2.2119999963,17,159695.6093750000,143954.7656250000,169828.2656250000,161625.2187500000,127553.2734375000,23200.3339843750,98229.4531250000,148362.5468750000,,,
2.2159999963,17,160438.0937500000,144210.5625000000,170555.9218750000,162323.7500000000,128277.1718750000,23892.3437500000,98914.1953125000,147386.3593750000,,,
2.2199999965,17,159916.1718750000,144156.6562500000,170017.5781250000,161846.6562500000,127783.0312500000,23521.3945312500,98420.2421875000,148545.8593750000,,,
2.2239999964,17,158844.1406250000,143862.7656250000,168950.2968750000,160847.9687500000,126747.3515625000,22592.9472656250,97419.6953125000,150242.7187500000,,,
2.2279999964,17,158699.6562500000,143739.4375000000,168824.0000000000,160710.3750000000,126597.1484375000,22387.5175781250,97290.8125000000,150144.7968750000,,,
2.2319999964,17,159686.5625000000,143961.3906250000,169820.3125000000,161630.8281250000,127545.4687500000,23193.8691406250,98220.0937500000,148388.8593750000,,,
2.2359999963,17,160432.5781250000,144220.2187500000,170550.8593750000,162329.3437500000,128270.4140625000,23895.1601562500,98908.5078125000,147397.2968750000,,,
2.2399999963,17,159920.9375000000,144173.8750000000,170020.3906250000,161860.9531250000,127784.3203125000,23542.3964843750,98418.1250000000,148546.5156250000,,,
2.2439999965,17,158850.9843750000,143883.9062500000,168952.6718750000,160863.2500000000,126749.0390625000,22621.5117187500,97420.0468750000,150250.6093750000,,,
2.2479999964,17,158694.2031250000,143754.8125000000,168812.9531250000,160709.2187500000,126585.6406250000,22402.8593750000,97282.5312500000,150165.2031250000,,,
2.2519999964,17,159676.3750000000,143968.6093750000,169804.0781250000,161618.3750000000,127530.7656250000,23196.8457031250,98214.2968750000,148407.0000000000,,,
2.2559999963,17,160429.3281250000,144225.8281250000,170541.8750000000,162325.0312500000,128265.2890625000,23893.3359375000,98910.0390625000,147400.4375000000,,,
2.2599999963,17,159927.0312500000,144177.3437500000,170022.7031250000,161861.8906250000,127790.0546875000,23541.4843750000,98430.0546875000,148531.3906250000,,,
2.2639999965,17,158857.3437500000,143888.2187500000,168956.6406250000,160865.1093750000,126758.4765625000,22622.5585937500,97434.5000000000,150242.5156250000,,,
2.2679999964,17,158694.3593750000,143759.0156250000,168811.7343750000,160705.7343750000,126591.1406250000,22404.0117187500,97294.1171875000,150173.9531250000,,,
2.2719999964,17,159665.2187500000,143966.3281250000,169791.3125000000,161604.0781250000,127521.7812500000,23192.5546875000,98209.5546875000,148415.5781250000,,,
2.2759999963,17,160423.9843750000,144220.7656250000,170533.7656250000,162312.7812500000,128256.8437500000,23894.0058593750,98907.1953125000,147392.9843750000,,,
2.2799999963,17,159932.5625000000,144176.7500000000,170024.9531250000,161857.4687500000,127791.4218750000,23552.4804687500,98434.1640625000,148512.8593750000,,,
2.2839999963,17,158870.3750000000,143894.0156250000,168968.4375000000,160861.3750000000,126769.3671875000,22642.8085937500,97451.9609375000,150230.6250000000,,,
2.2879999964,17,158697.0468750000,143760.8125000000,168814.0156250000,160691.5156250000,126593.4140625000,22412.5957031250,97302.3515625000,150177.0625000000,,,
2.2919999964,17,159659.1250000000,143959.9375000000,169784.1562500000,161581.5781250000,127515.8281250000,23186.7343750000,98206.5781250000,148419.3906250000,,,
2.2959999964,17,160431.6875000000,144215.5937500000,170543.2343750000,162301.1093750000,128267.6484375000,23900.7382812500,98921.8671875000,147377.0312500000,,,
2.2999999963,17,159952.6250000000,144173.4218750000,170047.7500000000,161856.9375000000,127815.2187500000,23567.7148437500,98463.1562500000,148479.8437500000,,,
2.3039999963,18,158885.7187500000,143885.6250000000,168986.7812500000,160859.0937500000,126787.2578125000,22650.5878906250,97467.9765625000,150201.0937500000,,,
2.3079999962,18,158701.1718750000,143745.4218750000,168823.1093750000,160681.0781250000,126600.5781250000,22409.2968750000,97304.8671875000,150158.3750000000,,,
2.3119999962,18,159665.2187500000,143950.3750000000,169798.8437500000,161579.7031250000,127526.8281250000,23189.1757812500,98213.6328125000,148411.7187500000,,,
2.3159999961,18,160433.8281250000,144205.2656250000,170555.6875000000,162301.7812500000,128275.4296875000,23901.9179687500,98927.0156250000,147361.8750000000,,,
2.3199999961,18,159952.5937500000,144163.7187500000,170057.7656250000,161862.8281250000,127819.5625000000,23567.0449218750,98466.0000000000,148456.2187500000,,,
2.3239999961,18,158889.0625000000,143883.4218750000,168998.3906250000,160874.3281250000,126792.9218750000,22650.5605468750,97471.3828125000,150190.2812500000,,,
2.3279999963,18,158698.0937500000,143746.0156250000,168826.6875000000,160692.2031250000,126599.7187500000,22404.0664062500,97301.9453125000,150166.3281250000,,,
2.3319999962,18,159650.5156250000,143946.4218750000,169788.3906250000,161576.2656250000,127513.5234375000,23172.7597656250,98198.2578125000,148423.8437500000,,,
2.3359999962,18,160436.3750000000,144211.5312500000,170559.7031250000,162314.2968750000,128277.0937500000,23898.2714843750,98930.1562500000,147370.3437500000,,,
2.3399999961,18,159970.9687500000,144178.8906250000,170076.2343750000,161888.7187500000,127837.0468750000,23579.2753906250,98489.3593750000,148459.1562500000,,,
2.3439999961,18,158901.0781250000,143896.8906250000,169009.4218750000,160889.5625000000,126805.9843750000,22659.6796875000,97492.7343750000,150201.2656250000,,,
2.3479999963,18,158701.2031250000,143758.4062500000,168826.0625000000,160694.9531250000,126601.7343750000,22411.0136718750,97315.6796875000,150199.4375000000,,,
2.3519999962,18,159643.2031250000,143951.1250000000,169774.9687500000,161565.7500000000,127503.7578125000,23175.0136718750,98198.9296875000,148456.3750000000,,,
2.3559999962,18,160432.4375000000,144212.8750000000,170548.9062500000,162304.9687500000,128269.5859375000,23900.7109375000,98930.9609375000,147379.0156250000,,,
2.3599999961,18,159967.1093750000,144174.8750000000,170063.3750000000,161876.0312500000,127826.2968750000,23582.2539062500,98486.1171875000,148445.9687500000,,,
2.3639999961,18,158888.8281250000,143884.6875000000,168987.5312500000,160865.9062500000,126785.3593750000,22660.5917968750,97480.6875000000,150179.6406250000,,,
2.3679999961,18,158675.7500000000,143733.1093750000,168793.4218750000,160653.8593750000,126572.3593750000,22399.0507812500,97293.2031250000,150181.0312500000,,,
2.3719999962,18,159613.5625000000,143915.1250000000,169742.9843750000,161511.4843750000,127474.3593750000,23151.7050781250,98177.0156250000,148428.0156250000,,,
2.3759999962,18,160410.0156250000,144164.0625000000,170531.2500000000,162234.2187500000,128254.8281250000,23884.9140625000,98921.3828125000,147312.7656250000,,,
2.3799999962,18,159979.5781250000,144133.5625000000,170087.7187500000,161820.4531250000,127853.7031250000,23595.6914062500,98511.4921875000,148354.2343750000,,,
2.3839999961,18,158899.7968750000,143845.4375000000,169013.5468750000,160806.4687500000,126815.4218750000,22672.7421875000,97504.1562500000,150094.0468750000,,,
2.3879999961,18,158675.5312500000,143698.0000000000,168808.5468750000,160592.4843750000,126589.6093750000,22398.9433593750,97308.1406250000,150121.4062500000,,,
2.3919999963,18,159608.2812500000,143893.0468750000,169749.2343750000,161465.5468750000,127480.2109375000,23149.9609375000,98186.0000000000,148400.0468750000,,,
2.3959999962,18,160408.9687500000,144167.5468750000,170534.0156250000,162229.3593750000,128256.4375000000,23887.7832031250,98928.4921875000,147315.7343750000,,,
2.3999999962,18,159973.0781250000,144152.8750000000,170077.0937500000,161843.3281250000,127842.6250000000,23593.2226562500,98508.0546875000,148381.5468750000,,,
2.4039999961,18,158901.1718750000,143882.9375000000,169007.0000000000,160857.7343750000,126806.1171875000,22675.4785156250,97504.5078125000,150154.3437500000,,,
2.4079999961,18,158669.6093750000,143746.8125000000,168791.0000000000,160651.3906250000,126567.8281250000,22396.4218750000,97294.2187500000,150215.8750000000,,,
2.4119999961,18,159607.6250000000,143950.4687500000,169736.6406250000,161537.0468750000,127463.6328125000,23151.0605468750,98177.2031250000,148511.1406250000,,,
2.4159999962,18,160415.7500000000,144226.1875000000,170529.0781250000,162306.6250000000,128247.2421875000,23895.1054687500,98921.5703125000,147419.4843750000,,,
2.4199999962,18,159987.8125000000,144212.9531250000,170081.9062500000,161925.8437500000,127842.2265625000,23609.3710937500,98505.1328125000,148473.7343750000,,,
2.4239999962,18,158904.2500000000,143933.9062500000,169001.8906250000,160927.4375000000,126797.1328125000,22682.2636718750,97496.6718750000,150244.8750000000,,,
2.4279999961,18,158657.4062500000,143785.9531250000,168774.1562500000,160702.7031250000,126548.3281250000,22389.3398437500,97278.5312500000,150313.6406250000,,,
2.4319999961,19,159592.3437500000,143984.4531250000,169718.8906250000,161577.9062500000,127444.0781250000,23140.0097656250,98159.8750000000,148604.8125000000,,,
2.4359999960,19,160391.6718750000,144245.8437500000,170504.0468750000,162338.5000000000,128222.1328125000,23876.7324218750,98900.3593750000,147477.9531250000,,,
2.4399999960,19,159967.7500000000,144224.4687500000,170062.9843750000,161956.7968750000,127825.6796875000,23593.6796875000,98496.3593750000,148498.3281250000,,,
2.4439999959,19,158892.2812500000,143944.1406250000,168990.2187500000,160954.7656250000,126790.0781250000,22676.5781250000,97494.5000000000,150264.0781250000,,,
2.4479999959,19,158651.0468750000,143796.0312500000,168764.8906250000,160723.9687500000,126545.2421875000,22390.7890625000,97277.9921875000,150346.0468750000,,,
2.4519999959,19,159587.3750000000,143992.0468750000,169710.9843750000,161590.8281250000,127443.4062500000,23142.2089843750,98159.8515625000,148640.8281250000,,,
2.4559999960,19,160410.2031250000,144260.7812500000,170519.3750000000,162357.1718750000,128242.8671875000,23889.3652343750,98916.6875000000,147504.3281250000,,,
2.4599999960,19,159998.1875000000,144242.6562500000,170088.3125000000,161978.1093750000,127852.8984375000,23615.9960937500,98521.9765625000,148512.4062500000,,,
2.4639999960,19,158918.3281250000,143964.2031250000,169010.8750000000,160972.3750000000,126810.1406250000,22700.9589843750,97514.7812500000,150285.1093750000,,,
2.4679999959,19,158667.2031250000,143817.9687500000,168776.3281250000,160733.4375000000,126557.7968750000,22412.6484375000,97291.1875000000,150382.3281250000,,,
2.4719999959,19,159583.4062500000,144003.7500000000,169702.2031250000,161583.2343750000,127438.9531250000,23150.1757812500,98156.4218750000,148672.7500000000,,,
2.4759999961,19,160396.0625000000,144262.5312500000,170503.9531250000,162344.0156250000,128231.4140625000,23896.8496093750,98912.1562500000,147511.3750000000,,,
2.4799999960,19,159982.3593750000,144238.7343750000,170075.5781250000,161968.6718750000,127844.1328125000,23624.2558593750,98519.0000000000,148499.0156250000,,,
2.4839999960,19,158902.2343750000,143960.9843750000,169000.7500000000,160963.8906250000,126804.5625000000,22707.3437500000,97513.9453125000,150274.8281250000,,,
2.4879999959,19,158635.7343750000,143805.0781250000,168751.8437500000,160712.1093750000,126537.3828125000,22399.1582031250,97271.6875000000,150384.4531250000,,,
2.4919999959,19,159546.4531250000,143987.8593750000,169673.5156250000,161561.0625000000,127410.8750000000,23125.0976562500,98134.5859375000,148677.6250000000,,,
2.4959999959,19,160387.3750000000,144265.2031250000,170503.1093750000,162350.1093750000,128227.4453125000,23892.1562500000,98922.7500000000,147512.2343750000,,,
2.4999999960,19,159989.4687500000,144250.2656250000,170086.9218750000,161985.7343750000,127853.0625000000,23632.9199218750,98542.1718750000,148486.7031250000,,,
2.5039999960,19,158906.5781250000,143967.3281250000,169006.7968750000,160979.0937500000,126809.5781250000,22707.9863281250,97527.5234375000,150260.2187500000,,,
2.5079999960,19,158634.3437500000,143810.4375000000,168752.6250000000,160721.9062500000,126536.2890625000,22392.2382812500,97280.6250000000,150383.1093750000,,,
2.5119999959,19,159543.1718750000,143991.2500000000,169670.5000000000,161569.1875000000,127405.4296875000,23114.0468750000,98132.8984375000,148684.8125000000,,,
2.5159999959,19,160385.4687500000,144260.2968750000,170498.4218750000,162359.7656250000,128221.2265625000,23876.5996093750,98911.2421875000,147503.0625000000,,,
2.5199999961,19,160007.8437500000,144252.7812500000,170099.5000000000,162013.4062500000,127864.4609375000,23632.6777343750,98543.7031250000,148467.9531250000,,,
2.5239999960,19,158934.2968750000,143979.9062500000,169028.0312500000,161011.6562500000,126831.3828125000,22720.5664062500,97544.6562500000,150253.1875000000,,,
2.5279999960,19,158647.5156250000,143820.5468750000,168760.1406250000,160741.0000000000,126546.6406250000,22399.9628906250,97287.6484375000,150395.3750000000,,,
2.5319999959,19,159551.5156250000,144001.4843750000,169674.6093750000,161586.1093750000,127412.4062500000,23119.5722656250,98140.7578125000,148706.1875000000,,,
2.5359999959,19,160396.3125000000,144271.1562500000,170507.9687500000,162377.1718750000,128234.0937500000,23889.0703125000,98926.8593750000,147511.2656250000,,,
2.5399999958,19,160022.5937500000,144259.3125000000,170118.0781250000,162038.5781250000,127882.9921875000,23654.2167968750,98567.0937500000,148454.3593750000,,,
2.5439999960,19,158936.3593750000,143973.3750000000,169033.6093750000,161026.4062500000,126834.4921875000,22729.3906250000,97551.7656250000,150230.2187500000,,,
2.5479999960,19,158633.1875000000,143800.9218750000,168747.3906250000,160734.5156250000,126530.6562500000,22388.0253906250,97280.4062500000,150377.6875000000,,,
2.5519999960,19,159537.9531250000,143977.4531250000,169661.6250000000,161573.1093750000,127397.0078125000,23107.7441406250,98133.5937500000,148690.6406250000,,,
2.5559999959,19,160386.0625000000,144244.0937500000,170496.6718750000,162366.7968750000,128223.6875000000,23881.2656250000,98921.6250000000,147479.7031250000,,,
2.5599999959,20,160012.1875000000,144232.0312500000,170105.8281250000,162024.2968750000,127875.3750000000,23645.3925781250,98568.4062500000,148408.6093750000,,,
2.5639999958,20,158930.0468750000,143953.5000000000,169025.0312500000,161014.1875000000,126833.0156250000,22727.5937500000,97560.0859375000,150196.7812500000,,,
2.5679999958,20,158621.5468750000,143786.6718750000,168733.0937500000,160723.0000000000,126525.3437500000,22385.8261718750,97282.5312500000,150372.4687500000,,,
2.5719999957,20,159520.4531250000,143968.6562500000,169643.5468750000,161557.7656250000,127388.2343750000,23104.8730468750,98133.5390625000,148698.2031250000,,,
2.5759999957,20,160381.3125000000,144246.7500000000,170491.7187500000,162355.0000000000,128224.2031250000,23892.2636718750,98931.5234375000,147481.0937500000,,,
2.5799999957,20,160028.6250000000,144247.0468750000,170120.3593750000,162022.3437500000,127892.0078125000,23673.4492187500,98585.4609375000,148400.3906250000,,,
2.5839999958,20,158941.2968750000,143966.4375000000,169034.8281250000,161006.9375000000,126841.4687500000,22746.9863281250,97556.8125000000,150187.7968750000,,,
2.5879999958,20,158622.4375000000,143795.2812500000,168735.7343750000,160705.6718750000,126524.1328125000,22391.8085937500,97266.1406250000,150373.2656250000,,,
2.5919999958,20,159510.1406250000,143970.5625000000,169635.3593750000,161531.9375000000,127374.4765625000,23100.0195312500,98110.9531250000,148703.2187500000,,,
2.5959999957,20,160371.8750000000,144240.8593750000,170486.8125000000,162340.7031250000,128211.9140625000,23881.5332031250,98917.2265625000,147467.1718750000,,,
2.5999999957,20,160028.1250000000,144241.0156250000,170126.8750000000,162033.0468750000,127891.6562500000,23666.4472656250,98589.5937500000,148368.7187500000,,,
2.6039999959,20,158941.6406250000,143963.3750000000,169043.3750000000,161023.2812500000,126846.0781250000,22747.4687500000,97575.9843750000,150162.8750000000,,,
2.6079999958,20,158623.2656250000,143795.2031250000,168742.7812500000,160722.5937500000,126528.9609375000,22398.0312500000,97287.2734375000,150367.6406250000,,,
2.6119999958,20,159505.7656250000,143967.5312500000,169636.9218750000,161540.4843750000,127375.3359375000,23095.7812500000,98118.6015625000,148702.4687500000,,,
2.6159999957,20,160375.0156250000,144241.6093750000,170492.9843750000,162347.1406250000,128218.3515625000,23878.3144531250,98920.2031250000,147459.0156250000,,,
2.6199999957,20,160033.5468750000,144241.2812500000,170131.8906250000,162030.4218750000,127898.0156250000,23668.7812500000,98583.6406250000,148349.8593750000,,,
2.6239999956,20,158951.3437500000,143970.8593750000,169050.8125000000,161024.4218750000,126854.5859375000,22754.3886718750,97570.0859375000,150155.9531250000,,,
2.6279999958,20,158617.8437500000,143801.2656250000,168734.7343750000,160711.1406250000,126523.3281250000,22387.4628906250,97271.8281250000,150381.0468750000,,,
2.6319999958,20,159506.7500000000,143977.2968750000,169634.7968750000,161532.5156250000,127376.6250000000,23086.1250000000,98115.5390625000,148728.0468750000,,,
2.6359999957,20,160386.1093750000,144251.4218750000,170503.0625000000,162354.1562500000,128231.8671875000,23881.4277343750,98936.0000000000,147470.9062500000,,,
2.6399999957,20,160050.8750000000,144247.4843750000,170149.7343750000,162049.5625000000,127920.6562500000,23677.3105468750,98614.5390625000,148338.9687500000,,,
2.6439999957,20,158975.3593750000,143977.8593750000,169075.8281250000,161046.9375000000,126887.0390625000,22765.8691406250,97609.1640625000,150145.4218750000,,,
2.6479999959,20,158643.8593750000,143811.6406250000,168762.1718750000,160729.2031250000,126560.2656250000,22403.8242187500,97310.1562500000,150390.8437500000,,,
2.6519999958,20,159517.0312500000,143981.0468750000,169646.3593750000,161536.7031250000,127398.3515625000,23098.4902343750,98137.1875000000,148740.5781250000,,,
2.6559999958,20,160386.2187500000,144248.9218750000,170503.9687500000,162347.3750000000,128242.7578125000,23887.0859375000,98946.8125000000,147465.9687500000,,,
2.6599999957,20,160067.9843750000,144256.5625000000,170168.3750000000,162058.1718750000,127945.2734375000,23696.9980468750,98639.6953125000,148325.1875000000,,,
2.6639999957,20,158987.1875000000,143986.3125000000,169089.6406250000,161049.6093750000,126903.8593750000,22782.9003906250,97628.0234375000,150134.6093750000,,,
2.6679999956,20,158634.0156250000,143811.1406250000,168752.7812500000,160710.6875000000,126552.4843750000,22401.0625000000,97307.2031250000,150394.5312500000,,,
2.6719999958,20,159509.1875000000,143982.8437500000,169637.4843750000,161514.5781250000,127390.5703125000,23092.2402343750,98134.3984375000,148756.6250000000,,,
2.6759999958,20,160405.0468750000,144263.2500000000,170518.4531250000,162344.1562500000,128257.5703125000,23895.2402343750,98962.6328125000,147481.1250000000,,,
2.6799999957,20,160094.0781250000,144270.8125000000,170186.7812500000,162061.0156250000,127963.7578125000,23706.4121093750,98653.2734375000,148328.1406250000,,,
2.6839999957,20,159012.7500000000,144000.6875000000,169105.8125000000,161051.4375000000,126922.3125000000,22795.9375000000,97643.5781250000,150140.6718750000,,,
2.6879999957,21,158647.7500000000,143820.4375000000,168760.0000000000,160703.1250000000,126562.0625000000,22411.0937500000,97314.6093750000,150412.9687500000,,,
2.6919999956,21,159513.7812500000,143985.7812500000,169639.8125000000,161506.0000000000,127391.8828125000,23095.7812500000,98137.8281250000,148776.6093750000,,,
2.6959999956,21,160405.7187500000,144261.6718750000,170522.8906250000,162341.7187500000,128257.9453125000,23899.3984375000,98968.9140625000,147482.0625000000,,,
2.6999999955,21,160092.0937500000,144265.3906250000,170191.4687500000,162061.7968750000,127963.7812500000,23713.4140625000,98664.4296875000,148309.2500000000,,,
2.7039999955,21,158993.8125000000,143984.4062500000,169094.7968750000,161046.2656250000,126908.1484375000,22790.1171875000,97639.8281250000,150118.4531250000,,,
2.7079999954,21,158618.0625000000,143799.7656250000,168737.2812500000,160694.0625000000,126539.0781250000,22392.5585937500,97299.0468750000,150404.1093750000,,,
2.7119999956,21,159477.2968750000,143963.8125000000,169608.4687500000,161487.3437500000,127362.5390625000,23066.0078125000,98104.0078125000,148776.3281250000,,,
2.7159999956,21,160380.2656250000,144243.7500000000,170500.5625000000,162329.3281250000,128239.4921875000,23880.3261718750,98942.9218750000,147474.1562500000,,,
2.7199999955,21,160091.8281250000,144264.1562500000,170191.4687500000,162065.8281250000,127969.2578125000,23718.9121093750,98666.7109375000,148298.8750000000,,,
2.7239999955,21,159021.0312500000,144004.5781250000,169119.6250000000,161069.1875000000,126937.6015625000,22819.1113281250,97669.1406250000,150122.0781250000,,,
2.7279999955,21,158641.9843750000,143823.4218750000,168755.0156250000,160710.8750000000,126559.1406250000,22417.0468750000,97321.4218750000,150427.2656250000,,,
2.7319999957,21,159495.8437500000,143986.7968750000,169618.3125000000,161502.9375000000,127373.3750000000,23082.3691406250,98122.4375000000,148809.1093750000,,,
2.7359999956,21,160394.4062500000,144259.1250000000,170507.2187500000,162346.3281250000,128246.4375000000,23891.7265625000,98959.1796875000,147483.5937500000,,,
2.7399999956,21,160102.4687500000,144266.6562500000,170197.6406250000,162088.4062500000,127975.3203125000,23726.3691406250,98677.6484375000,148275.8593750000,,,
2.7439999955,21,159019.1562500000,143995.3437500000,169115.7968750000,161087.4375000000,126931.5078125000,22808.6503906250,97664.2890625000,150090.6718750000,,,
2.7479999955,21,158625.8906250000,143808.9062500000,168741.0312500000,160720.1093750000,126542.6406250000,22388.8574218750,97303.0703125000,150407.7812500000,,,
2.7519999954,21,159466.7656250000,143964.2968750000,169595.1875000000,161500.8125000000,127349.0468750000,23046.9648437500,98102.0781250000,148792.3125000000,,,
2.7559999956,21,160380.8281250000,144246.9375000000,170500.6250000000,162350.5625000000,128238.7343750000,23869.0078125000,98958.4531250000,147466.5312500000,,,
2.7599999956,21,160106.2343750000,144268.2031250000,170207.7968750000,162095.8593750000,127984.9453125000,23720.3066406250,98694.6875000000,148258.1562500000,,,
2.7639999955,21,159029.6718750000,144008.6875000000,169130.7656250000,161089.5312500000,126949.7734375000,22818.1191406250,97692.0703125000,150090.5312500000,,,
2.7679999955,21,158627.8437500000,143823.4531250000,168745.8593750000,160708.2031250000,126554.5000000000,22407.0429687500,97328.0156250000,150429.3281250000,,,
2.7719999955,21,159464.8281250000,143978.4531250000,169595.6718750000,161478.5000000000,127356.5078125000,23066.3574218750,98121.2031250000,148824.0000000000,,,
2.7759999956,21,160373.7187500000,144252.0156250000,170492.5937500000,162321.2968750000,128237.7187500000,23885.6113281250,98963.4921875000,147479.5625000000,,,
2.7799999956,21,160108.1250000000,144272.5312500000,170207.3750000000,162078.2968750000,127989.6406250000,23742.9980468750,98699.8046875000,148253.0625000000,,,
2.7839999956,21,159020.6562500000,144001.8125000000,169120.1093750000,161069.1875000000,126941.4609375000,22829.5449218750,97682.7968750000,150077.1718750000,,,
2.7879999955,21,158613.2500000000,143813.0625000000,168730.9218750000,160686.5312500000,126541.1406250000,22408.8945312500,97318.3593750000,150429.3281250000,,,
2.7919999955,21,159444.3906250000,143964.1875000000,169575.2656250000,161454.6093750000,127337.1093750000,23059.4375000000,98104.4062500000,148828.7500000000,,,
2.7959999954,21,160372.2031250000,144250.0312500000,170492.2500000000,162317.7968750000,128236.3750000000,23889.5273437500,98967.0625000000,147479.0625000000,,,
2.7999999956,21,160118.1562500000,144276.0156250000,170219.6093750000,162086.6406250000,128001.6328125000,23752.9218750000,98715.9296875000,148241.4218750000,,,
2.8039999956,21,159033.0000000000,144005.8437500000,169136.7968750000,161081.1093750000,126960.0468750000,22839.3886718750,97699.9062500000,150067.5000000000,,,
2.8079999955,21,158618.0781250000,143813.2812500000,168742.3281250000,160690.5000000000,126554.5000000000,22406.8281250000,97319.8671875000,150432.1406250000,,,
2.8119999955,21,159446.6406250000,143963.6406250000,169581.9687500000,161456.6406250000,127345.7500000000,23049.8085937500,98100.7656250000,148837.6250000000,,,
2.8159999955,22,160383.5468750000,144251.5312500000,170507.5156250000,162331.1406250000,128252.5546875000,23889.1250000000,98974.6250000000,147477.3437500000,,,
2.8199999954,22,160138.3906250000,144280.7968750000,170243.0781250000,162110.7031250000,128025.4453125000,23764.0527343750,98737.0625000000,148219.9062500000,,,
2.8239999954,22,159054.0781250000,144013.8281250000,169157.5000000000,161105.0625000000,126981.5859375000,22852.5585937500,97722.8906250000,150050.7343750000,,,
2.8279999953,22,158633.1250000000,143827.1250000000,168752.7343750000,160713.3437500000,126565.3906250000,22417.7988281250,97339.5546875000,150442.7656250000,,,
2.8319999953,22,159452.6562500000,143979.5000000000,169582.2343750000,161475.7656250000,127346.8203125000,23057.7734375000,98113.6406250000,148864.4687500000,,,
2.8359999952,22,160378.8437500000,144259.3281250000,170497.6093750000,162338.3125000000,128245.9765625000,23887.7558593750,98974.1718750000,147489.8437500000,,,
2.8399999954,22,160141.6562500000,144288.9375000000,170241.3593750000,162120.1406250000,128028.0781250000,23767.4335937500,98741.7265625000,148217.7968750000,,,
2.8439999954,22,159069.3125000000,144030.1718750000,169168.8437500000,161124.3906250000,126996.4687500000,22869.7519531250,97734.6406250000,150052.7968750000,,,
2.8479999953,22,158631.6093750000,143833.2031250000,168748.3906250000,160712.0312500000,126565.6562500000,22425.8984375000,97337.0000000000,150453.8750000000,,,
2.8519999953,22,159442.2187500000,143977.9687500000,169569.7031250000,161458.5156250000,127339.2890625000,23051.3359375000,98104.4609375000,148878.0781250000,,,
2.8559999953,22,160386.1406250000,144267.1093750000,170502.2500000000,162331.4375000000,128252.6015625000,23891.6718750000,98980.6875000000,147496.4687500000,,,
2.8599999954,22,160156.1406250000,144296.9843750000,170253.4843750000,162123.2812500000,128042.3437500000,23781.4882812500,98756.6171875000,148205.6406250000,,,
2.8639999954,22,159075.0000000000,144030.7031250000,169173.5937500000,161119.1875000000,127003.7968750000,22875.8671875000,97750.1953125000,150038.1562500000,,,
2.8679999954,22,158615.5937500000,143822.1093750000,168729.9843750000,160686.6562500000,126548.7343750000,22410.3691406250,97328.7656250000,150450.8125000000,,,
2.8719999953,22,159415.2031250000,143960.9062500000,169541.1406250000,161424.6875000000,127310.5625000000,23032.7753906250,98084.1875000000,148881.2031250000,,,
2.8759999953,22,160355.6406250000,144241.1406250000,170471.0156250000,162296.0312500000,128221.1406250000,23872.8964843750,98953.7578125000,147481.7187500000,,,
2.8799999952,22,160145.0468750000,144275.3437500000,170242.2656250000,162101.2500000000,128027.7812500000,23775.0507812500,98744.8437500000,148174.5312500000,,,
2.8839999954,22,159079.5625000000,144022.5156250000,169176.7031250000,161112.7812500000,127002.8046875000,22885.4160156250,97747.5156250000,150017.4218750000,,,
2.8879999954,22,158615.7812500000,143817.3281250000,168730.9843750000,160672.2031250000,126548.4921875000,22416.5644531250,97325.6562500000,150452.7968750000,,,
2.8919999953,22,159413.1718750000,143955.7656250000,169544.9531250000,161409.1875000000,127314.4453125000,23033.4472656250,98083.9453125000,148894.0625000000,,,
2.8959999953,22,160367.7187500000,144242.5468750000,170493.1406250000,162302.0468750000,128242.0078125000,23880.3535156250,98976.2343750000,147485.1406250000,,,
2.8999999953,22,160159.2500000000,144279.9375000000,170265.1718750000,162118.6562500000,128050.0703125000,23784.3847656250,98769.9218750000,148166.4218750000,,,
2.9039999954,22,159069.1718750000,144010.9375000000,169175.2343750000,161108.6250000000,127002.6953125000,22876.0546875000,97749.6640625000,149998.5156250000,,,
2.9079999954,22,158597.8593750000,143802.3125000000,168723.1250000000,160672.1406250000,126541.2734375000,22404.2812500000,97317.7734375000,150440.8906250000,,,
2.9119999954,22,159397.1093750000,143940.3125000000,169534.4843750000,161412.8125000000,127305.5156250000,23018.7480468750,98076.6796875000,148884.8281250000,,,
2.9159999953,22,160366.2968750000,144235.4687500000,170490.9375000000,162314.4843750000,128243.0859375000,23873.0312500000,98981.0390625000,147471.8125000000,,,
2.9199999953,22,160177.7968750000,144282.0000000000,170280.4687500000,162144.5937500000,128067.1015625000,23791.3046875000,98793.9218750000,148141.3281250000,,,
2.9239999952,22,159097.7656250000,144019.7343750000,169197.2500000000,161138.1875000000,127025.6796875000,22889.7871093750,97780.5859375000,149977.7031250000,,,
2.9279999954,22,158621.6250000000,143813.9218750000,168736.6718750000,160687.5625000000,126555.7890625000,22408.7324218750,97339.7656250000,150445.4218750000,,,
2.9319999954,22,159410.4375000000,143954.5468750000,169539.0468750000,161414.4218750000,127308.1484375000,23019.5527343750,98086.8671875000,148908.8281250000,,,
2.9359999953,22,160372.4843750000,144245.1093750000,170492.0625000000,162307.2500000000,128242.7890625000,23879.0390625000,98978.1093750000,147489.0625000000,,,
2.9399999953,22,160177.2031250000,144284.4375000000,170276.6562500000,162134.0312500000,128065.1484375000,23799.6191406250,98778.6875000000,148138.7968750000,,,
2.9439999952,23,159093.7968750000,144018.9062500000,169192.6093750000,161133.4531250000,127023.2109375000,22901.6152343750,97773.8515625000,149972.0937500000,,,
2.9479999952,23,158602.8750000000,143804.7500000000,168720.2500000000,160678.0156250000,126540.5781250000,22410.9589843750,97328.6093750000,150446.4062500000,,,
2.9519999952,23,159390.8281250000,143942.9375000000,169523.2968750000,161405.0312500000,127295.5937500000,23022.9863281250,98076.3281250000,148917.0468750000,,,
2.9559999951,23,160352.2187500000,144226.5000000000,170476.6406250000,162293.0625000000,128229.7812500000,23877.5117187500,98973.5000000000,147476.9375000000,,,
2.9599999951,23,160165.6093750000,144266.0312500000,170269.4687500000,162120.6406250000,128057.6875000000,23802.5429687500,98788.5312500000,148107.0937500000,,,
2.9639999950,23,159090.9843750000,144007.5000000000,169190.7031250000,161118.5468750000,127021.3359375000,22912.1035156250,97781.4453125000,149946.7187500000,,,
2.9679999952,23,158597.6250000000,143796.8437500000,168712.5468750000,160652.9218750000,126534.4062500000,22420.6152343750,97324.7968750000,150443.1093750000,,,
2.9719999952,23,159377.1250000000,143936.5781250000,169504.8437500000,161369.6093750000,127278.6953125000,23023.8437500000,98059.9140625000,148927.9531250000,,,
2.9759999951,23,160333.0312500000,144218.5312500000,170452.0156250000,162255.8281250000,128204.3515625000,23870.5898437500,98950.7265625000,147479.9687500000,,,
2.9799999951,23,160165.6406250000,144266.2187500000,170265.6093750000,162106.6718750000,128050.5546875000,23806.0566406250,98785.0781250000,148099.0781250000,,,
