Time:250Hz,Epoch,Channel 1,Channel 2,Channel 3,Channel 4,Channel 5,Channel 6,Channel 7,Channel 8,Event Id,Event Date,Event Duration
0.0000000000,0,147881.8437500000,197641.2500000000,143104.0468750000,149270.2031250000,119729.9375000000,151543.0625000000,131394.2187500000,144778.3593750000,,,
0.0040000000,0,147979.3125000000,201321.2187500000,143126.1250000000,149363.4375000000,119823.4687500000,151629.9843750000,131473.7968750000,144809.5625000000,,,
0.0079999999,0,148542.6875000000,198774.7343750000,143798.8281250000,149964.9531250000,120381.6875000000,152166.7812500000,131979.1093750000,145149.2656250000,,,
0.0119999999,0,148803.9843750000,193541.5468750000,144292.4375000000,150265.7656250000,120640.4921875000,152417.6718750000,132222.7812500000,145342.7812500000,,,
0.0159999998,0,148378.5156250000,192833.1718750000,143872.2031250000,149824.8125000000,120217.7812500000,152022.4218750000,131845.0781250000,145101.3281250000,,,
0.0199999998,0,147861.7343750000,197629.1875000000,143107.7500000000,149247.6250000000,119716.9843750000,151539.7656250000,131390.4687500000,144768.2500000000,,,
0.0240000000,0,147951.3906250000,201343.6093750000,143127.4687500000,149328.7656250000,119813.9687500000,151625.1406250000,131470.2656250000,144793.1250000000,,,
0.0279999999,0,148512.2500000000,198835.1875000000,143783.7031250000,149934.0000000000,120370.0234375000,152158.3593750000,131968.8125000000,145133.1718750000,,,
0.0319999999,0,148797.6250000000,193577.5000000000,144290.4687500000,150261.9531250000,120648.6250000000,152427.7812500000,132215.1406250000,145346.5468750000,,,
0.0359999998,0,148393.3437500000,192816.2031250000,143915.1562500000,149828.1562500000,120247.8203125000,152045.5937500000,131852.4843750000,145113.9062500000,,,
0.0399999998,0,147876.2656250000,197581.2031250000,143140.0156250000,149235.2656250000,119742.4921875000,151553.4375000000,131400.3906250000,144770.3437500000,,,
0.0440000000,0,147964.6250000000,201330.6406250000,143132.6093750000,149314.2812500000,119825.9062500000,151626.4531250000,131479.8906250000,144792.9062500000,,,
0.0480000000,0,148508.5468750000,198874.7968750000,143775.2187500000,149921.3125000000,120361.3046875000,152128.3437500000,131967.3906250000,145108.1718750000,,,
0.0519999999,0,148792.6093750000,193606.5625000000,144261.9375000000,150241.1718750000,120637.1406250000,152398.9218750000,132227.2968750000,145316.0468750000,,,
0.0559999999,0,148398.2968750000,192789.5937500000,143870.0937500000,149819.8750000000,120244.7109375000,152028.5625000000,131878.3593750000,145098.1093750000,,,
0.0599999998,0,147869.4843750000,197535.6250000000,143086.0312500000,149243.6093750000,119730.3437500000,151531.3906250000,131406.2343750000,144755.4062500000,,,
0.0639999998,0,147919.8437500000,201330.7656250000,143068.8125000000,149304.6250000000,119783.1015625000,151581.2343750000,131442.5781250000,144754.9218750000,,,
0.0680000000,0,148482.5781250000,198913.1250000000,143734.1250000000,149900.9843750000,120340.5937500000,152114.2656250000,131943.5625000000,145097.1406250000,,,
0.0719999999,0,148783.6093750000,193628.9687500000,144243.4062500000,150228.1093750000,120638.1093750000,152403.2500000000,132223.2968750000,145328.0312500000,,,
0.0759999999,0,148396.9843750000,192777.3281250000,143859.8750000000,149812.8750000000,120253.6093750000,152042.0000000000,131880.7812500000,145122.8906250000,,,
0.0799999998,0,147891.8750000000,197539.0937500000,143092.6718750000,149256.0000000000,119749.6796875000,151557.8125000000,131418.4218750000,144799.8593750000,,,
0.0839999998,0,147962.4375000000,201404.5781250000,143085.1093750000,149319.1562500000,119811.2343750000,151615.5312500000,131463.1250000000,144806.7968750000,,,
0.0880000000,0,148520.4531250000,199041.0781250000,143748.9687500000,149913.4062500000,120359.1328125000,152141.4375000000,131954.5312500000,145136.0468750000,,,
0.0919999999,0,148812.4375000000,193720.4218750000,144258.8281250000,150254.0937500000,120642.4531250000,152406.5781250000,132219.1875000000,145346.5468750000,,,
0.0959999999,0,148417.5312500000,192794.0937500000,143890.1875000000,149837.8750000000,120256.2968750000,152037.5000000000,131874.6093750000,145129.0156250000,,,
0.0999999999,0,147887.1875000000,197541.5312500000,143112.7968750000,149248.3750000000,119736.5625000000,151542.7968750000,131399.6718750000,144786.9531250000,,,
0.1039999998,0,147942.5156250000,201450.4531250000,143097.0468750000,149307.2812500000,119795.8671875000,151598.4218750000,131447.7812500000,144787.4375000000,,,
0.1079999998,0,148505.1562500000,199112.6562500000,143758.3281250000,149918.5468750000,120356.3437500000,152139.0468750000,131958.4531250000,145128.6562500000,,,
0.1120000000,0,148785.5625000000,193744.1093750000,144263.4375000000,150245.3750000000,120634.7812500000,152403.3593750000,132217.8281250000,145326.8750000000,,,
0.1159999999,0,148403.0312500000,192746.3593750000,143918.3125000000,149830.1718750000,120259.4843750000,152038.2968750000,131875.9218750000,145112.2500000000,,,
0.1199999999,0,147868.8906250000,197485.2812500000,143142.5937500000,149236.9843750000,119731.1171875000,151530.9843750000,131395.7812500000,144764.1718750000,,,
0.1239999998,0,147921.7343750000,201447.7187500000,143114.6406250000,149290.0000000000,119779.8281250000,151565.7031250000,131433.8125000000,144756.4531250000,,,
0.1279999998,1,148486.8906250000,199145.1718750000,143782.4062500000,149894.9843750000,120336.3046875000,152098.7656250000,131929.0781250000,145093.8750000000,,,
0.1319999998,1,148792.1093750000,193740.9687500000,144307.7812500000,150240.1718750000,120635.1328125000,152390.2343750000,132206.8750000000,145312.2656250000,,,
0.1359999997,1,148417.4843750000,192687.1093750000,143965.2343750000,149832.9375000000,120262.8906250000,152040.2031250000,131876.2187500000,145112.2968750000,,,
0.1399999997,1,147887.3437500000,197431.0000000000,143199.2187500000,149239.8437500000,119741.3359375000,151540.2968750000,131399.3125000000,144775.5312500000,,,
0.1439999996,1,147948.4218750000,201458.8750000000,143176.2500000000,149291.4531250000,119802.4140625000,151598.1718750000,131439.4687500000,144784.7187500000,,,
0.1479999996,1,148507.9531250000,199202.7812500000,143808.8593750000,149884.3593750000,120356.4453125000,152134.2187500000,131939.5156250000,145121.6562500000,,,
0.1519999998,1,148796.1250000000,193763.6718750000,144299.8593750000,150237.2500000000,120637.9765625000,152403.2968750000,132208.5468750000,145322.0781250000,,,
0.1559999997,1,148423.7031250000,192643.9531250000,143955.2031250000,149840.8281250000,120266.0312500000,152052.5156250000,131880.3125000000,145119.2500000000,,,
0.1599999997,1,147894.2343750000,197378.7968750000,143173.5937500000,149251.6250000000,119741.5781250000,151548.3750000000,131403.4687500000,144777.0312500000,,,
0.1639999996,1,147950.0312500000,201465.7968750000,143130.3125000000,149295.2812500000,119795.9218750000,151596.6250000000,131448.7187500000,144783.4062500000,,,
0.1679999996,1,148515.8593750000,199245.8593750000,143775.1406250000,149888.6250000000,120357.2031250000,152131.1875000000,131954.3281250000,145122.7656250000,,,
0.1719999998,1,148828.3125000000,193784.2343750000,144297.7343750000,150246.7968750000,120659.5390625000,152428.8593750000,132225.7812500000,145347.7500000000,,,
0.1759999997,1,148447.0625000000,192614.6875000000,143950.9843750000,149843.3750000000,120276.6015625000,152071.7968750000,131882.9218750000,145140.0937500000,,,
0.1799999997,1,147894.9062500000,197329.6093750000,143172.1250000000,149229.4687500000,119733.4531250000,151547.4062500000,131389.6875000000,144782.9218750000,,,
0.1839999997,1,147942.0312500000,201449.5625000000,143128.4843750000,149269.2968750000,119781.9453125000,151587.1093750000,131426.4375000000,144780.7031250000,,,
0.1879999996,1,148508.6250000000,199279.9531250000,143766.4843750000,149879.6562500000,120345.3203125000,152125.4687500000,131935.2812500000,145119.5781250000,,,
0.1919999996,1,148832.0937500000,193825.4062500000,144308.4687500000,150248.8125000000,120662.7265625000,152432.4843750000,132232.5468750000,145353.7812500000,,,
0.1959999998,1,148469.9687500000,192605.0625000000,143993.3125000000,149867.7812500000,120303.4218750000,152083.3593750000,131915.9375000000,145158.1718750000,,,
0.1999999997,1,147934.6250000000,197287.5781250000,143224.0312500000,149282.7656250000,119780.5781250000,151585.5781250000,131438.6875000000,144819.4531250000,,,
0.2039999997,1,147969.0937500000,201437.2031250000,143180.7656250000,149304.5156250000,119817.0859375000,151616.8437500000,131465.3750000000,144808.8437500000,,,
0.2079999996,1,148518.0312500000,199323.5625000000,143805.5312500000,149890.3906250000,120358.8593750000,152138.7500000000,131955.2812500000,145134.3281250000,,,
0.2119999996,1,148831.5625000000,193861.1406250000,144308.5468750000,150255.5937500000,120665.3593750000,152434.5468750000,132236.6718750000,145357.1875000000,,,
0.2159999998,1,148473.3281250000,192595.4843750000,143985.6406250000,149869.4687500000,120311.2500000000,152100.4843750000,131922.9687500000,145168.9843750000,,,
0.2199999997,1,147941.4375000000,197236.8281250000,143215.5312500000,149273.4531250000,119789.6953125000,151595.5000000000,131440.5468750000,144828.3906250000,,,
0.2239999997,1,147965.6875000000,201406.6250000000,143159.3593750000,149295.6562500000,119812.4453125000,151614.3750000000,131454.7812500000,144806.0156250000,,,
0.2279999997,1,148506.3125000000,199347.3281250000,143781.3906250000,149876.7656250000,120344.6484375000,152128.5625000000,131944.5781250000,145120.4843750000,,,
0.2319999996,1,148826.8125000000,193905.1250000000,144302.5468750000,150244.7031250000,120656.4765625000,152430.5781250000,132236.2187500000,145346.7031250000,,,
0.2359999996,1,148462.2500000000,192584.3281250000,143976.7031250000,149851.2343750000,120297.5234375000,152091.7031250000,131919.6093750000,145145.8593750000,,,
0.2399999998,1,147930.7187500000,197185.1718750000,143199.2656250000,149254.9687500000,119776.2890625000,151588.3281250000,131445.0468750000,144810.5468750000,,,
0.2439999997,1,147970.4843750000,201383.2343750000,143149.8906250000,149284.5625000000,119816.8984375000,151609.0937500000,131474.5781250000,144806.3125000000,,,
0.2479999997,1,148517.8437500000,199377.0937500000,143788.9843750000,149867.7500000000,120353.8203125000,152133.9531250000,131947.5937500000,145131.1562500000,,,
0.2519999996,1,148848.0625000000,193949.6562500000,144328.2343750000,150246.0468750000,120677.8046875000,152451.8750000000,132249.5468750000,145369.3437500000,,,
0.2559999996,2,148495.9843750000,192594.6718750000,144030.2500000000,149874.7812500000,120333.2734375000,152114.9843750000,131950.2656250000,145181.0000000000,,,
0.2599999995,2,147941.5781250000,197157.0312500000,143235.9843750000,149267.1250000000,119783.4218750000,151600.1718750000,131450.4687500000,144827.4531250000,,,
0.2639999995,2,147963.4687500000,201375.5312500000,143164.9375000000,149283.2500000000,119802.9218750000,151609.6250000000,131458.7500000000,144808.6250000000,,,
0.2679999995,2,148502.4062500000,199412.1875000000,143801.5625000000,149869.0156250000,120336.7578125000,152111.2343750000,131932.5625000000,145121.8281250000,,,
0.2719999994,2,148833.0625000000,193984.0312500000,144336.1250000000,150242.9375000000,120663.2421875000,152422.7968750000,132239.3125000000,145351.1562500000,,,
0.2759999994,2,148486.2500000000,192577.3437500000,144021.5312500000,149875.8750000000,120320.5312500000,152096.4062500000,131937.9531250000,145164.8750000000,,,
0.2799999996,2,147936.7968750000,197102.7187500000,143216.2812500000,149254.9218750000,119783.0156250000,151586.8593750000,131448.6718750000,144815.6562500000,,,
0.2839999995,2,147961.9843750000,201341.2031250000,143135.1875000000,149261.5156250000,119810.3750000000,151602.4218750000,131465.1718750000,144801.0000000000,,,
0.2879999995,2,148499.7500000000,199438.3593750000,143751.3281250000,149849.2968750000,120343.8671875000,152110.6718750000,131939.2968750000,145116.7343750000,,,
0.2919999994,2,148826.7031250000,194004.8750000000,144267.2187500000,150231.2656250000,120663.3203125000,152433.5468750000,132239.5937500000,145350.7031250000,,,
0.2959999994,2,148480.4843750000,192543.4531250000,143945.0625000000,149855.3906250000,120319.9140625000,152115.8125000000,131936.0000000000,145167.7656250000,,,
0.2999999996,2,147932.1406250000,197043.8125000000,143150.3125000000,149231.8281250000,119780.8750000000,151598.3750000000,131444.8437500000,144818.2812500000,,,
0.3039999995,2,147927.7343750000,201313.3125000000,143063.0625000000,149232.0625000000,119778.7812500000,151590.7187500000,131438.5000000000,144781.3437500000,,,
0.3079999995,2,148463.1875000000,199435.3593750000,143697.8593750000,149831.4843750000,120309.9921875000,152098.5468750000,131915.3750000000,145092.8593750000,,,
0.3119999995,2,148828.6406250000,194010.4062500000,144277.0156250000,150239.2968750000,120670.1562500000,152442.0625000000,132250.2968750000,145356.0312500000,,,
0.3159999994,2,148498.6718750000,192493.7656250000,143997.2031250000,149885.4531250000,120344.4843750000,152131.9375000000,131960.9218750000,145184.4062500000,,,
0.3199999994,2,147948.2031250000,196942.6250000000,143201.5781250000,149274.3125000000,119806.4062500000,151608.7500000000,131469.4531250000,144830.1093750000,,,
0.3239999996,2,147957.7500000000,201234.4531250000,143109.6875000000,149259.0000000000,119813.7578125000,151618.1406250000,131463.5625000000,144808.4375000000,,,
0.3279999995,2,148473.6718750000,199431.2187500000,143718.4687500000,149803.4531250000,120321.3906250000,152100.5625000000,131908.5312500000,145103.2031250000,,,
0.3319999995,2,148819.5468750000,194008.6093750000,144265.7187500000,150207.6406250000,120657.3359375000,152426.2812500000,132226.5625000000,145343.1093750000,,,
0.3359999994,2,148496.2656250000,192433.0937500000,143964.3750000000,149872.0468750000,120329.8125000000,152120.1718750000,131943.8593750000,145175.1250000000,,,
0.3399999994,2,147961.1093750000,196841.9218750000,143174.2656250000,149268.2812500000,119800.8281250000,151615.3750000000,131468.2031250000,144839.1406250000,,,
0.3439999996,2,147947.0000000000,201158.7500000000,143074.3593750000,149258.0625000000,119786.8828125000,151599.6250000000,131448.7187500000,144795.4531250000,,,
0.3479999995,2,148471.6406250000,199410.3593750000,143700.1250000000,149815.7187500000,120312.0312500000,152096.7500000000,131917.1250000000,145097.7343750000,,,
0.3519999995,2,148827.8906250000,194007.5625000000,144273.1718750000,150212.9843750000,120660.1015625000,152437.1406250000,132235.3437500000,145350.6406250000,,,
0.3559999994,2,148499.0781250000,192388.6250000000,144014.7187500000,149869.2812500000,120336.6796875000,152124.6718750000,131949.7343750000,145177.4531250000,,,
0.3599999994,2,147946.1875000000,196756.4531250000,143204.6406250000,149260.2343750000,119796.8359375000,151605.9531250000,131464.6093750000,144825.5156250000,,,
0.3639999994,2,147939.4375000000,201105.4062500000,143080.2343750000,149243.0312500000,119794.8750000000,151599.3125000000,131455.2187500000,144794.2187500000,,,
0.3679999996,2,148452.3437500000,199429.0000000000,143688.9375000000,149807.7500000000,120301.4609375000,152082.4531250000,131902.4531250000,145089.9375000000,,,
0.3719999995,2,148805.0625000000,194049.3125000000,144248.3125000000,150196.6718750000,120646.6875000000,152417.0781250000,132221.8750000000,145334.9843750000,,,
0.3759999995,2,148498.1406250000,192387.6875000000,143982.8750000000,149871.2187500000,120337.4296875000,152129.0625000000,131952.6875000000,145179.2500000000,,,
0.3799999994,2,147952.8906250000,196709.0468750000,143205.4687500000,149268.1406250000,119799.0859375000,151612.9062500000,131462.4375000000,144832.3125000000,,,
0.3839999994,3,147935.8125000000,201067.2187500000,143098.2343750000,149236.3281250000,119781.8125000000,151591.0468750000,131438.5625000000,144787.9375000000,,,
0.3879999993,3,148453.2343750000,199450.4062500000,143708.0625000000,149795.2812500000,120294.1171875000,152085.4843750000,131899.5468750000,145086.8281250000,,,
0.3919999993,3,148800.4531250000,194091.0312500000,144275.4062500000,150203.9687500000,120636.7656250000,152423.0156250000,132220.0000000000,145326.9531250000,,,
0.3959999993,3,148494.5625000000,192399.9531250000,144026.8593750000,149878.3750000000,120336.5156250000,152133.6875000000,131953.1875000000,145170.9062500000,,,
0.3999999992,3,147967.5625000000,196682.8125000000,143253.0156250000,149281.6562500000,119820.8125000000,151634.5312500000,131478.9843750000,144844.4843750000,,,
0.4039999992,3,147945.0156250000,201050.7968750000,143128.5156250000,149251.2187500000,119796.8359375000,151601.9687500000,131450.6875000000,144795.2656250000,,,
0.4079999994,3,148460.7187500000,199496.0625000000,143725.9531250000,149805.5781250000,120303.3125000000,152085.1093750000,131905.6406250000,145090.9218750000,,,
0.4119999993,3,148827.7812500000,194176.2656250000,144285.9687500000,150215.9843750000,120659.5625000000,152435.1562500000,132234.5781250000,145348.8750000000,,,
0.4159999993,3,148517.1562500000,192450.4062500000,144033.2500000000,149898.1406250000,120348.0781250000,152137.8593750000,131957.1718750000,145185.9531250000,,,
0.4199999992,3,147972.6875000000,196666.9218750000,143239.0156250000,149292.7343750000,119811.6953125000,151616.3906250000,131468.6562500000,144839.2031250000,,,
0.4239999992,3,147944.3125000000,201039.6875000000,143112.0468750000,149245.4531250000,119782.7500000000,151588.4218750000,131432.7656250000,144791.8125000000,,,
0.4279999994,3,148450.4218750000,199543.2656250000,143724.7968750000,149778.4375000000,120284.0546875000,152074.4531250000,131885.6093750000,145084.8125000000,,,
0.4319999993,3,148807.8750000000,194257.5156250000,144293.5000000000,150185.4375000000,120633.5703125000,152415.6875000000,132211.7656250000,145330.6562500000,,,
0.4359999993,3,148514.0156250000,192488.2968750000,144053.7968750000,149873.8750000000,120344.2734375000,152134.6406250000,131956.7656250000,145181.4531250000,,,
0.4399999992,3,147971.7031250000,196639.3750000000,143250.6562500000,149264.5781250000,119815.8515625000,151622.8593750000,131473.9375000000,144839.5468750000,,,
0.4439999992,3,147935.4687500000,200998.6875000000,143097.9062500000,149218.2812500000,119784.2500000000,151584.2812500000,131430.8906250000,144786.1406250000,,,
0.4479999992,3,148439.0937500000,199566.1718750000,143686.4687500000,149766.7187500000,120283.8984375000,152060.0000000000,131879.3750000000,145078.6718750000,,,
0.4519999993,3,148813.9687500000,194327.5937500000,144260.2500000000,150165.3437500000,120652.3750000000,152419.3593750000,132225.5000000000,145342.2500000000,,,
0.4559999993,3,148514.5000000000,192534.6562500000,144035.3906250000,149859.0156250000,120357.2812500000,152134.0781250000,131965.1250000000,145183.7812500000,,,
0.4599999993,3,147961.4843750000,196624.7812500000,143228.5937500000,149257.8125000000,119810.3750000000,151616.2500000000,131467.6406250000,144834.7187500000,,,
0.4639999992,3,147938.0156250000,200985.9687500000,143077.9218750000,149220.2656250000,119784.1953125000,151588.9218750000,131439.3593750000,144794.7343750000,,,
0.4679999992,3,148452.2500000000,199615.7343750000,143674.5312500000,149778.7500000000,120290.4140625000,152077.7343750000,131895.9375000000,145096.0156250000,,,
0.4719999994,3,148818.1250000000,194412.4843750000,144252.5156250000,150198.8437500000,120650.1796875000,152425.6406250000,132227.7187500000,145348.3593750000,,,
0.4759999993,3,148532.8906250000,192584.7812500000,144024.7500000000,149896.4843750000,120367.1250000000,152158.8437500000,131979.0468750000,145202.1250000000,,,
0.4799999993,3,147989.3750000000,196600.3906250000,143233.8906250000,149286.2812500000,119835.2968750000,151644.5781250000,131495.3437500000,144855.3750000000,,,
0.4839999992,3,147939.7031250000,200938.6250000000,143088.1406250000,149226.5468750000,119790.5000000000,151585.5781250000,131444.5625000000,144786.2187500000,,,
0.4879999992,3,148440.3125000000,199622.7343750000,143683.8437500000,149771.0625000000,120285.0781250000,152057.1562500000,131885.7343750000,145076.9531250000,,,
0.4919999992,3,148810.2968750000,194480.8125000000,144263.7031250000,150180.8750000000,120646.1015625000,152415.8281250000,132218.9218750000,145336.1562500000,,,
0.4959999993,3,148529.2500000000,192624.3125000000,144045.0000000000,149875.9843750000,120365.6250000000,152153.3750000000,131969.2812500000,145192.5312500000,,,
0.4999999993,3,147998.1406250000,196562.9531250000,143256.6406250000,149276.9218750000,119841.6015625000,151650.9375000000,131492.3906250000,144858.4531250000,,,
0.5039999993,3,147955.9218750000,200872.8906250000,143101.0000000000,149223.3281250000,119797.9609375000,151608.2656250000,131448.3437500000,144800.2031250000,,,
0.5079999992,3,148463.7500000000,199614.5781250000,143716.6875000000,149774.4062500000,120296.6640625000,152084.0312500000,131898.1250000000,145101.3281250000,,,
0.5119999992,4,148829.0625000000,194542.5781250000,144322.9218750000,150186.0156250000,120655.1406250000,152428.7812500000,132226.1562500000,145357.6093750000,,,
0.5159999991,4,148538.0156250000,192675.8125000000,144099.7187500000,149895.1093750000,120369.9687500000,152154.3125000000,131969.9843750000,145203.1250000000,,,
0.5199999991,4,148004.2031250000,196524.2187500000,143276.0625000000,149290.4375000000,119848.7343750000,151651.0156250000,131498.7187500000,144862.2968750000,,,
0.5239999990,4,147939.3281250000,200781.3125000000,143081.3906250000,149211.5000000000,119787.4687500000,151581.5468750000,131439.4218750000,144782.2031250000,,,
0.5279999990,4,148421.6406250000,199579.2500000000,143683.0937500000,149730.2656250000,120263.8281250000,152040.4531250000,131865.7500000000,145062.6250000000,,,
0.5319999990,4,148787.6250000000,194579.3437500000,144277.7343750000,150154.8750000000,120621.0468750000,152395.8906250000,132193.5468750000,145322.0312500000,,,
0.5359999991,4,148523.8281250000,192698.7968750000,144065.9218750000,149876.7656250000,120359.2109375000,152152.7500000000,131963.6250000000,145195.3906250000,,,
0.5399999991,4,147989.6406250000,196476.0781250000,143246.7656250000,149269.0000000000,119834.4921875000,151650.4062500000,131478.3906250000,144854.1406250000,,,
0.5439999991,4,147942.5937500000,200716.8125000000,143066.9375000000,149200.6875000000,119785.2968750000,151596.0937500000,131424.5781250000,144792.7500000000,,,
0.5479999990,4,148441.3281250000,199586.4687500000,143678.5312500000,149745.6562500000,120277.3750000000,152058.3593750000,131876.0625000000,145087.6250000000,,,
0.5519999990,4,148819.2968750000,194647.7500000000,144292.9062500000,150181.0000000000,120643.5781250000,152413.9531250000,132215.4375000000,145353.8281250000,,,
0.5559999992,4,148555.0312500000,192750.0781250000,144090.4375000000,149899.2968750000,120381.3359375000,152168.2812500000,131979.1093750000,145219.7812500000,,,
0.5599999991,4,148025.9843750000,196450.8125000000,143246.1875000000,149299.8437500000,119863.0546875000,151669.4531250000,131505.7500000000,144883.2656250000,,,
0.5639999991,4,147956.1875000000,200655.1250000000,143031.6562500000,149222.3125000000,119795.7343750000,151597.7968750000,131444.0312500000,144806.8593750000,,,
0.5679999990,4,148433.8750000000,199566.0000000000,143637.1093750000,149747.8281250000,120268.6875000000,152051.3125000000,131874.7968750000,145084.1406250000,,,
0.5719999990,4,148808.2031250000,194703.6718750000,144278.6718750000,150167.3281250000,120634.4062500000,152412.0625000000,132212.6406250000,145342.7812500000,,,
0.5759999990,4,148545.2656250000,192802.2031250000,144095.0781250000,149885.9687500000,120376.1093750000,152164.7187500000,131981.3125000000,145202.3437500000,,,
0.5799999991,4,148013.2656250000,196431.0156250000,143261.7343750000,149281.9531250000,119863.9921875000,151660.4062500000,131496.6093750000,144857.0625000000,,,
0.5839999991,4,147946.5625000000,200606.7343750000,143042.0937500000,149204.2812500000,119801.2343750000,151592.1250000000,131434.3750000000,144785.4687500000,,,
0.5879999991,4,148411.5468750000,199575.3906250000,143630.4687500000,149720.5468750000,120249.7500000000,152032.7812500000,131861.8125000000,145061.1562500000,,,
0.5919999990,4,148785.8906250000,194779.0625000000,144258.7656250000,150151.8281250000,120612.8671875000,152393.4531250000,132205.6718750000,145323.5312500000,,,
0.5959999990,4,148546.5000000000,192859.9531250000,144072.7031250000,149891.7343750000,120377.0468750000,152170.7031250000,131996.0312500000,145210.3906250000,,,
0.5999999992,4,148021.7812500000,196416.6718750000,143222.3125000000,149287.7812500000,119864.1250000000,151675.9062500000,131523.8593750000,144875.1406250000,,,
0.6039999991,4,147952.8125000000,200555.6562500000,142990.6718750000,149194.6562500000,119794.5000000000,151605.3750000000,131450.4687500000,144800.8437500000,,,
0.6079999991,4,148421.6093750000,199581.6718750000,143600.2812500000,149704.5625000000,120255.1718750000,152037.3125000000,131864.3281250000,145071.0781250000,,,
0.6119999990,4,148805.8593750000,194861.8437500000,144259.8125000000,150147.6875000000,120632.5312500000,152402.1718750000,132211.5937500000,145336.4843750000,,,
0.6159999990,4,148576.0000000000,192940.7968750000,144085.1718750000,149893.2031250000,120407.1718750000,152184.4531250000,132011.9843750000,145224.9062500000,,,
0.6199999989,4,148034.7812500000,196402.9843750000,143216.0000000000,149288.5781250000,119874.9687500000,151679.7187500000,131529.1406250000,144872.7343750000,,,
0.6239999991,4,147946.4062500000,200493.1875000000,142971.8437500000,149203.6406250000,119786.5625000000,151595.2500000000,131441.3750000000,144784.5625000000,,,
0.6279999991,4,148422.8125000000,199581.4062500000,143585.1250000000,149719.4843750000,120258.8984375000,152045.0156250000,131866.9687500000,145072.5312500000,,,
0.6319999991,4,148796.2031250000,194929.6250000000,144248.0625000000,150145.1406250000,120623.5390625000,152393.7812500000,132201.9375000000,145333.1093750000,,,
0.6359999990,4,148549.4531250000,192986.2500000000,144082.0625000000,149885.9375000000,120380.0781250000,152163.5937500000,131988.5937500000,145204.6718750000,,,
0.6399999990,5,148030.1093750000,196379.3281250000,143217.6406250000,149288.7656250000,119872.8437500000,151677.5937500000,131524.5000000000,144869.5625000000,,,
0.6439999989,5,147952.7656250000,200440.0000000000,142949.3750000000,149194.0937500000,119794.4218750000,151602.5781250000,131446.9062500000,144791.0312500000,,,
0.6479999989,5,148412.9687500000,199571.4218750000,143552.2500000000,149700.8906250000,120244.3593750000,152039.5625000000,131858.5468750000,145064.9687500000,,,
0.6519999988,5,148781.2968750000,194996.6250000000,144236.8281250000,150132.2187500000,120599.4296875000,152394.9062500000,132190.2812500000,145322.6875000000,,,
0.6559999988,5,148546.4687500000,193059.0000000000,144089.9218750000,149874.8593750000,120370.2343750000,152175.7968750000,131988.5468750000,145204.0937500000,,,
0.6599999988,5,148029.0937500000,196375.0937500000,143237.1406250000,149286.2812500000,119870.8046875000,151691.1250000000,131531.2343750000,144872.8125000000,,,
0.6639999989,5,147929.3125000000,200386.5781250000,142972.6562500000,149175.3593750000,119777.4921875000,151595.4687500000,131438.4218750000,144775.3437500000,,,
0.6679999989,5,148393.2343750000,199564.7812500000,143589.9531250000,149690.6406250000,120237.3828125000,152031.2968750000,131852.2968750000,145053.2656250000,,,
0.6719999989,5,148775.5312500000,195046.8593750000,144279.0156250000,150120.6562500000,120611.5000000000,152394.8281250000,132194.6718750000,145323.5312500000,,,
0.6759999988,5,148550.4375000000,193095.5000000000,144122.5156250000,149877.7812500000,120386.0859375000,152186.1718750000,131994.5000000000,145213.0937500000,,,
0.6799999988,5,148043.1562500000,196334.9375000000,143253.6406250000,149298.0781250000,119887.2734375000,151708.5468750000,131531.8125000000,144886.3593750000,,,
0.6839999990,5,147956.4687500000,200304.6406250000,142981.2812500000,149194.3906250000,119798.6796875000,151614.1093750000,131451.0000000000,144792.8750000000,,,
0.6879999989,5,148408.0468750000,199545.3593750000,143590.5000000000,149692.7968750000,120240.5781250000,152032.8125000000,131856.3750000000,145053.7031250000,,,
0.6919999989,5,148784.1875000000,195096.9687500000,144275.8281250000,150125.7812500000,120606.1640625000,152386.3437500000,132192.9531250000,145313.8906250000,,,
0.6959999988,5,148547.8125000000,193122.0468750000,144118.0625000000,149872.1562500000,120372.1093750000,152167.5625000000,131969.3437500000,145190.7031250000,,,
0.6999999988,5,148037.3906250000,196294.7812500000,143248.3281250000,149274.0468750000,119877.8906250000,151690.6406250000,131519.8281250000,144864.2187500000,,,
0.7039999987,5,147945.3125000000,200255.2031250000,142965.7343750000,149164.6093750000,119788.0312500000,151602.3437500000,131451.2968750000,144777.8281250000,,,
0.7079999989,5,148392.2656250000,199546.1562500000,143576.8906250000,149670.0156250000,120224.9687500000,152020.5781250000,131847.1875000000,145043.7968750000,,,
0.7119999989,5,148768.2343750000,195132.9062500000,144277.4062500000,150109.8281250000,120590.3906250000,152375.7812500000,132183.1875000000,145307.0781250000,,,
0.7159999989,5,148556.6406250000,193142.3593750000,144163.2343750000,149880.6875000000,120383.4843750000,152179.1406250000,132002.3281250000,145203.4375000000,,,
0.7199999988,5,148045.1875000000,196264.5312500000,143299.5625000000,149292.1250000000,119880.8671875000,151700.6875000000,131541.4687500000,144870.5781250000,,,
0.7239999988,5,147956.1875000000,200198.9218750000,143009.4531250000,149184.1406250000,119790.2109375000,151608.2187500000,131453.0156250000,144782.0156250000,,,
0.7279999990,5,148394.7968750000,199532.4062500000,143615.5781250000,149675.7031250000,120220.2187500000,152022.0781250000,131841.7812500000,145043.9531250000,,,
0.7319999989,5,148771.4843750000,195165.8125000000,144310.7812500000,150102.2031250000,120592.8281250000,152381.7812500000,132185.9375000000,145309.8437500000,,,
0.7359999989,5,148571.9218750000,193148.7187500000,144191.1250000000,149890.7968750000,120400.1718750000,152195.2656250000,132011.4531250000,145216.0000000000,,,
0.7399999988,5,148052.1093750000,196216.8593750000,143318.8906250000,149302.8281250000,119897.3593750000,151713.8125000000,131549.6875000000,144878.1250000000,,,
0.7439999988,5,147947.1250000000,200143.5937500000,143015.1093750000,149175.8437500000,119798.5234375000,151606.9531250000,131454.2968750000,144781.0156250000,,,
0.7479999987,5,148382.7968750000,199524.8906250000,143620.4531250000,149664.3125000000,120225.8281250000,152013.7656250000,131841.0000000000,145043.4218750000,,,
0.7519999989,5,148769.1718750000,195199.8750000000,144327.6562500000,150105.5000000000,120601.4140625000,152381.7656250000,132187.4062500000,145318.1406250000,,,
0.7559999989,5,148568.0625000000,193162.7500000000,144203.0937500000,149884.4843750000,120399.1484375000,152188.1250000000,132009.9843750000,145218.4375000000,,,
0.7599999988,5,148061.4375000000,196162.4687500000,143315.8437500000,149297.0312500000,119901.8125000000,151711.6093750000,131553.4062500000,144886.1406250000,,,
0.7639999988,5,147971.2187500000,200058.1875000000,142995.9062500000,149174.6718750000,119810.5625000000,151621.2187500000,131466.1875000000,144796.9531250000,,,
0.7679999988,6,148414.2656250000,199465.5625000000,143598.2187500000,149667.9062500000,120242.0781250000,152034.1718750000,131857.1718750000,145062.8906250000,,,
0.7719999987,6,148788.7812500000,195177.8906250000,144304.0156250000,150112.8281250000,120607.2343750000,152390.8593750000,132194.2968750000,145325.0312500000,,,
0.7759999987,6,148574.3593750000,193127.9062500000,144186.1562500000,149877.6562500000,120401.2421875000,152194.8906250000,132012.4687500000,145214.4375000000,,,
0.7799999986,6,148066.7343750000,196080.5781250000,143298.0625000000,149287.4218750000,119909.1093750000,151721.1875000000,131560.4375000000,144884.1250000000,,,
0.7839999986,6,147967.2500000000,199964.9375000000,142962.9062500000,149170.4843750000,119814.1093750000,151620.1718750000,131467.8437500000,144791.1093750000,,,
0.7879999985,6,148392.0781250000,199435.2812500000,143578.4843750000,149654.2500000000,120228.9921875000,152015.4531250000,131841.4531250000,145043.8593750000,,,
0.7919999987,6,148778.2187500000,195208.6718750000,144334.2500000000,150101.3750000000,120603.8828125000,152387.6093750000,132195.0781250000,145316.4218750000,,,
0.7959999987,6,148592.2812500000,193151.3750000000,144249.8906250000,149908.4687500000,120417.6015625000,152218.1250000000,132038.2812500000,145231.6875000000,,,
0.7999999986,6,148086.2500000000,196032.0937500000,143351.5937500000,149318.0625000000,119921.3125000000,151744.8125000000,131585.4843750000,144901.9375000000,,,
0.8039999986,6,147981.0312500000,199883.3593750000,143021.5468750000,149188.2656250000,119813.8671875000,151640.3125000000,131480.8593750000,144804.4687500000,,,
0.8079999986,6,148403.1093750000,199394.4843750000,143639.3125000000,149662.7187500000,120224.4531250000,152035.8281250000,131852.7500000000,145054.3906250000,,,
0.8119999988,6,148781.9687500000,195212.2187500000,144379.3906250000,150102.5781250000,120597.5546875000,152387.0156250000,132201.1093750000,145316.9062500000,,,
0.8159999987,6,148592.7968750000,193145.2812500000,144285.2500000000,149897.5468750000,120415.1640625000,152214.1562500000,132039.0312500000,145226.4843750000,,,
0.8199999987,6,148094.6562500000,195977.2656250000,143390.8906250000,149312.7187500000,119932.1484375000,151753.8281250000,131589.7500000000,144905.3906250000,,,
0.8239999986,6,147981.5468750000,199820.3593750000,143043.5625000000,149184.1875000000,119816.9453125000,151649.0625000000,131484.2343750000,144807.3593750000,,,
0.8279999986,6,148405.8125000000,199381.3437500000,143646.7500000000,149655.2656250000,120230.5703125000,152042.0781250000,131859.1093750000,145064.3906250000,,,
0.8319999985,6,148773.6718750000,195251.1093750000,144372.9218750000,150098.9062500000,120589.2656250000,152387.7343750000,132191.5312500000,145316.6562500000,,,
0.8359999987,6,148578.7343750000,193182.6718750000,144283.7656250000,149899.1562500000,120400.5937500000,152214.6562500000,132027.0625000000,145219.4843750000,,,
0.8399999987,6,148076.2968750000,195963.7968750000,143382.8437500000,149305.2656250000,119917.2343750000,151750.3437500000,131584.2500000000,144886.9375000000,,,
0.8439999986,6,147973.8906250000,199767.0156250000,143020.7656250000,149173.1093750000,119817.1875000000,151647.1875000000,131488.9375000000,144792.1250000000,,,
0.8479999986,6,148400.6875000000,199370.1718750000,143632.4687500000,149649.9531250000,120232.2343750000,152042.4531250000,131864.8437500000,145049.5625000000,,,
0.8519999986,6,148795.0781250000,195305.9687500000,144396.9531250000,150105.3125000000,120614.3437500000,152411.8281250000,132218.0625000000,145330.5000000000,,,
0.8559999987,6,148620.7968750000,193236.6875000000,144319.4375000000,149928.4843750000,120442.7109375000,152248.1562500000,132067.2968750000,145252.0156250000,,,
0.8599999987,6,148099.9062500000,195954.7343750000,143379.8125000000,149307.7031250000,119937.4296875000,151764.6718750000,131600.9062500000,144908.1875000000,,,
0.8639999987,6,147965.9843750000,199730.9062500000,142974.9843750000,149150.7187500000,119806.7031250000,151636.4531250000,131472.8906250000,144791.2343750000,,,
0.8679999986,6,148376.1718750000,199364.2500000000,143556.0312500000,149623.7187500000,120206.9140625000,152021.8593750000,131832.5468750000,145036.9531250000,,,
0.8719999986,6,148770.1406250000,195347.5937500000,144316.2812500000,150089.8125000000,120589.0781250000,152395.8906250000,132185.7187500000,145316.3593750000,,,
0.8759999985,6,148602.1718750000,193265.9218750000,144245.7656250000,149914.6093750000,120417.7890625000,152237.2187500000,132039.2343750000,145237.7500000000,,,
0.8799999987,6,148099.6093750000,195920.3437500000,143349.0781250000,149319.3437500000,119929.9218750000,151767.4531250000,131599.6250000000,144905.0156250000,,,
0.8839999987,6,147966.4375000000,199686.3906250000,142972.2812500000,149157.4687500000,119799.3515625000,151648.1250000000,131479.2187500000,144788.7187500000,,,
0.8879999986,6,148380.8437500000,199364.7031250000,143564.7187500000,149625.4375000000,120202.1640625000,152034.7656250000,131843.1718750000,145038.5468750000,,,
0.8919999986,6,148778.1093750000,195384.7187500000,144342.2656250000,150082.0937500000,120588.0859375000,152405.3906250000,132202.7500000000,145317.2812500000,,,
0.8959999986,7,148602.4687500000,193281.4531250000,144296.1250000000,149892.1406250000,120413.2578125000,152244.0312500000,132049.8125000000,145231.2031250000,,,
0.8999999985,7,148107.2031250000,195896.9375000000,143395.9531250000,149306.0781250000,119933.0078125000,151783.7031250000,131607.8593750000,144909.4218750000,,,
0.9039999985,7,147973.9843750000,199649.2968750000,143003.5468750000,149153.7187500000,119805.1171875000,151653.9687500000,131484.1562500000,144797.6562500000,,,
0.9079999984,7,148390.3125000000,199383.7812500000,143590.9218750000,149625.6562500000,120209.3281250000,152041.4218750000,131847.2812500000,145054.4687500000,,,
0.9119999984,7,148782.3750000000,195465.7187500000,144361.2343750000,150087.5000000000,120591.4921875000,152415.9062500000,132199.5781250000,145332.8593750000,,,
0.9159999983,7,148600.7812500000,193347.4375000000,144289.1093750000,149900.1562500000,120411.5156250000,152248.0000000000,132041.0312500000,145241.8593750000,,,
0.9199999985,7,148106.0156250000,195902.8125000000,143368.7656250000,149324.8125000000,119933.0859375000,151781.8906250000,131603.3750000000,144910.6250000000,,,
0.9239999985,7,147967.7812500000,199629.0468750000,142968.3593750000,149154.0937500000,119802.0859375000,151647.9375000000,131470.3437500000,144790.0312500000,,,
0.9279999984,7,148335.8125000000,199401.7187500000,143536.0781250000,149587.7812500000,120158.5312500000,151992.5781250000,131795.8906250000,144999.7343750000,,,
0.9319999984,7,148735.7031250000,195530.5937500000,144326.7656250000,150057.8906250000,120546.5937500000,152368.3750000000,132170.9062500000,145278.5156250000,,,
0.9359999984,7,148600.7343750000,193418.9687500000,144310.5312500000,149915.9843750000,120412.3437500000,152246.0625000000,132054.2656250000,145225.6562500000,,,
0.9399999985,7,148117.6718750000,195940.7812500000,143402.1562500000,149339.7031250000,119947.4140625000,151796.3906250000,131621.1875000000,144907.6250000000,,,
0.9439999985,7,147978.1875000000,199652.5937500000,142980.9062500000,149168.2343750000,119813.2187500000,151660.5625000000,131491.2343750000,144787.5156250000,,,
0.9479999985,7,148362.6562500000,199465.7500000000,143561.8750000000,149603.4218750000,120187.0703125000,152019.5000000000,131834.0000000000,145018.9375000000,,,
0.9519999984,7,148759.9687500000,195607.8750000000,144346.2968750000,150060.8437500000,120571.2968750000,152396.2500000000,132193.5156250000,145304.3750000000,,,
0.9559999984,7,148622.1562500000,193456.3906250000,144318.4218750000,149913.1406250000,120431.8984375000,152271.9531250000,132071.4531250000,145256.6250000000,,,
0.9599999983,7,148121.6406250000,195902.4375000000,143400.7343750000,149326.6718750000,119948.1640625000,151800.2812500000,131627.6875000000,144923.1562500000,,,
0.9639999985,7,147968.1875000000,199577.0625000000,142964.9843750000,149142.2343750000,119801.6328125000,151653.5625000000,131486.1406250000,144793.9531250000,,,
0.9679999985,7,148344.0625000000,199413.8750000000,143514.4531250000,149580.3281250000,120166.7656250000,152013.6250000000,131817.6093750000,145021.2968750000,,,
0.9719999984,7,148738.2500000000,195622.1406250000,144296.2343750000,150042.9531250000,120549.3281250000,152387.5312500000,132178.0937500000,145296.8593750000,,,
0.9759999984,7,148618.7812500000,193485.8906250000,144290.6093750000,149901.2812500000,120431.5781250000,152276.1093750000,132076.6562500000,145253.3125000000,,,
0.9799999984,7,148140.7343750000,195883.3906250000,143393.8906250000,149339.0312500000,119968.3046875000,151824.0781250000,131644.7656250000,144935.2187500000,,,
0.9839999985,7,147987.1250000000,199515.9843750000,142953.0156250000,149174.0468750000,119815.3906250000,151676.7656250000,131510.4218750000,144802.3437500000,,,
0.9879999985,7,148356.3593750000,199375.8125000000,143508.8750000000,149594.8906250000,120173.9218750000,152018.6093750000,131839.2500000000,145016.0312500000,,,
0.9919999985,7,148746.2968750000,195628.5000000000,144291.7656250000,150048.4218750000,120553.4531250000,152382.9687500000,132190.3281250000,145288.6875000000,,,
0.9959999984,7,148616.5000000000,193474.3281250000,144284.0312500000,149907.6875000000,120429.5078125000,152264.4062500000,132078.9843750000,145240.5937500000,,,
0.9999999984,7,148137.9687500000,195796.6250000000,143371.9843750000,149346.2500000000,119969.8906250000,151819.0312500000,131648.5468750000,144927.5781250000,,,
1.0039999983,7,147984.3593750000,199392.3906250000,142916.7187500000,149163.1406250000,119818.3671875000,151674.8906250000,131501.7812500000,144802.7187500000,,,
1.0079999985,7,148362.0156250000,199323.4062500000,143488.8906250000,149591.6406250000,120184.3046875000,152031.4062500000,131835.0468750000,145031.7500000000,,,
1.0119999985,7,148737.7968750000,195653.1406250000,144281.6250000000,150050.3281250000,120549.1640625000,152392.3593750000,132169.6718750000,145293.3437500000,,,
1.0159999984,7,148586.1093750000,193489.9687500000,144269.5468750000,149901.2187500000,120402.8750000000,152256.3593750000,132051.4687500000,145223.7812500000,,,
1.0199999984,7,148126.1093750000,195715.0312500000,143379.0625000000,149339.4843750000,119962.9140625000,151832.9843750000,131652.3906250000,144926.4531250000,,,
1.0239999983,8,147974.7031250000,199197.2343750000,142937.2187500000,149154.3906250000,119814.8281250000,151684.7812500000,131507.2187500000,144798.0312500000,,,
1.0279999983,8,148343.6406250000,199048.6093750000,143503.4843750000,149577.5625000000,120173.3359375000,152016.9843750000,131830.7031250000,145010.3281250000,,,
1.0319999983,8,148748.6250000000,195368.5312500000,144325.5312500000,150059.2031250000,120564.6718750000,152392.9218750000,132188.5000000000,145294.6875000000,,,
1.0359999982,8,148625.2656250000,193186.7500000000,144342.3750000000,149913.1093750000,120442.4921875000,152279.0625000000,132082.0781250000,145249.3906250000,,,
1.0399999982,8,148150.7968750000,195343.7812500000,143434.7187500000,149339.2187500000,119986.6015625000,151840.7343750000,131666.6875000000,144939.6406250000,,,
1.0439999981,8,147999.7343750000,198785.3437500000,142962.1093750000,149150.0000000000,119836.9062500000,151697.4687500000,131527.3906250000,144817.4218750000,,,
1.0479999983,8,148347.2031250000,198713.3593750000,143504.4531250000,149555.4062500000,120169.3906250000,152019.0937500000,131829.8906250000,145020.9687500000,,,
1.0519999983,8,148728.1562500000,195159.0625000000,144299.4062500000,150023.7812500000,120535.9140625000,152379.7500000000,132168.3593750000,145286.5312500000,,,
1.0559999982,8,148605.6093750000,193056.8281250000,144322.3437500000,149893.8750000000,120415.9375000000,152270.0000000000,132064.4218750000,145237.7968750000,,,
1.0599999982,8,148146.4218750000,195202.9375000000,143427.8750000000,149339.5156250000,119972.2500000000,151845.4062500000,131661.7968750000,144939.3750000000,,,
1.0639999982,8,147988.3281250000,198610.2031250000,142955.9687500000,149152.2656250000,119812.6875000000,151693.1250000000,131510.6250000000,144808.2968750000,,,
1.0679999983,8,148339.2656250000,198588.5000000000,143508.1562500000,149558.5937500000,120149.7265625000,152019.5312500000,131815.5468750000,145016.4062500000,,,
1.0719999983,8,148734.6250000000,195128.4218750000,144322.2500000000,150031.2812500000,120535.0546875000,152391.4687500000,132175.0937500000,145293.7343750000,,,
1.0759999983,8,148616.4687500000,193056.9218750000,144345.2968750000,149912.1406250000,120423.0468750000,152283.9687500000,132076.3593750000,145242.4218750000,,,
1.0799999982,8,148161.9531250000,195134.6562500000,143448.6562500000,149357.1406250000,119989.7343750000,151862.5625000000,131678.1875000000,144942.2187500000,,,
1.0839999982,8,148008.3906250000,198464.7968750000,142971.5312500000,149149.6406250000,119840.0703125000,151714.5000000000,131537.3125000000,144818.2187500000,,,
1.0879999981,8,148355.4218750000,198453.5937500000,143522.8593750000,149555.0625000000,120176.3125000000,152031.0937500000,131838.6875000000,145026.3593750000,,,
1.0919999983,8,148744.6562500000,195073.0937500000,144341.1406250000,150028.3593750000,120555.0937500000,152398.3437500000,132191.0468750000,145303.1093750000,,,
1.0959999983,8,148628.0156250000,193048.1093750000,144370.0000000000,149906.9687500000,120443.4843750000,152290.7187500000,132097.1718750000,145257.1875000000,,,
1.0999999982,8,148167.8750000000,195088.9687500000,143459.5468750000,149349.8125000000,119999.9296875000,151861.6562500000,131690.5468750000,144951.3437500000,,,
1.1039999982,8,148013.5156250000,198376.6875000000,142957.5468750000,149149.5937500000,119848.1718750000,151717.1875000000,131549.4687500000,144828.5312500000,,,
1.1079999981,8,148357.5000000000,198413.1718750000,143518.5625000000,149565.7656250000,120177.5703125000,152039.0000000000,131850.2812500000,145036.1562500000,,,
1.1119999983,8,148732.4531250000,195131.7031250000,144339.1875000000,150024.3906250000,120531.5937500000,152402.0312500000,132182.0156250000,145303.7031250000,,,
1.1159999983,8,148607.5625000000,193148.4218750000,144394.1406250000,149904.7968750000,120409.3437500000,152291.0468750000,132072.4218750000,145246.1406250000,33029,1.1192454866,0.0000000000
1.1199999982,8,148153.1250000000,195123.4687500000,143491.2031250000,149353.4062500000,119975.8125000000,151869.3281250000,131670.0000000000,144940.0000000000,,,
1.1239999982,8,148000.2968750000,198330.5625000000,142976.5937500000,149159.4843750000,119832.8828125000,151718.7187500000,131539.0156250000,144810.0468750000,,,
1.1279999982,8,148351.8281250000,198377.6562500000,143516.5156250000,149558.7031250000,120175.4296875000,152040.3906250000,131847.5156250000,145022.1562500000,,,
1.1319999981,8,148731.1093750000,195182.6093750000,144353.5000000000,150019.8281250000,120545.6796875000,152393.3750000000,132190.3281250000,145290.4062500000,,,
1.1359999983,8,148637.7187500000,193245.6562500000,144416.1406250000,149906.4218750000,120457.9140625000,152308.8906250000,132114.4687500000,145268.6718750000,,,
1.1399999983,8,148185.4687500000,195162.3593750000,143510.0625000000,149348.1250000000,120024.6328125000,151880.9843750000,131707.5312500000,144969.5781250000,,,
1.1439999982,8,147986.3437500000,198295.9062500000,142945.5625000000,149123.1718750000,119822.1484375000,151687.3437500000,131500.7656250000,144800.8437500000,,,
1.1479999982,8,148310.0000000000,198359.7343750000,143458.9062500000,149509.5468750000,120128.3828125000,151984.6093750000,131786.7031250000,144988.0156250000,,,
1.1519999981,9,148696.7812500000,195237.6718750000,144291.8437500000,149987.2968750000,120499.2734375000,152347.2343750000,132143.6250000000,145258.4218750000,,,
1.1559999981,9,148604.4843750000,193335.0937500000,144377.4375000000,149892.6093750000,120406.8437500000,152266.0156250000,132069.9218750000,145227.3125000000,,,
1.1599999981,9,148172.4375000000,195200.2343750000,143495.7656250000,149350.8593750000,119992.9843750000,151867.9843750000,131690.0781250000,144941.5781250000,,,
1.1639999980,9,147994.9218750000,198281.6093750000,142959.1562500000,149133.9531250000,119818.8281250000,151700.8750000000,131526.9375000000,144796.0156250000,,,
1.1679999980,9,148317.7500000000,198378.5156250000,143483.3437500000,149531.4843750000,120127.3046875000,152003.9218750000,131810.8437500000,144988.6562500000,,,
1.1719999979,9,148706.8906250000,195342.2812500000,144333.6562500000,150007.5468750000,120502.1171875000,152372.6406250000,132164.9843750000,145259.9843750000,,,
1.1759999981,9,148628.7656250000,193467.1250000000,144425.1718750000,149919.7812500000,120420.8984375000,152298.9843750000,132102.8906250000,145240.0625000000,,,
1.1799999981,9,148195.4531250000,195255.7187500000,143505.1562500000,149382.5156250000,120004.1406250000,151896.5000000000,131720.0312500000,144951.5000000000,,,
1.1839999980,9,148029.9218750000,198246.6250000000,142955.8593750000,149164.2968750000,119848.1171875000,151735.0781250000,131568.1406250000,144814.0937500000,,,
1.1879999980,9,148355.7031250000,198342.0625000000,143487.5312500000,149547.3125000000,120166.4921875000,152029.5000000000,131852.9375000000,145010.1875000000,,,
1.1919999979,9,148744.1406250000,195393.9687500000,144351.0625000000,150018.0937500000,120547.3437500000,152392.3593750000,132197.6718750000,145290.6406250000,,,
1.1959999981,9,148650.0781250000,193555.6562500000,144444.6718750000,149911.8437500000,120460.4921875000,152309.9062500000,132118.4218750000,145265.0468750000,,,
1.1999999981,9,148207.2187500000,195294.5937500000,143529.0156250000,149370.2500000000,120037.4531250000,151903.4375000000,131726.9218750000,144974.9687500000,,,
1.2039999980,9,148037.2187500000,198242.2343750000,142964.0625000000,149145.5468750000,119875.1562500000,151748.0937500000,131572.1875000000,144843.5781250000,,,
1.2079999980,9,148340.4531250000,198382.9375000000,143465.9843750000,149523.3281250000,120170.2734375000,152025.7812500000,131841.0781250000,145019.4218750000,,,
1.2119999980,9,148699.8125000000,195520.2187500000,144299.4062500000,149975.6093750000,120518.5312500000,152370.1250000000,132167.6093750000,145270.0468750000,,,
1.2159999979,9,148612.3125000000,193703.5000000000,144393.7968750000,149892.0312500000,120431.9765625000,152292.2031250000,132094.9531250000,145242.2500000000,,,
1.2199999981,9,148177.6093750000,195394.0156250000,143482.0781250000,149350.4687500000,120015.6484375000,151890.1875000000,131711.1250000000,144954.6718750000,,,
1.2239999981,9,147996.4843750000,198299.5156250000,142900.1250000000,149120.2968750000,119839.8046875000,151720.7343750000,131543.4062500000,144809.3750000000,,,
1.2279999980,9,148308.6406250000,198450.0468750000,143407.0000000000,149499.8906250000,120136.7187500000,152007.4062500000,131815.4062500000,144994.1718750000,,,
1.2319999980,9,148687.0781250000,195620.6718750000,144258.4218750000,149967.2031250000,120496.9453125000,152355.0156250000,132154.4218750000,145256.3593750000,,,
1.2359999979,9,148619.3750000000,193818.1718750000,144361.5781250000,149893.0937500000,120427.3125000000,152288.2812500000,132099.1093750000,145242.5000000000,,,
1.2399999981,9,148205.5000000000,195477.2968750000,143462.9531250000,149362.8281250000,120027.6875000000,151905.0000000000,131727.1093750000,144970.3281250000,,,
1.2439999981,9,148031.2656250000,198336.7500000000,142891.9687500000,149141.1406250000,119864.2109375000,151740.4218750000,131562.5000000000,144832.0156250000,,,
1.2479999980,9,148342.1093750000,198497.9531250000,143398.6406250000,149511.6875000000,120168.6640625000,152028.2187500000,131839.7968750000,145022.8750000000,,,
1.2519999980,9,148718.4531250000,195706.4687500000,144266.5468750000,149984.2187500000,120530.3906250000,152383.5312500000,132181.3906250000,145290.0468750000,,,
1.2559999980,9,148643.4531250000,193891.7656250000,144386.0625000000,149902.0625000000,120458.9609375000,152319.3750000000,132126.4062500000,145273.6875000000,,,
1.2599999979,9,148215.7500000000,195459.3281250000,143464.1718750000,149364.1875000000,120051.1093750000,151924.4218750000,131749.1250000000,144987.1718750000,,,
1.2639999981,9,148025.4843750000,198240.8593750000,142855.2500000000,149128.8906250000,119867.2968750000,151744.8125000000,131574.1406250000,144830.9687500000,,,
1.2679999981,9,148325.7968750000,198411.5625000000,143347.9375000000,149488.5468750000,120156.0312500000,152022.7968750000,131837.4062500000,145010.7343750000,,,
1.2719999980,9,148708.4531250000,195691.1562500000,144222.3750000000,149965.4375000000,120524.8359375000,152376.9375000000,132181.1093750000,145281.2343750000,,,
1.2759999980,9,148633.6718750000,193911.5156250000,144361.4375000000,149897.8437500000,120450.7578125000,152308.1406250000,132119.7656250000,145258.9687500000,,,
1.2799999979,10,148208.5312500000,195459.4687500000,143468.9062500000,149364.4062500000,120041.9296875000,151918.1718750000,131742.7500000000,144973.9218750000,,,
1.2839999979,10,148027.1406250000,198222.4062500000,142874.3437500000,149127.2187500000,119865.3906250000,151750.9843750000,131572.7187500000,144826.1718750000,,,
1.2879999978,10,148331.8437500000,198426.6093750000,143374.9218750000,149490.6875000000,120151.1796875000,152032.2656250000,131831.4218750000,145008.6093750000,,,
1.2919999978,10,148710.0781250000,195772.5625000000,144253.7500000000,149969.9375000000,120504.6640625000,152378.8906250000,132164.9531250000,145271.0312500000,,,
1.2959999978,10,148646.7031250000,194013.8125000000,144388.1093750000,149911.1718750000,120435.5703125000,152321.3281250000,132119.4843750000,145257.5468750000,,,
1.2999999977,10,148203.0937500000,195543.7343750000,143461.0468750000,149369.3906250000,120008.3281250000,151909.1562500000,131728.3125000000,144956.3593750000,,,
1.3039999979,10,148000.2656250000,198304.0312500000,142835.2656250000,149112.7656250000,119817.9140625000,151713.1875000000,131544.8750000000,144792.6562500000,,,
1.3079999979,10,148298.5781250000,198538.5937500000,143326.2500000000,149469.2343750000,120110.5156250000,151987.4531250000,131804.7812500000,144974.2187500000,,,
1.3119999978,10,148697.1093750000,195896.3125000000,144224.7343750000,149959.3281250000,120496.4609375000,152355.6093750000,132157.6875000000,145260.4687500000,,,
1.3159999978,10,148652.9062500000,194100.3906250000,144397.0312500000,149911.7968750000,120452.7656250000,152315.1406250000,132119.3906250000,145267.7343750000,,,
1.3199999977,10,148233.8906250000,195576.7343750000,143510.8281250000,149377.2500000000,120052.7656250000,151929.4843750000,131746.4531250000,144990.0781250000,,,
1.3239999979,10,148034.1093750000,198300.2656250000,142890.3593750000,149119.1406250000,119862.3593750000,151739.2656250000,131563.3437500000,144828.5000000000,,,
1.3279999979,10,148324.5156250000,198535.9843750000,143368.0000000000,149475.5312500000,120141.6875000000,152002.1250000000,131815.6718750000,145002.1406250000,,,
1.3319999978,10,148723.3593750000,195920.6093750000,144270.6562500000,149966.5156250000,120526.2343750000,152374.5937500000,132179.0312500000,145291.4218750000,,,
1.3359999978,10,148664.1093750000,194128.6250000000,144439.9531250000,149913.9062500000,120467.3828125000,152319.9843750000,132129.2812500000,145281.4218750000,,,
1.3399999978,10,148222.1406250000,195565.0625000000,143522.3125000000,149364.7500000000,120045.3359375000,151912.4531250000,131734.7343750000,144973.2812500000,,,
1.3439999977,10,148024.6250000000,198275.5625000000,142869.9687500000,149112.0937500000,119850.7968750000,151730.9687500000,131566.4531250000,144815.0625000000,,,
1.3479999979,10,148324.4843750000,198553.9218750000,143335.8750000000,149472.7656250000,120137.3359375000,152014.3281250000,131827.1250000000,145004.9062500000,,,
1.3519999979,10,148707.9375000000,195972.1718750000,144227.8906250000,149942.5625000000,120509.5468750000,152378.2968750000,132169.9375000000,145286.9375000000,,,
1.3559999978,10,148654.2187500000,194185.9218750000,144399.5312500000,149891.8125000000,120459.9296875000,152338.8750000000,132128.6718750000,145290.5625000000,,,
1.3599999978,10,148232.4687500000,195608.4062500000,143510.7343750000,149372.3750000000,120065.0234375000,151951.7500000000,131772.7343750000,145010.2968750000,,,
1.3639999977,10,148021.0312500000,198288.3437500000,142864.7187500000,149110.9062500000,119866.1171875000,151745.4843750000,131584.5000000000,144837.8593750000,,,
1.3679999979,10,148308.8281250000,198590.9687500000,143339.6250000000,149461.2343750000,120140.9843750000,152000.2187500000,131832.6875000000,145007.9375000000,,,
1.3719999979,10,148693.2343750000,196032.7031250000,144240.4843750000,149940.8750000000,120509.0937500000,152359.7656250000,132177.3750000000,145279.4531250000,,,
1.3759999978,10,148640.3750000000,194223.7500000000,144419.2500000000,149895.0312500000,120455.0156250000,152313.9218750000,132133.7656250000,145272.1875000000,,,
1.3799999978,10,148220.1718750000,195611.3281250000,143525.8750000000,149363.5781250000,120049.6328125000,151926.9687500000,131758.3593750000,144986.0000000000,,,
1.3839999977,10,148013.5937500000,198298.1562500000,142875.1562500000,149095.1718750000,119845.4843750000,151728.7500000000,131563.9531250000,144815.3750000000,,,
1.3879999977,10,148297.6093750000,198615.7812500000,143336.9531250000,149448.2500000000,120112.7968750000,151987.9531250000,131807.3437500000,144981.5781250000,,,
1.3919999979,10,148694.6093750000,196061.3593750000,144243.7812500000,149946.0468750000,120491.2578125000,152360.1093750000,132159.7812500000,145263.8437500000,,,
1.3959999979,10,148657.2656250000,194229.4062500000,144452.2343750000,149913.0000000000,120452.9531250000,152330.0000000000,132131.0000000000,145273.6093750000,,,
1.3999999978,10,148239.0312500000,195585.5312500000,143570.8906250000,149384.6093750000,120052.0468750000,151944.2343750000,131759.0781250000,144996.9687500000,,,
1.4039999978,10,148019.7031250000,198258.2656250000,142893.8437500000,149115.0937500000,119841.2734375000,151736.1718750000,131556.5781250000,144818.8125000000,,,
1.4079999977,11,148297.4531250000,198602.5781250000,143349.9843750000,149443.8281250000,120109.2812500000,151984.4687500000,131795.3281250000,144979.9375000000,,,
1.4119999977,11,148693.2656250000,196090.7187500000,144258.9531250000,149922.7656250000,120493.9375000000,152348.1718750000,132150.3437500000,145259.9531250000,,,
1.4159999976,11,148651.3437500000,194280.6875000000,144467.5781250000,149897.0468750000,120451.0000000000,152311.2656250000,132117.0781250000,145263.6250000000,,,
1.4199999976,11,148233.4843750000,195615.7812500000,143583.6562500000,149378.7656250000,120048.0468750000,151931.6562500000,131743.3125000000,144983.0937500000,,,
1.4239999976,11,148029.1250000000,198283.7031250000,142917.0156250000,149112.3281250000,119850.7421875000,151736.3125000000,131563.8437500000,144818.8906250000,,,
1.4279999975,11,148305.8281250000,198665.1875000000,143374.3125000000,149447.1875000000,120113.8437500000,151989.3750000000,131808.7343750000,144986.3750000000,,,
1.4319999977,11,148705.5312500000,196178.5937500000,144280.3593750000,149938.6718750000,120496.2187500000,152367.4062500000,132168.7031250000,145277.0468750000,,,
1.4359999977,11,148682.4531250000,194349.7500000000,144505.2031250000,149915.1406250000,120478.3046875000,152349.1718750000,132160.4531250000,145299.1718750000,,,
1.4399999976,11,148265.0468750000,195624.2812500000,143620.5625000000,149392.4687500000,120078.8671875000,151968.8125000000,131787.7343750000,145020.1875000000,,,
1.4439999976,11,148045.5625000000,198215.8906250000,142914.1562500000,149115.7968750000,119868.3906250000,151765.5156250000,131585.1093750000,144842.3125000000,,,
1.4479999975,11,148311.3125000000,198566.7187500000,143367.2031250000,149435.9218750000,120124.9765625000,152006.0937500000,131814.6875000000,144997.9375000000,,,
1.4519999977,11,148694.3437500000,196171.5312500000,144306.7031250000,149927.1093750000,120491.6015625000,152356.3593750000,132154.8437500000,145268.8281250000,,,
1.4559999977,11,148665.6093750000,194416.1406250000,144542.2031250000,149915.7031250000,120461.0781250000,152332.4375000000,132135.3125000000,145280.6875000000,,,
1.4599999976,11,148248.7500000000,195675.1875000000,143641.7343750000,149383.8750000000,120059.5000000000,151947.3750000000,131763.6406250000,144995.2968750000,,,
1.4639999976,11,148047.7968750000,198247.5468750000,142944.3281250000,149108.3593750000,119866.1640625000,151756.9375000000,131581.9843750000,144834.5312500000,,,
1.4679999975,11,148318.5625000000,198629.3593750000,143388.2656250000,149442.3281250000,120122.2343750000,152004.1250000000,131818.0937500000,144995.4843750000,,,
1.4719999975,11,148698.3593750000,196234.7812500000,144313.5625000000,149934.5625000000,120486.1093750000,152352.0625000000,132159.3281250000,145263.6562500000,,,
1.4759999977,11,148684.1718750000,194456.2656250000,144557.9218750000,149918.0468750000,120472.3437500000,152334.3437500000,132151.5468750000,145286.5625000000,,,
1.4799999977,11,148279.4062500000,195706.7031250000,143670.7500000000,149393.5625000000,120084.2031250000,151961.4843750000,131790.2968750000,145012.6562500000,,,
1.4839999976,11,148054.0156250000,198287.6406250000,142937.3593750000,149114.7187500000,119869.6562500000,151751.3281250000,131584.7968750000,144830.6093750000,,,
1.4879999976,11,148316.3593750000,198699.2812500000,143344.9062500000,149430.0156250000,120121.9453125000,151995.5000000000,131815.0625000000,144992.7812500000,,,
1.4919999975,11,148698.2343750000,196303.4218750000,144266.8125000000,149921.8593750000,120491.0390625000,152353.4843750000,132160.8593750000,145266.3906250000,,,
1.4959999977,11,148674.3281250000,194486.8125000000,144532.0000000000,149919.2187500000,120466.7656250000,152329.6718750000,132145.2343750000,145281.1406250000,,,
1.4999999977,11,148268.4062500000,195717.5468750000,143657.1562500000,149395.7031250000,120078.5703125000,151953.4687500000,131787.2187500000,145006.0937500000,,,
1.5039999976,11,148056.5156250000,198327.4687500000,142932.2812500000,149107.1093750000,119876.9765625000,151758.1406250000,131596.0000000000,144836.4687500000,,,
1.5079999976,11,148315.2656250000,198756.6250000000,143352.3125000000,149426.3906250000,120127.6796875000,151991.6875000000,131821.6875000000,144986.4218750000,,,
1.5119999975,11,148698.5000000000,196339.6562500000,144281.4843750000,149915.3125000000,120496.4062500000,152347.6406250000,132167.7500000000,145259.2812500000,,,
1.5159999975,11,148689.5937500000,194477.9843750000,144544.7500000000,149914.3906250000,120484.2031250000,152346.1875000000,132166.2968750000,145294.1562500000,,,
1.5199999977,11,148287.1250000000,195669.5312500000,143661.3906250000,149389.8593750000,120102.5000000000,151973.1562500000,131811.5781250000,145026.7656250000,,,
1.5239999976,11,148055.0312500000,198277.9531250000,142910.2812500000,149101.4375000000,119882.5000000000,151753.4843750000,131595.2500000000,144841.5000000000,,,
1.5279999976,11,148307.7031250000,198735.8906250000,143304.4375000000,149416.6562500000,120125.7812500000,151990.4218750000,131819.9375000000,144992.6562500000,,,
1.5319999976,11,148695.5937500000,196331.7500000000,144223.0156250000,149910.5937500000,120498.6015625000,152356.4687500000,132174.1250000000,145271.7031250000,,,
1.5359999975,12,148680.9531250000,194451.6718750000,144497.5468750000,149907.5000000000,120481.7890625000,152346.3593750000,132165.8125000000,145294.9531250000,,,
1.5399999975,12,148277.5781250000,195633.0312500000,143635.5000000000,149391.2031250000,120095.4453125000,151975.2656250000,131805.7343750000,145021.1875000000,,,
1.5439999974,12,148042.6406250000,198253.0156250000,142895.4531250000,149094.2500000000,119870.3750000000,151753.6718750000,131590.9843750000,144830.6093750000,,,
1.5479999974,12,148302.3281250000,198743.5156250000,143310.5000000000,149411.1562500000,120118.1328125000,151988.5000000000,131814.6093750000,144985.1718750000,,,
1.5519999973,12,148691.5781250000,196339.6875000000,144229.6406250000,149907.7968750000,120489.8906250000,152350.0781250000,132158.8437500000,145259.6406250000,,,
1.5559999973,12,148685.6718750000,194428.5312500000,144501.9687500000,149917.9687500000,120481.5468750000,152342.1406250000,132156.2343750000,145289.5468750000,,,
1.5599999975,12,148291.0625000000,195601.3750000000,143651.6562500000,149409.0156250000,120102.5000000000,151978.4062500000,131799.2343750000,145029.1562500000,,,
1.5639999975,12,148054.6875000000,198252.5312500000,142915.2500000000,149096.8125000000,119874.0781250000,151753.4531250000,131566.8437500000,144840.3593750000,,,
1.5679999974,12,148293.0781250000,198778.5625000000,143317.7187500000,149399.4843750000,120100.1875000000,151968.5625000000,131780.0000000000,144973.3593750000,,,
1.5719999974,12,148689.9062500000,196388.1250000000,144252.9531250000,149897.2343750000,120480.5234375000,152344.0000000000,132150.3593750000,145255.7500000000,,,
1.5759999973,12,148702.4062500000,194449.0156250000,144552.9218750000,149933.3281250000,120490.9609375000,152359.9531250000,132172.2500000000,145301.7500000000,,,
1.5799999975,12,148290.0156250000,195601.9687500000,143695.8593750000,149426.3906250000,120097.0781250000,151974.3593750000,131807.6875000000,145017.6250000000,,,
1.5839999975,12,148047.3125000000,198295.0468750000,142921.9062500000,149113.7343750000,119864.1015625000,151745.5625000000,131587.0781250000,144824.8437500000,,,
1.5879999974,12,148296.9218750000,198904.3593750000,143295.6093750000,149415.7187500000,120103.1953125000,151972.6718750000,131804.0156250000,144976.0000000000,,,
1.5919999974,12,148691.6562500000,196523.3437500000,144203.6562500000,149902.7031250000,120483.5312500000,152342.0156250000,132160.5781250000,145256.1718750000,,,
1.5959999973,12,148690.6875000000,194497.4062500000,144491.7656250000,149908.4375000000,120484.3593750000,152339.0937500000,132169.8437500000,145288.0625000000,,,
1.5999999973,12,148280.8750000000,195618.7031250000,143655.2968750000,149392.2031250000,120092.8671875000,151962.1562500000,131805.4062500000,145015.8750000000,,,
1.6039999975,12,148033.9531250000,198378.5156250000,142900.7656250000,149075.4843750000,119854.0937500000,151735.4218750000,131574.8750000000,144827.5312500000,,,
1.6079999974,12,148279.5937500000,199003.2500000000,143272.8906250000,149378.7343750000,120090.9375000000,151959.8281250000,131787.1093750000,144970.9218750000,,,
1.6119999974,12,148682.3281250000,196559.7031250000,144197.2187500000,149884.1718750000,120481.1718750000,152335.2031250000,132150.1562500000,145251.5937500000,,,
1.6159999974,12,148691.7968750000,194477.9843750000,144503.8750000000,149911.6406250000,120488.8125000000,152346.8906250000,132165.8437500000,145292.9531250000,,,
1.6199999973,12,148287.5781250000,195581.7656250000,143674.0468750000,149400.7031250000,120103.8125000000,151975.7500000000,131813.1875000000,145027.7031250000,,,
1.6239999975,12,148033.5000000000,198374.1406250000,142918.5156250000,149090.7500000000,119859.2187500000,151738.9218750000,131583.0000000000,144831.7968750000,,,
1.6279999975,12,148258.7500000000,199039.2968750000,143265.4375000000,149362.8750000000,120075.7265625000,151944.3125000000,131780.2656250000,144955.9218750000,,,
1.6319999974,12,148660.4062500000,196577.8593750000,144166.0937500000,149857.6718750000,120461.0781250000,152313.6562500000,132137.4375000000,145233.8906250000,,,
1.6359999974,12,148677.4687500000,194440.2500000000,144468.5156250000,149896.3125000000,120477.4687500000,152326.4531250000,132155.1718750000,145277.9062500000,,,
1.6399999973,12,148278.4687500000,195531.5625000000,143662.4062500000,149397.1875000000,120098.0468750000,151958.7187500000,131801.2500000000,145013.9531250000,,,
1.6439999973,12,148013.6718750000,198342.0156250000,142898.8281250000,149078.0781250000,119839.1328125000,151711.6406250000,131563.2812500000,144807.5781250000,,,
1.6479999975,12,148252.1250000000,199058.7968750000,143251.7031250000,149359.8437500000,120064.1953125000,151934.4531250000,131771.6093750000,144949.3281250000,,,
1.6519999974,12,148660.4843750000,196625.0781250000,144157.0312500000,149862.7031250000,120456.3359375000,152317.0625000000,132136.6562500000,145235.2343750000,,,
1.6559999974,12,148685.2656250000,194472.0625000000,144477.0468750000,149903.4843750000,120479.0234375000,152340.5937500000,132165.0312500000,145286.3437500000,,,
1.6599999974,12,148280.6562500000,195527.7031250000,143670.9843750000,149397.0000000000,120093.9375000000,151969.0468750000,131807.2812500000,145018.2968750000,,,
1.6639999973,13,148039.3906250000,198296.7031250000,142911.1250000000,149079.0781250000,119862.9453125000,151739.2343750000,131589.2968750000,144830.6406250000,,,
1.6679999973,13,148281.1406250000,198988.1250000000,143261.7968750000,149376.7500000000,120091.5234375000,151958.5937500000,131797.2187500000,144971.8906250000,,,
1.6719999972,13,148687.0156250000,196597.7187500000,144185.0937500000,149881.9375000000,120481.7343750000,152337.1250000000,132155.7500000000,145256.9218750000,,,
1.6759999972,13,148700.4531250000,194499.5781250000,144535.5000000000,149916.7031250000,120494.0703125000,152348.4531250000,132174.1250000000,145298.5312500000,,,
1.6799999971,13,148292.4687500000,195545.3750000000,143724.2812500000,149400.0625000000,120104.3984375000,151974.5937500000,131817.2812500000,145028.4843750000,,,
1.6839999971,13,148037.6875000000,198308.0312500000,142918.6093750000,149064.1562500000,119856.5625000000,151738.5937500000,131583.9375000000,144832.0156250000,,,
1.6879999973,13,148279.2656250000,199033.8906250000,143246.0156250000,149354.9375000000,120086.2187500000,151962.3906250000,131791.8593750000,144975.1406250000,,,
1.6919999972,13,148672.9687500000,196657.6875000000,144163.2031250000,149862.8750000000,120464.8593750000,152329.8593750000,132145.8906250000,145249.1562500000,,,
1.6959999972,13,148685.7812500000,194538.8437500000,144508.1406250000,149902.3750000000,120476.8281250000,152340.4531250000,132161.2812500000,145286.2187500000,,,
1.6999999972,13,148275.0000000000,195561.2343750000,143690.0000000000,149379.1875000000,120088.4921875000,151964.8125000000,131800.6250000000,145006.1718750000,,,
1.7039999971,13,148028.0312500000,198325.8593750000,142898.8906250000,149055.1718750000,119853.1875000000,151738.0625000000,131578.0625000000,144816.5312500000,,,
1.7079999973,13,148261.5156250000,199071.9687500000,143228.4843750000,149342.1406250000,120074.0625000000,151942.8125000000,131775.4375000000,144950.3437500000,,,
1.7119999973,13,148663.0312500000,196697.0156250000,144135.2812500000,149845.3593750000,120458.3750000000,152315.0468750000,132131.2187500000,145231.9531250000,,,
1.7159999972,13,148691.8750000000,194542.2343750000,144492.4375000000,149896.1875000000,120482.9375000000,152347.7812500000,132166.5625000000,145291.8750000000,,,
1.7199999972,13,148283.4843750000,195531.0312500000,143684.9375000000,149390.6406250000,120092.4687500000,151970.1718750000,131807.0937500000,145018.7812500000,,,
1.7239999971,13,148029.7656250000,198294.3750000000,142896.3750000000,149063.7812500000,119851.1484375000,151729.7343750000,131580.2656250000,144820.8593750000,,,
1.7279999971,13,148269.1250000000,199071.4375000000,143230.8125000000,149347.9687500000,120078.6484375000,151950.3281250000,131789.0468750000,144964.1093750000,,,
1.7319999973,13,148668.3281250000,196711.4062500000,144150.8906250000,149856.3593750000,120461.8828125000,152317.8906250000,132148.3593750000,145241.5781250000,,,
1.7359999972,13,148692.7031250000,194541.2968750000,144505.6093750000,149907.1875000000,120485.3281250000,152341.5468750000,132175.3593750000,145290.9687500000,,,
1.7399999972,13,148306.9218750000,195507.7968750000,143711.6562500000,149408.4843750000,120118.4296875000,151990.6406250000,131834.5937500000,145038.9687500000,,,
1.7439999972,13,148035.1093750000,198284.9531250000,142907.4531250000,149053.2500000000,119858.0156250000,151739.7968750000,131586.0000000000,144827.7187500000,,,
1.7479999971,13,148229.3437500000,199076.3437500000,143195.3750000000,149306.2343750000,120044.6718750000,151911.1875000000,131748.6250000000,144919.2031250000,,,
1.7519999973,13,148640.9375000000,196722.7812500000,144130.0312500000,149818.6406250000,120438.4687500000,152291.6406250000,132111.7187500000,145202.6406250000,,,
1.7559999973,13,148677.7656250000,194520.3750000000,144517.5468750000,149881.4531250000,120468.4609375000,152325.6406250000,132144.5156250000,145261.6718750000,,,
1.7599999972,13,148292.9218750000,195457.0312500000,143733.8281250000,149391.1718750000,120100.7265625000,151973.9531250000,131802.7500000000,145014.2187500000,,,
1.7639999972,13,148033.9843750000,198244.0000000000,142929.2812500000,149054.4843750000,119853.6953125000,151728.7187500000,131565.9062500000,144819.8281250000,,,
1.7679999971,13,148260.4843750000,199089.8906250000,143237.1718750000,149329.8593750000,120068.9140625000,151936.6250000000,131762.2187500000,144957.0781250000,,,
1.7719999971,13,148676.4531250000,196759.8281250000,144160.6250000000,149846.3437500000,120468.5078125000,152332.4843750000,132143.4687500000,145254.6718750000,,,
1.7759999973,13,148707.4062500000,194537.5312500000,144527.6875000000,149913.7031250000,120495.6015625000,152365.1562500000,132178.8281250000,145310.4843750000,,,
1.7799999972,13,148306.8437500000,195460.2500000000,143744.3750000000,149402.9062500000,120115.5859375000,151991.9062500000,131826.8593750000,145043.2812500000,,,
1.7839999972,13,148047.3125000000,198280.4218750000,142943.8906250000,149055.4218750000,119868.8203125000,151750.1250000000,131592.7812500000,144847.6718750000,,,
1.7879999971,13,148268.6718750000,199170.4843750000,143248.6718750000,149326.5312500000,120080.6093750000,151948.7968750000,131781.7187500000,144975.5312500000,,,
1.7919999971,14,148684.0156250000,196840.3437500000,144180.7968750000,149839.8906250000,120481.8125000000,152330.2656250000,132151.3906250000,145261.3750000000,,,
1.7959999971,14,148724.1718750000,194580.4843750000,144575.0781250000,149904.4687500000,120518.4843750000,152366.8125000000,132191.1562500000,145319.0468750000,,,
1.7999999970,14,148321.5937500000,195472.7187500000,143778.7343750000,149411.1562500000,120131.3828125000,151997.7812500000,131835.9843750000,145050.1875000000,,,
1.8039999970,14,148041.7500000000,198302.3437500000,142944.7500000000,149058.4687500000,119863.8046875000,151738.5937500000,131586.1562500000,144831.3125000000,,,
1.8079999969,14,148260.0625000000,199225.0937500000,143231.7187500000,149331.5000000000,120074.1171875000,151942.3281250000,131779.1250000000,144955.2812500000,,,
1.8119999969,14,148664.7343750000,196894.3906250000,144137.2343750000,149839.5156250000,120461.4843750000,152319.1093750000,132140.0156250000,145236.5625000000,,,
1.8159999971,14,148705.7187500000,194589.7343750000,144521.0937500000,149909.4531250000,120499.2500000000,152359.8125000000,132185.5312500000,145297.1875000000,,,
1.8199999970,14,148312.7343750000,195466.5156250000,143759.5781250000,149417.8125000000,120124.7890625000,151997.0781250000,131840.6250000000,145035.1406250000,,,
1.8239999970,14,148038.7031250000,198323.5312500000,142930.7343750000,149060.5468750000,119862.6562500000,151734.6718750000,131586.0781250000,144824.2656250000,,,
1.8279999970,14,148251.2968750000,199278.0937500000,143209.2968750000,149313.5781250000,120065.4843750000,151922.0781250000,131764.3750000000,144945.5468750000,,,
1.8319999969,14,148668.0000000000,196931.6562500000,144137.2656250000,149828.2968750000,120464.1406250000,152315.5625000000,132137.6562500000,145241.2968750000,,,
1.8359999971,14,148723.2500000000,194576.5312500000,144551.1093750000,149911.9843750000,120517.7265625000,152370.6093750000,132199.0000000000,145318.6250000000,,,
1.8399999971,14,148330.0937500000,195408.5625000000,143779.5156250000,149422.2343750000,120140.1562500000,152012.4687500000,131851.8906250000,145060.2656250000,,,
1.8439999970,14,148049.7812500000,198264.1718750000,142929.3593750000,149056.9218750000,119870.7265625000,151756.5937500000,131595.7968750000,144846.8437500000,,,
1.8479999970,14,148238.4687500000,199244.2500000000,143174.6250000000,149283.5625000000,120048.5546875000,151926.1406250000,131754.0468750000,144942.3906250000,,,
1.8519999969,14,148643.1562500000,196917.8281250000,144071.6093750000,149799.1093750000,120434.8515625000,152300.1718750000,132116.1406250000,145217.7968750000,,,
1.8559999969,14,148693.0468750000,194550.6562500000,144472.3750000000,149886.6093750000,120477.2265625000,152348.7656250000,132166.7812500000,145286.8125000000,,,
1.8599999971,14,148305.6562500000,195381.2031250000,143724.2656250000,149400.0625000000,120105.1484375000,151993.4531250000,131823.8281250000,145032.9375000000,,,
1.8639999970,14,148027.0312500000,198279.7343750000,142900.2343750000,149028.8593750000,119839.1875000000,151732.3750000000,131572.1093750000,144821.3125000000,,,
1.8679999970,14,148236.5625000000,199338.2031250000,143167.4375000000,149270.3906250000,120043.0859375000,151920.7187500000,131754.3906250000,144939.1093750000,,,
1.8719999969,14,148651.8750000000,197038.6093750000,144084.1562500000,149791.3906250000,120446.9218750000,152303.6562500000,132126.7656250000,145223.7968750000,,,
1.8759999969,14,148707.4843750000,194632.4062500000,144502.3437500000,149888.9687500000,120499.9453125000,152354.2187500000,132177.2343750000,145294.4218750000,,,
1.8799999971,14,148325.1562500000,195449.9375000000,143760.2812500000,149403.8593750000,120134.3593750000,152005.5312500000,131835.6562500000,145048.6875000000,,,
1.8839999971,14,148042.2343750000,198415.5312500000,142922.6250000000,149026.3906250000,119864.2656250000,151739.6406250000,131569.5000000000,144834.7500000000,,,
1.8879999970,14,148254.2187500000,199542.4375000000,143187.0156250000,149278.0468750000,120066.1015625000,151929.1718750000,131757.9843750000,144955.0156250000,,,
1.8919999970,14,148665.3906250000,197217.5156250000,144095.0000000000,149810.6250000000,120458.7187500000,152303.5937500000,132133.3125000000,145230.0781250000,,,
1.8959999969,14,148719.2343750000,194727.8125000000,144519.4843750000,149907.3906250000,120502.0390625000,152355.7968750000,132182.1250000000,145294.9843750000,,,
1.8999999969,14,148320.1406250000,195517.4531250000,143770.7343750000,149413.2500000000,120115.2109375000,151989.6406250000,131824.7187500000,145029.6093750000,,,
1.9039999971,14,148023.5781250000,198546.1718750000,142910.9531250000,149027.4687500000,119829.8750000000,151710.8281250000,131555.9531250000,144802.9062500000,,,
1.9079999970,14,148217.1718750000,199725.7656250000,143143.1093750000,149261.5156250000,120015.1640625000,151888.0781250000,131725.7656250000,144908.2187500000,,,
1.9119999970,14,148642.3593750000,197359.6718750000,144054.7812500000,149786.6718750000,120428.1718750000,152285.7031250000,132115.4218750000,145200.0937500000,,,
1.9159999969,14,148719.5312500000,194752.4062500000,144495.2656250000,149898.9218750000,120504.0468750000,152355.8750000000,132193.5156250000,145285.8906250000,,,
1.9199999969,15,148332.1875000000,195451.7187500000,143749.5468750000,149416.0937500000,120135.4375000000,151998.6093750000,131851.5468750000,145034.7812500000,,,
1.9239999969,15,148033.9062500000,198457.4843750000,142877.4375000000,149026.3437500000,119852.4375000000,151722.5781250000,131582.7812500000,144813.9375000000,,,
1.9279999968,15,148221.8750000000,199651.0312500000,143104.1093750000,149252.1250000000,120031.8437500000,151898.2187500000,131742.5625000000,144918.2656250000,,,
1.9319999968,15,148644.5625000000,197288.3281250000,144012.5156250000,149771.5156250000,120439.1640625000,152291.0468750000,132118.0937500000,145211.3906250000,,,
1.9359999967,15,148726.2500000000,194678.1562500000,144470.6093750000,149891.0625000000,120514.1093750000,152360.8593750000,132191.5625000000,145306.2500000000,,,
1.9399999967,15,148339.8125000000,195411.9843750000,143762.8593750000,149416.4375000000,120142.8671875000,151999.0156250000,131845.8750000000,145056.3750000000,,,
1.9439999969,15,148038.1406250000,198531.0468750000,142916.8125000000,149024.2187500000,119853.4765625000,151715.9062500000,131574.1250000000,144829.3750000000,,,
1.9479999968,15,148226.9062500000,199852.2031250000,143138.3593750000,149248.6250000000,120032.2265625000,151884.3437500000,131733.5468750000,144928.5781250000,,,
1.9519999968,15,148656.8125000000,197524.1718750000,144049.6406250000,149773.9531250000,120445.4687500000,152281.5312500000,132114.0937500000,145221.2812500000,,,
1.9559999967,15,148738.7500000000,194852.2968750000,144509.6406250000,149895.5468750000,120524.9140625000,152361.1093750000,132183.6562500000,145312.5781250000,,,
1.9599999967,15,148347.2343750000,195553.4687500000,143798.5000000000,149415.2343750000,120154.0234375000,152000.7031250000,131825.5000000000,145057.3437500000,,,
1.9639999969,15,148034.7812500000,198710.0000000000,142928.1250000000,149016.5000000000,119851.5234375000,151706.9218750000,131551.2187500000,144818.6562500000,,,
1.9679999969,15,148229.3750000000,200060.0937500000,143147.0937500000,149244.9218750000,120033.1328125000,151884.3750000000,131730.9218750000,144924.2812500000,,,
1.9719999968,15,148667.1093750000,197673.0937500000,144049.2656250000,149786.3750000000,120453.8671875000,152295.4531250000,132128.6406250000,145226.7500000000,,,
1.9759999968,15,148749.5312500000,194898.8281250000,144520.6093750000,149917.1875000000,120529.9609375000,152378.5156250000,132208.9375000000,145319.9375000000,,,
1.9799999967,15,148336.5000000000,195539.3125000000,143821.3593750000,149422.5000000000,120134.6562500000,152002.1406250000,131845.1875000000,145044.4687500000,,,
1.9839999967,15,148019.3593750000,198743.5625000000,142961.5937500000,149017.7343750000,119832.6406250000,151705.4687500000,131560.1718750000,144804.2187500000,,,
1.9879999969,15,148220.0468750000,200204.0000000000,143187.6250000000,149238.9062500000,120024.3125000000,151886.1093750000,131732.0468750000,144916.4687500000,,,
1.9919999968,15,148649.3906250000,197859.2343750000,144095.0156250000,149766.9843750000,120439.1406250000,152289.3593750000,132118.0156250000,145209.7187500000,,,
1.9959999968,15,148736.4531250000,195007.7031250000,144558.2343750000,149903.0781250000,120523.1484375000,152375.9375000000,132201.7500000000,145302.6562500000,,,
1.9999999967,15,148355.8437500000,195576.4375000000,143867.3281250000,149439.1875000000,120157.8281250000,152021.9218750000,131862.1406250000,145060.5625000000,,,
2.0039999967,15,148043.5000000000,198771.0468750000,142999.0625000000,149040.3750000000,119855.8437500000,151727.8125000000,131579.6093750000,144831.5312500000,,,
2.0079999969,15,148226.1562500000,200204.3437500000,143195.7500000000,149255.7187500000,120029.0312500000,151894.7500000000,131733.6875000000,144932.2187500000,,,
2.0119999968,15,148657.8125000000,197788.7500000000,144097.5625000000,149776.3906250000,120445.4687500000,152295.6875000000,132118.2343750000,145224.7656250000,,,
2.0159999968,15,148742.4062500000,194858.2968750000,144568.7812500000,149904.8125000000,120526.1796875000,152373.3906250000,132199.3437500000,145313.1718750000,,,
2.0199999968,15,148367.8906250000,195385.8906250000,143897.9062500000,149440.0156250000,120168.6406250000,152025.4531250000,131872.2500000000,145075.0937500000,,,
2.0239999967,15,148047.1718750000,198594.2187500000,143022.8906250000,149024.0625000000,119859.1093750000,151726.6562500000,131579.6718750000,144836.1406250000,,,
2.0279999967,15,148224.1406250000,200110.0625000000,143197.9218750000,149230.5468750000,120027.5312500000,151888.2656250000,131729.7343750000,144929.0468750000,,,
2.0319999969,15,148664.8906250000,197754.6875000000,144083.2187500000,149770.7031250000,120457.0078125000,152296.7031250000,132128.1562500000,145228.2500000000,,,
2.0359999968,15,148768.8437500000,194817.7500000000,144564.8593750000,149919.7812500000,120555.8984375000,152391.4375000000,132228.2500000000,145333.3437500000,,,
2.0399999968,15,148382.9843750000,195335.0156250000,143884.5937500000,149447.1250000000,120181.9140625000,152038.1406250000,131881.0937500000,145089.0468750000,,,
2.0439999967,15,148065.9531250000,198568.5781250000,143001.6406250000,149036.6093750000,119878.5078125000,151738.2187500000,131596.4687500000,144856.7656250000,,,
2.0479999967,16,148248.3906250000,200104.9375000000,143188.1406250000,149238.6718750000,120056.2031250000,151900.8593750000,131756.6718750000,144957.8906250000,,,
2.0519999966,16,148672.5625000000,197743.5000000000,144080.6718750000,149763.1406250000,120466.3906250000,152296.0625000000,132134.3750000000,145240.4062500000,,,
2.0559999966,16,148763.9218750000,194775.6093750000,144552.2812500000,149905.4843750000,120547.1015625000,152381.2031250000,132214.9843750000,145330.9218750000,,,
2.0599999966,16,148382.5312500000,195253.0468750000,143880.2343750000,149436.8281250000,120178.3750000000,152022.0156250000,131875.4062500000,145084.2656250000,,,
2.0639999965,16,148047.7187500000,198497.0625000000,142997.0000000000,149012.8750000000,119858.8437500000,151712.5781250000,131578.0312500000,144835.6562500000,,,
2.0679999965,16,148215.5625000000,200069.7187500000,143169.9218750000,149218.0468750000,120021.6250000000,151869.4062500000,131726.5781250000,144921.1718750000,,,
2.0719999967,16,148659.1718750000,197719.5000000000,144068.5156250000,149752.6875000000,120450.7578125000,152288.0937500000,132123.8593750000,145220.9531250000,,,
2.0759999966,16,148765.7343750000,194720.8593750000,144558.4843750000,149900.1875000000,120551.8984375000,152386.4531250000,132223.9687500000,145324.3906250000,,,
2.0799999966,16,148369.3593750000,195171.4687500000,143886.4843750000,149438.7812500000,120169.8203125000,152016.2500000000,131870.8750000000,145064.3125000000,,,
2.0839999965,16,148029.0781250000,198421.5625000000,142984.7812500000,149021.6250000000,119845.3515625000,151706.0625000000,131569.4531250000,144815.5468750000,,,
2.0879999965,16,148195.8281250000,200033.2968750000,143133.1250000000,149205.5468750000,120007.4140625000,151865.5937500000,131715.7968750000,144904.2500000000,,,
2.0919999967,16,148640.6875000000,197698.9687500000,144021.7968750000,149744.3750000000,120436.4609375000,152280.7187500000,132109.3593750000,145204.8906250000,,,
2.0959999966,16,148751.2500000000,194671.0312500000,144532.2812500000,149903.0781250000,120537.9531250000,152385.6718750000,132209.8750000000,145314.1718750000,,,
2.0999999966,16,148365.2812500000,195087.6250000000,143877.9218750000,149437.3593750000,120164.8046875000,152023.9843750000,131867.9843750000,145067.3437500000,,,
2.1039999966,16,148029.2343750000,198355.5000000000,142979.4062500000,149012.3906250000,119841.8906250000,151706.3281250000,131566.2812500000,144820.4218750000,,,
2.1079999965,16,148206.9843750000,200020.6406250000,143135.9218750000,149209.9375000000,120009.6953125000,151868.7812500000,131716.0000000000,144917.0156250000,,,
2.1119999965,16,148646.1875000000,197709.2500000000,144032.3125000000,149736.5156250000,120433.5312500000,152273.8281250000,132108.5000000000,145208.8125000000,,,
2.1159999967,16,148747.8437500000,194637.5781250000,144537.5000000000,149895.8906250000,120530.4687500000,152369.1562500000,132208.0000000000,145304.5312500000,,,
2.1199999966,16,148374.2187500000,195020.5000000000,143907.3437500000,149440.4687500000,120169.5234375000,152023.2343750000,131878.2343750000,145065.7656250000,,,
2.1239999966,16,148037.9218750000,198314.5468750000,143021.8125000000,149011.7812500000,119847.9843750000,151706.5625000000,131573.0937500000,144817.7187500000,,,
2.1279999965,16,148201.7500000000,200023.8125000000,143171.7031250000,149201.7656250000,120003.0390625000,151853.4218750000,131705.8125000000,144900.2500000000,,,
2.1319999965,16,148648.8750000000,197714.8281250000,144032.9218750000,149747.3281250000,120431.6015625000,152271.0625000000,132100.3906250000,145202.0000000000,,,
2.1359999967,16,148790.1718750000,194604.1406250000,144552.4218750000,149924.7968750000,120566.2265625000,152399.6250000000,132233.3281250000,145336.7968750000,,,
2.1399999966,16,148415.4375000000,194952.9218750000,143929.5781250000,149469.3437500000,120203.8593750000,152048.8125000000,131901.2656250000,145102.6718750000,,,
2.1439999966,16,148070.3281250000,198267.0625000000,143040.3750000000,149028.8593750000,119873.4062500000,151724.1875000000,131592.0312500000,144852.5000000000,,,
2.1479999966,16,148220.7343750000,200029.6875000000,143176.9531250000,149208.0312500000,120017.6328125000,151854.1093750000,131716.7031250000,144923.3750000000,,,
2.1519999965,16,148663.1406250000,197729.6562500000,144059.5312500000,149748.5781250000,120448.5859375000,152268.0625000000,132116.0000000000,145217.3437500000,,,
2.1559999965,16,148793.3906250000,194575.6718750000,144595.0937500000,149929.3906250000,120573.8671875000,152397.8281250000,132241.2968750000,145342.7812500000,,,
2.1599999967,16,148407.8593750000,194889.6875000000,143963.2500000000,149466.1406250000,120204.2031250000,152049.9687500000,131904.0312500000,145099.8593750000,,,
2.1639999966,16,148045.2968750000,198222.2187500000,143052.9218750000,149009.9531250000,119857.3984375000,151714.8281250000,131577.7343750000,144832.7031250000,,,
2.1679999966,16,148199.3593750000,200023.8281250000,143182.3125000000,149188.7031250000,120006.2890625000,151848.9375000000,131710.7031250000,144904.0781250000,,,
2.1719999965,16,148645.6093750000,197735.3437500000,144042.4218750000,149727.0468750000,120437.0468750000,152265.6250000000,132109.6718750000,145199.5781250000,,,
2.1759999965,17,148781.8125000000,194540.8906250000,144566.4687500000,149911.9218750000,120565.4765625000,152394.0937500000,132236.2812500000,145325.4531250000,,,
2.1799999964,17,148409.9687500000,194812.4062500000,143959.5937500000,149463.8437500000,120206.1093750000,152051.1250000000,131907.1875000000,145095.5625000000,,,
2.1839999964,17,148050.6562500000,198164.9531250000,143059.7656250000,149008.7187500000,119860.9062500000,151715.3593750000,131583.6875000000,144835.5781250000,,,
2.1879999964,17,148196.4687500000,200017.7968750000,143178.0312500000,149181.4218750000,120001.9921875000,151843.2031250000,131710.5312500000,144903.0937500000,,,
2.1919999963,17,148631.6562500000,197742.9843750000,144031.4062500000,149717.0156250000,120423.0468750000,152248.2968750000,132102.5156250000,145189.3593750000,,,
2.1959999963,17,148776.0625000000,194501.8906250000,144566.1718750000,149906.9375000000,120561.0703125000,152385.4687500000,132239.5468750000,145324.2031250000,,,
2.1999999965,17,148406.1875000000,194752.0781250000,143971.7500000000,149460.1562500000,120203.8281250000,152042.1093750000,131910.4062500000,145097.0937500000,,,
2.2039999964,17,148052.0000000000,198120.8281250000,143075.3281250000,149020.0937500000,119865.1484375000,151706.5937500000,131593.7031250000,144838.6093750000,,,
2.2079999964,17,148203.3906250000,200025.0937500000,143179.7968750000,149191.3593750000,120011.2500000000,151843.4687500000,131720.8906250000,144911.7500000000,,,
2.2119999963,17,148649.0937500000,197761.9218750000,144022.2187500000,149724.9218750000,120440.6953125000,152261.8593750000,132114.3906250000,145205.9062500000,,,
2.2159999963,17,148796.2968750000,194493.6562500000,144559.5468750000,149917.9843750000,120579.3437500000,152397.0156250000,132247.6250000000,145337.7968750000,,,
2.2199999965,17,148420.4375000000,194703.0000000000,143984.5156250000,149470.4843750000,120211.6640625000,152049.0781250000,131906.2031250000,145106.4062500000,,,
2.2239999964,17,148064.5781250000,198094.2812500000,143110.1093750000,149012.3437500000,119869.8437500000,151719.9843750000,131586.4531250000,144857.3906250000,,,
2.2279999964,17,148198.3750000000,200042.3125000000,143213.8281250000,149171.5781250000,120003.7656250000,151832.8750000000,131707.2968750000,144911.4062500000,,,
2.2319999964,17,148651.7656250000,197801.3593750000,144043.8906250000,149725.8437500000,120435.5703125000,152255.4218750000,132106.5312500000,145211.8125000000,,,
2.2359999963,17,148792.7031250000,194488.7187500000,144559.2500000000,149913.7031250000,120563.5156250000,152391.2812500000,132232.6875000000,145339.7031250000,,,
2.2399999963,17,148436.1718750000,194667.2968750000,143990.0312500000,149467.5468750000,120223.7031250000,152062.6562500000,131924.6250000000,145122.8906250000,,,
2.2439999965,17,148062.3593750000,198078.9687500000,143073.7187500000,149011.2656250000,119863.0312500000,151709.9531250000,131579.6093750000,144852.2031250000,,,
2.2479999964,17,148193.6718750000,200086.0937500000,143145.9687500000,149173.2812500000,119990.8906250000,151825.0625000000,131686.5312500000,144907.5937500000,,,
2.2519999964,17,148644.7968750000,197856.2812500000,144004.7968750000,149709.6406250000,120433.9375000000,152243.7031250000,132098.6250000000,145205.4531250000,,,
2.2559999963,17,148799.9687500000,194496.5468750000,144557.2187500000,149921.9375000000,120583.1250000000,152392.4843750000,132245.4218750000,145344.9843750000,,,
2.2599999963,17,148432.4687500000,194631.0156250000,143999.3437500000,149487.7968750000,120227.5703125000,152057.3437500000,131922.0312500000,145119.7656250000,,,
2.2639999965,17,148063.5312500000,198062.1250000000,143114.5937500000,149012.7656250000,119871.7734375000,151721.0781250000,131591.2031250000,144860.0937500000,,,
2.2679999964,17,148184.8593750000,200111.7343750000,143197.7656250000,149150.2656250000,119989.9218750000,151832.6093750000,131697.7187500000,144911.2500000000,,,
2.2719999964,17,148634.7343750000,197895.3906250000,144042.1875000000,149697.8281250000,120422.5937500000,152258.7343750000,132098.0625000000,145207.3281250000,,,
2.2759999963,17,148798.6718750000,194498.3437500000,144599.0625000000,149920.3750000000,120581.0546875000,152414.9062500000,132252.9062500000,145352.0312500000,,,
2.2799999963,17,148430.8906250000,194595.0625000000,144035.1250000000,149481.3593750000,120226.8984375000,152069.0625000000,131928.9687500000,145121.8281250000,,,
2.2839999963,17,148058.2031250000,198038.4062500000,143128.6718750000,149016.0625000000,119865.9531250000,151718.9843750000,131590.3125000000,144854.3593750000,,,
2.2879999964,17,148189.4687500000,200143.9687500000,143199.9062500000,149146.3437500000,119992.9296875000,151831.3437500000,131701.5468750000,144909.9062500000,,,
2.2919999964,17,148653.3593750000,197941.4687500000,144040.7812500000,149698.3125000000,120443.8046875000,152260.3437500000,132116.6718750000,145210.8750000000,,,
2.2959999964,17,148801.5468750000,194488.6875000000,144577.6562500000,149920.4843750000,120579.7421875000,152395.9218750000,132247.2656250000,145334.2031250000,,,
2.2999999963,17,148442.7968750000,194534.8593750000,144026.9531250000,149481.6250000000,120232.2343750000,152063.1406250000,131929.8281250000,145115.0937500000,,,
2.3039999963,18,148072.2343750000,197994.2343750000,143138.5937500000,149014.7500000000,119875.8750000000,151716.9687500000,131595.9531250000,144854.7343750000,,,
2.3079999962,18,148199.2500000000,200147.8281250000,143211.9531250000,149172.1250000000,119992.6875000000,151825.4218750000,131695.4843750000,144909.2656250000,,,
2.3119999962,18,148667.7343750000,197977.7968750000,144056.5000000000,149716.9375000000,120443.9921875000,152258.7343750000,132109.4375000000,145219.1875000000,,,
2.3159999961,18,148824.8593750000,194490.7343750000,144610.4062500000,149921.1875000000,120593.5546875000,152406.1406250000,132254.1406250000,145351.1562500000,,,
2.3199999961,18,148447.4375000000,194498.1562500000,144053.8750000000,149472.8281250000,120228.5078125000,152058.3593750000,131921.6250000000,145114.7968750000,,,
2.3239999961,18,148068.4531250000,197975.5156250000,143149.5625000000,149004.6093750000,119863.2968750000,151701.9218750000,131583.0468750000,144847.3593750000,,,
2.3279999963,18,148192.1718750000,200178.2812500000,143206.1875000000,149152.1093750000,119984.0234375000,151812.8125000000,131689.4218750000,144904.2500000000,,,
2.3319999962,18,148652.9062500000,198010.2500000000,144034.1406250000,149706.9062500000,120432.6484375000,152242.3593750000,132101.2187500000,145205.2656250000,,,
2.3359999962,18,148813.9687500000,194491.9375000000,144572.3125000000,149919.6875000000,120587.3359375000,152396.1406250000,132250.2812500000,145344.3437500000,,,
2.3399999961,18,148441.4375000000,194459.1562500000,144027.4218750000,149478.8281250000,120227.4843750000,152055.8125000000,131926.3437500000,145116.7812500000,,,
2.3439999961,18,148056.2968750000,197945.3906250000,143127.0625000000,149005.8281250000,119856.6484375000,151700.5000000000,131585.1718750000,144846.1718750000,,,
2.3479999963,18,148174.7968750000,200193.3750000000,143171.5312500000,149139.0468750000,119971.8750000000,151813.6875000000,131683.9218750000,144897.8906250000,,,
2.3519999962,18,148636.8906250000,198048.3906250000,144000.1250000000,149678.2343750000,120420.8750000000,152249.7968750000,132097.7187500000,145199.9843750000,,,
2.3559999962,18,148809.4843750000,194493.7031250000,144561.4375000000,149913.0000000000,120582.8515625000,152414.4218750000,132258.3750000000,145347.0781250000,,,
2.3599999961,18,148446.7968750000,194427.1875000000,144032.9843750000,149495.8437500000,120230.6015625000,152075.6718750000,131938.2343750000,145126.8125000000,,,
2.3639999961,18,148044.6875000000,197916.9843750000,143116.8125000000,149004.1562500000,119843.9296875000,151700.6093750000,131575.3750000000,144841.5312500000,,,
2.3679999961,18,148144.0000000000,200206.0312500000,143142.7031250000,149124.7500000000,119940.0625000000,151786.8750000000,131653.7812500000,144871.6250000000,,,
2.3719999962,18,148593.7500000000,198076.9531250000,143944.5781250000,149658.7343750000,120376.4296875000,152205.1875000000,132049.8593750000,145158.0625000000,,,
2.3759999962,18,148787.3906250000,194479.6875000000,144521.4062500000,149905.0937500000,120563.6250000000,152388.9218750000,132229.1093750000,145321.8437500000,,,
2.3799999962,18,148434.6406250000,194361.2656250000,144025.9531250000,149485.7812500000,120224.6953125000,152060.3750000000,131920.2031250000,145107.7187500000,,,
2.3839999961,18,148045.2500000000,197863.2656250000,143125.6718750000,149004.2968750000,119849.8593750000,151691.2500000000,131570.4375000000,144831.6093750000,,,
2.3879999961,18,148153.9218750000,200211.4531250000,143153.5625000000,149131.2656250000,119953.1796875000,151786.1562500000,131659.5156250000,144873.3125000000,,,
2.3919999963,18,148624.2812500000,198107.6562500000,143973.9687500000,149675.4062500000,120409.7968750000,152227.4531250000,132081.6718750000,145181.3906250000,,,
2.3959999962,18,148815.0937500000,194466.7187500000,144551.9062500000,149921.0468750000,120591.1406250000,152409.4687500000,132260.3593750000,145343.5937500000,,,
2.3999999962,18,148454.2031250000,194306.2968750000,144054.5000000000,149502.0000000000,120237.7578125000,152077.5468750000,131941.2031250000,145127.8906250000,,,
2.4039999961,18,148043.1562500000,197825.9218750000,143146.5312500000,149002.9218750000,119842.0000000000,151689.3437500000,131570.7968750000,144838.2343750000,,,
2.4079999961,18,148142.7968750000,200214.7812500000,143150.0000000000,149112.7968750000,119941.8046875000,151773.0312500000,131654.2656250000,144870.3906250000,,,
2.4119999961,18,148610.4375000000,198121.5625000000,143958.3593750000,149660.0156250000,120398.2343750000,152208.9218750000,132073.1718750000,145171.9218750000,,,
2.4159999962,18,148810.7812500000,194449.1562500000,144547.3750000000,149914.9843750000,120593.6640625000,152397.5781250000,132261.6562500000,145338.7656250000,,,
2.4199999962,18,148467.3437500000,194251.4218750000,144075.6250000000,149506.9687500000,120264.0468750000,152079.2031250000,131963.7968750000,145136.3281250000,,,
2.4239999962,18,148062.6250000000,197784.5937500000,143174.2968750000,149011.9062500000,119876.9218750000,151704.7968750000,131606.4687500000,144854.8125000000,,,
2.4279999961,18,148162.7031250000,200233.3750000000,143181.0781250000,149121.7968750000,119973.4843750000,151799.8281250000,131694.2343750000,144892.6562500000,,,
2.4319999961,19,148622.4531250000,198169.0937500000,143974.2343750000,149666.6093750000,120418.7578125000,152233.3281250000,132102.5156250000,145188.5625000000,,,
2.4359999960,19,148817.2968750000,194434.9375000000,144541.2812500000,149917.5625000000,120604.2343750000,152417.7031250000,132281.2500000000,145347.5781250000,,,
2.4399999960,19,148468.7656250000,194178.5000000000,144064.1718750000,149512.5781250000,120261.0703125000,152094.5000000000,131968.5625000000,145143.4218750000,,,
2.4439999959,19,148037.8906250000,197729.3593750000,143144.9062500000,148984.3593750000,119842.2187500000,151689.9843750000,131577.3125000000,144838.2656250000,,,
2.4479999959,19,148126.9687500000,200249.8906250000,143144.6562500000,149070.7031250000,119929.3593750000,151768.9531250000,131651.0937500000,144863.5312500000,,,
2.4519999959,19,148602.2656250000,198205.1875000000,143939.9062500000,149620.2343750000,120394.3203125000,152212.8593750000,132073.7812500000,145167.7656250000,,,
2.4559999960,19,148817.9843750000,194426.6875000000,144527.4531250000,149896.1250000000,120604.0937500000,152422.4687500000,132272.2187500000,145345.6250000000,,,
2.4599999960,19,148464.3125000000,194129.7031250000,144058.5156250000,149485.7500000000,120263.9140625000,152095.4687500000,131963.6093750000,145136.8750000000,,,
2.4639999960,19,148051.7343750000,197718.5000000000,143158.8281250000,148989.8593750000,119864.9062500000,151704.0937500000,131592.4687500000,144852.8750000000,,,
2.4679999959,19,148143.4375000000,200295.4843750000,143150.4062500000,149080.3593750000,119951.7031250000,151776.5468750000,131667.8906250000,144880.7812500000,,,
2.4719999959,19,148609.3906250000,198270.2812500000,143935.7031250000,149629.7656250000,120399.9296875000,152215.6718750000,132077.0625000000,145179.5937500000,,,
2.4759999961,19,148819.4062500000,194454.8906250000,144525.1718750000,149893.9375000000,120597.6093750000,152417.6718750000,132264.3906250000,145352.3281250000,,,
2.4799999960,19,148478.4218750000,194109.8593750000,144080.7500000000,149498.5156250000,120266.1640625000,152100.1250000000,131966.8750000000,145153.9062500000,,,
2.4839999960,19,148047.6562500000,197685.8281250000,143169.3906250000,148985.5000000000,119846.7734375000,151695.3281250000,131577.5468750000,144853.5781250000,,,
2.4879999959,19,148130.4375000000,200314.0000000000,143157.6406250000,149077.5781250000,119926.1953125000,151765.8750000000,131644.4687500000,144873.6875000000,,,
2.4919999959,19,148611.5156250000,198314.0937500000,143949.4531250000,149638.8281250000,120395.8203125000,152219.8906250000,132075.2343750000,145180.4531250000,,,
2.4959999959,19,148823.0781250000,194452.0312500000,144540.7500000000,149911.6093750000,120606.3750000000,152422.7968750000,132277.4218750000,145346.1406250000,,,
2.4999999960,19,148460.2343750000,194049.7812500000,144086.6250000000,149493.6875000000,120259.2968750000,152080.8125000000,131960.9687500000,145119.8906250000,,,
2.5039999960,19,148033.4375000000,197647.4218750000,143182.4218750000,148977.6875000000,119848.5703125000,151676.7656250000,131580.3125000000,144822.3593750000,,,
2.5079999960,19,148114.6406250000,200345.4062500000,143151.7656250000,149069.7656250000,119924.3203125000,151749.9062500000,131642.3593750000,144846.5468750000,,,
2.5119999959,19,148604.8125000000,198381.7812500000,143941.3906250000,149634.2656250000,120399.5000000000,152208.8125000000,132074.6406250000,145163.6406250000,,,
2.5159999959,19,148828.9062500000,194490.7812500000,144548.0937500000,149902.6718750000,120616.0859375000,152418.1093750000,132281.9062500000,145345.5468750000,,,
2.5199999961,19,148485.7500000000,194045.6250000000,144105.4843750000,149506.4843750000,120280.5390625000,152103.6093750000,131981.5937500000,145152.0312500000,,,
2.5239999960,19,148039.8281250000,197636.1562500000,143172.2031250000,148977.2656250000,119846.0468750000,151685.2656250000,131578.9531250000,144841.5312500000,,,
2.5279999960,19,148124.3125000000,200377.5937500000,143132.1093750000,149063.5781250000,119925.9531250000,151759.5937500000,131648.1718750000,144870.5468750000,,,
2.5319999959,19,148589.2812500000,198441.6718750000,143904.0468750000,149598.8125000000,120382.6250000000,152202.1250000000,132069.8125000000,145163.1562500000,,,
2.5359999959,19,148806.6718750000,194513.7968750000,144495.4218750000,149888.3437500000,120597.4687500000,152411.4062500000,132273.6406250000,145331.2968750000,,,
2.5399999958,19,148469.4062500000,194016.7812500000,144063.2343750000,149511.5625000000,120271.2578125000,152098.3281250000,131978.1406250000,145133.2500000000,,,
2.5439999960,19,148028.7812500000,197617.0312500000,143142.5156250000,148979.8125000000,119843.5312500000,151683.1250000000,131579.7031250000,144825.1250000000,,,
2.5479999960,19,148095.2343750000,200395.9843750000,143085.9218750000,149046.7812500000,119902.9687500000,151734.1093750000,131627.0625000000,144834.1093750000,,,
2.5519999960,19,148568.3281250000,198482.1250000000,143857.1562500000,149584.1562500000,120362.4062500000,152176.4687500000,132050.7500000000,145133.2812500000,,,
2.5559999959,19,148813.6093750000,194520.3750000000,144478.2812500000,149885.0781250000,120599.7265625000,152410.9375000000,132277.7500000000,145330.3125000000,,,
2.5599999959,20,148475.5312500000,193982.6718750000,144056.3437500000,149497.0781250000,120265.0390625000,152103.1250000000,131973.1562500000,145144.9687500000,,,
2.5639999958,20,148013.4843750000,197592.7343750000,143119.6406250000,148961.0781250000,119813.1640625000,151668.7812500000,131551.2968750000,144827.4218750000,,,
2.5679999958,20,148074.4843750000,200418.8906250000,143064.7343750000,149032.6250000000,119869.6250000000,151719.0468750000,131592.3593750000,144833.3750000000,,,
2.5719999957,20,148551.9687500000,198516.5937500000,143832.6250000000,149589.7968750000,120338.0234375000,152163.9687500000,132019.3906250000,145132.8437500000,,,
2.5759999957,20,148793.9062500000,194500.2187500000,144446.0468750000,149873.7031250000,120573.1718750000,152389.4062500000,132242.2031250000,145318.7031250000,,,
2.5799999957,20,148466.8906250000,193914.4375000000,144051.2968750000,149494.9218750000,120256.8593750000,152086.7968750000,131957.4375000000,145132.3593750000,,,
2.5839999958,20,148032.0468750000,197553.0625000000,143163.0937500000,148976.9843750000,119839.8046875000,151681.0625000000,131576.0156250000,144839.2031250000,,,
2.5879999958,20,148083.1718750000,200438.2343750000,143110.5937500000,149043.2656250000,119889.3437500000,151724.0781250000,131614.9687500000,144839.7031250000,,,
2.5919999958,20,148565.9687500000,198549.1875000000,143876.6875000000,149600.0468750000,120360.3671875000,152170.7500000000,132042.0625000000,145139.7187500000,,,
2.5959999957,20,148820.2187500000,194480.0312500000,144506.3906250000,149901.8750000000,120607.3671875000,152408.2812500000,132277.3906250000,145334.3125000000,,,
2.5999999957,20,148487.2656250000,193842.5468750000,144109.7500000000,149520.3593750000,120279.6796875000,152102.8906250000,131983.0156250000,145143.2343750000,,,
2.6039999959,20,148030.8437500000,197515.8593750000,143198.7656250000,148980.9062500000,119838.6718750000,151677.3593750000,131577.0468750000,144832.6875000000,,,
2.6079999958,20,148082.8437500000,200491.8281250000,143139.7812500000,149026.3125000000,119888.9375000000,151726.2343750000,131616.3125000000,144843.2500000000,,,
2.6119999958,20,148552.2656250000,198619.5156250000,143886.1250000000,149569.8437500000,120347.0078125000,152163.6406250000,132031.2187500000,145136.2812500000,,,
2.6159999957,20,148803.4531250000,194473.2656250000,144500.1718750000,149883.9843750000,120589.3437500000,152399.4843750000,132256.5000000000,145325.7500000000,,,
2.6199999957,20,148474.1250000000,193763.0156250000,144108.4375000000,149517.9062500000,120268.6093750000,152095.2656250000,131969.7656250000,145137.7031250000,,,
2.6239999956,20,148018.9062500000,197459.3125000000,143208.5468750000,148976.1093750000,119828.0781250000,151669.2656250000,131565.9062500000,144829.1718750000,,,
2.6279999958,20,148062.0625000000,200506.5468750000,143134.7031250000,149007.4531250000,119872.0390625000,151707.8750000000,131600.1562500000,144825.7812500000,,,
2.6319999958,20,148547.8437500000,198657.6562500000,143874.7343750000,149556.0468750000,120346.2031250000,152164.5781250000,132033.0156250000,145129.5468750000,,,
2.6359999957,20,148809.5625000000,194461.3593750000,144501.9062500000,149882.9062500000,120596.3984375000,152410.2187500000,132270.1250000000,145328.9687500000,,,
2.6399999957,20,148461.7343750000,193700.2500000000,144108.8281250000,149512.6250000000,120256.2421875000,152075.0156250000,131961.8281250000,145117.2968750000,,,
2.6439999957,20,148008.2500000000,197411.2500000000,143207.4531250000,148960.6093750000,119813.9453125000,151647.1875000000,131545.0937500000,144812.6406250000,,,
2.6479999959,20,148058.6562500000,200522.6250000000,143136.3125000000,148998.4531250000,119861.0703125000,151685.9687500000,131579.4062500000,144817.2656250000,,,
2.6519999958,20,148539.5156250000,198699.4062500000,143875.1406250000,149557.2812500000,120331.7734375000,152139.6093750000,132014.4062500000,145120.2656250000,,,
2.6559999958,20,148800.0937500000,194438.9687500000,144475.5468750000,149878.1250000000,120584.1171875000,152392.8125000000,132257.9687500000,145321.6718750000,,,
2.6599999957,20,148471.3125000000,193616.0625000000,144102.7187500000,149506.4531250000,120265.2500000000,152087.7343750000,131973.8281250000,145137.2812500000,,,
2.6639999957,20,148005.5781250000,197339.3125000000,143216.7656250000,148954.9218750000,119816.0078125000,151652.8906250000,131560.7812500000,144824.2656250000,,,
2.6679999956,20,148047.7968750000,200510.0156250000,143129.6875000000,148995.2343750000,119856.2734375000,151688.5937500000,131590.6093750000,144821.0156250000,,,
2.6719999958,20,148532.6093750000,198705.1250000000,143855.0468750000,149550.7968750000,120331.4765625000,152144.8750000000,132020.7343750000,145120.7812500000,,,
2.6759999958,20,148799.4062500000,194401.8750000000,144463.9062500000,149867.6406250000,120589.4765625000,152398.2812500000,132260.2031250000,145319.0468750000,,,
2.6799999957,20,148476.8125000000,193530.2812500000,144102.9375000000,149492.6406250000,120271.2109375000,152095.1093750000,131970.7031250000,145138.0000000000,,,
2.6839999957,20,148026.4687500000,197261.9687500000,143217.0781250000,148945.8437500000,119834.6484375000,151665.0156250000,131565.1875000000,144840.4375000000,,,
2.6879999957,21,148060.1875000000,200484.0000000000,143126.2343750000,148981.2343750000,119866.2734375000,151693.1250000000,131588.3906250000,144832.2031250000,,,
2.6919999956,21,148548.7500000000,198727.9218750000,143865.9531250000,149541.4687500000,120345.0234375000,152151.9218750000,132019.0937500000,145134.7031250000,,,
2.6959999956,21,148810.6093750000,194415.0625000000,144487.7812500000,149862.2500000000,120598.4140625000,152398.4218750000,132255.5312500000,145326.9843750000,,,
2.6999999955,21,148488.6875000000,193503.0000000000,144140.8281250000,149508.3906250000,120283.9218750000,152102.5156250000,131980.8437500000,145144.8906250000,,,
2.7039999955,21,148020.5937500000,197244.0781250000,143252.7187500000,148959.0000000000,119827.0312500000,151668.0468750000,131563.1406250000,144834.5937500000,,,
2.7079999954,21,148053.1875000000,200529.2968750000,143153.0781250000,148985.5000000000,119857.3125000000,151691.3125000000,131587.6093750000,144824.7187500000,,,
2.7119999956,21,148539.4218750000,198794.2812500000,143866.9062500000,149536.5781250000,120333.3046875000,152144.6250000000,132019.6093750000,145118.9531250000,,,
2.7159999956,21,148824.7812500000,194433.4375000000,144498.7500000000,149878.3437500000,120610.1875000000,152412.6250000000,132277.2656250000,145328.8437500000,,,
2.7199999955,21,148507.8437500000,193466.5312500000,144167.2500000000,149524.6406250000,120298.6718750000,152116.8906250000,131997.8750000000,145152.2656250000,,,
2.7239999955,21,148035.0312500000,197219.5625000000,143287.8593750000,148960.2343750000,119838.3281250000,151674.4062500000,131573.6093750000,144838.6093750000,,,
2.7279999955,21,148062.0625000000,200559.3593750000,143175.2656250000,148985.1718750000,119861.7421875000,151688.7031250000,131587.3125000000,144824.9843750000,,,
2.7319999957,21,148541.1875000000,198857.2343750000,143866.3281250000,149530.2500000000,120331.5546875000,152137.0625000000,132016.9531250000,145120.0781250000,,,
2.7359999956,21,148839.5468750000,194451.3593750000,144485.6250000000,149887.8750000000,120618.6640625000,152419.7187500000,132287.3125000000,145347.3437500000,,,
2.7399999956,21,148504.2031250000,193413.4531250000,144138.5468750000,149526.0312500000,120286.9765625000,152110.9843750000,131986.4062500000,145156.9062500000,,,
2.7439999955,21,148018.0781250000,197176.6718750000,143237.2812500000,148958.3437500000,119815.4453125000,151658.5625000000,131555.7500000000,144832.7031250000,,,
2.7479999955,21,148035.9687500000,200592.4687500000,143106.7031250000,148966.8593750000,119833.5781250000,151674.3593750000,131567.1718750000,144814.7968750000,,,
2.7519999954,21,148520.3125000000,198917.2343750000,143799.1718750000,149507.2656250000,120310.2578125000,152130.0937500000,131998.9062500000,145110.7968750000,,,
2.7559999956,21,148818.5781250000,194455.0625000000,144420.8593750000,149861.9843750000,120602.4843750000,152411.5937500000,132271.5000000000,145332.7812500000,,,
2.7599999956,21,148514.7656250000,193361.8750000000,144095.5312500000,149518.0937500000,120306.5859375000,152125.3437500000,132005.7656250000,145167.4218750000,,,
2.7639999955,21,148043.8437500000,197143.0937500000,143217.2968750000,148954.9218750000,119847.9843750000,151676.7656250000,131582.9687500000,144857.2968750000,,,
2.7679999955,21,148038.9687500000,200633.7656250000,143082.6250000000,148951.4218750000,119841.7578125000,151665.0781250000,131568.4062500000,144816.4062500000,,,
2.7719999955,21,148513.5781250000,198997.6250000000,143768.5937500000,149499.4062500000,120307.8750000000,152117.0312500000,131992.6250000000,145104.3437500000,,,
2.7759999956,21,148822.5468750000,194479.3125000000,144400.8437500000,149869.8437500000,120608.7343750000,152413.1718750000,132277.4218750000,145331.9218750000,,,
2.7799999956,21,148511.3906250000,193324.6406250000,144101.2656250000,149527.2500000000,120305.8593750000,152125.0468750000,132010.2500000000,145158.4375000000,,,
2.7839999956,21,148026.8125000000,197117.6562500000,143234.0000000000,148964.2968750000,119834.7343750000,151675.2343750000,131581.3281250000,144840.7031250000,,,
2.7879999955,21,148043.6093750000,200677.7031250000,143113.4375000000,148976.9062500000,119849.3515625000,151683.6562500000,131588.5000000000,144822.2187500000,,,
2.7919999955,21,148540.6718750000,199081.8750000000,143809.2343750000,149530.2968750000,120336.7343750000,152145.3281250000,132024.6718750000,145126.9531250000,,,
2.7959999954,21,148847.5468750000,194527.9843750000,144439.9531250000,149883.2500000000,120636.0156250000,152432.5000000000,132298.0156250000,145348.9531250000,,,
2.7999999956,21,148546.2343750000,193310.4218750000,144148.9843750000,149543.7187500000,120339.4140625000,152144.2500000000,132032.7500000000,145183.4062500000,,,
2.8039999956,21,148044.3125000000,197116.4843750000,143269.2500000000,148966.3906250000,119851.1171875000,151667.6718750000,131585.0312500000,144846.9218750000,,,
2.8079999955,21,148050.6562500000,200742.2031250000,143132.4218750000,148970.7343750000,119858.3593750000,151674.6250000000,131585.0156250000,144821.5781250000,,,
2.8119999955,21,148539.0937500000,199172.1718750000,143802.3125000000,149511.4218750000,120333.0078125000,152143.9843750000,132014.0000000000,145121.4531250000,,,
2.8159999955,22,148844.3750000000,194559.7187500000,144415.8593750000,149887.0625000000,120627.8359375000,152435.8593750000,132286.9375000000,145342.5937500000,,,
2.8199999954,22,148536.8125000000,193273.8593750000,144117.7187500000,149554.3906250000,120323.1640625000,152141.8593750000,132015.5312500000,145175.7656250000,,,
2.8239999954,22,148050.7500000000,197088.1875000000,143256.0468750000,148982.6250000000,119851.1484375000,151682.7500000000,131587.6875000000,144864.8125000000,,,
2.8279999953,22,148054.5468750000,200788.9375000000,143127.0312500000,148968.6718750000,119857.5000000000,151683.2656250000,131591.0937500000,144842.1562500000,,,
2.8319999953,22,148550.5781250000,199254.4375000000,143806.8125000000,149516.0625000000,120346.7656250000,152156.3437500000,132030.8437500000,145147.7656250000,,,
2.8359999952,22,148861.1406250000,194576.8906250000,144428.8750000000,149886.7187500000,120651.5703125000,152455.9531250000,132314.0312500000,145372.2031250000,,,
2.8399999954,22,148561.8593750000,193223.4062500000,144144.5937500000,149557.7500000000,120358.3828125000,152178.2343750000,132053.0312500000,145215.0625000000,,,
2.8439999954,22,148054.2812500000,197053.5000000000,143277.5937500000,148966.2656250000,119861.2890625000,151697.8281250000,131599.1093750000,144882.5156250000,,,
2.8479999953,22,148041.0312500000,200825.5000000000,143137.3906250000,148947.2968750000,119849.2968750000,151675.1562500000,131582.9687500000,144837.9375000000,,,
2.8519999953,22,148535.7656250000,199329.0000000000,143814.4843750000,149495.8437500000,120336.4375000000,152137.4843750000,132023.7656250000,145131.9062500000,,,
2.8559999953,22,148844.7500000000,194607.1093750000,144425.1250000000,149876.8750000000,120632.5781250000,152427.0312500000,132299.1406250000,145346.1875000000,,,
2.8599999954,22,148542.6562500000,193178.1875000000,144155.2031250000,149545.2656250000,120331.3671875000,152143.7656250000,132029.1093750000,145180.6250000000,,,
2.8639999954,22,148034.5468750000,196996.9843750000,143304.7656250000,148955.0468750000,119836.4453125000,151666.9843750000,131573.2656250000,144850.0937500000,,,
2.8679999954,22,148036.2812500000,200829.7031250000,143159.3281250000,148947.2656250000,119838.3828125000,151665.5000000000,131567.9531250000,144826.8906250000,,,
2.8719999953,22,148549.2343750000,199365.0781250000,143830.3593750000,149507.9843750000,120341.8046875000,152153.7656250000,132024.0625000000,145145.3125000000,,,
2.8759999953,22,148863.6406250000,194612.6093750000,144443.0937500000,149882.0156250000,120649.2109375000,152453.3281250000,132309.0156250000,145368.0312500000,,,
2.8799999952,22,148564.3125000000,193134.1718750000,144171.8593750000,149555.5468750000,120356.8203125000,152169.1875000000,132046.7812500000,145205.9375000000,,,
2.8839999954,22,148055.3593750000,196962.5156250000,143327.0468750000,148974.2343750000,119857.1015625000,151687.8437500000,131588.5468750000,144877.2656250000,,,
2.8879999954,22,148028.9843750000,200858.9687500000,143168.6406250000,148953.3906250000,119830.3593750000,151655.9843750000,131559.6406250000,144825.0937500000,,,
2.8919999953,22,148521.4687500000,199441.7968750000,143814.6250000000,149490.6406250000,120311.2500000000,152120.0000000000,131996.8281250000,145118.3125000000,,,
2.8959999953,22,148852.5312500000,194642.1093750000,144428.4687500000,149874.3281250000,120632.3125000000,152433.8750000000,132294.2656250000,145349.2187500000,,,
2.8999999953,22,148561.5156250000,193095.3125000000,144157.6562500000,149561.2812500000,120344.1875000000,152160.7656250000,132035.0000000000,145192.1250000000,,,
2.9039999954,22,148047.6093750000,196926.2812500000,143300.3281250000,148977.4531250000,119842.5625000000,151675.2187500000,131576.2968750000,144856.3125000000,,,
2.9079999954,22,148019.8125000000,200882.1718750000,143139.5156250000,148941.7187500000,119816.8671875000,151644.7968750000,131547.0312500000,144809.4531250000,,,
2.9119999954,22,148504.3593750000,199510.2500000000,143776.0000000000,149480.9531250000,120296.0468750000,152101.7656250000,131979.0000000000,145099.8593750000,,,
2.9159999953,22,148845.9375000000,194688.8906250000,144384.4375000000,149878.0781250000,120631.8046875000,152434.5468750000,132291.8281250000,145344.4531250000,,,
2.9199999953,22,148558.1875000000,193081.5468750000,144136.0781250000,149568.5468750000,120350.4140625000,152166.3593750000,132043.4531250000,145192.8750000000,,,
2.9239999952,22,148034.8593750000,196911.3750000000,143302.0781250000,148968.9687500000,119837.6015625000,151673.2812500000,131573.8750000000,144852.0000000000,,,
2.9279999954,22,148003.0000000000,200934.2031250000,143130.9843750000,148935.5000000000,119803.0000000000,151641.5312500000,131536.7031250000,144799.5000000000,,,
2.9319999954,22,148483.2500000000,199601.3125000000,143761.0625000000,149466.9687500000,120273.7812500000,152095.7812500000,131961.5312500000,145078.5312500000,,,
2.9359999953,22,148836.2031250000,194728.1562500000,144377.4843750000,149869.0937500000,120620.6171875000,152428.7187500000,132286.3593750000,145325.7812500000,,,
2.9399999953,22,148555.8906250000,193056.0468750000,144137.2187500000,149560.4218750000,120343.4921875000,152163.2656250000,132038.3281250000,145182.1718750000,,,
2.9439999952,23,148039.5000000000,196884.2500000000,143292.1562500000,148963.0156250000,119837.7656250000,151677.8125000000,131571.7812500000,144854.8437500000,,,
