Time:250Hz,Epoch,Channel 1,Channel 2,Channel 3,Channel 4,Channel 5,Channel 6,Channel 7,Channel 8,Event Id,Event Date,Event Duration
0.0000000000,0,200870.9531250000,195202.5625000000,200180.3125000000,185805.5781250000,186746.6250000000,164429.2500000000,170692.6093750000,-23928.3652343750,,,
0.0040000000,0,200866.2656250000,195180.8593750000,200184.6093750000,185766.5000000000,186755.5000000000,164427.3750000000,170703.2031250000,-23935.6875000000,,,
0.0079999999,0,200864.2968750000,195171.7500000000,200188.6250000000,185761.1250000000,186764.1250000000,164432.6093750000,170705.2187500000,-23932.2812500000,,,
0.0119999999,0,200857.3281250000,195169.7343750000,200179.9687500000,185771.2656250000,186753.7656250000,164423.7500000000,170692.3750000000,-23933.5429687500,,,
0.0159999998,0,200861.2968750000,195182.4218750000,200179.9062500000,185772.7500000000,186748.8281250000,164421.6406250000,170691.1718750000,-23931.7714843750,,,
0.0199999998,0,200856.7343750000,195182.6093750000,200173.8437500000,185766.5156250000,186741.0781250000,164415.8750000000,170683.3906250000,-23940.1132812500,,,
0.0240000000,0,200874.9531250000,195188.2343750000,200200.0000000000,185778.2968750000,186770.0468750000,164432.7343750000,170711.6093750000,-23923.9394531250,,,
0.0279999999,0,200890.6093750000,195193.7187500000,200220.5781250000,185828.3437500000,186791.1250000000,164443.2812500000,170735.1250000000,-23905.8339843750,,,
0.0319999999,0,200887.9375000000,195202.5156250000,200205.6875000000,185864.1093750000,186775.4062500000,164440.2500000000,170714.9843750000,-23900.7929687500,,,
0.0359999998,0,200885.1250000000,195208.4062500000,200198.8437500000,185834.2968750000,186766.6093750000,164437.0000000000,170704.7343750000,-23899.2636718750,,,
0.0399999998,0,200864.3906250000,195191.1875000000,200184.0937500000,185747.8281250000,186751.0781250000,164421.4218750000,170691.8593750000,-23922.0625000000,,,
0.0440000000,0,200852.2343750000,195171.0468750000,200178.3281250000,185689.8437500000,186751.2187500000,164416.7812500000,170693.3906250000,-23931.7714843750,,,
0.0480000000,0,200856.3125000000,195166.7500000000,200184.5000000000,185741.7187500000,186761.2812500000,164431.0781250000,170700.2343750000,-23922.5996093750,,,
0.0519999999,0,200860.5781250000,195180.3593750000,200182.7500000000,185774.4843750000,186757.0312500000,164422.8437500000,170688.5156250000,-23915.6523437500,,,
0.0559999999,0,200869.4843750000,195200.2343750000,200191.8750000000,185750.8906250000,186761.1718750000,164428.9375000000,170690.6250000000,-23906.2363281250,,,
0.0599999998,0,200877.8750000000,195207.7968750000,200201.5312500000,185746.6250000000,186771.2500000000,164436.2031250000,170702.8906250000,-23902.6171875000,,,
0.0639999998,0,200885.8750000000,195205.8281250000,200207.4531250000,185871.9062500000,186774.2500000000,164434.7031250000,170705.0312500000,-23902.6171875000,,,
0.0680000000,0,200885.2031250000,195203.9375000000,200209.4375000000,185879.6093750000,186777.9062500000,164437.6406250000,170708.4375000000,-23895.9648437500,,,
0.0719999999,0,200836.8125000000,195164.7968750000,200160.6875000000,185712.1875000000,186732.4062500000,164403.9062500000,170674.8593750000,-23932.3886718750,,,
0.0759999999,0,200825.9218750000,195159.5937500000,200148.3125000000,185684.2031250000,186718.3593750000,164396.2656250000,170670.7812500000,-23942.5820312500,,,
0.0799999998,0,200865.0625000000,195189.8750000000,200188.9843750000,185792.0312500000,186755.2187500000,164416.4531250000,170706.2187500000,-23914.9277343750,,,
0.0839999998,0,200879.7343750000,195192.6718750000,200205.9218750000,185846.6406250000,186774.0625000000,164421.5312500000,170721.4531250000,-23907.4433593750,,,
0.0880000000,0,200855.4218750000,195166.7343750000,200187.3125000000,185817.7500000000,186758.0312500000,164408.4843750000,170700.5312500000,-23920.5332031250,,,
0.0919999999,0,200869.8906250000,195186.1250000000,200198.1250000000,185838.4843750000,186766.1093750000,164423.8593750000,170706.8281250000,-23901.0605468750,,,
0.0959999999,0,200861.4062500000,195193.0468750000,200180.8281250000,185761.8906250000,186748.0312500000,164424.3906250000,170689.5312500000,-23908.5976562500,,,
0.0999999999,0,200844.3750000000,195179.4218750000,200163.3593750000,185737.8750000000,186729.1718750000,164404.2343750000,170668.8281250000,-23926.5156250000,,,
0.1039999998,0,200847.7500000000,195165.5781250000,200170.3906250000,185778.3593750000,186740.5468750000,164404.6250000000,170677.1562500000,-23926.0585937500,,,
0.1079999998,0,200827.7656250000,195140.3125000000,200160.3125000000,185763.6875000000,186734.9375000000,164397.8906250000,170678.5000000000,-23938.6914062500,,,
0.1120000000,0,200833.0625000000,195157.7187500000,200165.0781250000,185725.1875000000,186738.4531250000,164408.3593750000,170694.8593750000,-23925.5214843750,,,
0.1159999999,0,200835.9062500000,195171.3906250000,200162.2343750000,185750.1093750000,186727.3750000000,164399.7968750000,170683.5937500000,-23927.5078125000,,,
0.1199999999,0,200857.4062500000,195183.7031250000,200181.9531250000,185817.6406250000,186745.4218750000,164402.1562500000,170701.1093750000,-23915.8398437500,,,
0.1239999998,0,200891.1250000000,195196.4687500000,200219.6562500000,185900.4687500000,186785.9531250000,164407.7343750000,170734.0781250000,-23891.9941406250,,,
0.1279999998,1,200904.2187500000,195206.8593750000,200237.9062500000,185879.8125000000,186808.4843750000,164422.3906250000,170744.7343750000,-23871.3144531250,,,
0.1319999998,1,200887.0000000000,195204.2500000000,200219.6562500000,185789.9687500000,186791.8437500000,164446.7343750000,170736.4375000000,-23871.3144531250,,,
0.1359999997,1,200856.6562500000,195190.8125000000,200185.1406250000,185745.1250000000,186757.4687500000,164439.8437500000,170724.8593750000,-23895.6425781250,,,
0.1399999997,1,200867.9218750000,195201.1875000000,200197.9687500000,185778.6406250000,186768.8437500000,164444.7812500000,170733.8125000000,-23888.7226562500,,,
0.1439999996,1,200894.6093750000,195217.9531250000,200229.6875000000,185821.9843750000,186803.3906250000,164475.0312500000,170764.5000000000,-23864.2871093750,,,
0.1479999996,1,200885.1718750000,195207.6562500000,200224.1875000000,185816.6562500000,186804.2968750000,164490.1406250000,170765.3750000000,-23863.2421875000,,,
0.1519999998,1,200867.7031250000,195200.7187500000,200201.8281250000,185760.9687500000,186785.7343750000,164493.4062500000,170745.8593750000,-23866.5410156250,,,
0.1559999997,1,200874.7343750000,195220.5312500000,200197.8281250000,185736.1875000000,186779.9687500000,164504.1718750000,170758.2187500000,-23855.5976562500,,,
0.1599999997,1,200884.5000000000,195237.0625000000,200200.8125000000,185720.8125000000,186782.2968750000,164524.6562500000,170764.2343750000,-23849.2402343750,,,
0.1639999996,1,200900.6718750000,195229.9531250000,200230.0625000000,185778.2500000000,186813.3906250000,164550.1406250000,170793.0312500000,-23834.7031250000,,,
0.1679999996,1,200915.9375000000,195229.5937500000,200257.7031250000,185825.6406250000,186843.6718750000,164573.4218750000,170822.3750000000,-23813.1640625000,,,
0.1719999998,1,200898.7500000000,195227.6406250000,200231.7031250000,185779.3750000000,186823.3750000000,164589.1875000000,170797.5468750000,-23812.2792968750,,,
0.1759999997,1,200890.0468750000,195229.3593750000,200215.4843750000,185741.0468750000,186806.3593750000,164596.6562500000,170773.5312500000,-23815.7128906250,,,
0.1799999997,1,200922.0000000000,195256.7656250000,200246.9062500000,185791.2187500000,186833.8593750000,164621.4375000000,170798.7812500000,-23789.3730468750,,,
0.1839999997,1,200948.1250000000,195271.5781250000,200276.5000000000,185855.0937500000,186866.9531250000,164662.3437500000,170824.1250000000,-23760.9960937500,,,
0.1879999996,1,200954.7500000000,195279.1718750000,200282.5000000000,185880.9531250000,186877.6562500000,164691.0937500000,170822.2500000000,-23741.9257812500,,,
0.1919999996,1,200949.8125000000,195287.6093750000,200274.1093750000,185833.4218750000,186870.9531250000,164695.3593750000,170811.2187500000,-23735.3007812500,,,
0.1959999998,1,200925.9687500000,195267.5781250000,200251.6875000000,185800.5625000000,186847.8593750000,164669.2500000000,170750.1718750000,-23760.8085937500,,,
0.1999999997,1,200936.0312500000,195280.2968750000,200256.2187500000,185797.8281250000,186853.9375000000,164682.4531250000,170765.0000000000,-23758.2597656250,,,
0.2039999997,1,200950.8281250000,195290.7031250000,200266.7812500000,185832.9687500000,186860.5937500000,164702.0937500000,170803.1718750000,-23743.9628906250,,,
0.2079999996,1,200953.9218750000,195283.3281250000,200271.7968750000,185871.2031250000,186865.1875000000,164709.1875000000,170812.4843750000,-23736.4804687500,,,
0.2119999996,1,200927.9062500000,195257.0937500000,200250.5625000000,185833.4687500000,186841.7656250000,164686.0781250000,170770.9843750000,-23760.1367187500,,,
0.2159999998,1,200920.1406250000,195264.7031250000,200239.2968750000,185739.6250000000,186830.7968750000,164683.9218750000,170735.0781250000,-23761.0488281250,,,
0.2199999997,1,200894.5000000000,195255.6718750000,200202.0468750000,185711.6406250000,186798.7500000000,164669.7656250000,170693.8437500000,-23781.3808593750,,,
0.2239999997,1,200909.4531250000,195254.1875000000,200221.0625000000,185763.1406250000,186813.1718750000,164677.0937500000,170722.8750000000,-23771.3496093750,,,
0.2279999997,1,200905.6406250000,195243.5937500000,200222.0000000000,185782.7812500000,186813.1406250000,164684.8593750000,170717.8281250000,-23765.6093750000,,,
0.2319999996,1,200891.7968750000,195237.9687500000,200201.2031250000,185762.1250000000,186793.7031250000,164681.5156250000,170688.8125000000,-23771.8320312500,,,
0.2359999996,1,200884.8437500000,195244.5625000000,200186.1875000000,185758.1562500000,186773.6093750000,164671.2187500000,170655.8750000000,-23781.9707031250,,,
0.2399999998,1,200889.8125000000,195253.3593750000,200192.4062500000,185785.4843750000,186773.6718750000,164675.2968750000,170652.5625000000,-23783.3378906250,,,
0.2439999997,1,200914.8593750000,195266.5625000000,200227.3593750000,185794.9843750000,186807.4687500000,164690.9531250000,170667.1875000000,-23764.5898437500,,,
0.2479999997,1,200881.7656250000,195218.8750000000,200201.2031250000,185780.0625000000,186785.4375000000,164665.3750000000,170630.4062500000,-23794.0410156250,,,
0.2519999996,1,200877.8281250000,195223.7500000000,200196.0625000000,185778.0312500000,186777.3750000000,164659.3906250000,170631.5468750000,-23791.6269531250,,,
0.2559999996,2,200884.9375000000,195243.4687500000,200202.3281250000,185770.0312500000,186777.2343750000,164654.2031250000,170641.0312500000,-23785.8320312500,,,
0.2599999995,2,200896.3906250000,195262.7812500000,200207.2500000000,185788.4843750000,186782.2500000000,164658.0468750000,170639.0468750000,-23776.4980468750,,,
0.2639999995,2,200895.9531250000,195251.0625000000,200207.4531250000,185805.5000000000,186788.3593750000,164654.7968750000,170635.5312500000,-23778.1621093750,,,
0.2679999995,2,200865.2187500000,195210.0156250000,200184.5312500000,185793.2343750000,186770.2343750000,164627.5000000000,170621.4531250000,-23805.1718750000,,,
0.2719999994,2,200863.5312500000,195215.1406250000,200177.6093750000,185791.2031250000,186757.0312500000,164621.5156250000,170615.5781250000,-23801.9804687500,,,
0.2759999994,2,200863.5312500000,195224.2656250000,200162.9375000000,185806.7812500000,186737.7812500000,164607.7031250000,170593.5937500000,-23804.8496093750,,,
0.2799999996,2,200890.1406250000,195247.6718750000,200187.2343750000,185834.3593750000,186759.4531250000,164619.3906250000,170610.6250000000,-23785.8593750000,,,
0.2839999995,2,200884.5781250000,195232.7343750000,200190.7968750000,185814.5000000000,186764.0156250000,164615.3125000000,170604.3750000000,-23794.5234375000,,,
0.2879999995,2,200880.0156250000,195220.5625000000,200195.3125000000,185843.1875000000,186770.2343750000,164609.5468750000,170596.7812500000,-23797.5273437500,,,
0.2919999994,2,200874.0625000000,195223.6406250000,200186.8125000000,185824.1093750000,186763.7343750000,164604.2968750000,170579.0156250000,-23796.5878906250,,,
0.2959999994,2,200867.7343750000,195235.2812500000,200172.7187500000,185728.5468750000,186743.4062500000,164588.9843750000,170578.2968750000,-23803.6699218750,,,
0.2999999996,2,200836.0312500000,195198.4062500000,200134.2343750000,185715.4062500000,186706.2031250000,164547.7187500000,170550.9062500000,-23844.1718750000,,,
0.3039999995,2,200840.0625000000,195185.5312500000,200140.2343750000,185740.9687500000,186716.2343750000,164551.6093750000,170570.4062500000,-23840.2011718750,,,
0.3079999995,2,200848.5312500000,195183.2500000000,200158.2187500000,185743.6406250000,186738.5781250000,164561.2187500000,170582.9687500000,-23827.0585937500,,,
0.3119999995,2,200846.6093750000,195184.4531250000,200156.6875000000,185742.2812500000,186736.4687500000,164559.0937500000,170568.4531250000,-23820.6210937500,,,
0.3159999994,2,200859.6093750000,195206.2968750000,200166.9531250000,185758.0937500000,186743.4375000000,164562.4843750000,170568.2968750000,-23810.1601562500,,,
0.3199999994,2,200888.6250000000,195239.9843750000,200189.2656250000,185818.3437500000,186759.6406250000,164583.0156250000,170600.2187500000,-23787.8710937500,,,
0.3239999996,2,200883.9062500000,195222.5468750000,200186.8281250000,185824.6250000000,186756.3125000000,164580.5000000000,170610.7812500000,-23797.9824218750,,,
0.3279999995,2,200869.4843750000,195206.3906250000,200177.4687500000,185781.2500000000,186752.9375000000,164575.4375000000,170608.8437500000,-23804.5546875000,,,
0.3319999995,2,200865.0625000000,195205.2968750000,200173.0781250000,185769.9843750000,186748.1250000000,164569.2343750000,170595.9218750000,-23805.4121093750,,,
0.3359999994,2,200868.5937500000,195216.4062500000,200164.3281250000,185782.0000000000,186736.8125000000,164563.6250000000,170575.3750000000,-23804.0175781250,,,
0.3399999994,2,200879.2500000000,195224.7187500000,200172.7812500000,185767.0312500000,186741.2656250000,164560.2031250000,170584.7343750000,-23802.4082031250,,,
0.3439999996,2,200891.6406250000,195219.0781250000,200192.5781250000,185825.0468750000,186760.7031250000,164564.2812500000,170601.1718750000,-23798.4921875000,,,
0.3479999995,2,200894.3125000000,195218.8125000000,200205.1718750000,185836.7968750000,186774.4687500000,164572.0468750000,170612.9531250000,-23786.4765625000,,,
0.3519999995,2,200874.7187500000,195201.1093750000,200186.2343750000,185779.0156250000,186757.7343750000,164564.3593750000,170600.0312500000,-23795.8652343750,,,
0.3559999994,2,200848.8750000000,195191.9375000000,200151.9062500000,185742.7812500000,186720.5781250000,164543.5156250000,170568.9062500000,-23818.3144531250,,,
0.3599999994,2,200851.4843750000,195200.9843750000,200156.2343750000,185785.4531250000,186720.9375000000,164537.6093750000,170567.0000000000,-23820.1386718750,,,
0.3639999994,2,200858.4375000000,195198.8281250000,200172.4531250000,185817.0625000000,186739.6875000000,164549.3593750000,170582.5156250000,-23814.4257812500,,,
0.3679999996,2,200851.7812500000,195188.4218750000,200169.3750000000,185827.9687500000,186742.1562500000,164550.2187500000,170583.5312500000,-23813.5136718750,,,
0.3719999995,2,200850.5156250000,195197.5000000000,200163.0625000000,185823.3593750000,186734.6406250000,164549.8906250000,170578.4375000000,-23807.2109375000,,,
0.3759999995,2,200836.7812500000,195196.8750000000,200140.9375000000,185781.4062500000,186709.0781250000,164530.1875000000,170555.0625000000,-23820.4335937500,,,
0.3799999994,2,200848.5625000000,195207.0625000000,200151.1093750000,185766.2812500000,186716.3125000000,164529.0000000000,170557.1875000000,-23815.6328125000,,,
0.3839999994,3,200881.0156250000,195222.8906250000,200191.5312500000,185796.7812500000,186757.6250000000,164552.9843750000,170594.3906250000,-23790.9023437500,,,
0.3879999993,3,200854.1406250000,195193.0468750000,200167.5000000000,185794.3437500000,186737.3281250000,164535.2812500000,170567.9687500000,-23811.3671875000,,,
0.3919999993,3,200820.9843750000,195171.8437500000,200132.4062500000,185777.0156250000,186704.3281250000,164511.4687500000,170541.2031250000,-23832.4218750000,,,
0.3959999993,3,200816.7500000000,195177.3750000000,200124.3593750000,185778.1562500000,186695.2656250000,164506.5781250000,170541.6093750000,-23834.5410156250,,,
0.3999999992,3,200841.0000000000,195198.4531250000,200148.5000000000,185804.0937500000,186715.4375000000,164517.5468750000,170556.0937500000,-23819.8164062500,,,
0.4039999992,3,200860.1718750000,195206.7812500000,200174.6250000000,185819.9062500000,186740.0781250000,164533.6406250000,170572.7187500000,-23807.7187500000,,,
0.4079999994,3,200841.1093750000,195183.6875000000,200154.8906250000,185826.7343750000,186724.3125000000,164525.0625000000,170557.6250000000,-23820.2187500000,,,
0.4119999993,3,200850.6562500000,195194.9687500000,200164.6562500000,185813.6718750000,186731.4531250000,164532.5937500000,170568.0312500000,-23803.6152343750,,,
0.4159999993,3,200850.4062500000,195201.7031250000,200162.6875000000,185804.3906250000,186725.5781250000,164521.8437500000,170560.7343750000,-23805.2246093750,,,
0.4199999992,3,200849.2343750000,195196.0937500000,200159.5000000000,185812.6562500000,186722.4375000000,164514.4375000000,170551.4218750000,-23813.6210937500,,,
0.4239999992,3,200857.2187500000,195200.5781250000,200165.1562500000,185811.2031250000,186731.1562500000,164528.8125000000,170546.9687500000,-23805.0917968750,,,
0.4279999994,3,200858.1093750000,195201.0937500000,200168.5937500000,185803.4062500000,186735.9843750000,164532.1093750000,170546.7500000000,-23798.4921875000,,,
0.4319999993,3,200852.0468750000,195202.7031250000,200165.2656250000,185814.1250000000,186731.3125000000,164529.3281250000,170569.5468750000,-23797.4746093750,,,
0.4359999993,3,200826.7187500000,195185.9843750000,200135.9531250000,185779.2656250000,186703.0625000000,164503.0937500000,170563.4062500000,-23821.0234375000,,,
0.4399999992,3,200833.6250000000,195191.7031250000,200140.5625000000,185778.5937500000,186703.3437500000,164490.1718750000,170560.9375000000,-23823.7050781250,,,
0.4439999992,3,200865.8125000000,195211.6875000000,200180.1562500000,185817.3281250000,186742.4375000000,164509.3906250000,170588.4062500000,-23799.0820312500,,,
0.4479999992,3,200864.1406250000,195202.7187500000,200183.7187500000,185830.5000000000,186754.4843750000,164524.7968750000,170597.0468750000,-23790.1503906250,,,
0.4519999993,3,200863.9062500000,195205.7500000000,200179.1093750000,185834.8437500000,186752.6875000000,164530.9843750000,170600.2968750000,-23780.1738281250,,,
0.4559999993,3,200854.7500000000,195208.0937500000,200162.9375000000,185818.6718750000,186730.2343750000,164507.7812500000,170582.1562500000,-23790.3398437500,,,
0.4599999993,3,200858.9062500000,195211.9531250000,200170.3125000000,185815.9218750000,186732.5781250000,164500.1093750000,170586.3750000000,-23795.3808593750,,,
0.4639999992,3,200873.0781250000,195209.2343750000,200188.8750000000,185853.4218750000,186753.9531250000,164513.6875000000,170604.7968750000,-23785.9140625000,,,
0.4679999992,3,200867.2812500000,195196.2812500000,200188.6093750000,185852.9375000000,186758.3437500000,164516.8750000000,170607.4531250000,-23784.5195312500,,,
0.4719999994,3,200842.9218750000,195177.7500000000,200161.0625000000,185808.8750000000,186733.8593750000,164500.3906250000,170581.5937500000,-23801.2285156250,,,
0.4759999993,3,200841.3906250000,195184.2968750000,200151.1875000000,185815.7343750000,186719.0625000000,164492.9843750000,170575.9375000000,-23804.8496093750,,,
0.4799999993,3,200853.9531250000,195194.8125000000,200160.3906250000,185838.2968750000,186723.2187500000,164492.2343750000,170583.4531250000,-23800.3437500000,,,
0.4839999992,3,200870.3125000000,195202.9062500000,200185.5156250000,185828.5312500000,186748.0000000000,164511.4687500000,170606.9218750000,-23785.1093750000,,,
0.4879999992,3,200871.4687500000,195206.2656250000,200192.0625000000,185852.6562500000,186759.6406250000,164527.0781250000,170617.9687500000,-23771.9121093750,,,
0.4919999992,3,200862.9843750000,195204.5000000000,200182.9687500000,185851.8906250000,186751.6250000000,164520.5312500000,170609.8906250000,-23773.5214843750,,,
0.4959999993,3,200853.4687500000,195202.1093750000,200163.4375000000,185820.2812500000,186729.9531250000,164504.0000000000,170590.9531250000,-23786.0214843750,,,
0.4999999993,3,200847.0625000000,195203.2343750000,200151.0468750000,185800.0781250000,186716.3125000000,164500.0312500000,170574.2812500000,-23796.7226562500,,,
0.5039999993,3,200861.3750000000,195207.7343750000,200176.7187500000,185808.5468750000,186745.2343750000,164519.3750000000,170594.1250000000,-23783.4726562500,,,
0.5079999992,3,200873.5625000000,195208.4843750000,200197.6718750000,185812.2500000000,186771.0937500000,164534.3437500000,170618.7968750000,-23767.5664062500,,,
0.5119999992,4,200856.9843750000,195200.5781250000,200174.3281250000,185790.6406250000,186746.9218750000,164516.7656250000,170597.0781250000,-23776.8476562500,,,
0.5159999991,4,200854.0625000000,195208.1875000000,200166.8750000000,185767.6250000000,186734.9843750000,164503.6875000000,170582.4062500000,-23780.1738281250,,,
0.5199999991,4,200846.4375000000,195198.2656250000,200156.8906250000,185774.3750000000,186724.0156250000,164485.6562500000,170561.9375000000,-23796.5078125000,,,
0.5239999990,4,200854.8906250000,195198.4062500000,200165.4218750000,185788.7656250000,186736.2031250000,164494.8593750000,170567.5937500000,-23789.7226562500,,,
0.5279999990,4,200864.3281250000,195197.5781250000,200179.9375000000,185807.8281250000,186754.7500000000,164514.3906250000,170591.5781250000,-23772.0195312500,,,
0.5319999990,4,200847.0312500000,195180.0312500000,200163.2500000000,185794.8750000000,186736.8593750000,164501.1875000000,170582.0312500000,-23781.3535156250,,,
0.5359999991,4,200840.4843750000,195185.9531250000,200152.5312500000,185790.5625000000,186720.2968750000,164486.5937500000,170576.5468750000,-23786.7988281250,,,
0.5399999991,4,200869.1562500000,195218.2812500000,200183.5312500000,185835.7968750000,186746.2031250000,164505.7812500000,170598.1406250000,-23765.2343750000,,,
0.5439999991,4,200880.2968750000,195216.3750000000,200197.1875000000,185872.9843750000,186765.2656250000,164519.3281250000,170603.7812500000,-23760.5390625000,,,
0.5479999990,4,200861.3593750000,195191.0625000000,200184.4687500000,185830.4062500000,186759.0937500000,164508.1875000000,170592.7343750000,-23771.0000000000,,,
0.5519999990,4,200839.9687500000,195176.0312500000,200162.2656250000,185794.3125000000,186738.3750000000,164495.2812500000,170588.2500000000,-23780.7363281250,,,
0.5559999992,4,200835.5468750000,195183.2812500000,200149.5156250000,185801.5312500000,186719.0312500000,164482.5937500000,170579.1250000000,-23785.3222656250,,,
0.5599999991,4,200854.8593750000,195204.3906250000,200166.3906250000,185827.1406250000,186729.7656250000,164484.3437500000,170590.6093750000,-23777.0078125000,,,
0.5639999991,4,200860.5000000000,195201.1093750000,200174.6250000000,185825.9531250000,186743.2968750000,164492.9218750000,170598.9843750000,-23772.9042968750,,,
0.5679999990,4,200842.8437500000,195177.3750000000,200162.9531250000,185822.9531250000,186738.0156250000,164489.9218750000,170593.7187500000,-23782.2382812500,,,
0.5719999990,4,200830.4843750000,195172.1406250000,200150.4062500000,185820.7031250000,186724.6406250000,164480.9062500000,170580.2031250000,-23786.5292968750,,,
0.5759999990,4,200831.7343750000,195183.4687500000,200145.7187500000,185815.0937500000,186717.6093750000,164480.7031250000,170569.8281250000,-23784.2226562500,,,
0.5799999991,4,200849.6875000000,195207.0937500000,200159.9531250000,185821.1562500000,186728.3906250000,164493.6250000000,170575.6406250000,-23771.0273437500,,,
0.5839999991,4,200858.5156250000,195214.8437500000,200172.0312500000,185803.7812500000,186741.4843750000,164501.1875000000,170580.9062500000,-23764.7246093750,,,
0.5879999991,4,200831.0781250000,195170.5937500000,200154.3437500000,185772.5625000000,186727.6718750000,164481.9531250000,170575.3437500000,-23786.2890625000,,,
0.5919999990,4,200820.4531250000,195157.5000000000,200142.5156250000,185777.0312500000,186715.1406250000,164469.0312500000,170566.3593750000,-23792.9140625000,,,
0.5959999990,4,200819.1093750000,195162.4843750000,200132.6250000000,185794.1250000000,186700.4218750000,164454.7812500000,170555.5468750000,-23798.3046875000,,,
0.5999999992,4,200830.0312500000,195174.0312500000,200140.0000000000,185785.4062500000,186705.2500000000,164455.6250000000,170553.5937500000,-23794.1484375000,,,
0.6039999991,4,200819.2500000000,195155.2187500000,200130.6406250000,185775.3750000000,186701.1093750000,164446.9062500000,170543.0312500000,-23804.6621093750,,,
0.6079999991,4,200833.1875000000,195153.7187500000,200152.6562500000,185811.3750000000,186726.4843750000,164468.6250000000,170572.7968750000,-23783.7402343750,,,
0.6119999990,4,200812.2656250000,195141.2812500000,200129.6718750000,185752.8125000000,186704.6250000000,164461.3593750000,170558.1562500000,-23793.9863281250,,,
0.6159999990,4,200792.8750000000,195138.1875000000,200103.7968750000,185710.5781250000,186676.0000000000,164442.3125000000,170533.1093750000,-23810.0800781250,,,
0.6199999989,4,200816.6875000000,195167.1250000000,200126.3281250000,185740.7968750000,186693.9218750000,164454.6718750000,170540.2031250000,-23793.7714843750,,,
0.6239999991,4,200844.7031250000,195183.1406250000,200159.1250000000,185791.8750000000,186728.7187500000,164477.2968750000,170567.7500000000,-23771.4570312500,,,
0.6279999991,4,200835.3593750000,195160.2656250000,200158.7031250000,185801.2031250000,186735.4687500000,164471.9218750000,170574.9375000000,-23777.2226562500,,,
0.6319999991,4,200814.3593750000,195142.7968750000,200134.7187500000,185773.1406250000,186714.6250000000,164457.8906250000,170560.1718750000,-23787.1738281250,,,
0.6359999990,4,200824.6093750000,195161.7656250000,200134.8750000000,185784.5468750000,186709.3125000000,164460.3593750000,170558.5000000000,-23775.9355468750,,,
0.6399999990,5,200857.6250000000,195197.8906250000,200161.4375000000,185838.1406250000,186732.0937500000,164482.2812500000,170581.2968750000,-23751.3398437500,,,
0.6439999989,5,200876.1875000000,195206.6093750000,200183.6406250000,185858.6250000000,186754.5468750000,164498.2968750000,170600.5000000000,-23738.2500000000,,,
0.6479999989,5,200870.2812500000,195188.5625000000,200189.0312500000,185820.5468750000,186762.3437500000,164505.5625000000,170612.7968750000,-23741.1210937500,,,
0.6519999988,5,200852.2656250000,195169.8593750000,200174.7656250000,185799.8437500000,186747.4531250000,164492.9062500000,170601.6875000000,-23754.1015625000,,,
0.6559999988,5,200841.3125000000,195168.5312500000,200160.7812500000,185810.7187500000,186728.2343750000,164473.3281250000,170578.4531250000,-23767.4863281250,,,
0.6599999988,5,200866.2656250000,195198.4062500000,200177.7968750000,185856.9375000000,186740.6250000000,164488.4687500000,170587.4687500000,-23750.9375000000,,,
0.6639999989,5,200867.7343750000,195196.5312500000,200177.8437500000,185857.2031250000,186743.2187500000,164491.6093750000,170590.9843750000,-23751.1777343750,,,
0.6679999989,5,200847.7031250000,195172.1406250000,200166.2812500000,185813.7343750000,186737.9062500000,164483.9218750000,170586.4843750000,-23759.0644531250,,,
0.6719999989,5,200845.3750000000,195171.7968750000,200166.6406250000,185808.8281250000,186738.5000000000,164485.9843750000,170594.2343750000,-23752.2792968750,,,
0.6759999988,5,200847.2500000000,195176.9687500000,200162.5312500000,185823.2187500000,186728.9843750000,164472.5156250000,170581.7343750000,-23755.4160156250,,,
0.6799999988,5,200825.0937500000,195159.7343750000,200134.6406250000,185786.0468750000,186699.8437500000,164442.5000000000,170548.0156250000,-23785.4042968750,,,
0.6839999990,5,200837.8593750000,195164.7968750000,200154.2500000000,185792.3593750000,186720.7500000000,164457.3593750000,170565.9843750000,-23774.4609375000,,,
0.6879999989,5,200848.3750000000,195168.5468750000,200170.1250000000,185829.2812500000,186736.8437500000,164469.5625000000,170577.4062500000,-23760.4062500000,,,
0.6919999989,5,200833.0625000000,195157.5312500000,200157.1718750000,185777.2500000000,186725.3125000000,164465.2187500000,170572.2343750000,-23766.8964843750,,,
0.6959999988,5,200825.4062500000,195165.2812500000,200143.8125000000,185747.2656250000,186710.2812500000,164459.9843750000,170558.8593750000,-23770.3574218750,,,
0.6999999988,5,200844.2656250000,195193.3125000000,200156.5156250000,185783.7500000000,186721.5468750000,164473.2187500000,170548.5781250000,-23755.5507812500,,,
0.7039999987,5,200864.8750000000,195199.5625000000,200182.9218750000,185841.2500000000,186750.3906250000,164486.7031250000,170578.4375000000,-23742.1660156250,,,
0.7079999989,5,200862.6406250000,195188.3125000000,200183.6875000000,185842.0312500000,186755.2656250000,164490.4062500000,170604.0156250000,-23738.3046875000,,,
0.7119999989,5,200858.9687500000,195191.4531250000,200178.2500000000,185813.6250000000,186750.0625000000,164489.6250000000,170609.0937500000,-23733.6367187500,,,
0.7159999989,5,200857.9687500000,195204.1250000000,200170.1718750000,185810.1875000000,186738.8281250000,164479.0625000000,170597.5781250000,-23735.6484375000,,,
0.7199999988,5,200867.6562500000,195214.9218750000,200176.8281250000,185832.9687500000,186743.4843750000,164477.5312500000,170595.8593750000,-23731.9472656250,,,
0.7239999988,5,200875.0625000000,195214.9062500000,200183.7812500000,185841.7031250000,186754.1093750000,164486.0625000000,170601.0156250000,-23726.5019531250,,,
0.7279999990,5,200852.0781250000,195185.2656250000,200166.6562500000,185816.3281250000,186742.2343750000,164476.1718750000,170589.4843750000,-23742.0332031250,,,
0.7319999989,5,200847.8125000000,195182.7656250000,200164.7812500000,185835.3750000000,186738.7500000000,164478.8125000000,170587.9531250000,-23738.1699218750,,,
0.7359999989,5,200853.1250000000,195198.7500000000,200165.2343750000,185839.5937500000,186732.1718750000,164478.2031250000,170581.9218750000,-23733.1542968750,,,
0.7399999988,5,200867.6093750000,195212.8281250000,200175.0781250000,185837.6562500000,186739.0625000000,164487.8593750000,170584.3593750000,-23724.9199218750,,,
0.7439999988,5,200865.0000000000,195198.0000000000,200172.1875000000,185834.7343750000,186739.4375000000,164489.9531250000,170581.2500000000,-23732.0273437500,,,
0.7479999987,5,200851.4218750000,195177.8125000000,200169.5625000000,185820.7031250000,186741.0156250000,164487.0781250000,170583.5312500000,-23737.7148437500,,,
0.7519999989,5,200842.2031250000,195174.9687500000,200163.7187500000,185809.1406250000,186735.6562500000,164483.3750000000,170580.5468750000,-23734.9511718750,,,
0.7559999989,5,200825.5468750000,195168.0468750000,200138.7968750000,185760.6718750000,186708.4843750000,164461.4687500000,170555.5000000000,-23750.1054687500,,,
0.7599999988,5,200839.4375000000,195180.5625000000,200149.2812500000,185791.9843750000,186715.5468750000,164460.1718750000,170561.4531250000,-23746.0019531250,,,
0.7639999988,5,200872.4531250000,195202.2187500000,200186.0000000000,185848.6562500000,186751.8906250000,164482.5468750000,170591.2031250000,-23721.5136718750,,,
0.7679999988,6,200864.5937500000,195186.9531250000,200185.6250000000,185825.0781250000,186756.7187500000,164483.6406250000,170589.9062500000,-23722.4257812500,,,
0.7719999987,6,200858.0312500000,195186.9218750000,200180.7500000000,185788.1093750000,186753.8125000000,164487.0312500000,170589.3750000000,-23716.9531250000,,,
0.7759999987,6,200831.9843750000,195172.0625000000,200150.3750000000,185763.8125000000,186720.0468750000,164456.1562500000,170561.6406250000,-23744.9550781250,,,
0.7799999986,6,200824.8750000000,195169.2968750000,200140.0781250000,185777.5000000000,186708.8437500000,164444.4843750000,170553.3281250000,-23756.8378906250,,,
0.7839999986,6,200843.9218750000,195179.0625000000,200162.3125000000,185811.1562500000,186731.0937500000,164463.3437500000,170568.4843750000,-23742.5683593750,,,
0.7879999985,6,200825.4375000000,195152.7500000000,200151.6093750000,185807.1093750000,186722.9218750000,164454.9218750000,170556.2187500000,-23756.5703125000,,,
0.7919999987,6,200813.8593750000,195145.5156250000,200145.4218750000,185789.9687500000,186717.6875000000,164452.6406250000,170548.9843750000,-23756.4355468750,,,
0.7959999987,6,200819.4843750000,195157.6562500000,200145.6406250000,185802.1406250000,186714.4218750000,164448.2500000000,170543.2656250000,-23751.7949218750,,,
0.7999999986,6,200837.5156250000,195176.7812500000,200154.0000000000,185830.0156250000,186719.2968750000,164458.6250000000,170569.6406250000,-23740.7988281250,,,
0.8039999986,6,200839.1250000000,195173.1406250000,200154.9375000000,185832.1093750000,186720.8750000000,164454.0937500000,170570.0156250000,-23745.8671875000,,,
0.8079999986,6,200839.5468750000,195168.2343750000,200160.8437500000,185825.2031250000,186732.5156250000,164459.4218750000,170576.9062500000,-23738.4121093750,,,
0.8119999988,6,200836.4062500000,195171.6093750000,200158.7812500000,185806.2968750000,186732.7656250000,164461.2500000000,170575.3281250000,-23732.4843750000,,,
0.8159999987,6,200838.9062500000,195192.0156250000,200152.6562500000,185802.6562500000,186721.7656250000,164459.6406250000,170562.7187500000,-23726.4746093750,,,
0.8199999987,6,200842.9218750000,195192.5781250000,200152.8750000000,185813.5156250000,186718.2031250000,164449.4687500000,170553.2656250000,-23732.7519531250,,,
0.8239999986,6,200860.3906250000,195192.7656250000,200176.8281250000,185848.7656250000,186745.6093750000,164460.2343750000,170580.6562500000,-23721.2988281250,,,
0.8279999986,6,200858.5625000000,195182.7343750000,200182.4843750000,185830.0312500000,186755.9687500000,164465.5937500000,170590.0937500000,-23716.3359375000,,,
0.8319999985,6,200836.9531250000,195168.1718750000,200162.3750000000,185800.7500000000,186736.4062500000,164456.7187500000,170571.3750000000,-23726.5566406250,,,
0.8359999987,6,200834.5781250000,195174.0781250000,200160.7031250000,185773.3125000000,186728.6875000000,164453.1562500000,170575.5625000000,-23727.4687500000,,,
0.8399999987,6,200865.7187500000,195211.9531250000,200183.4218750000,185816.2187500000,186746.9843750000,164474.3593750000,170592.0781250000,-23702.9531250000,,,
0.8439999986,6,200879.3437500000,195221.0625000000,200194.2812500000,185854.7968750000,186762.7031250000,164487.1562500000,170600.9843750000,-23693.3242187500,,,
0.8479999986,6,200868.1875000000,195190.3281250000,200192.2812500000,185864.8750000000,186765.0625000000,164476.1406250000,170599.5625000000,-23703.1132812500,,,
0.8519999986,6,200855.3437500000,195181.1093750000,200182.2968750000,185831.8906250000,186756.5781250000,164467.0156250000,170590.9843750000,-23708.6113281250,,,
0.8559999987,6,200838.6562500000,195177.6250000000,200156.8750000000,185787.2343750000,186728.6562500000,164448.5625000000,170568.1562500000,-23724.3828125000,,,
0.8599999987,6,200837.7031250000,195180.5625000000,200149.9218750000,185782.8281250000,186716.9375000000,164437.5468750000,170555.2812500000,-23731.8671875000,,,
0.8639999987,6,200860.5781250000,195192.0000000000,200176.1562500000,185816.8906250000,186744.7031250000,164455.5625000000,170575.0000000000,-23714.1640625000,,,
0.8679999986,6,200869.7812500000,195194.6718750000,200191.6875000000,185827.3593750000,186762.6718750000,164474.7968750000,170592.3593750000,-23696.2460937500,,,
0.8719999986,6,200859.4531250000,195191.1875000000,200181.0937500000,185815.9062500000,186751.2500000000,164474.0468750000,170590.9062500000,-23695.2285156250,,,
0.8759999985,6,200847.8125000000,195186.2812500000,200165.1562500000,185811.2343750000,186729.9531250000,164456.5000000000,170572.4843750000,-23709.0957031250,,,
0.8799999987,6,200839.8750000000,195183.0156250000,200154.1406250000,185793.6093750000,186716.7187500000,164445.3437500000,170551.8437500000,-23722.9882812500,,,
0.8839999987,6,200837.2968750000,195175.0156250000,200151.6406250000,185805.0937500000,186717.8750000000,164448.5312500000,170547.5000000000,-23725.9921875000,,,
0.8879999986,6,200834.5625000000,195157.9531250000,200156.6562500000,185814.8906250000,186728.3125000000,164454.6562500000,170565.0156250000,-23722.5859375000,,,
0.8919999986,6,200833.6718750000,195158.3593750000,200155.4218750000,185799.2968750000,186728.1250000000,164459.2968750000,170571.5625000000,-23714.3789062500,,,
0.8959999986,7,200834.0156250000,195170.5937500000,200147.5312500000,185793.1562500000,186716.0312500000,164450.1718750000,170560.0000000000,-23713.3867187500,,,
0.8999999985,7,200832.7343750000,195177.7031250000,200141.9843750000,185789.0468750000,186707.1406250000,164440.7656250000,170544.4687500000,-23719.4472656250,,,
0.9039999985,7,200844.1562500000,195183.2812500000,200160.2500000000,185800.2187500000,186726.8906250000,164452.9687500000,170554.1875000000,-23710.4355468750,,,
0.9079999984,7,200837.9687500000,195162.6718750000,200162.4531250000,185797.7968750000,186730.7500000000,164450.8437500000,170567.2968750000,-23716.3359375000,33029,0.9099934946,0.0000000000
0.9119999984,7,200814.1718750000,195142.8281250000,200137.0781250000,185767.9218750000,186704.8125000000,164430.5937500000,170548.3593750000,-23736.4257812500,,,
0.9159999983,7,200810.7343750000,195152.4375000000,200126.1562500000,185777.6875000000,186691.6093750000,164424.6406250000,170535.5468750000,-23738.1972656250,,,
0.9199999985,7,200848.5000000000,195190.5156250000,200165.4062500000,185811.9375000000,186727.2656250000,164449.3906250000,170564.0312500000,-23705.6875000000,,,
0.9239999985,7,200878.5156250000,195208.7343750000,200202.2031250000,185841.8125000000,186762.6406250000,164471.0156250000,170593.2343750000,-23683.1308593750,,,
0.9279999984,7,200853.0156250000,195170.9062500000,200177.1250000000,185854.9218750000,186744.8906250000,164455.6406250000,170573.5781250000,-23702.5234375000,,,
0.9319999984,7,200837.1562500000,195159.2656250000,200161.0625000000,185838.1718750000,186731.5781250000,164449.8281250000,170566.2343750000,-23705.7421875000,,,
0.9359999984,7,200829.8906250000,195166.7031250000,200150.5625000000,185785.1406250000,186718.3906250000,164444.7343750000,170557.3437500000,-23709.6308593750,,,
0.9399999985,7,200827.0156250000,195169.0625000000,200144.6718750000,185765.2343750000,186710.2343750000,164437.6250000000,170544.0937500000,-23718.6972656250,,,
0.9439999985,7,200839.8906250000,195172.6875000000,200156.3281250000,185800.5000000000,186723.7187500000,164445.3125000000,170559.0937500000,-23714.3242187500,,,
0.9479999985,7,200830.3281250000,195157.9062500000,200152.3437500000,185793.8750000000,186723.1875000000,164445.9062500000,170561.8750000000,-23718.8046875000,,,
0.9519999984,7,200822.8437500000,195157.3437500000,200146.9531250000,185775.3750000000,186716.9375000000,164446.6875000000,170560.7500000000,-23716.1230468750,,,
0.9559999984,7,200797.2187500000,195146.3906250000,200112.2968750000,185741.0625000000,186678.1718750000,164411.0937500000,170522.4218750000,-23744.3652343750,,,
0.9599999983,7,200792.1718750000,195145.3750000000,200102.9843750000,185738.8750000000,186664.5312500000,164392.2968750000,170502.5312500000,-23756.4902343750,,,
0.9639999985,7,200828.0468750000,195170.2187500000,200145.1718750000,185784.3593750000,186708.5937500000,164424.0000000000,170541.4375000000,-23723.0957031250,,,
0.9679999985,7,200817.7656250000,195150.0468750000,200142.5156250000,185797.9843750000,186711.4687500000,164423.5156250000,170538.9531250000,-23725.9121093750,,,
0.9719999984,7,200802.4531250000,195137.1406250000,200127.5000000000,185780.3125000000,186698.2968750000,164416.6718750000,170527.8750000000,-23729.7207031250,,,
0.9759999984,7,200797.2500000000,195142.7812500000,200117.5000000000,185740.0000000000,186685.2812500000,164411.4218750000,170523.3593750000,-23731.5175781250,,,
0.9799999984,7,200794.7343750000,195144.0625000000,200109.7187500000,185750.0781250000,186674.9062500000,164399.8750000000,170512.7500000000,-23741.8984375000,,,
0.9839999985,7,200795.3125000000,195141.0937500000,200110.0468750000,185749.9531250000,186677.6093750000,164400.5468750000,170512.4687500000,-23747.4511718750,,,
0.9879999985,7,200792.9843750000,195131.0000000000,200117.6562500000,185753.2187500000,186686.6250000000,164402.1093750000,170521.1718750000,-23747.2890625000,,,
0.9919999985,7,200772.1093750000,195108.5312500000,200104.7031250000,185730.2812500000,186675.1718750000,164390.2812500000,170513.6562500000,-23759.7890625000,,,
0.9959999984,7,200770.9375000000,195123.2031250000,200097.2187500000,185734.2031250000,186662.6250000000,164384.6406250000,170491.1562500000,-23759.5195312500,,,
0.9999999984,7,200787.1875000000,195139.4218750000,200111.4375000000,185768.9062500000,186671.7343750000,164383.9218750000,170487.3437500000,-23752.1972656250,,,
1.0039999983,7,200828.6250000000,195167.2968750000,200157.0937500000,185826.2500000000,186715.2500000000,164414.1718750000,170542.0625000000,-23718.3476562500,,,
1.0079999985,7,200822.7812500000,195152.7500000000,200156.1406250000,185798.7343750000,186722.1093750000,164424.5312500000,170558.3125000000,-23716.1484375000,,,
1.0119999985,7,200813.7187500000,195151.3125000000,200145.2812500000,185773.9531250000,186714.8750000000,164427.4062500000,170556.9687500000,-23711.0253906250,,,
1.0159999984,7,200807.0312500000,195156.9062500000,200130.5625000000,185752.6875000000,186697.9531250000,164418.1406250000,170544.4687500000,-23714.2988281250,,,
1.0199999984,7,200812.2656250000,195168.7968750000,200127.5781250000,185758.2343750000,186693.8125000000,164415.7812500000,170538.0312500000,-23714.1914062500,,,
1.0239999983,8,200836.9687500000,195176.5781250000,200156.7343750000,185794.6250000000,186724.4218750000,164431.2031250000,170562.7656250000,-23699.3046875000,,,
1.0279999983,8,200846.8750000000,195173.2187500000,200175.4531250000,185818.3437500000,186746.0156250000,164448.0468750000,170579.0156250000,-23685.6796875000,,,
1.0319999983,8,200839.1718750000,195169.5468750000,200164.4687500000,185815.3593750000,186738.6562500000,164451.1875000000,170573.1718750000,-23682.5410156250,,,
1.0359999982,8,200816.5625000000,195156.7500000000,200134.1562500000,185781.5937500000,186706.2031250000,164426.3750000000,170547.1093750000,-23702.5761718750,,,
1.0399999982,8,200811.7343750000,195155.4375000000,200127.9375000000,185749.2031250000,186697.5468750000,164416.5156250000,170542.1406250000,-23712.6347656250,,,
1.0439999981,8,200830.9687500000,195168.7968750000,200155.2656250000,185771.0781250000,186723.2343750000,164433.1406250000,170563.0312500000,-23698.2324218750,,,
1.0479999983,8,200817.9218750000,195144.8906250000,200146.8125000000,185794.5312500000,186718.1406250000,164425.2500000000,170552.5781250000,-23707.9960937500,,,
1.0519999983,8,200815.8906250000,195142.7812500000,200144.8750000000,185794.9531250000,186717.4687500000,164431.1093750000,170554.9843750000,-23701.9335937500,,,
1.0559999982,8,200818.6250000000,195156.7187500000,200141.1562500000,185776.9062500000,186710.6875000000,164430.0625000000,170548.7968750000,-23698.6601562500,,,
1.0599999982,8,200833.2187500000,195174.6875000000,200150.9687500000,185799.7500000000,186717.0781250000,164428.1718750000,170551.7968750000,-23694.8261718750,,,
1.0639999982,8,200836.2812500000,195171.3437500000,200157.9687500000,185816.2031250000,186724.3437500000,164425.8437500000,170558.6406250000,-23698.1777343750,,,
1.0679999983,8,200830.0000000000,195157.7968750000,200160.3281250000,185809.9531250000,186731.0781250000,164430.5468750000,170568.2656250000,-23694.7988281250,,,
1.0719999983,8,200823.8281250000,195157.8281250000,200153.0156250000,185763.2812500000,186725.6250000000,164433.5468750000,170567.7031250000,-23690.9101562500,,,
1.0759999983,8,200832.6875000000,195179.5781250000,200154.1406250000,185757.6406250000,186721.6093750000,164433.3593750000,170565.4843750000,-23682.2734375000,,,
1.0799999982,8,200833.0000000000,195176.6562500000,200152.0937500000,185767.0937500000,186717.2656250000,164424.1875000000,170554.3750000000,-23690.2656250000,,,
1.0839999982,8,200851.3750000000,195182.5781250000,200175.1406250000,185796.9062500000,186740.8593750000,164436.9531250000,170573.7187500000,-23677.4707031250,,,
1.0879999981,8,200851.4843750000,195174.9375000000,200181.9218750000,185816.0625000000,186748.5937500000,164443.1406250000,170586.5000000000,-23673.4492187500,,,
1.0919999983,8,200857.2031250000,195185.8750000000,200186.3281250000,185821.4843750000,186753.6562500000,164458.8125000000,170595.8437500000,-23658.6425781250,,,
1.0959999983,8,200845.8750000000,195186.5781250000,200166.0781250000,185788.9218750000,186729.7031250000,164445.8281250000,170575.4843750000,-23670.0156250000,,,
1.0999999982,8,200840.8906250000,195188.0000000000,200152.7968750000,185798.9531250000,186713.0781250000,164431.7968750000,170553.0000000000,-23683.2382812500,,,
1.1039999982,8,200850.7031250000,195186.2343750000,200165.9375000000,185819.6562500000,186726.4531250000,164436.3281250000,170559.8750000000,-23680.5820312500,,,
1.1079999981,8,200843.2812500000,195165.0625000000,200168.4062500000,185801.1718750000,186732.5781250000,164434.7968750000,170563.9531250000,-23684.5527343750,,,
1.1119999983,8,200835.6250000000,195164.4218750000,200159.5000000000,185798.6562500000,186727.4843750000,164440.2812500000,170560.5156250000,-23678.2753906250,,,
1.1159999983,8,200827.1093750000,195174.3437500000,200141.4531250000,185786.2031250000,186708.5625000000,164431.6875000000,170542.4062500000,-23679.5097656250,,,
1.1199999982,8,200818.0625000000,195174.9375000000,200129.6250000000,185764.7031250000,186692.7500000000,164412.2968750000,170525.8906250000,-23694.5312500000,,,
1.1239999982,8,200819.5625000000,195170.1093750000,200135.3593750000,185761.6718750000,186699.8750000000,164415.1406250000,170533.3437500000,-23696.2207031250,,,
1.1279999982,8,200808.7812500000,195148.9218750000,200133.5312500000,185772.4531250000,186702.9843750000,164411.9218750000,170539.8281250000,-23702.3359375000,,,
1.1319999981,8,200790.8437500000,195134.0312500000,200119.2187500000,185762.5781250000,186690.2812500000,164403.6093750000,170532.4062500000,-23708.5312500000,,,
1.1359999983,8,200787.4375000000,195139.6093750000,200110.9531250000,185741.0625000000,186679.4375000000,164397.8437500000,170521.8125000000,-23710.1132812500,,,
1.1399999983,8,200798.1875000000,195151.5000000000,200118.6562500000,185738.5468750000,186684.2656250000,164396.2656250000,170521.7500000000,-23707.3242187500,,,
1.1439999982,8,200826.3437500000,195168.8437500000,200149.9218750000,185796.1875000000,186716.7187500000,164420.7968750000,170552.0625000000,-23683.0781250000,,,
1.1479999982,8,200841.5000000000,195167.7500000000,200175.7812500000,185804.7656250000,186747.7031250000,164437.3750000000,170580.6250000000,-23666.0175781250,,,
1.1519999981,9,200836.6562500000,195162.8125000000,200171.7343750000,185798.7031250000,186746.8906250000,164435.3437500000,170580.6562500000,-23662.3164062500,,,
1.1559999981,9,200821.7968750000,195163.4218750000,200147.1875000000,185755.0625000000,186719.7500000000,164421.9375000000,170558.0156250000,-23673.6894531250,,,
1.1599999981,9,200830.1875000000,195181.2656250000,200145.4375000000,185762.7343750000,186713.6718750000,164419.5468750000,170546.0312500000,-23673.0468750000,,,
1.1639999980,9,200846.7656250000,195193.3906250000,200160.4687500000,185795.6718750000,186730.8281250000,164431.8750000000,170556.7812500000,-23661.0019531250,,,
1.1679999980,9,200845.6406250000,195178.4531250000,200167.8750000000,185801.3906250000,186742.6562500000,164434.0312500000,170572.4531250000,-23659.2050781250,,,
1.1719999979,9,200842.7968750000,195173.3593750000,200170.3125000000,185804.2656250000,186747.0625000000,164433.9531250000,170579.2968750000,-23655.3164062500,,,
1.1759999981,9,200820.0937500000,195163.2968750000,200143.4843750000,185748.0625000000,186717.4687500000,164410.3125000000,170553.3593750000,-23677.5781250000,,,
1.1799999981,9,200814.3593750000,195163.7968750000,200131.5312500000,185735.7656250000,186700.1718750000,164393.7187500000,170534.6250000000,-23693.9140625000,,,
1.1839999980,9,200814.9843750000,195152.0000000000,200134.5000000000,185753.7031250000,186703.2812500000,164385.8750000000,170531.9687500000,-23700.5390625000,,,
1.1879999980,9,200808.1406250000,195132.6406250000,200136.2968750000,185767.2500000000,186709.4531250000,164378.0781250000,170531.4687500000,-23704.4550781250,,,
1.1919999979,9,200802.5000000000,195127.8125000000,200133.1875000000,185755.4687500000,186708.9375000000,164379.0468750000,170532.8593750000,-23701.0488281250,,,
1.1959999981,9,200782.7343750000,195130.3593750000,200103.6562500000,185717.9687500000,186675.9531250000,164369.5000000000,170503.9218750000,-23715.3183593750,,,
1.1999999981,9,200779.6250000000,195137.3281250000,200093.8593750000,185717.5468750000,186662.5468750000,164375.2343750000,170492.1250000000,-23720.8691406250,,,
1.2039999980,9,200800.5468750000,195148.0625000000,200117.5312500000,185769.4531250000,186685.5312500000,164392.8593750000,170512.2343750000,-23709.3085937500,,,
1.2079999980,9,200819.0000000000,195155.8437500000,200143.4531250000,185804.0468750000,186712.8281250000,164414.3437500000,170537.7968750000,-23687.4218750000,,,
1.2119999980,9,200798.4531250000,195140.4218750000,200121.4687500000,185780.5000000000,186694.3593750000,164405.8906250000,170528.0625000000,-23697.4277343750,,,
1.2159999979,9,200781.5000000000,195139.0156250000,200099.6562500000,185737.9062500000,186671.3125000000,164393.8281250000,170512.3750000000,-23705.7695312500,,,
1.2199999981,9,200797.8125000000,195161.2812500000,200111.9375000000,185775.4062500000,186680.7343750000,164401.0312500000,170515.0468750000,-23696.4355468750,,,
1.2239999981,9,200814.0468750000,195174.6875000000,200127.3437500000,185793.4531250000,186699.2031250000,164414.2656250000,170522.3125000000,-23685.2773437500,,,
1.2279999980,9,200810.2031250000,195163.6093750000,200130.3750000000,185789.2968750000,186706.9375000000,164420.9375000000,170525.9375000000,-23682.7011718750,,,
1.2319999980,9,200793.1250000000,195140.2812500000,200123.1562500000,185762.5468750000,186698.6718750000,164407.5781250000,170519.6875000000,-23693.6992187500,,,
1.2359999979,9,200787.0781250000,195142.2343750000,200112.9687500000,185732.5156250000,186682.7968750000,164396.4687500000,170510.4687500000,-23698.8750000000,,,
1.2399999981,9,200796.7656250000,195156.5937500000,200109.8281250000,185743.2968750000,186677.1406250000,164396.0468750000,170505.7187500000,-23698.1777343750,,,
1.2439999981,9,200825.1406250000,195175.5000000000,200140.4062500000,185787.7656250000,186707.7031250000,164419.3750000000,170532.3281250000,-23678.6777343750,,,
1.2479999980,9,200831.4687500000,195168.7187500000,200156.7031250000,185812.6250000000,186725.3281250000,164431.3906250000,170548.2500000000,-23670.4433593750,,,
1.2519999980,9,200826.7500000000,195163.5625000000,200152.0937500000,185788.8125000000,186720.1562500000,164430.2656250000,170539.3281250000,-23669.6132812500,,,
1.2559999980,9,200814.5156250000,195156.0781250000,200133.9687500000,185748.7968750000,186700.4218750000,164413.4531250000,170523.0156250000,-23679.2421875000,,,
1.2599999979,9,200811.9218750000,195157.7187500000,200128.7031250000,185752.1718750000,186694.9687500000,164401.4687500000,170518.9375000000,-23685.5996093750,,,
1.2639999981,9,200837.5312500000,195177.8906250000,200156.0625000000,185799.7343750000,186724.9375000000,164419.3750000000,170543.5937500000,-23665.2675781250,,,
1.2679999981,9,200826.6406250000,195160.0468750000,200149.7968750000,185780.5781250000,186723.6718750000,164417.3906250000,170536.9375000000,-23668.8339843750,,,
1.2719999980,9,200822.7500000000,195156.7812500000,200148.6875000000,185765.0781250000,186722.2812500000,164421.2656250000,170538.5937500000,-23661.2167968750,,,
1.2759999980,9,200831.1718750000,195175.6093750000,200150.7031250000,185777.9687500000,186720.0781250000,164428.5000000000,170545.2031250000,-23649.0410156250,,,
1.2799999979,10,200837.4843750000,195193.4687500000,200150.1406250000,185807.6875000000,186714.0468750000,164422.3593750000,170539.4531250000,-23650.5429687500,,,
1.2839999979,10,200866.3906250000,195210.4218750000,200187.0781250000,185852.8593750000,186748.5000000000,164439.1250000000,170565.7500000000,-23632.9746093750,,,
1.2879999978,10,200848.6093750000,195177.6406250000,200180.9843750000,185812.0156250000,186747.2968750000,164433.1875000000,170557.2187500000,-23647.7265625000,,,
1.2919999978,10,200810.5000000000,195141.5937500000,200137.5937500000,185767.9218750000,186711.2187500000,164410.1562500000,170525.3437500000,-23675.5136718750,,,
1.2959999978,10,200801.5468750000,195144.5000000000,200119.4218750000,185743.0312500000,186691.2343750000,164401.0156250000,170513.1250000000,-23685.6250000000,,,
1.2999999977,10,200825.5468750000,195167.4531250000,200142.3281250000,185776.8750000000,186711.5156250000,164412.8593750000,170532.4531250000,-23671.4902343750,,,
1.3039999979,10,200847.7343750000,195176.8906250000,200168.1406250000,185801.9218750000,186738.4687500000,164429.8437500000,170552.3906250000,-23655.5039062500,,,
1.3079999979,10,200835.8125000000,195160.8281250000,200164.1406250000,185785.0000000000,186739.1718750000,164431.0781250000,170550.8125000000,-23658.0800781250,,,
1.3119999978,10,200833.7031250000,195164.9062500000,200165.9062500000,185786.9687500000,186739.5781250000,164435.6875000000,170554.9687500000,-23649.5234375000,,,
1.3159999978,10,200844.6718750000,195190.9218750000,200171.2812500000,185802.3906250000,186738.0781250000,164444.5156250000,170557.2500000000,-23633.5898437500,,,
1.3199999977,10,200845.5625000000,195195.7500000000,200163.9843750000,185823.7031250000,186729.3750000000,164436.9843750000,170547.1250000000,-23637.2656250000,,,
1.3239999979,10,200844.1562500000,195182.5781250000,200165.1250000000,185810.6250000000,186731.6093750000,164432.2500000000,170545.0937500000,-23644.7480468750,,,
1.3279999979,10,200829.2968750000,195162.3281250000,200157.3593750000,185785.4843750000,186730.3437500000,164427.7187500000,170539.4531250000,-23653.6269531250,,,
1.3319999978,10,200817.7343750000,195158.0625000000,200146.8125000000,185760.3593750000,186721.0156250000,164422.6562500000,170538.8750000000,-23657.1406250000,,,
1.3359999978,10,200811.2500000000,195164.8281250000,200133.8281250000,185748.7968750000,186703.5000000000,164411.7656250000,170524.5468750000,-23662.5859375000,,,
1.3399999978,10,200818.8750000000,195173.6406250000,200136.0312500000,185773.2500000000,186704.3906250000,164410.7187500000,170516.0468750000,-23664.0605468750,,,
1.3439999977,10,200827.3125000000,195173.4062500000,200146.8437500000,185794.2031250000,186719.5625000000,164413.9062500000,170520.2812500000,-23663.9804687500,,,
1.3479999979,10,200838.3750000000,195173.0625000000,200163.7343750000,185805.6562500000,186739.2812500000,164431.1562500000,170548.8437500000,-23649.4960937500,,,
1.3519999979,10,200828.2812500000,195161.6093750000,200155.9375000000,185780.2343750000,186728.6875000000,164427.8593750000,170551.5781250000,-23652.6621093750,,,
1.3559999978,10,200825.4062500000,195166.2500000000,200146.8125000000,185758.7968750000,186713.5781250000,164416.5156250000,170542.7031250000,-23657.9179687500,,,
1.3599999978,10,200836.0937500000,195182.7968750000,200149.0468750000,185781.7656250000,186711.0625000000,164412.0312500000,170529.8593750000,-23656.4707031250,,,
1.3639999977,10,200864.0312500000,195200.9218750000,200179.3281250000,185825.4843750000,186740.7031250000,164432.5468750000,170552.6562500000,-23634.2617187500,,,
1.3679999979,10,200859.6562500000,195191.0312500000,200182.2656250000,185807.7500000000,186750.3593750000,164441.9062500000,170563.4687500000,-23628.0917968750,,,
1.3719999979,10,200841.3437500000,195179.9843750000,200166.7343750000,185795.5156250000,186738.0156250000,164434.7812500000,170553.9375000000,-23633.1347656250,,,
1.3759999978,10,200834.6718750000,195185.7500000000,200154.7500000000,185784.2500000000,186723.7812500000,164424.7187500000,170538.3906250000,-23637.0234375000,,,
1.3799999978,10,200837.4843750000,195196.9531250000,200155.2343750000,185779.4531250000,186723.1562500000,164419.1406250000,170534.5468750000,-23640.4042968750,,,
1.3839999977,10,200859.3437500000,195213.0781250000,200182.9218750000,185804.2343750000,186753.0468750000,164438.1562500000,170564.6406250000,-23622.5937500000,,,
1.3879999977,10,200849.5781250000,195198.2968750000,200181.3593750000,185797.2031250000,186755.3437500000,164438.1250000000,170561.3750000000,-23627.6367187500,,,
1.3919999979,10,200838.2812500000,195189.3906250000,200174.6250000000,185783.8437500000,186749.9531250000,164436.3281250000,170554.9062500000,-23628.9765625000,,,
1.3959999979,10,200836.3593750000,195197.1718750000,200163.5156250000,185789.2968750000,186734.4531250000,164433.1875000000,170550.2656250000,-23628.0117187500,,,
1.3999999978,10,200851.6406250000,195212.1875000000,200171.0312500000,185824.8906250000,186739.4687500000,164443.4687500000,170565.1250000000,-23617.6582031250,,,
1.4039999978,10,200871.9687500000,195224.6406250000,200189.6250000000,185842.2343750000,186760.2500000000,164464.2343750000,170586.0781250000,-23600.1425781250,,,
1.4079999977,11,200856.6562500000,195198.6250000000,200180.9062500000,185824.8906250000,186753.7656250000,164452.4062500000,170576.2031250000,-23615.9687500000,,,
1.4119999977,11,200838.8437500000,195174.9687500000,200169.9531250000,185795.7343750000,186743.5468750000,164440.3906250000,170565.3437500000,-23629.2187500000,,,
1.4159999976,11,200848.8750000000,195188.2968750000,200175.0000000000,185808.9062500000,186746.1718750000,164444.2187500000,170569.3437500000,-23619.3203125000,,,
1.4199999976,11,200872.9687500000,195213.3125000000,200192.3906250000,185821.1562500000,186761.7343750000,164457.4218750000,170581.4062500000,-23602.3437500000,,,
1.4239999976,11,200890.1562500000,195222.8125000000,200213.4687500000,185818.2031250000,186784.4687500000,164470.4531250000,170593.2343750000,-23591.2929687500,,,
1.4279999975,11,200886.2968750000,195209.1406250000,200217.3593750000,185796.6406250000,186791.9843750000,164468.0156250000,170596.3750000000,-23595.6367187500,,,
1.4319999977,11,200851.3750000000,195171.4687500000,200180.4218750000,185793.1250000000,186757.0937500000,164439.3125000000,170575.4531250000,-23623.2636718750,,,
1.4359999977,11,200853.6562500000,195188.4062500000,200174.9531250000,185788.5468750000,186748.8593750000,164442.3906250000,170579.0156250000,-23611.4082031250,,,
1.4399999976,11,200857.0156250000,195200.1718750000,200171.8906250000,185778.7500000000,186742.4218750000,164437.1718750000,170569.0468750000,-23611.7851562500,,,
1.4439999976,11,200871.4062500000,195211.2187500000,200184.6562500000,185814.8906250000,186756.9062500000,164449.9062500000,170577.2812500000,-23603.2812500000,,,
1.4479999975,11,200871.6250000000,195204.9687500000,200189.7812500000,185824.4375000000,186766.3906250000,164453.4531250000,170582.5937500000,-23598.5332031250,,,
1.4519999977,11,200853.2343750000,195191.3281250000,200174.5156250000,185806.6250000000,186752.0156250000,164441.7500000000,170569.3593750000,-23607.3046875000,,,
1.4559999977,11,200836.6718750000,195193.3906250000,200153.6562500000,185778.8906250000,186726.9218750000,164427.8593750000,170547.0156250000,-23617.7929687500,,,
1.4599999976,11,200850.7031250000,195213.7812500000,200161.1875000000,185802.6562500000,186730.7500000000,164432.8437500000,170543.7812500000,-23607.5996093750,,,
1.4639999976,11,200866.5781250000,195214.3593750000,200182.3750000000,185841.7343750000,186751.5937500000,164442.8281250000,170567.3281250000,-23601.9941406250,,,
1.4679999975,11,200878.2031250000,195210.5625000000,200204.4062500000,185853.6093750000,186775.7343750000,164462.1093750000,170599.1875000000,-23589.9238281250,,,
1.4719999975,11,200873.6093750000,195210.7500000000,200201.7187500000,185842.4531250000,186775.8593750000,164467.5781250000,170604.3125000000,-23583.7011718750,,,
1.4759999977,11,200854.3281250000,195208.7812500000,200173.6562500000,185812.7656250000,186748.4531250000,164452.4531250000,170574.2812500000,-23597.6230468750,,,
1.4799999977,11,200851.0468750000,195211.4375000000,200166.5468750000,185795.0156250000,186741.4062500000,164441.0312500000,170561.7500000000,-23606.9824218750,,,
1.4839999976,11,200868.4843750000,195214.2812500000,200186.2187500000,185835.4843750000,186761.8437500000,164452.5312500000,170580.0468750000,-23598.2929687500,,,
1.4879999976,11,200873.1562500000,195204.9687500000,200197.5937500000,185844.5156250000,186777.5312500000,164468.7812500000,170596.6718750000,-23589.2539062500,,,
1.4919999975,11,200858.8281250000,195189.9062500000,200186.6406250000,185816.8906250000,186769.9062500000,164465.0937500000,170591.4062500000,-23593.1152343750,,,
1.4959999977,11,200847.0625000000,195186.8906250000,200167.1718750000,185792.3750000000,186747.7031250000,164445.6406250000,170571.3750000000,-23603.3359375000,,,
1.4999999977,11,200859.5625000000,195203.1718750000,200175.1875000000,185805.4687500000,186753.4218750000,164449.8281250000,170576.2656250000,-23592.5000000000,,,
1.5039999976,11,200890.5937500000,195220.1562500000,200210.0625000000,185825.7187500000,186789.8906250000,164477.1250000000,170612.0625000000,-23566.5351562500,,,
1.5079999976,11,200886.1093750000,195203.3906250000,200211.6093750000,185817.3750000000,186792.8437500000,164470.2968750000,170612.9218750000,-23573.7246093750,,,
1.5119999975,11,200866.3437500000,195188.3437500000,200192.1406250000,185799.3593750000,186773.2031250000,164460.4218750000,170593.3437500000,-23585.0957031250,,,
1.5159999975,11,200855.9375000000,195189.7343750000,200172.9843750000,185776.5781250000,186752.0781250000,164453.4531250000,170579.7500000000,-23591.1582031250,,,
1.5199999977,11,200874.0468750000,195213.7187500000,200183.6406250000,185800.6875000000,186759.3750000000,164462.7031250000,170587.3125000000,-23580.2421875000,,,
1.5239999976,11,200899.0312500000,195229.4062500000,200212.4218750000,185826.8437500000,186788.9062500000,164482.3281250000,170616.7812500000,-23566.1875000000,,,
1.5279999976,11,200902.9218750000,195229.2812500000,200219.7187500000,185824.5625000000,186802.1250000000,164497.2500000000,170631.5468750000,-23559.5351562500,,,
1.5319999976,11,200889.7343750000,195213.9843750000,200211.1875000000,185822.0781250000,186795.8750000000,164493.4687500000,170631.4843750000,-23568.1171875000,,,
1.5359999975,12,200875.4687500000,195208.4375000000,200189.4843750000,185809.3593750000,186771.0937500000,164470.2031250000,170614.3437500000,-23585.5253906250,,,
1.5399999975,12,200874.0937500000,195212.3593750000,200183.9062500000,185792.1875000000,186760.7656250000,164463.7187500000,170608.1250000000,-23592.0429687500,,,
1.5439999974,12,200898.7968750000,195230.8906250000,200215.1093750000,185833.9531250000,186793.1718750000,164500.0156250000,170642.6406250000,-23564.5781250000,,,
1.5479999974,12,200901.8593750000,195226.4375000000,200226.2812500000,185858.8906250000,186808.1562500000,164523.9843750000,170665.3281250000,-23551.9707031250,,,
1.5519999973,12,200893.5468750000,195224.5000000000,200220.3906250000,185809.2500000000,186807.1875000000,164538.1562500000,170676.1406250000,-23542.7167968750,,,
1.5559999973,12,200882.9687500000,195229.2812500000,200201.7500000000,185770.0312500000,186788.5000000000,164532.1406250000,170661.1250000000,-23543.6562500000,,,
1.5599999975,12,200870.2031250000,195227.8593750000,200182.4843750000,185760.0781250000,186767.1406250000,164530.7187500000,170646.1093750000,-23554.9746093750,,,
1.5639999975,12,200867.1718750000,195225.0625000000,200184.3906250000,185775.0312500000,186769.4218750000,164541.7187500000,170652.1406250000,-23558.9453125000,,,
1.5679999974,12,200867.7656250000,195218.8906250000,200195.7656250000,185789.4843750000,186784.8437500000,164549.7968750000,170666.5468750000,-23555.4316406250,,,
1.5719999974,12,200864.6562500000,195210.5000000000,200198.1718750000,185793.1562500000,186790.7031250000,164552.0937500000,170675.2343750000,-23554.4394531250,,,
1.5759999973,12,200867.7343750000,195220.9687500000,200194.0156250000,185792.7812500000,186786.6250000000,164556.4687500000,170674.9843750000,-23550.2539062500,,,
1.5799999975,12,200868.9375000000,195228.5312500000,200189.8281250000,185786.2656250000,186783.7187500000,164552.7968750000,170668.5468750000,-23556.3964843750,,,
1.5839999975,12,200887.1093750000,195238.2343750000,200210.3593750000,185814.7187500000,186804.5156250000,164571.5781250000,170688.3750000000,-23546.6074218750,,,
1.5879999974,12,200903.4843750000,195243.2031250000,200233.2343750000,185841.3593750000,186829.5156250000,164596.2812500000,170714.1250000000,-23526.8652343750,,,
1.5919999974,12,200892.7343750000,195234.0000000000,200224.2187500000,185825.4843750000,186821.3593750000,164595.1718750000,170710.7968750000,-23525.3632812500,,,
1.5959999973,12,200884.1250000000,195238.5000000000,200206.2031250000,185776.7500000000,186799.9843750000,164589.4531250000,170693.7968750000,-23526.0605468750,,,
1.5999999973,12,200893.1718750000,195248.8906250000,200209.3125000000,185764.2656250000,186798.0937500000,164592.2812500000,170690.7343750000,-23520.2675781250,,,
1.6039999975,12,200919.8281250000,195265.3593750000,200236.8750000000,185804.9375000000,186824.6875000000,164609.9843750000,170714.3906250000,-23500.9277343750,,,
1.6079999974,12,200931.1718750000,195264.3125000000,200251.5000000000,185841.0156250000,186842.7343750000,164619.9062500000,170723.4531250000,-23490.9785156250,,,
1.6119999974,12,200922.9375000000,195260.8125000000,200247.0937500000,185840.4687500000,186842.2031250000,164621.0625000000,170726.7031250000,-23489.5292968750,,,
1.6159999974,12,200905.5781250000,195259.7187500000,200227.7968750000,185807.7500000000,186823.1562500000,164601.0937500000,170711.8750000000,-23503.0468750000,,,
1.6199999973,12,200918.5937500000,195275.5937500000,200240.8281250000,185814.9687500000,186831.7968750000,164593.9375000000,170713.3750000000,-23500.1777343750,,,
1.6239999975,12,200933.6718750000,195288.2656250000,200253.8125000000,185826.1718750000,186847.9375000000,164608.0156250000,170736.2031250000,-23491.1660156250,,,
1.6279999975,12,200935.5156250000,195280.4843750000,200265.2656250000,185828.1875000000,186865.3750000000,164621.8593750000,170762.0000000000,-23484.1914062500,,,
1.6319999974,12,200923.2031250000,195266.4531250000,200256.0312500000,185810.9687500000,186858.3750000000,164614.0312500000,170753.9531250000,-23488.6972656250,,,
1.6359999974,12,200915.3125000000,195268.3906250000,200239.6406250000,185813.9218750000,186838.2500000000,164595.6562500000,170728.1562500000,-23497.4687500000,,,
1.6399999973,12,200915.6718750000,195275.9687500000,200236.2343750000,185811.8593750000,186830.4687500000,164583.3750000000,170718.2812500000,-23502.5117187500,,,
1.6439999973,12,200915.0000000000,195271.7656250000,200237.8437500000,185813.2812500000,186831.6875000000,164575.8906250000,170714.2031250000,-23507.8750000000,,,
1.6479999975,12,200910.4375000000,195259.9687500000,200242.4531250000,185806.5937500000,186837.9531250000,164576.6406250000,170713.5937500000,-23509.2695312500,,,
1.6519999974,12,200889.4062500000,195236.9687500000,200227.8906250000,185782.2187500000,186823.7656250000,164562.6406250000,170708.2500000000,-23524.9609375000,,,
1.6559999974,12,200884.8437500000,195239.0156250000,200216.0468750000,185789.3437500000,186805.7500000000,164546.8437500000,170691.6250000000,-23531.4511718750,,,
1.6599999974,12,200887.2343750000,195245.5312500000,200210.4375000000,185796.0781250000,186796.2500000000,164536.6406250000,170680.0000000000,-23537.0585937500,,,
1.6639999973,13,200886.7812500000,195237.3281250000,200210.0937500000,185797.4218750000,186798.3906250000,164531.5000000000,170677.8125000000,-23543.1992187500,,,
1.6679999973,13,200878.9687500000,195219.7343750000,200210.1875000000,185800.8281250000,186803.1718750000,164525.3750000000,170674.2968750000,-23546.0156250000,,,
1.6719999972,13,200867.9218750000,195211.9218750000,200204.7187500000,185781.5625000000,186799.3593750000,164521.0625000000,170669.9218750000,-23544.4062500000,,,
1.6759999972,13,200847.0781250000,195203.8281250000,200176.3906250000,185760.6562500000,186766.7656250000,164495.4531250000,170638.2187500000,-23562.6464843750,,,
1.6799999971,13,200843.8437500000,195203.6562500000,200164.1875000000,185775.0312500000,186751.3437500000,164476.6406250000,170618.2968750000,-23573.6972656250,,,
1.6839999971,13,200868.3281250000,195219.0781250000,200190.6093750000,185809.5468750000,186776.3750000000,164492.1562500000,170636.5000000000,-23556.7988281250,,,
1.6879999973,13,200878.6875000000,195217.4218750000,200205.0937500000,185804.9843750000,186794.3125000000,164503.3125000000,170646.5000000000,-23544.5410156250,,,
1.6919999972,13,200879.5156250000,195213.2343750000,200209.2500000000,185795.4687500000,186800.1875000000,164506.5781250000,170653.5000000000,-23537.4335937500,,,
1.6959999972,13,200868.1718750000,195205.6718750000,200192.3593750000,185777.3593750000,186778.9218750000,164488.4218750000,170639.8750000000,-23551.8632812500,,,
1.6999999972,13,200865.2656250000,195206.1250000000,200181.5781250000,185790.9843750000,186763.5312500000,164472.0000000000,170622.2812500000,-23561.9765625000,,,
1.7039999971,13,200896.9218750000,195233.3593750000,200212.9531250000,185840.3125000000,186793.7812500000,164494.8125000000,170644.3906250000,-23537.1660156250,,,
1.7079999973,13,200905.8750000000,195238.3750000000,200224.5468750000,185856.3281250000,186809.2812500000,164509.9375000000,170655.3906250000,-23524.1562500000,,,
1.7119999973,13,200874.2031250000,195212.6250000000,200194.0781250000,185810.6718750000,186782.5937500000,164490.4062500000,170626.3593750000,-23543.4140625000,,,
1.7159999972,13,200865.6250000000,195210.6875000000,200183.1093750000,185790.1250000000,186767.5781250000,164479.7031250000,170612.2343750000,-23547.3574218750,,,
1.7199999972,13,200865.4062500000,195211.7968750000,200177.2343750000,185777.8437500000,186758.0781250000,164465.0937500000,170605.0625000000,-23557.0937500000,,,
1.7239999971,13,200879.1093750000,195219.5937500000,200191.0156250000,185801.3593750000,186773.7656250000,164471.0937500000,170614.4218750000,-23551.9179687500,,,
1.7279999971,13,200892.5937500000,195226.7812500000,200212.4531250000,185811.6875000000,186799.4375000000,164491.4843750000,170635.4062500000,-23535.3945312500,,,
1.7319999973,13,200867.7343750000,195203.9062500000,200193.2656250000,185751.0781250000,186784.2343750000,164477.4218750000,170623.0625000000,-23548.1894531250,,,
1.7359999972,13,200871.0937500000,195215.4687500000,200194.5000000000,185758.2031250000,186780.9843750000,164473.0312500000,170620.2968750000,-23541.8046875000,,,
1.7399999972,13,200882.4843750000,195234.2187500000,200199.5937500000,185787.7656250000,186782.2968750000,164474.3593750000,170615.2031250000,-23535.7441406250,,,
1.7439999972,13,200877.1562500000,195220.7968750000,200196.9375000000,185792.1406250000,186779.9687500000,164467.0468750000,170614.8281250000,-23547.5722656250,,,
1.7479999971,13,200873.2343750000,195203.1250000000,200201.3437500000,185801.2812500000,186786.3750000000,164471.8750000000,170625.1093750000,-23548.5117187500,,,
1.7519999973,13,200858.7500000000,195187.4375000000,200187.7968750000,185795.9218750000,186774.5468750000,164468.8125000000,170614.5937500000,-23555.7265625000,,,
1.7559999973,13,200852.3125000000,195192.9843750000,200174.1250000000,185785.4375000000,186756.9531250000,164460.2031250000,170599.3593750000,-23557.9785156250,,,
1.7599999972,13,200852.0000000000,195201.7031250000,200165.6093750000,185787.7968750000,186742.6562500000,164448.3281250000,170582.5625000000,-23563.0761718750,,,
1.7639999972,13,200871.8125000000,195215.1093750000,200186.0781250000,185813.1875000000,186761.9218750000,164461.6250000000,170596.5156250000,-23550.8710937500,,,
1.7679999971,13,200879.8593750000,195211.5156250000,200201.6875000000,185811.0781250000,186782.5937500000,164475.3906250000,170613.7031250000,-23536.6562500000,,,
1.7719999971,13,200879.7343750000,195207.1718750000,200206.1718750000,185805.8437500000,186790.3281250000,164483.6718750000,170626.3437500000,-23525.2832031250,,,
1.7759999973,13,200866.2031250000,195202.9687500000,200184.8437500000,185795.9531250000,186767.4375000000,164467.7343750000,170606.8437500000,-23535.9589843750,,,
1.7799999972,13,200866.7968750000,195213.2656250000,200177.0937500000,185799.7500000000,186757.4843750000,164461.1093750000,170598.4687500000,-23539.9277343750,,,
1.7839999972,13,200876.6718750000,195217.9843750000,200189.7500000000,185807.0000000000,186770.6562500000,164468.3906250000,170608.9218750000,-23536.8710937500,,,
1.7879999971,13,200868.9218750000,195203.2343750000,200187.3437500000,185806.5468750000,186770.9843750000,164471.8437500000,170607.0781250000,-23538.3183593750,,,
1.7919999971,14,200866.4531250000,195195.7968750000,200186.9062500000,185822.5468750000,186772.0781250000,164473.6093750000,170605.3906250000,-23532.7929687500,,,
1.7959999971,14,200867.3125000000,195202.4531250000,200182.8281250000,185814.6406250000,186763.7343750000,164466.8593750000,170596.5156250000,-23533.8925781250,,,
1.7999999970,14,200863.0468750000,195206.0000000000,200170.3906250000,185791.2031250000,186747.8125000000,164456.6718750000,170587.4218750000,-23548.4296875000,,,
1.8039999970,14,200866.4843750000,195203.5781250000,200174.5937500000,185802.7656250000,186752.7500000000,164458.1406250000,170592.8906250000,-23556.1542968750,,,
1.8079999969,14,200864.2187500000,195191.5625000000,200179.4531250000,185812.3906250000,186760.6093750000,164457.2500000000,170595.2500000000,-23559.5625000000,,,
1.8119999969,14,200842.2812500000,195174.7812500000,200163.0625000000,185803.6406250000,186746.0468750000,164449.2343750000,170582.2343750000,-23570.3437500000,,,
1.8159999971,14,200824.2343750000,195176.2031250000,200143.0625000000,185756.1093750000,186726.1093750000,164441.1875000000,170566.2812500000,-23576.5937500000,,,
1.8199999970,14,200819.1875000000,195179.6875000000,200130.8593750000,185754.9687500000,186712.6406250000,164428.2031250000,170555.0468750000,-23584.3984375000,,,
1.8239999970,14,200844.6718750000,195191.2500000000,200156.6093750000,185805.3125000000,186738.0000000000,164441.1406250000,170580.7187500000,-23569.6191406250,,,
1.8279999970,14,200853.8750000000,195189.6093750000,200175.0000000000,185828.1562500000,186760.3281250000,164454.6562500000,170599.4375000000,-23558.3007812500,,,
1.8319999969,14,200841.2656250000,195180.4843750000,200165.5937500000,185823.7031250000,186752.4531250000,164448.4531250000,170594.3593750000,-23561.4921875000,,,
1.8359999971,14,200829.9218750000,195178.8281250000,200147.7500000000,185791.4375000000,186731.5781250000,164436.0937500000,170576.5312500000,-23568.1992187500,,,
1.8399999971,14,200829.9218750000,195182.1562500000,200141.9843750000,185776.5000000000,186720.4843750000,164429.4687500000,170567.7500000000,-23572.4101562500,,,
1.8439999970,14,200839.6875000000,195182.3125000000,200151.8281250000,185777.3906250000,186728.5468750000,164435.7968750000,170573.7968750000,-23569.5117187500,,,
1.8479999970,14,200837.7031250000,195164.9843750000,200155.7187500000,185784.7656250000,186734.4843750000,164438.4218750000,170575.6093750000,-23569.4316406250,,,
1.8519999969,14,200844.2968750000,195166.0000000000,200172.5312500000,185807.2187500000,186749.5312500000,164446.7656250000,170587.0625000000,-23556.9335937500,,,
1.8559999969,14,200860.0625000000,195191.9375000000,200180.5781250000,185820.0312500000,186755.6406250000,164452.1250000000,170586.7187500000,-23542.5292968750,,,
1.8599999971,14,200839.7656250000,195183.3281250000,200151.1875000000,185763.2812500000,186728.4218750000,164430.7500000000,170558.5000000000,-23564.8457031250,,,
1.8639999970,14,200836.4062500000,195175.9531250000,200150.0000000000,185759.3906250000,186730.5156250000,164424.3750000000,170558.7187500000,-23573.5625000000,,,
1.8679999970,14,200853.8750000000,195181.5000000000,200174.7031250000,185792.1406250000,186758.9062500000,164444.6250000000,170583.2343750000,-23554.2500000000,,,
1.8719999969,14,200857.1406250000,195188.1562500000,200183.7500000000,185789.7812500000,186772.5468750000,164459.6406250000,170592.4531250000,-23538.1035156250,,,
1.8759999969,14,200843.5468750000,195191.9218750000,200163.5781250000,185763.9531250000,186749.3437500000,164450.4687500000,170581.3281250000,-23545.2382812500,,,
1.8799999971,14,200845.5625000000,195202.9843750000,200158.8281250000,185776.3125000000,186737.9375000000,164445.9375000000,170576.1562500000,-23547.5722656250,,,
1.8839999971,14,200858.6718750000,195212.8906250000,200172.8281250000,185806.5468750000,186752.0156250000,164457.6250000000,170585.3281250000,-23538.3730468750,,,
1.8879999970,14,200851.9687500000,195203.9375000000,200171.4062500000,185801.0468750000,186755.8750000000,164463.1250000000,170588.2812500000,-23539.2304687500,,,
1.8919999970,14,200850.2187500000,195198.1406250000,200174.3125000000,185806.5625000000,186760.1718750000,164468.2031250000,170593.3750000000,-23532.4707031250,,,
1.8959999969,14,200834.3125000000,195187.0312500000,200152.3906250000,185775.3437500000,186734.8593750000,164449.2343750000,170573.5781250000,-23546.6328125000,,,
1.8999999969,14,200834.6718750000,195194.9375000000,200147.5312500000,185766.9843750000,186724.6406250000,164440.6718750000,170568.1562500000,-23551.9707031250,,,
1.9039999971,14,200845.9062500000,195200.2812500000,200156.9218750000,185784.3281250000,186733.7500000000,164444.7031250000,170575.7187500000,-23550.2011718750,,,
1.9079999970,14,200840.6406250000,195181.0000000000,200157.8593750000,185775.5312500000,186739.8437500000,164448.1406250000,170577.5000000000,-23556.7460937500,,,
1.9119999970,14,200832.4687500000,195172.2812500000,200156.3593750000,185755.2343750000,186741.0156250000,164449.4531250000,170579.0781250000,-23556.2363281250,,,
1.9159999969,14,200818.0625000000,195173.7500000000,200138.7343750000,185736.0312500000,186722.3593750000,164437.7500000000,170563.3906250000,-23563.7988281250,,,
1.9199999969,15,200827.1093750000,195187.3281250000,200144.4218750000,185757.2968750000,186727.5625000000,164438.7500000000,170570.8437500000,-23557.9531250000,,,
1.9239999969,15,200855.1562500000,195208.8906250000,200177.3437500000,185808.9218750000,186762.4843750000,164461.7031250000,170599.3281250000,-23536.1191406250,,,
1.9279999968,15,200869.6718750000,195210.3437500000,200200.3437500000,185825.6875000000,186790.0781250000,164476.9687500000,170617.6406250000,-23521.2597656250,,,
1.9319999968,15,200863.9218750000,195206.6718750000,200194.4218750000,185815.7187500000,186788.1718750000,164472.4687500000,170613.5625000000,-23518.3085937500,,,
1.9359999967,15,200856.9218750000,195210.7187500000,200178.0000000000,185773.2031250000,186769.0468750000,164460.1718750000,170598.5468750000,-23521.0175781250,,,
1.9399999967,15,200842.6562500000,195201.4375000000,200155.9843750000,185747.0156250000,186742.6093750000,164442.9843750000,170574.5625000000,-23540.9199218750,,,
1.9439999969,15,200849.8437500000,195202.9843750000,200165.9843750000,185762.6093750000,186751.4062500000,164451.1406250000,170580.1718750000,-23540.0878906250,,,
1.9479999968,15,200864.4375000000,195206.6406250000,200187.6406250000,185785.0000000000,186775.4062500000,164466.2968750000,170598.1406250000,-23522.3593750000,,,
1.9519999968,15,200856.3437500000,195197.7031250000,200181.7656250000,185793.7968750000,186773.0781250000,164466.7187500000,170599.7343750000,-23518.0410156250,,,
1.9559999967,15,200839.1406250000,195193.6093750000,200159.0937500000,185772.4843750000,186746.6093750000,164448.1406250000,170580.3125000000,-23531.7207031250,,,
1.9599999967,15,200843.1093750000,195206.1250000000,200155.0781250000,185776.6562500000,186739.1250000000,164447.5781250000,170574.4375000000,-23530.6464843750,,,
1.9639999969,15,200859.0937500000,195212.7031250000,200169.1093750000,185799.8906250000,186752.3125000000,164461.7343750000,170587.2500000000,-23521.4472656250,,,
1.9679999969,15,200849.9218750000,195193.8750000000,200164.1875000000,185784.7656250000,186749.8281250000,164456.4843750000,170583.4687500000,-23529.8437500000,,,
1.9719999968,15,200826.2968750000,195170.6250000000,200147.8281250000,185762.5468750000,186737.2656250000,164446.0937500000,170575.0000000000,-23542.2070312500,,,
1.9759999968,15,200812.1562500000,195168.4218750000,200129.6718750000,185751.6562500000,186717.8750000000,164431.2968750000,170559.9531250000,-23553.8222656250,,,
1.9799999967,15,200804.2968750000,195169.7656250000,200117.3125000000,185747.0468750000,186702.9375000000,164417.3750000000,170545.1250000000,-23567.6074218750,,,
1.9839999967,15,200830.2343750000,195191.5625000000,200145.1562500000,185777.2812500000,186732.2812500000,164440.4687500000,170571.8906250000,-23548.6445312500,,,
1.9879999969,15,200833.1406250000,195182.9218750000,200155.3437500000,185791.3906250000,186747.5468750000,164446.4687500000,170586.2968750000,-23544.6210937500,,,
1.9919999968,15,200823.5625000000,195172.5156250000,200150.1093750000,185783.9375000000,186746.0937500000,164448.1093750000,170588.7343750000,-23541.7246093750,,,
1.9959999968,15,200822.0937500000,195187.4062500000,200139.5468750000,185779.1562500000,186735.4687500000,164448.4843750000,170578.9687500000,-23535.5292968750,,,
1.9999999967,15,200831.6093750000,195208.0625000000,200139.7812500000,185796.1875000000,186732.0312500000,164449.9843750000,170574.7500000000,-23529.1992187500,,,
2.0039999967,15,200838.5000000000,195212.1718750000,200145.2031250000,185793.2343750000,186739.3281250000,164457.5000000000,170582.4062500000,-23525.4980468750,,,
2.0079999969,15,200829.4687500000,195191.2187500000,200146.4843750000,185760.8906250000,186744.5156250000,164456.6875000000,170587.7343750000,-23529.6542968750,,,
2.0119999968,15,200821.4375000000,195172.2812500000,200146.1406250000,185737.7968750000,186744.5156250000,164457.1250000000,170589.5625000000,-23529.0390625000,,,
2.0159999968,15,200816.8593750000,195176.3906250000,200137.0468750000,185729.4062500000,186730.8281250000,164447.7031250000,170580.9843750000,-23529.9238281250,,,
2.0199999968,15,200829.2500000000,195194.7343750000,200143.4062500000,185727.6875000000,186732.6250000000,164448.7500000000,170580.2812500000,-23524.6386718750,,,
2.0239999967,15,200846.1718750000,195205.2656250000,200163.6875000000,185745.3593750000,186751.4843750000,164460.5781250000,170593.9843750000,-23518.3359375000,,,
2.0279999967,15,200857.5156250000,195204.0312500000,200182.0312500000,185764.0781250000,186772.2656250000,164472.2968750000,170609.4062500000,-23511.2285156250,,,
2.0319999969,15,200852.1875000000,195199.2968750000,200179.9062500000,185763.7812500000,186771.6562500000,164471.3125000000,170605.0468750000,-23510.7460937500,,,
2.0359999968,15,200849.4218750000,195207.9531250000,200172.2656250000,185759.3125000000,186763.5312500000,164465.4062500000,170599.7343750000,-23508.2773437500,,,
2.0399999968,15,200851.1093750000,195217.8437500000,200169.9531250000,185762.3906250000,186758.4375000000,164455.5156250000,170594.9218750000,-23509.2695312500,,,
2.0439999967,15,200867.5468750000,195228.6093750000,200186.1875000000,185788.0312500000,186774.3125000000,164463.8593750000,170606.5937500000,-23498.4882812500,,,
2.0479999967,16,200861.1406250000,195211.0625000000,200183.0468750000,185794.5312500000,186775.3281250000,164463.5781250000,170607.5312500000,-23501.7324218750,,,
2.0519999966,16,200846.7656250000,195194.6562500000,200172.1093750000,185771.0000000000,186766.3750000000,164460.0468750000,170602.7656250000,-23505.7031250000,,,
2.0559999966,16,200845.6875000000,195201.9218750000,200166.2656250000,185766.7968750000,186755.9687500000,164458.2812500000,170595.5468750000,-23503.9062500000,,,
2.0599999966,16,200829.1406250000,195193.1718750000,200138.9218750000,185761.6718750000,186724.0937500000,164433.3281250000,170567.2500000000,-23528.6093750000,,,
2.0639999965,16,200827.0156250000,195185.0781250000,200134.9843750000,185775.8281250000,186720.7656250000,164428.0937500000,170565.4843750000,-23538.1582031250,,,
2.0679999965,16,200843.0000000000,195192.3750000000,200157.4375000000,185801.8437500000,186748.6093750000,164452.3750000000,170592.4375000000,-23518.3085937500,,,
2.0719999967,16,200838.6406250000,195183.2500000000,200157.4375000000,185793.7968750000,186752.3750000000,164459.2968750000,170604.3906250000,-23514.9023437500,,,
2.0759999966,16,200829.4843750000,195185.6875000000,200141.6875000000,185787.2812500000,186735.5312500000,164451.2500000000,170594.0468750000,-23520.5351562500,,,
2.0799999966,16,200824.4687500000,195191.8593750000,200129.5156250000,185773.8125000000,186720.7968750000,164438.6406250000,170576.6562500000,-23531.8535156250,,,
2.0839999965,16,200838.7656250000,195202.4843750000,200147.1093750000,185790.5312500000,186740.4062500000,164451.7812500000,170586.5781250000,-23522.7617187500,,,
2.0879999965,16,200835.7343750000,195188.2187500000,200152.2343750000,185795.9531250000,186751.3437500000,164454.8437500000,170592.3750000000,-23523.0839843750,,,
2.0919999967,16,200828.7343750000,195172.7968750000,200152.7187500000,185770.3281250000,186756.1562500000,164457.3906250000,170598.3281250000,-23519.0058593750,,,
2.0959999966,16,200833.0000000000,195184.6250000000,200152.6875000000,185750.2343750000,186753.5781250000,164459.7968750000,170599.3593750000,-23507.7421875000,,,
2.0999999966,16,200843.0625000000,195203.7656250000,200157.9375000000,185768.4531250000,186751.1875000000,164453.8281250000,170595.5781250000,-23502.9140625000,,,
2.1039999966,16,200860.3593750000,195216.8593750000,200172.7812500000,185806.7812500000,186764.2031250000,164463.9843750000,170602.9687500000,-23491.9707031250,,,
2.1079999965,16,200856.6562500000,195204.1718750000,200170.5000000000,185795.3906250000,186769.3437500000,164470.5000000000,170605.8906250000,-23490.4687500000,,,
2.1119999965,16,200838.9843750000,195188.6406250000,200157.7500000000,185760.6718750000,186759.4218750000,164459.3437500000,170599.2187500000,-23500.6074218750,,,
2.1159999967,16,200848.1093750000,195207.1562500000,200163.6562500000,185779.2656250000,186762.1093750000,164465.0625000000,170604.0156250000,-23486.3632812500,,,
2.1199999966,16,200855.9687500000,195219.1718750000,200166.2031250000,185789.2187500000,186758.8593750000,164459.7968750000,170599.2656250000,-23486.3105468750,,,
2.1239999966,16,200859.4531250000,195217.2031250000,200171.9687500000,185769.6562500000,186762.7500000000,164460.4218750000,170601.3125000000,-23490.7636718750,,,
2.1279999965,16,200868.4843750000,195216.1562500000,200187.9375000000,185790.2812500000,186782.1718750000,164471.2812500000,170617.2968750000,-23482.7968750000,,,
2.1319999965,16,200863.5312500000,195206.2031250000,200187.2343750000,185804.0937500000,186782.6562500000,164469.8125000000,170617.9687500000,-23482.3671875000,,,
2.1359999967,16,200861.1093750000,195214.3593750000,200178.5781250000,185806.5937500000,186770.5781250000,164466.5937500000,170609.6718750000,-23481.6425781250,,,
2.1399999966,16,200860.2812500000,195220.4062500000,200172.0312500000,185782.7968750000,186760.7968750000,164459.7968750000,170602.0312500000,-23488.2675781250,,,
2.1439999966,16,200868.0312500000,195223.1093750000,200182.2500000000,185782.3281250000,186772.1093750000,164464.6250000000,170609.2812500000,-23487.4648437500,,,
2.1479999966,16,200883.5156250000,195231.3906250000,200204.6875000000,185816.3593750000,186797.6718750000,164486.1093750000,170631.5468750000,-23468.6074218750,,,
2.1519999965,16,200859.9531250000,195207.8750000000,200186.9062500000,185809.2187500000,186782.7812500000,164478.0156250000,170620.8906250000,-23478.5585937500,,,
2.1559999965,16,200847.2968750000,195209.2968750000,200168.9375000000,185789.6093750000,186764.5000000000,164470.1562500000,170610.9062500000,-23482.0449218750,,,
2.1599999967,16,200852.2031250000,195227.1562500000,200166.4687500000,185784.1250000000,186760.8750000000,164470.1093750000,170611.2031250000,-23478.6933593750,,,
2.1639999966,16,200855.7500000000,195231.4531250000,200171.9218750000,185792.6406250000,186768.4843750000,164471.9062500000,170617.2500000000,-23479.8203125000,,,
2.1679999966,16,200849.5000000000,195220.4218750000,200171.6250000000,185798.5468750000,186773.7500000000,164471.7656250000,170618.9375000000,-23483.5214843750,,,
2.1719999965,16,200838.2343750000,195207.5781250000,200166.6562500000,185787.5468750000,186771.8906250000,164471.0468750000,170618.8593750000,-23483.3339843750,,,
2.1759999965,17,200836.9218750000,195220.0312500000,200159.0468750000,185770.6562500000,186763.4687500000,164472.6718750000,170613.3593750000,-23478.4785156250,,,
2.1799999964,17,200840.1718750000,195233.1406250000,200154.7187500000,185766.1718750000,186755.9375000000,164470.3437500000,170608.7187500000,-23480.0605468750,,,
2.1839999964,17,200843.6718750000,195234.4843750000,200155.0156250000,185780.6250000000,186758.5312500000,164469.0625000000,170608.2031250000,-23482.7695312500,,,
2.1879999964,17,200859.7656250000,195237.5937500000,200176.0000000000,185824.0781250000,186782.8593750000,164486.3593750000,170624.8906250000,-23467.3203125000,,,
2.1919999963,17,200841.8281250000,195211.0156250000,200165.3281250000,185778.2187500000,186775.0625000000,164477.3125000000,170618.1875000000,-23476.6816406250,,,
2.1959999963,17,200845.7968750000,195218.4687500000,200165.9062500000,185762.4218750000,186772.9375000000,164479.2812500000,170614.1562500000,-23469.2246093750,,,
2.1999999965,17,200858.2187500000,195239.7343750000,200169.8750000000,185763.7343750000,186771.6562500000,164479.0312500000,170608.0937500000,-23463.1367187500,,,
2.2039999964,17,200877.2031250000,195248.6406250000,200190.3125000000,185784.8750000000,186789.4375000000,164485.2812500000,170622.8281250000,-23456.4316406250,,,
2.2079999964,17,200882.5468750000,195243.4687500000,200199.5781250000,185809.5781250000,186800.7500000000,164490.4531250000,170631.1875000000,-23453.8281250000,,,
2.2119999963,17,200878.2187500000,195240.6250000000,200200.4843750000,185823.2500000000,186802.2031250000,164494.5625000000,170636.7656250000,-23447.4980468750,,,
2.2159999963,17,200883.1562500000,195258.8906250000,200198.9531250000,185831.8125000000,186796.3593750000,164497.2656250000,170638.1718750000,-23436.5820312500,,,
2.2199999965,17,200878.0625000000,195263.9062500000,200183.7500000000,185794.6093750000,186779.7500000000,164487.5312500000,170625.9531250000,-23443.4765625000,,,
2.2239999964,17,200878.8437500000,195258.2500000000,200183.6406250000,185786.6093750000,186781.1718750000,164483.8906250000,170622.9531250000,-23448.7050781250,,,
2.2279999964,17,200873.4531250000,195242.6562500000,200186.4531250000,185791.7968750000,186789.2968750000,164489.2500000000,170625.5312500000,-23451.2011718750,,,
2.2319999964,17,200850.4843750000,195217.6406250000,200171.5625000000,185779.0000000000,186776.2656250000,164481.0781250000,170614.0312500000,-23463.0566406250,,,
2.2359999963,17,200858.8281250000,195230.5625000000,200177.1250000000,185789.2343750000,186778.0312500000,164487.2343750000,170620.5937500000,-23449.5371093750,,,
2.2399999963,17,200862.9375000000,195242.6562500000,200176.2031250000,185798.3593750000,186772.7343750000,164480.5937500000,170617.5625000000,-23452.8632812500,,,
2.2439999965,17,200867.2031250000,195246.9531250000,200181.1406250000,185807.6718750000,186779.4843750000,164484.8593750000,170623.8750000000,-23454.0175781250,,,
2.2479999964,17,200863.0468750000,195233.7812500000,200181.4375000000,185804.0000000000,186786.2187500000,164490.2656250000,170630.2500000000,-23455.7597656250,,,
2.2519999964,17,200845.3750000000,195212.1875000000,200166.4687500000,185791.1250000000,186775.6250000000,164482.9843750000,170625.4843750000,-23466.3007812500,,,
2.2559999963,17,200839.8437500000,195218.9218750000,200156.2343750000,185759.9218750000,186763.9531250000,164482.2187500000,170619.6093750000,-23464.5585937500,,,
2.2599999963,17,200820.4218750000,195208.5937500000,200132.4062500000,185739.9375000000,186738.2031250000,164456.3750000000,170592.7031250000,-23486.8476562500,,,
2.2639999965,17,200841.2968750000,195225.6093750000,200154.3437500000,185769.0937500000,186760.1718750000,164470.8750000000,170610.8906250000,-23472.6035156250,,,
2.2679999964,17,200850.2031250000,195224.1562500000,200168.2968750000,185794.8750000000,186778.3593750000,164479.2187500000,170623.9531250000,-23466.1679687500,,,
2.2719999964,17,200853.3593750000,195223.2187500000,200180.5625000000,185785.2656250000,186794.6406250000,164495.0468750000,170642.8125000000,-23452.8105468750,,,
2.2759999963,17,200848.3750000000,195227.7187500000,200172.0468750000,185763.4843750000,186785.9531250000,164491.8281250000,170639.2656250000,-23451.2011718750,,,
2.2799999963,17,200850.6562500000,195241.5156250000,200163.2500000000,185767.8125000000,186775.2187500000,164484.5937500000,170628.2187500000,-23451.9238281250,,,
2.2839999963,17,200865.9375000000,195253.6250000000,200176.0000000000,185791.0312500000,186786.1093750000,164491.2968750000,170636.6093750000,-23445.5136718750,,,
2.2879999964,17,200876.4531250000,195251.7343750000,200194.9375000000,185802.0625000000,186805.0000000000,164502.4843750000,170654.5312500000,-23435.8574218750,,,
2.2919999964,17,200873.9531250000,195244.5937500000,200195.8750000000,185790.0468750000,186806.7343750000,164507.8437500000,170659.5468750000,-23432.9082031250,,,
2.2959999964,17,200872.4062500000,195251.2187500000,200189.4843750000,185778.6250000000,186797.8125000000,164511.0000000000,170655.3281250000,-23429.8222656250,,,
2.2999999963,17,200874.6250000000,195264.6875000000,200185.2187500000,185783.7500000000,186789.0937500000,164508.3750000000,170649.1093750000,-23430.4667968750,,,
2.3039999963,18,200869.1875000000,195259.4531250000,200181.2031250000,185789.3437500000,186784.6562500000,164503.2343750000,170644.3906250000,-23442.7246093750,,,
2.3079999962,18,200864.2968750000,195241.8906250000,200184.8750000000,185788.9687500000,186794.9062500000,164515.1562500000,170654.7187500000,-23444.3339843750,,,
2.3119999962,18,200866.3125000000,195237.9375000000,200194.5781250000,185794.4375000000,186810.2812500000,164533.0312500000,170674.7031250000,-23431.0039062500,,,
2.3159999961,18,200859.3750000000,195238.7187500000,200182.4375000000,185785.1875000000,186798.3437500000,164529.7812500000,170669.4687500000,-23429.2871093750,,,
2.3199999961,18,200859.3750000000,195249.1718750000,200171.4062500000,185784.9218750000,186784.6093750000,164533.0000000000,170661.5781250000,-23429.9570312500,,,
2.3239999961,18,200883.6093750000,195266.0781250000,200194.9843750000,185815.3906250000,186806.6875000000,164553.7656250000,170688.0468750000,-23413.7558593750,,,
2.3279999963,18,200899.8437500000,195271.4218750000,200219.0781250000,185841.7031250000,186833.2343750000,164575.2500000000,170716.8906250000,-23399.5683593750,,,
2.3319999962,18,200884.9843750000,195254.7031250000,200211.9062500000,185826.8750000000,186829.3750000000,164579.5312500000,170723.4062500000,-23404.5839843750,,,
2.3359999962,18,200869.0781250000,195251.2187500000,200197.5000000000,185797.1250000000,186814.3750000000,164578.6250000000,170720.7812500000,-23408.7675781250,,,
2.3399999961,18,200877.6093750000,195271.8437500000,200199.4843750000,185797.0781250000,186816.1562500000,164589.9375000000,170731.4843750000,-23399.9960937500,,,
2.3439999961,18,200894.1093750000,195289.2031250000,200210.9375000000,185835.5312500000,186829.0312500000,164601.5000000000,170742.1250000000,-23391.1718750000,,,
2.3479999963,18,200901.4843750000,195291.0781250000,200220.1250000000,185855.9531250000,186843.8906250000,164618.4218750000,170751.6718750000,-23380.0136718750,,,
2.3519999962,18,200897.4218750000,195282.3593750000,200220.3593750000,185822.3906250000,186850.8281250000,164634.7343750000,170762.6406250000,-23369.5000000000,,,
2.3559999962,18,200890.4531250000,195279.2187500000,200209.3906250000,185759.4375000000,186838.4375000000,164628.2187500000,170761.2187500000,-23371.0292968750,,,
2.3599999961,18,200894.0156250000,195288.5312500000,200206.4062500000,185763.3281250000,186828.6250000000,164619.9531250000,170751.6562500000,-23374.6230468750,,,
2.3639999961,18,200905.6562500000,195295.4531250000,200217.6250000000,185793.9375000000,186837.5000000000,164623.1718750000,170758.2500000000,-23375.7226562500,,,
2.3679999961,18,200908.5000000000,195283.2187500000,200227.3593750000,185818.9531250000,186852.3593750000,164631.1406250000,170770.8750000000,-23374.3281250000,,,
2.3719999962,18,200916.6093750000,195284.7187500000,200241.9218750000,185841.7812500000,186870.4062500000,164643.7500000000,170786.7031250000,-23356.8671875000,,,
2.3759999962,18,200911.1406250000,195291.5000000000,200232.7500000000,185807.6093750000,186860.1718750000,164639.8125000000,170780.3437500000,-23353.1660156250,,,
2.3799999962,18,200904.6250000000,195293.8906250000,200219.3125000000,185783.4687500000,186842.8593750000,164627.2187500000,170766.3281250000,-23362.3125000000,,,
2.3839999961,18,200917.9531250000,195303.0156250000,200231.2031250000,185796.6250000000,186855.0937500000,164633.1562500000,170772.6562500000,-23357.9394531250,,,
2.3879999961,18,200925.1875000000,195300.4375000000,200245.7812500000,185804.2812500000,186873.4375000000,164643.2968750000,170784.0156250000,-23348.7929687500,,,
2.3919999963,18,200912.2031250000,195284.1250000000,200236.5937500000,185802.2031250000,186867.0000000000,164633.6875000000,170773.6406250000,-23352.5761718750,,,
2.3959999962,18,200886.5156250000,195267.8437500000,200205.2343750000,185771.3750000000,186834.2812500000,164607.4375000000,170742.4218750000,-23372.6914062500,,,
2.3999999962,18,200853.0312500000,195246.6250000000,200167.6562500000,185752.5000000000,186791.7656250000,164566.1718750000,170701.0156250000,-23408.9023437500,,,
2.4039999961,18,200857.4062500000,195249.3593750000,200174.1406250000,185783.6093750000,186796.0156250000,164563.2812500000,170697.4375000000,-23412.7382812500,,,
2.4079999961,18,200874.3593750000,195251.8593750000,200198.6875000000,185811.7187500000,186823.8281250000,164578.8125000000,170718.7968750000,-23398.3339843750,,,
2.4119999961,18,200869.7968750000,195238.1250000000,200198.3125000000,185793.6875000000,186826.8593750000,164581.8750000000,170722.8437500000,-23394.7929687500,,,
2.4159999962,18,200857.1406250000,195230.3437500000,200181.0156250000,185763.6562500000,186808.8906250000,164569.6718750000,170709.3750000000,-23399.5136718750,,,
2.4199999962,18,200866.9375000000,195245.1562500000,200183.9843750000,185782.6718750000,186808.2656250000,164564.4375000000,170706.3437500000,-23393.3984375000,,,
2.4239999962,18,200890.1406250000,195266.9843750000,200203.9687500000,185806.4062500000,186826.6093750000,164578.2500000000,170720.8281250000,-23376.7695312500,,,
2.4279999961,18,200898.6562500000,195270.2343750000,200215.6093750000,185819.6875000000,186842.3906250000,164593.4531250000,170732.4687500000,-23366.1484375000,,,
2.4319999961,19,200891.5312500000,195263.1875000000,200215.5625000000,185819.4687500000,186844.3437500000,164593.3437500000,170730.3281250000,-23363.7070312500,,,
2.4359999960,19,200879.6718750000,195257.6875000000,200201.1250000000,185813.7500000000,186826.1093750000,164576.5937500000,170713.5625000000,-23374.3554687500,,,
2.4399999960,19,200868.5937500000,195252.0468750000,200183.0781250000,185786.1562500000,186803.2187500000,164553.9687500000,170690.1250000000,-23393.4257812500,,,
2.4439999959,19,200863.2031250000,195245.8281250000,200174.2031250000,185768.9843750000,186792.6093750000,164539.2968750000,170675.3125000000,-23407.8828125000,,,
2.4479999959,19,200878.0625000000,195249.0156250000,200193.0312500000,185805.8437500000,186813.6250000000,164551.0312500000,170690.5000000000,-23394.5527343750,,,
2.4519999959,19,200878.5468750000,195242.2812500000,200195.4218750000,185825.8281250000,186815.9062500000,164550.9687500000,170689.3750000000,-23388.2480468750,,,
2.4559999960,19,200873.4218750000,195248.2343750000,200183.3750000000,185799.3281250000,186802.7968750000,164545.0468750000,170680.5937500000,-23387.3632812500,,,
2.4599999960,19,200856.1250000000,195243.4062500000,200156.3281250000,185746.1875000000,186773.0000000000,164520.0937500000,170654.1250000000,-23408.4453125000,,,
2.4639999960,19,200878.9218750000,195263.0781250000,200182.1718750000,185765.3750000000,186796.9531250000,164538.9843750000,170672.6093750000,-23391.6562500000,,,
2.4679999959,19,200893.9687500000,195271.3125000000,200206.8437500000,185788.8437500000,186824.5781250000,164556.8750000000,170694.4843750000,-23376.0976562500,,,
2.4719999959,19,200883.5156250000,195255.3437500000,200205.1718750000,185785.0781250000,186826.5000000000,164555.7656250000,170697.0468750000,-23377.6542968750,,,
2.4759999961,19,200880.6875000000,195259.2656250000,200197.8593750000,185782.6093750000,186817.2500000000,164555.0468750000,170691.9218750000,-23376.0722656250,,,
2.4799999960,19,200881.7187500000,195263.8437500000,200192.7343750000,185786.7968750000,186807.8906250000,164549.0937500000,170687.7031250000,-23382.7773437500,,,
2.4839999960,19,200896.3593750000,195271.7031250000,200206.5468750000,185803.5312500000,186821.7812500000,164557.5156250000,170701.1093750000,-23377.2519531250,,,
2.4879999959,19,200906.3906250000,195265.9687500000,200221.2500000000,185812.5781250000,186841.2500000000,164575.7031250000,170717.7656250000,-23365.3437500000,,,
2.4919999959,19,200892.8750000000,195248.6093750000,200208.3906250000,185819.4218750000,186835.5468750000,164578.5937500000,170716.5312500000,-23366.7109375000,,,
2.4959999959,19,200888.7343750000,195255.1406250000,200200.8125000000,185823.5156250000,186827.4375000000,164578.6250000000,170717.9062500000,-23364.5917968750,,,
2.4999999960,19,200886.9687500000,195262.8906250000,200194.7187500000,185805.1406250000,186816.7968750000,164576.4843750000,170716.4375000000,-23368.2128906250,,,
2.5039999960,19,200885.7812500000,195259.7187500000,200197.6875000000,185784.3906250000,186818.6406250000,164578.5468750000,170720.2968750000,-23374.9726562500,,,
2.5079999960,19,200895.8437500000,195260.2343750000,200216.1406250000,185803.0625000000,186842.7812500000,164598.3125000000,170745.7187500000,-23362.0976562500,,,
2.5119999959,19,200889.7031250000,195249.5625000000,200214.8281250000,185805.7031250000,186847.1093750000,164608.2031250000,170753.3437500000,-23357.7792968750,,,
2.5159999959,19,200887.9843750000,195251.0625000000,200206.4687500000,185795.1718750000,186838.8906250000,164610.9687500000,170750.4218750000,-23354.4531250000,,,
2.5199999961,19,200886.7343750000,195262.7187500000,200196.5156250000,185781.1718750000,186824.9531250000,164603.0000000000,170740.1093750000,-23359.3339843750,,,
2.5239999960,19,200909.8437500000,195283.0781250000,200217.5625000000,185815.5781250000,186845.7656250000,164623.0937500000,170764.1250000000,-23341.7128906250,,,
2.5279999960,19,200920.9531250000,195284.8593750000,200233.2656250000,185828.3750000000,186866.3125000000,164644.7656250000,170790.6250000000,-23328.4082031250,,,
2.5319999959,19,200919.3125000000,195279.6250000000,200234.4218750000,185837.6562500000,186869.2343750000,164652.1718750000,170799.1250000000,-23320.6582031250,,,
2.5359999959,19,200905.7500000000,195272.9687500000,200215.2968750000,185818.6406250000,186847.8593750000,164635.7500000000,170779.0625000000,-23329.9101562500,,,
2.5399999958,19,200904.9687500000,195278.3281250000,200208.3750000000,185812.5468750000,186836.7812500000,164624.7812500000,170762.4375000000,-23333.8007812500,,,
2.5439999960,19,200919.4218750000,195289.3125000000,200223.4687500000,185828.6718750000,186851.8593750000,164631.4375000000,170766.7812500000,-23325.9941406250,,,
2.5479999960,19,200915.6093750000,195279.6718750000,200226.2812500000,185826.9843750000,186857.7812500000,164633.5000000000,170765.2187500000,-23327.2832031250,,,
2.5519999960,19,200906.4687500000,195268.4843750000,200225.8593750000,185826.5781250000,186859.1718750000,164633.0937500000,170767.4687500000,-23326.6914062500,,,
2.5559999959,19,200894.5000000000,195268.2187500000,200210.3281250000,185815.0937500000,186841.2031250000,164620.7656250000,170749.7968750000,-23332.5664062500,,,
2.5599999959,20,200883.4218750000,195266.7187500000,200193.5156250000,185799.4843750000,186820.0156250000,164601.2656250000,170730.5156250000,-23349.8671875000,,,
2.5639999958,20,200896.7812500000,195270.6562500000,200207.0625000000,185822.0937500000,186832.7031250000,164603.3281250000,170742.5625000000,-23348.8203125000,,,
2.5679999958,20,200920.1718750000,195276.8281250000,200236.4843750000,185853.2187500000,186862.8437500000,164620.1718750000,170766.2343750000,-23333.5859375000,,,
2.5719999957,20,200906.7656250000,195253.3437500000,200223.6562500000,185837.5468750000,186851.9062500000,164605.8750000000,170749.4218750000,-23344.0996093750,,,
2.5759999957,20,200895.1562500000,195246.7187500000,200207.7812500000,185826.8125000000,186832.8125000000,164592.7343750000,170729.8906250000,-23348.1757812500,,,
2.5799999957,20,200892.7343750000,195254.6562500000,200195.2343750000,185819.1250000000,186817.8437500000,164582.8125000000,170712.9375000000,-23349.3828125000,,,
2.5839999958,20,200909.3125000000,195277.3750000000,200210.8125000000,185831.1093750000,186833.6406250000,164592.9531250000,170724.4531250000,-23337.2324218750,,,
2.5879999958,20,200921.6562500000,195282.1406250000,200231.3906250000,185857.0000000000,186858.0781250000,164604.7187500000,170740.0156250000,-23326.7988281250,,,
2.5919999958,20,200898.7187500000,195251.7812500000,200217.0625000000,185817.2500000000,186847.4218750000,164586.1562500000,170724.7968750000,-23341.8203125000,,,
2.5959999957,20,200890.1875000000,195254.1406250000,200205.2812500000,185791.8906250000,186833.7812500000,164576.6875000000,170715.5937500000,-23342.6523437500,,,
2.5999999957,20,200879.5937500000,195257.6875000000,200186.2187500000,185785.4375000000,186808.6718750000,164555.4531250000,170689.9062500000,-23357.4296875000,,,
2.6039999959,20,200889.3281250000,195266.5312500000,200194.3750000000,185808.6093750000,186814.0937500000,164555.1250000000,170690.3593750000,-23354.7207031250,,,
2.6079999958,20,200901.1875000000,195266.0781250000,200208.2031250000,185827.7812500000,186833.1093750000,164563.9531250000,170706.3125000000,-23345.0390625000,,,
2.6119999958,20,200890.1875000000,195256.4218750000,200196.3750000000,185844.2500000000,186825.6406250000,164560.6250000000,170696.8750000000,-23346.6484375000,,,
2.6159999957,20,200887.9062500000,195266.3125000000,200184.0625000000,185859.4375000000,186810.0156250000,164554.1562500000,170678.8750000000,-23346.3261718750,,,
2.6199999957,20,200872.3437500000,195256.3906250000,200160.6562500000,185834.3906250000,186779.4375000000,164529.2187500000,170647.9843750000,-23368.2128906250,,,
2.6239999956,20,200878.2500000000,195246.1406250000,200169.5000000000,185812.1718750000,186786.9375000000,164528.2187500000,170653.1250000000,-23372.3437500000,,,
2.6279999958,20,200886.9218750000,195241.1250000000,200189.3281250000,185802.1718750000,186809.7968750000,164538.7656250000,170670.8906250000,-23364.6191406250,,,
2.6319999958,20,200880.9531250000,195230.7812500000,200193.5156250000,185792.4062500000,186818.1093750000,164538.3437500000,170676.5937500000,-23359.0937500000,,,
2.6359999957,20,200876.6718750000,195237.8906250000,200187.0781250000,185776.6406250000,186811.3281250000,164535.7968750000,170672.1406250000,-23354.2929687500,,,
2.6399999957,20,200868.8437500000,195242.6875000000,200171.5156250000,185773.6562500000,186792.1718750000,164521.3906250000,170651.0468750000,-23363.4648437500,,,
2.6439999957,20,200872.0312500000,195246.1718750000,200171.4375000000,185784.6875000000,186792.7656250000,164519.8281250000,170646.4062500000,-23365.6113281250,,,
2.6479999959,20,200887.7968750000,195253.0156250000,200191.0468750000,185818.1875000000,186813.8125000000,164537.1093750000,170663.4843750000,-23350.0000000000,,,
2.6519999958,20,200880.6875000000,195239.3125000000,200191.8750000000,185805.4218750000,186814.6718750000,164536.1875000000,170665.3125000000,-23352.0390625000,,,
2.6559999958,20,200873.1875000000,195239.6562500000,200181.2187500000,185791.5000000000,186801.4843750000,164528.0937500000,170652.1875000000,-23353.8359375000,,,
2.6599999957,20,200871.1406250000,195244.0625000000,200167.2500000000,185788.9531250000,186784.0781250000,164518.4843750000,170636.1875000000,-23360.6757812500,,,
2.6639999957,20,200885.0937500000,195247.2812500000,200182.1093750000,185803.7187500000,186796.7343750000,164523.5781250000,170648.2031250000,-23359.8710937500,,,
2.6679999956,20,200874.0468750000,195224.4687500000,200178.8593750000,185802.2500000000,186796.8593750000,164517.7656250000,170646.4218750000,-23376.0449218750,,,
2.6719999958,20,200856.0937500000,195196.9375000000,200171.9687500000,185796.2187500000,186793.7812500000,164509.1562500000,170643.3125000000,-23390.5820312500,,,
2.6759999958,20,200857.7656250000,195201.8125000000,200171.6250000000,185800.7812500000,186792.7656250000,164512.0781250000,170644.2031250000,-23387.4179687500,,,
2.6799999957,20,200875.3750000000,195227.0000000000,200180.4218750000,185815.8281250000,186797.2500000000,164520.0781250000,170645.4531250000,-23374.3281250000,,,
2.6839999957,20,200894.2656250000,195245.6406250000,200196.1406250000,185837.3593750000,186809.8281250000,164535.2031250000,170654.8437500000,-23359.6035156250,,,
2.6879999957,21,200895.1718750000,195240.9375000000,200201.1875000000,185836.5625000000,186818.5468750000,164543.0312500000,170665.4687500000,-23354.0507812500,,,
2.6919999956,21,200892.7968750000,195237.3750000000,200201.4218750000,185837.4062500000,186824.0312500000,164550.4062500000,170670.5625000000,-23342.1152343750,,,
2.6959999956,21,200894.0156250000,195246.4218750000,200194.2343750000,185842.2343750000,186816.6875000000,164549.8437500000,170661.2812500000,-23333.9609375000,,,
2.6999999955,21,200848.3750000000,195217.0000000000,200136.6250000000,185779.1875000000,186757.0625000000,164503.3593750000,170605.2031250000,-23380.0410156250,,,
2.7039999955,21,200843.9531250000,195212.9687500000,200130.6718750000,185782.7812500000,186749.2500000000,164501.5937500000,170600.3750000000,-23386.4785156250,,,
2.7079999954,21,200853.9531250000,195211.3125000000,200145.8437500000,185800.9062500000,186765.3750000000,164514.1718750000,170614.8281250000,-23376.2597656250,,,
2.7119999956,21,200844.1875000000,195196.9531250000,200143.2187500000,185798.2031250000,186764.1718750000,164508.5312500000,170612.0937500000,-23381.2753906250,,,
2.7159999956,21,200841.5000000000,195204.9687500000,200142.6093750000,185802.3593750000,186761.2500000000,164508.4531250000,170612.2343750000,-23378.6738281250,,,
2.7199999955,21,200827.1562500000,195202.3750000000,200122.5625000000,185781.9531250000,186738.7968750000,164484.6093750000,170591.8437500000,-23395.3300781250,,,
2.7239999955,21,200834.2031250000,195202.5937500000,200127.5625000000,185781.9687500000,186743.9687500000,164481.3437500000,170595.9531250000,-23398.0117187500,,,
2.7279999955,21,200839.9687500000,195193.4375000000,200140.0468750000,185805.7968750000,186759.7187500000,164487.2656250000,170604.6875000000,-23395.1152343750,,,
2.7319999957,21,200843.4687500000,195195.1875000000,200151.9062500000,185803.1562500000,186774.9843750000,164499.7968750000,170617.4531250000,-23379.3984375000,,,
2.7359999956,21,200842.2031250000,195201.3593750000,200148.3750000000,185774.8593750000,186770.4531250000,164502.5781250000,170618.4531250000,-23369.9296875000,,,
2.7399999956,21,200855.7500000000,195215.9687500000,200154.0625000000,185802.7812500000,186770.0781250000,164501.2968750000,170616.7812500000,-23361.9902343750,,,
2.7439999955,21,200892.6562500000,195248.7500000000,200184.3906250000,185842.4531250000,186799.1718750000,164525.8593750000,170637.2187500000,-23336.0000000000,,,
2.7479999955,21,200894.7187500000,195239.2500000000,200193.4531250000,185811.8281250000,186812.3125000000,164530.2343750000,170649.7031250000,-23335.8378906250,,,
2.7519999954,21,200880.9375000000,195216.3281250000,200189.1718750000,185778.7812500000,186812.6718750000,164525.5156250000,170651.5000000000,-23340.2910156250,,,
2.7559999956,21,200874.1718750000,195220.3437500000,200179.2187500000,185780.7656250000,186802.3593750000,164521.2500000000,170641.3281250000,-23342.0605468750,,,
2.7599999956,21,200879.3281250000,195234.3125000000,200177.2500000000,185798.3281250000,186796.3281250000,164516.9531250000,170631.8125000000,-23343.2421875000,,,
2.7639999955,21,200889.0937500000,195239.8437500000,200187.4218750000,185812.3281250000,186803.9218750000,164517.5468750000,170637.8906250000,-23344.2343750000,,,
2.7679999955,21,200889.0312500000,195236.9218750000,200196.1093750000,185804.5000000000,186817.4687500000,164527.1875000000,170651.1718750000,-23341.5253906250,,,
2.7719999955,21,200863.8281250000,195215.2968750000,200176.9687500000,185794.2031250000,186802.8281250000,164514.3593750000,170639.1250000000,-23354.3183593750,,,
2.7759999956,21,200841.1250000000,195199.5625000000,200151.0468750000,185775.2968750000,186776.5312500000,164496.1718750000,170613.5937500000,-23367.1660156250,,,
2.7799999956,21,200843.5937500000,195215.3906250000,200142.4687500000,185775.7031250000,186764.7812500000,164494.0781250000,170601.9218750000,-23364.8593750000,,,
2.7839999956,21,200866.1875000000,195234.5625000000,200159.7656250000,185800.5625000000,186780.2343750000,164505.9062500000,170616.4375000000,-23349.0351562500,,,
2.7879999955,21,200888.6875000000,195246.2343750000,200180.5000000000,185824.7343750000,186803.1093750000,164527.6406250000,170639.4531250000,-23327.8730468750,,,
2.7919999955,21,200879.2187500000,195230.7500000000,200173.3906250000,185821.4062500000,186799.8437500000,164520.9062500000,170633.8437500000,-23332.4589843750,,,
2.7959999954,21,200878.2812500000,195237.5625000000,200169.7187500000,185805.9218750000,186795.1250000000,164519.4531250000,170628.8593750000,-23328.4355468750,,,
2.7999999956,21,200874.4375000000,195247.2812500000,200159.5000000000,185793.2187500000,186779.7812500000,164510.7187500000,170616.6562500000,-23335.4101562500,,,
2.8039999956,21,200886.8125000000,195253.2500000000,200176.7500000000,185822.5781250000,186792.8750000000,164514.3906250000,170629.4531250000,-23333.6386718750,,,
2.8079999955,21,200895.1250000000,195246.9531250000,200196.3750000000,185830.0625000000,186814.4843750000,164527.6093750000,170644.2031250000,-23326.9863281250,,,
2.8119999955,21,200885.9687500000,195234.7031250000,200197.6718750000,185825.6406250000,186819.9062500000,164531.2343750000,170646.0781250000,-23326.4785156250,,,
2.8159999955,22,200876.1250000000,195237.9687500000,200185.7031250000,185803.4375000000,186807.0937500000,164528.4687500000,170637.0937500000,-23325.7265625000,,,
2.8199999954,22,200892.4375000000,195262.8281250000,200194.5000000000,185812.8125000000,186812.3125000000,164538.8281250000,170645.7031250000,-23310.5175781250,,,
2.8239999954,22,200905.0781250000,195271.9531250000,200201.3437500000,185841.3906250000,186818.0000000000,164541.2031250000,170649.3281250000,-23308.5878906250,,,
2.8279999953,22,200888.6875000000,195247.0312500000,200186.2187500000,185840.3125000000,186808.8906250000,164530.1562500000,170636.8750000000,-23325.8066406250,,,
2.8319999953,22,200883.0781250000,195231.1250000000,200187.3125000000,185820.9375000000,186813.3906250000,164531.5781250000,170644.4687500000,-23324.3320312500,,,
2.8359999952,22,200881.5781250000,195236.3593750000,200180.3437500000,185804.0000000000,186805.7187500000,164532.4375000000,170640.9531250000,-23321.2207031250,,,
2.8399999954,22,200882.7500000000,195247.5156250000,200175.6250000000,185797.8281250000,186799.4218750000,164526.8281250000,170636.0937500000,-23323.6347656250,,,
2.8439999954,22,200880.2031250000,195238.2656250000,200176.1875000000,185796.6718750000,186799.8906250000,164519.8593750000,170634.4843750000,-23336.2402343750,,,
2.8479999953,22,200893.7500000000,195231.7968750000,200198.5000000000,185818.7968750000,186825.6250000000,164532.1718750000,170655.5937500000,-23327.1484375000,,,
2.8519999953,22,200897.7031250000,195227.6406250000,200208.7656250000,185840.7968750000,186837.2812500000,164542.6875000000,170665.7968750000,-23315.2656250000,,,
2.8559999953,22,200885.3906250000,195223.6250000000,200192.4843750000,185824.6406250000,186820.9062500000,164533.5625000000,170651.0625000000,-23320.1210937500,,,
2.8599999954,22,200877.1718750000,195224.0468750000,200175.9375000000,185799.8125000000,186803.2500000000,164520.1250000000,170635.4062500000,-23329.1875000000,,,
2.8639999954,22,200881.8125000000,195230.7500000000,200174.2812500000,185821.2968750000,186800.4843750000,164520.1718750000,170631.3750000000,-23327.7382812500,,,
2.8679999954,22,200902.6875000000,195240.3750000000,200197.2656250000,185838.2968750000,186825.8906250000,164540.1875000000,170652.6718750000,-23306.6015625000,,,
2.8719999953,22,200896.9218750000,195227.4062500000,200196.8437500000,185812.2343750000,186826.5000000000,164537.9843750000,170652.8437500000,-23307.1386718750,,,
2.8759999953,22,200883.4218750000,195224.5781250000,200181.0937500000,185783.4687500000,186809.5312500000,164530.2968750000,170638.6406250000,-23312.7441406250,,,
2.8799999952,22,200877.5000000000,195233.7031250000,200167.1250000000,185759.4375000000,186793.0625000000,164518.4843750000,170624.2187500000,-23319.4238281250,,,
2.8839999954,22,200889.1875000000,195250.2187500000,200178.1875000000,185784.3281250000,186802.8437500000,164525.9531250000,170634.1093750000,-23311.9667968750,,,
2.8879999954,22,200893.5468750000,195248.5625000000,200192.2968750000,185814.1562500000,186817.7812500000,164539.5937500000,170647.8281250000,-23305.6367187500,,,
2.8919999953,22,200883.7187500000,195230.5312500000,200191.8750000000,185813.1875000000,186820.1562500000,164541.8281250000,170651.1718750000,-23307.9980468750,,,
2.8959999953,22,200867.5000000000,195216.3437500000,200173.5781250000,185795.0625000000,186800.8125000000,164527.2031250000,170635.6718750000,-23323.2324218750,,,
2.8999999953,22,200855.6093750000,195213.9843750000,200154.0781250000,185784.3281250000,186777.8750000000,164509.2343750000,170615.7343750000,-23340.3710937500,,,
2.9039999954,22,200869.4218750000,195224.2812500000,200168.6406250000,185806.7812500000,186790.9062500000,164517.7187500000,170625.6875000000,-23332.8613281250,,,
2.9079999954,22,200889.0625000000,195230.0000000000,200195.5156250000,185829.9375000000,186820.7343750000,164539.5468750000,170650.8750000000,-23312.7187500000,,,
2.9119999954,22,200882.6250000000,195217.7187500000,200194.4531250000,185815.7968750000,186823.9843750000,164538.4218750000,170649.4375000000,-23309.6328125000,,,
2.9159999953,22,200871.6875000000,195216.5625000000,200177.1718750000,185793.7812500000,186806.8750000000,164523.9375000000,170630.7031250000,-23313.2539062500,,,
2.9199999953,22,200868.9375000000,195225.2343750000,200167.3125000000,185787.3125000000,186794.7187500000,164515.0781250000,170621.0312500000,-23314.4882812500,,,
2.9239999952,22,200864.2500000000,195224.6093750000,200161.7187500000,185792.8593750000,186787.4218750000,164506.0937500000,170614.1093750000,-23324.4394531250,,,
2.9279999954,22,200873.0156250000,195228.1250000000,200172.0468750000,185803.3437500000,186797.9375000000,164514.5781250000,170623.4687500000,-23316.9296875000,,,
2.9319999954,22,200857.2968750000,195209.3437500000,200161.5312500000,185791.8437500000,186788.4218750000,164511.2187500000,170614.3437500000,-23323.6875000000,,,
2.9359999953,22,200855.7500000000,195212.9218750000,200158.6093750000,185789.2343750000,186785.0156250000,164513.7343750000,170619.4375000000,-23318.4316406250,,,
2.9399999953,22,200859.7656250000,195221.8437500000,200154.2500000000,185780.2031250000,186775.7031250000,164505.7812500000,170611.2812500000,-23322.4277343750,,,
2.9439999952,23,200879.8125000000,195235.4218750000,200174.5937500000,185808.2812500000,186793.6406250000,164512.2343750000,170624.1093750000,-23314.9433593750,,,
