Time:250Hz,Epoch,Channel 1,Channel 2,Channel 3,Channel 4,Channel 5,Channel 6,Channel 7,Channel 8,Event Id,Event Date,Event Duration
0.0000000000,0,204900.3906250000,194884.9062500000,202565.6562500000,188533.5781250000,187664.6406250000,166730.2343750000,171929.2500000000,-88466.2656250000,,,
0.0040000000,0,204899.8437500000,194881.7187500000,202571.9062500000,188534.1562500000,187674.9375000000,166741.6406250000,171943.4375000000,-88456.9062500000,,,
0.0079999999,0,204879.2812500000,194869.7343750000,202553.4218750000,188511.2031250000,187655.4687500000,166728.7031250000,171928.7968750000,-88467.3125000000,,,
0.0119999999,0,204884.2968750000,194882.7656250000,202552.6406250000,188515.6875000000,187650.2187500000,166724.7656250000,171928.3906250000,-88466.4843750000,,,
0.0159999998,0,204897.0000000000,194896.6093750000,202561.7968750000,188534.9375000000,187656.3281250000,166728.8906250000,171936.6250000000,-88465.1953125000,,,
0.0199999998,0,204903.2343750000,194892.5781250000,202571.2031250000,188550.8750000000,187667.2500000000,166737.5312500000,171946.5156250000,-88466.2656250000,,,
0.0240000000,0,204900.4375000000,194887.5156250000,202575.4218750000,188543.1250000000,187674.0312500000,166744.0000000000,171951.9843750000,-88461.8671875000,,,
0.0279999999,0,204883.1406250000,194874.2812500000,202559.4062500000,188530.4375000000,187657.1875000000,166738.2343750000,171941.3750000000,-88466.1328125000,,,
0.0319999999,0,204868.8750000000,194864.2812500000,202543.5781250000,188517.4218750000,187634.9843750000,166716.6093750000,171925.3593750000,-88483.9687500000,,,
0.0359999998,0,204879.5781250000,194869.7031250000,202554.3593750000,188531.8750000000,187644.2343750000,166716.7812500000,171926.9062500000,-88485.3906250000,,,
0.0399999998,0,204889.1250000000,194871.4375000000,202564.1250000000,188543.5156250000,187657.2656250000,166714.3125000000,171935.4687500000,-88484.6640625000,,,
0.0440000000,0,204886.9687500000,194859.4218750000,202567.2968750000,188542.8437500000,187666.0312500000,166717.1562500000,171944.9687500000,-88479.7031250000,,,
0.0480000000,0,204868.5156250000,194847.0312500000,202549.7968750000,188523.2968750000,187648.9218750000,166707.0625000000,171922.8125000000,-88483.9453125000,,,
0.0519999999,0,204865.9218750000,194855.7031250000,202542.7031250000,188499.9375000000,187637.2031250000,166694.1562500000,171912.6718750000,-88486.3828125000,,,
0.0559999999,0,204872.5468750000,194862.4843750000,202546.8750000000,188494.5781250000,187637.9218750000,166688.5000000000,171914.3125000000,-88494.2109375000,,,
0.0599999998,0,204873.7500000000,194858.0312500000,202550.4218750000,188502.7500000000,187643.9062500000,166691.0781250000,171914.2187500000,-88502.9062500000,,,
0.0639999998,0,204861.3281250000,194839.7343750000,202543.5000000000,188510.3125000000,187643.1875000000,166687.4531250000,171910.1718750000,-88511.4062500000,,,
0.0680000000,0,204856.0000000000,194841.4375000000,202534.5468750000,188525.1562500000,187634.5781250000,166688.4531250000,171911.4687500000,-88505.7734375000,,,
0.0719999999,0,204855.7031250000,194848.9062500000,202526.9531250000,188519.0000000000,187624.2500000000,166684.1093750000,171907.1250000000,-88505.0234375000,,,
0.0759999999,0,204874.2343750000,194861.9687500000,202544.8750000000,188513.1562500000,187639.4218750000,166694.2187500000,171923.9375000000,-88496.2031250000,,,
0.0799999998,0,204892.7343750000,194871.6562500000,202565.5781250000,188532.7187500000,187661.0000000000,166712.7187500000,171944.9687500000,-88484.6640625000,,,
0.0839999998,0,204881.5312500000,194855.4843750000,202561.4531250000,188523.3437500000,187660.8906250000,166709.3437500000,171944.3437500000,-88490.3515625000,,,
0.0880000000,0,204875.9531250000,194854.9531250000,202558.4218750000,188519.0312500000,187657.4218750000,166707.0625000000,171942.0625000000,-88487.6171875000,,,
0.0919999999,0,204877.2343750000,194865.9218750000,202552.7500000000,188523.6718750000,187648.3593750000,166704.3593750000,171932.1718750000,-88486.4375000000,,,
0.0959999999,0,204891.0000000000,194878.7187500000,202560.4843750000,188549.5000000000,187653.9687500000,166709.2968750000,171934.2656250000,-88484.7734375000,,,
0.0999999999,0,204908.4843750000,194891.0312500000,202581.9843750000,188558.2812500000,187678.9062500000,166728.1718750000,171962.1562500000,-88472.4921875000,,,
0.1039999998,0,204896.6875000000,194876.9687500000,202577.2968750000,188551.7812500000,187676.9218750000,166726.2187500000,171961.8281250000,-88478.1484375000,,,
0.1079999998,0,204882.1406250000,194866.1562500000,202564.9843750000,188528.5781250000,187662.9531250000,166718.3281250000,171949.9843750000,-88484.1796875000,,,
0.1120000000,0,204886.8125000000,194875.7656250000,202565.3593750000,188519.8437500000,187662.5000000000,166717.3125000000,171949.8750000000,-88478.2265625000,,,
0.1159999999,0,204889.6250000000,194879.4687500000,202562.8437500000,188510.3125000000,187660.3437500000,166714.1718750000,171946.1718750000,-88481.8750000000,,,
0.1199999999,0,204894.6718750000,194878.8437500000,202570.7812500000,188523.6406250000,187671.8593750000,166718.0625000000,171956.1562500000,-88483.4609375000,,,
0.1239999998,0,204890.9687500000,194869.7812500000,202575.1718750000,188537.2187500000,187679.5781250000,166717.9218750000,171963.7968750000,-88484.2656250000,,,
0.1279999998,1,204897.1093750000,194879.7812500000,202582.7343750000,188540.8437500000,187684.8906250000,166723.4062500000,171970.3906250000,-88473.5859375000,,,
0.1319999998,1,204886.3593750000,194879.9687500000,202562.2968750000,188516.8906250000,187661.8281250000,166710.3593750000,171950.2500000000,-88483.6484375000,,,
0.1359999997,1,204892.2343750000,194886.5781250000,202565.8750000000,188521.8750000000,187662.8125000000,166712.8281250000,171951.0312500000,-88486.5468750000,,,
0.1399999997,1,204892.9843750000,194877.9062500000,202571.0781250000,188537.6250000000,187668.0468750000,166711.5781250000,171952.3593750000,-88493.8671875000,,,
0.1439999996,1,204895.1562500000,194870.3750000000,202578.9375000000,188550.2500000000,187678.4218750000,166714.9218750000,171958.5937500000,-88489.0390625000,,,
0.1479999996,1,204901.1562500000,194878.0468750000,202584.8281250000,188577.0000000000,187682.0000000000,166721.3125000000,171962.8593750000,-88479.7578125000,,,
0.1519999998,1,204891.8593750000,194881.1875000000,202570.3750000000,188547.9531250000,187662.7343750000,166705.9687500000,171950.5468750000,-88489.8125000000,,,
0.1559999997,1,204876.2187500000,194866.1093750000,202553.7187500000,188497.9218750000,187644.2500000000,166688.8750000000,171933.2968750000,-88512.6718750000,,,
0.1599999997,1,204878.1718750000,194858.3750000000,202560.7812500000,188510.9062500000,187653.3750000000,166697.5468750000,171940.4843750000,-88514.6015625000,,,
0.1639999996,1,204880.9062500000,194849.8593750000,202570.9375000000,188530.1718750000,187668.4843750000,166710.4375000000,171954.3281250000,-88505.5859375000,,,
0.1679999996,1,204862.8281250000,194834.3281250000,202548.4843750000,188523.6718750000,187649.3593750000,166690.7343750000,171933.0781250000,-88517.2578125000,,,
0.1719999998,1,204849.4531250000,194825.5781250000,202527.4375000000,188530.2500000000,187625.8593750000,166669.0781250000,171907.6562500000,-88533.6953125000,,,
0.1759999997,1,204859.2187500000,194832.3125000000,202538.0312500000,188531.7187500000,187635.2500000000,166671.0468750000,171914.5937500000,-88531.6562500000,,,
0.1799999997,1,204853.3593750000,194818.8750000000,202535.7500000000,188492.7968750000,187637.9531250000,166672.9687500000,171916.7187500000,-88538.7656250000,,,
0.1839999997,1,204839.8750000000,194801.5156250000,202528.9843750000,188465.8750000000,187635.5156250000,166672.1406250000,171920.7187500000,-88543.4062500000,,,
0.1879999996,1,204842.0781250000,194806.6093750000,202533.4375000000,188469.0156250000,187639.8593750000,166677.6093750000,171930.6406250000,-88532.0625000000,,,
0.1919999996,1,204829.5781250000,194803.7500000000,202516.8125000000,188452.2187500000,187618.1562500000,166663.8750000000,171911.5937500000,-88545.3671875000,,,
0.1959999998,1,204855.3750000000,194833.0625000000,202537.2812500000,188482.5000000000,187636.9687500000,166690.4375000000,171934.3906250000,-88525.7343750000,,,
0.1999999997,1,204865.1718750000,194837.7500000000,202548.1875000000,188499.8593750000,187650.3437500000,166703.3593750000,171953.0625000000,-88521.9453125000,,,
0.2039999997,1,204850.0625000000,194816.8593750000,202543.5000000000,188489.3437500000,187650.4843750000,166702.0156250000,171964.0312500000,-88530.6953125000,,,
0.2079999996,1,204834.3281250000,194802.0781250000,202530.9218750000,188466.3750000000,187639.1562500000,166688.2343750000,171953.8750000000,-88539.8906250000,,,
0.2119999996,1,204828.6093750000,194806.5312500000,202518.9843750000,188437.2031250000,187624.8125000000,166680.0312500000,171938.5781250000,-88548.0234375000,,,
0.2159999998,1,204843.0468750000,194827.3750000000,202528.9375000000,188458.7031250000,187634.5156250000,166698.5937500000,171958.8906250000,-88540.9687500000,,,
0.2199999997,1,204857.0625000000,194834.0468750000,202548.0000000000,188490.3281250000,187657.2656250000,166715.2187500000,171988.6093750000,-88532.2500000000,,,
0.2239999997,1,204840.8906250000,194814.3125000000,202538.0312500000,188481.4843750000,187651.0937500000,166706.6875000000,171983.4843750000,-88544.0234375000,,,
0.2279999997,1,204830.1718750000,194809.2968750000,202529.0781250000,188455.0156250000,187643.1093750000,166704.8437500000,171981.3281250000,-88541.0156250000,,,
0.2319999996,1,204849.9375000000,194839.3437500000,202541.7656250000,188465.9531250000,187653.8281250000,166731.2656250000,171998.3593750000,-88516.7734375000,,,
0.2359999996,1,204871.0937500000,194864.0156250000,202559.1718750000,188495.9375000000,187669.7656250000,166750.8593750000,172013.7343750000,-88502.1562500000,,,
0.2399999998,1,204898.6093750000,194883.4531250000,202590.9218750000,188532.6562500000,187703.7968750000,166778.7343750000,172047.8750000000,-88478.7656250000,,,
0.2439999997,1,204896.0156250000,194872.7031250000,202596.7500000000,188524.6093750000,187712.9531250000,166786.9687500000,172059.1406250000,-88474.3125000000,,,
0.2479999997,1,204896.1718750000,194875.8125000000,202598.4375000000,188516.6406250000,187715.5781250000,166796.6250000000,172061.8281250000,-88463.1562500000,,,
0.2519999996,1,204899.2812500000,194885.0625000000,202597.0625000000,188525.4218750000,187711.8437500000,166792.5156250000,172054.3906250000,-88459.2656250000,,,
0.2559999996,2,204919.3281250000,194888.0000000000,202615.7031250000,188540.9531250000,187729.6875000000,166811.0000000000,172075.0781250000,-88443.6015625000,,,
0.2599999995,2,204939.3906250000,194880.7812500000,202634.2343750000,188544.7031250000,187751.2187500000,166851.0781250000,172099.3593750000,-88417.7968750000,,,
0.2639999995,2,204926.9375000000,194849.6093750000,202625.7187500000,188534.6093750000,187749.1875000000,166851.1875000000,172092.5156250000,-88422.9453125000,,,
0.2679999995,2,204918.6718750000,194831.8750000000,202623.1562500000,188545.7500000000,187752.3281250000,166844.9843750000,172099.7812500000,-88424.8828125000,,,
0.2719999994,2,204913.2343750000,194845.6406250000,202613.0468750000,188537.6406250000,187737.3593750000,166827.6093750000,172082.6093750000,-88434.1875000000,,,
0.2759999994,2,204918.6250000000,194875.3281250000,202611.1718750000,188537.7812500000,187729.4687500000,166810.1093750000,172064.1406250000,-88444.5156250000,,,
0.2799999996,2,204920.3750000000,194889.2812500000,202615.8750000000,188533.6562500000,187734.4843750000,166809.4375000000,172070.2812500000,-88451.7265625000,,,
0.2839999995,2,204909.8750000000,194880.2968750000,202613.0312500000,188527.8906250000,187732.8750000000,166803.7343750000,172066.7968750000,-88460.2578125000,,,
0.2879999995,2,204891.0000000000,194867.6093750000,202591.9218750000,188506.3125000000,187710.7187500000,166778.2500000000,172040.1875000000,-88474.7656250000,,,
0.2919999994,2,204883.8125000000,194871.9218750000,202574.2343750000,188502.2187500000,187689.3750000000,166751.8593750000,172013.1406250000,-88485.6015625000,,,
0.2959999994,2,204916.1562500000,194905.1875000000,202604.1718750000,188546.2343750000,187714.3125000000,166769.9687500000,172035.6718750000,-88464.0703125000,,,
0.2999999996,2,204933.0000000000,194911.5625000000,202625.0468750000,188561.8750000000,187733.0156250000,166782.4062500000,172054.5000000000,-88457.6328125000,,,
0.3039999995,2,204925.5468750000,194897.6250000000,202621.7187500000,188563.9062500000,187731.1406250000,166779.1875000000,172048.9531250000,-88463.4218750000,,,
0.3079999995,2,204912.5156250000,194890.2500000000,202611.7031250000,188546.1718750000,187720.4843750000,166764.0312500000,172033.3750000000,-88469.3515625000,,,
0.3119999995,2,204898.6406250000,194889.1406250000,202592.8281250000,188531.7812500000,187698.5156250000,166742.2500000000,172007.6718750000,-88482.6562500000,,,
0.3159999994,2,204913.3125000000,194905.4531250000,202602.3281250000,188562.5312500000,187703.4062500000,166745.9375000000,172010.2968750000,-88475.5234375000,,,
0.3199999994,2,204934.9062500000,194919.8906250000,202626.0625000000,188603.6093750000,187726.6562500000,166760.2187500000,172029.6093750000,-88459.1875000000,,,
0.3239999996,2,204923.5937500000,194906.6093750000,202621.4218750000,188600.1406250000,187725.2031250000,166758.4062500000,172027.4375000000,-88462.0000000000,,,
0.3279999995,2,204892.4687500000,194881.2812500000,202590.7343750000,188557.6562500000,187697.5312500000,166737.9687500000,172001.4218750000,-88481.5000000000,,,
0.3319999995,2,204884.1250000000,194880.3281250000,202574.5312500000,188527.2343750000,187680.0156250000,166724.4218750000,171982.8906250000,-88488.7187500000,,,
0.3359999994,2,204876.7812500000,194878.4375000000,202562.0937500000,188516.1093750000,187666.2500000000,166710.8125000000,171968.2656250000,-88504.0546875000,,,
0.3399999994,2,204898.6093750000,194895.2656250000,202585.6875000000,188555.2656250000,187690.5000000000,166731.2656250000,171993.0000000000,-88492.6015625000,,,
0.3439999996,2,204877.0000000000,194862.8906250000,202571.6875000000,188544.8437500000,187679.4531250000,166721.4218750000,171982.2968750000,-88515.9140625000,,,
0.3479999995,2,204853.3593750000,194844.1875000000,202547.8750000000,188524.8750000000,187656.2968750000,166702.7968750000,171956.3906250000,-88533.1875000000,,,
0.3519999995,2,204847.5937500000,194851.0000000000,202534.5156250000,188492.7812500000,187641.0312500000,166692.7343750000,171945.0781250000,-88537.9609375000,,,
0.3559999994,2,204855.9375000000,194865.9687500000,202542.0468750000,188492.6718750000,187645.0937500000,166693.9531250000,171951.5156250000,-88535.2812500000,,,
0.3599999994,2,204864.9062500000,194866.7031250000,202553.2656250000,188507.1250000000,187655.9218750000,166702.1562500000,171960.0312500000,-88535.4687500000,,,
0.3639999994,2,204843.3125000000,194838.6718750000,202536.7656250000,188479.7656250000,187642.7031250000,166688.8750000000,171946.3593750000,-88553.1171875000,,,
0.3679999996,2,204838.2656250000,194832.1562500000,202533.9843750000,188489.1875000000,187641.5000000000,166684.1093750000,171944.5937500000,-88549.3359375000,,,
0.3719999995,2,204866.6093750000,194867.2812500000,202555.2500000000,188541.4531250000,187658.9218750000,166698.4843750000,171958.8281250000,-88523.5859375000,,,
0.3759999995,2,204891.2968750000,194893.9218750000,202573.2187500000,188572.5468750000,187672.2656250000,166709.0468750000,171970.3437500000,-88513.0156250000,,,
0.3799999994,2,204891.2656250000,194886.8906250000,202576.8437500000,188548.1093750000,187677.4375000000,166711.4843750000,171973.8437500000,-88520.3125000000,,,
0.3839999994,3,204874.0781250000,194864.2343750000,202568.3437500000,188523.9375000000,187670.7343750000,166697.8906250000,171963.8437500000,-88533.8046875000,,,
0.3879999993,3,204872.2812500000,194867.9062500000,202570.5937500000,188515.8906250000,187673.2187500000,166695.7656250000,171964.5156250000,-88527.1796875000,,,
0.3919999993,3,204894.8125000000,194896.6562500000,202585.4218750000,188540.3906250000,187685.0000000000,166706.3437500000,171976.3437500000,-88506.0468750000,,,
0.3959999993,3,204913.2656250000,194912.9062500000,202597.5156250000,188581.4531250000,187692.6406250000,166710.7968750000,171982.3593750000,-88498.6171875000,,,
0.3999999992,3,204902.3125000000,194893.4687500000,202585.9531250000,188574.2031250000,187683.5312500000,166695.9375000000,171970.2343750000,-88517.5000000000,,,
0.4039999992,3,204875.7031250000,194863.6875000000,202568.6875000000,188519.4375000000,187672.2812500000,166685.7656250000,171962.1250000000,-88533.8046875000,,,
0.4079999994,3,204869.8281250000,194858.9218750000,202565.7031250000,188523.3750000000,187670.5625000000,166687.6250000000,171960.7656250000,-88530.4531250000,,,
0.4119999993,3,204865.9687500000,194861.7343750000,202553.5312500000,188533.3593750000,187654.8593750000,166673.2500000000,171941.6406250000,-88537.3984375000,,,
0.4159999993,3,204870.2968750000,194862.7812500000,202553.5312500000,188546.2343750000,187652.0937500000,166671.9843750000,171935.0625000000,-88538.3906250000,,,
0.4199999992,3,204866.1093750000,194845.6093750000,202553.9843750000,188541.5156250000,187653.9062500000,166671.0937500000,171937.2187500000,-88545.2578125000,,,
0.4239999992,3,204866.2656250000,194832.0937500000,202564.0156250000,188543.5468750000,187667.2656250000,166683.5625000000,171954.9218750000,-88538.7656250000,,,
0.4279999994,3,204855.4531250000,194825.3906250000,202553.7187500000,188528.5781250000,187660.0781250000,166683.0625000000,171951.9843750000,-88537.1562500000,,,
0.4319999993,3,204846.9531250000,194831.7968750000,202537.5781250000,188525.6250000000,187643.0000000000,166673.1875000000,171928.6562500000,-88541.4765625000,,,
0.4359999993,3,204854.6562500000,194847.7812500000,202539.4843750000,188542.5312500000,187641.3281250000,166673.0468750000,171919.4531250000,-88542.7656250000,,,
0.4399999992,3,204847.4687500000,194834.5312500000,202535.8906250000,188520.9062500000,187637.2343750000,166666.7500000000,171917.7343750000,-88560.3828125000,,,
0.4439999992,3,204830.2500000000,194808.1718750000,202526.5156250000,188490.3593750000,187630.5468750000,166658.8906250000,171912.0312500000,-88574.4921875000,,,
0.4479999992,3,204821.1875000000,194799.0312500000,202521.0000000000,188465.8750000000,187626.6875000000,166653.5312500000,171907.2031250000,-88575.9921875000,,,
0.4519999993,3,204828.0937500000,194815.3906250000,202522.7187500000,188464.9531250000,187625.7812500000,166654.5781250000,171903.9531250000,-88565.3984375000,,,
0.4559999993,3,204857.0937500000,194842.9531250000,202548.1406250000,188515.0937500000,187646.5312500000,166668.7656250000,171921.3281250000,-88546.3046875000,,,
0.4599999993,3,204866.6718750000,194846.5312500000,202559.7812500000,188526.4062500000,187658.8437500000,166671.3593750000,171934.2656250000,-88548.2890625000,,,
0.4639999992,3,204865.8906250000,194838.8750000000,202562.2968750000,188533.4687500000,187667.0312500000,166679.7031250000,171944.5625000000,-88544.1875000000,,,
0.4679999992,3,204853.2656250000,194827.3281250000,202546.0468750000,188527.4218750000,187653.9062500000,166675.3906250000,171929.6562500000,-88547.4843750000,,,
0.4719999994,3,204848.8125000000,194834.1093750000,202535.3437500000,188515.0937500000,187641.2187500000,166664.3125000000,171914.9218750000,-88550.4843750000,,,
0.4759999993,3,204847.0156250000,194834.6718750000,202528.1562500000,188510.7968750000,187632.2656250000,166653.0468750000,171905.7812500000,-88560.5468750000,,,
0.4799999993,3,204870.3437500000,194848.2500000000,202552.5937500000,188544.4062500000,187656.5625000000,166670.2968750000,171924.7968750000,-88546.3593750000,,,
0.4839999992,3,204866.8906250000,194845.2968750000,202555.2968750000,188540.6250000000,187661.6093750000,166685.4218750000,171927.6406250000,-88541.0703125000,,,
0.4879999992,3,204839.9843750000,194827.5312500000,202531.8125000000,188505.2968750000,187639.5625000000,166679.2968750000,171903.5781250000,-88554.0781250000,,,
0.4919999992,3,204843.4687500000,194838.7968750000,202532.6406250000,188498.5156250000,187636.5000000000,166671.7187500000,171897.0312500000,-88550.5937500000,,,
0.4959999993,3,204849.5312500000,194849.0781250000,202535.1562500000,188510.1562500000,187635.4062500000,166666.8593750000,171896.5000000000,-88555.0703125000,,,
0.4999999993,3,204880.5312500000,194870.4531250000,202571.1250000000,188559.6406250000,187672.5000000000,166690.2187500000,171935.0625000000,-88535.6250000000,,,
0.5039999993,3,204886.1093750000,194871.5312500000,202583.8125000000,188578.3593750000,187690.1562500000,166704.1093750000,171952.7968750000,-88527.3671875000,,,
0.5079999992,3,204848.7031250000,194841.0781250000,202549.2968750000,188523.7031250000,187658.0937500000,166682.1718750000,171924.6093750000,-88552.8515625000,,,
0.5119999992,4,204830.8281250000,194838.7500000000,202525.8281250000,188480.9218750000,187630.9531250000,166666.3437500000,171900.5781250000,-88565.5625000000,,,
0.5159999991,4,204838.0468750000,194848.5312500000,202525.7500000000,188488.5156250000,187625.4843750000,166663.3125000000,171896.9531250000,-88570.3359375000,,,
0.5199999991,4,204867.9843750000,194864.3281250000,202558.1406250000,188538.3750000000,187656.5625000000,166685.5000000000,171923.6875000000,-88554.6484375000,,,
0.5239999990,4,204866.9062500000,194858.5156250000,202564.6875000000,188553.6406250000,187665.6093750000,166694.4531250000,171930.6718750000,-88550.4843750000,,,
0.5279999990,4,204859.3750000000,194856.8593750000,202556.7187500000,188545.2656250000,187661.8750000000,166699.0781250000,171929.1093750000,-88543.6171875000,,,
0.5319999990,4,204833.2968750000,194844.2500000000,202522.9218750000,188504.3125000000,187627.1406250000,166675.2500000000,171892.2343750000,-88562.3671875000,,,
0.5359999991,4,204842.5000000000,194851.6718750000,202529.9062500000,188504.7031250000,187631.1093750000,166672.1093750000,171892.7343750000,-88561.8906250000,,,
0.5399999991,4,204860.2812500000,194860.0468750000,202551.3125000000,188529.3906250000,187653.3750000000,166688.0000000000,171916.4218750000,-88555.8515625000,,,
0.5439999991,4,204849.4843750000,194843.8906250000,202546.0000000000,188517.7187500000,187650.6718750000,166685.0468750000,171914.4062500000,-88566.4218750000,,,
0.5479999990,4,204829.3125000000,194829.7656250000,202522.7968750000,188488.0468750000,187628.1718750000,166667.5781250000,171891.5625000000,-88579.8828125000,,,
0.5519999990,4,204807.9843750000,194817.0000000000,202495.5468750000,188474.9843750000,187596.1718750000,166640.1093750000,171862.9687500000,-88604.5625000000,,,
0.5559999992,4,204815.6875000000,194824.2968750000,202501.9062500000,188493.1718750000,187600.0468750000,166642.4531250000,171865.1406250000,-88605.9843750000,,,
0.5599999991,4,204846.2343750000,194844.4062500000,202534.8593750000,188526.8125000000,187635.9375000000,166671.7968750000,171896.9843750000,-88584.6328125000,,,
0.5639999991,4,204849.8750000000,194842.0468750000,202545.6718750000,188535.1562500000,187648.1406250000,166683.7031250000,171912.3281250000,-88577.6875000000,,,
0.5679999990,4,204834.0468750000,194833.7031250000,202529.9531250000,188505.2187500000,187634.4062500000,166677.5625000000,171901.5625000000,-88579.0234375000,,,
0.5719999990,4,204815.4062500000,194828.0468750000,202501.9531250000,188474.5937500000,187604.1562500000,166656.5625000000,171869.9687500000,-88593.4296875000,,,
0.5759999990,4,204806.4062500000,194825.7343750000,202486.6093750000,188462.7812500000,187587.3906250000,166646.1562500000,171854.3125000000,-88606.3593750000,,,
0.5799999991,4,204827.7500000000,194837.5156250000,202512.6562500000,188506.1093750000,187615.7968750000,166668.1250000000,171883.4531250000,-88593.6171875000,,,
0.5839999991,4,204818.9218750000,194820.1093750000,202509.9531250000,188502.8593750000,187617.2812500000,166660.3125000000,171885.1250000000,-88603.8359375000,,,
0.5879999991,4,204798.7812500000,194802.1093750000,202490.1250000000,188472.4375000000,187597.1875000000,166639.2343750000,171862.9687500000,-88617.3515625000,,,
0.5919999990,4,204782.8281250000,194791.1093750000,202474.7031250000,188450.1250000000,187576.7187500000,166618.7968750000,171841.8906250000,-88633.6093750000,,,
0.5959999990,4,204793.2031250000,194802.7031250000,202484.0937500000,188450.9843750000,187583.2031250000,166620.2343750000,171845.4218750000,-88632.3203125000,,,
0.5999999992,4,204813.5937500000,194812.1718750000,202505.6875000000,188482.5000000000,187606.8125000000,166637.1875000000,171864.0937500000,-88622.5312500000,,,
0.6039999991,4,204815.4062500000,194805.3281250000,202511.3906250000,188506.1875000000,187616.6093750000,166641.0000000000,171867.0781250000,-88619.9843750000,,,
0.6079999991,4,204822.5156250000,194817.2656250000,202518.7187500000,188515.3281250000,187623.8750000000,166650.0625000000,171876.0781250000,-88604.7500000000,,,
0.6119999990,4,204825.7968750000,194830.4062500000,202515.5468750000,188495.1093750000,187618.7812500000,166647.7031250000,171872.8437500000,-88599.3281250000,,,
0.6159999990,4,204815.1406250000,194825.9218750000,202498.9531250000,188462.2187500000,187601.2812500000,166638.7187500000,171857.6093750000,-88614.0546875000,,,
0.6199999989,4,204826.5937500000,194829.6250000000,202512.0156250000,188477.3593750000,187614.1406250000,166650.1250000000,171867.2031250000,-88611.3437500000,,,
0.6239999991,4,204821.7968750000,194817.1562500000,202512.9531250000,188472.9218750000,187616.5000000000,166651.5468750000,171867.2656250000,-88614.7500000000,,,
0.6279999991,4,204814.3593750000,194812.8906250000,202508.4375000000,188473.4062500000,187612.1718750000,166651.6562500000,171862.5156250000,-88612.5546875000,,,
0.6319999991,4,204803.0781250000,194807.4218750000,202494.3593750000,188458.6875000000,187595.0625000000,166636.0937500000,171845.2968750000,-88624.0312500000,,,
0.6359999990,4,204822.9531250000,194827.6406250000,202510.6406250000,188477.6406250000,187608.0468750000,166649.4531250000,171859.4062500000,-88614.0546875000,,,
0.6399999990,5,204853.4531250000,194852.6093750000,202539.4218750000,188519.3281250000,187636.5312500000,166679.2187500000,171886.3281250000,-88593.4062500000,,,
0.6439999989,5,204848.6250000000,194840.5937500000,202539.1093750000,188515.6250000000,187638.9531250000,166678.3125000000,171888.3125000000,-88595.4140625000,,,
0.6479999989,5,204834.3281250000,194827.8281250000,202528.1250000000,188485.2343750000,187628.5625000000,166675.5781250000,171883.1875000000,-88598.8515625000,,,
0.6519999988,5,204825.5312500000,194836.6562500000,202511.1875000000,188467.8281250000,187608.7500000000,166668.8906250000,171863.1250000000,-88601.0468750000,,,
0.6559999988,5,204829.7031250000,194844.5156250000,202509.7812500000,188477.2500000000,187604.4843750000,166666.8125000000,171856.3906250000,-88603.3281250000,,,
0.6599999988,5,204846.4531250000,194853.0937500000,202528.8906250000,188503.3125000000,187624.9531250000,166680.4843750000,171878.2031250000,-88595.7109375000,,,
0.6639999989,5,204844.0312500000,194842.0156250000,202534.0625000000,188490.7656250000,187634.2187500000,166679.9687500000,171886.8750000000,-88595.0156250000,,,
0.6679999989,5,204850.8750000000,194843.5000000000,202544.0312500000,188504.0937500000,187646.3750000000,166693.0937500000,171899.2031250000,-88578.7343750000,,,
0.6719999989,5,204850.6093750000,194850.9218750000,202536.9375000000,188493.0937500000,187637.3906250000,166693.9687500000,171891.3125000000,-88574.0390625000,,,
0.6759999988,5,204862.8281250000,194864.2343750000,202545.1406250000,188517.7656250000,187642.2968750000,166692.0156250000,171894.8281250000,-88571.8906250000,,,
0.6799999988,5,204872.9531250000,194865.8593750000,202556.9062500000,188548.8281250000,187656.0625000000,166701.7343750000,171908.7031250000,-88570.2812500000,,,
0.6839999990,5,204880.8593750000,194865.7812500000,202569.6875000000,188560.7343750000,187672.0937500000,166719.0468750000,171923.4843750000,-88557.5937500000,,,
0.6879999989,5,204863.5625000000,194850.3281250000,202554.6093750000,188511.0156250000,187657.9843750000,166710.6562500000,171908.1875000000,-88565.8046875000,,,
0.6919999989,5,204860.1718750000,194859.5937500000,202548.4062500000,188507.5781250000,187646.4062500000,166701.0000000000,171899.6562500000,-88567.0625000000,,,
0.6959999988,5,204866.1093750000,194872.8593750000,202546.0000000000,188560.7187500000,187640.8750000000,166696.4218750000,171897.9375000000,-88568.6718750000,,,
0.6999999988,5,204888.1250000000,194891.0468750000,202568.6562500000,188583.7343750000,187665.5000000000,166714.3593750000,171919.5156250000,-88556.1484375000,,,
0.7039999987,5,204883.5156250000,194878.7656250000,202573.0312500000,188523.1562500000,187676.3125000000,166714.9218750000,171932.1406250000,-88556.2578125000,,,
0.7079999989,5,204864.5781250000,194857.1718750000,202554.2343750000,188480.2187500000,187660.9375000000,166707.7343750000,171917.1718750000,-88567.3593750000,,,
0.7119999989,5,204860.0156250000,194858.1093750000,202546.2343750000,188493.0156250000,187648.8906250000,166698.5937500000,171902.3437500000,-88570.8750000000,,,
0.7159999989,5,204889.8906250000,194889.2343750000,202573.2812500000,188543.8125000000,187671.0781250000,166717.6562500000,171920.5781250000,-88550.0078125000,,,
0.7199999988,5,204914.7031250000,194909.3437500000,202599.6406250000,188581.4531250000,187696.7812500000,166737.8906250000,171942.5156250000,-88537.6640625000,,,
0.7239999988,5,204908.9375000000,194892.6562500000,202603.0781250000,188575.8125000000,187703.0000000000,166737.1093750000,171946.2812500000,-88543.9140625000,,,
0.7279999990,5,204897.5937500000,194887.0000000000,202590.2031250000,188552.8281250000,187693.9062500000,166737.2343750000,171939.2500000000,-88543.1406250000,,,
0.7319999989,5,204886.0156250000,194888.7187500000,202571.0156250000,188518.9218750000,187672.0468750000,166726.4375000000,171916.8281250000,-88550.5703125000,,,
0.7359999989,5,204884.7500000000,194889.5000000000,202566.3750000000,188502.5625000000,187664.1562500000,166719.4531250000,171908.1093750000,-88560.6250000000,,,
0.7399999988,5,204907.9218750000,194903.1718750000,202589.7656250000,188534.5937500000,187689.9687500000,166743.4687500000,171933.3437500000,-88548.1796875000,,,
0.7439999988,5,204903.0937500000,194891.9375000000,202588.6406250000,188532.4687500000,187691.0625000000,166747.0625000000,171931.6562500000,-88553.6015625000,,,
0.7479999987,5,204896.0156250000,194890.0781250000,202583.5937500000,188523.2656250000,187684.4375000000,166743.4062500000,171923.2656250000,-88551.9921875000,,,
0.7519999989,5,204885.7187500000,194895.7968750000,202569.4687500000,188513.9843750000,187665.2656250000,166733.7187500000,171905.9062500000,-88556.4453125000,,,
0.7559999989,5,204887.8281250000,194902.1250000000,202569.1406250000,188531.3750000000,187661.7656250000,166729.2812500000,171897.0312500000,-88559.2343750000,,,
0.7599999988,5,204906.6875000000,194909.2656250000,202589.1718750000,188567.3906250000,187685.3437500000,166748.2968750000,171918.2968750000,-88550.4843750000,,,
0.7639999988,5,204902.0000000000,194896.8125000000,202590.1718750000,188554.5156250000,187691.7031250000,166755.3125000000,171926.7031250000,-88553.6562500000,,,
0.7679999988,6,204889.3906250000,194891.3125000000,202579.9843750000,188537.3593750000,187684.4062500000,166750.4375000000,171922.9375000000,-88554.0312500000,,,
0.7719999987,6,204882.0156250000,194899.9531250000,202567.1875000000,188547.2187500000,187668.7500000000,166741.7968750000,171902.0468750000,-88556.6796875000,,,
0.7759999987,6,204882.2500000000,194903.3593750000,202567.5937500000,188529.1718750000,187665.8750000000,166737.4218750000,171901.8906250000,-88564.2500000000,,,
0.7799999986,6,204912.4062500000,194923.3750000000,202600.9062500000,188550.5156250000,187701.7031250000,166766.5312500000,171942.2031250000,-88542.8671875000,,,
0.7839999986,6,204917.8750000000,194923.2656250000,202614.0156250000,188551.6250000000,187717.7968750000,166778.2812500000,171959.2031250000,-88533.8281250000,,,
0.7879999985,6,204901.5312500000,194906.7968750000,202598.4062500000,188551.4375000000,187703.2187500000,166763.0468750000,171944.2187500000,-88543.1406250000,,,
0.7919999987,6,204885.3437500000,194899.5468750000,202576.7031250000,188531.5781250000,187678.2343750000,166743.2812500000,171923.6718750000,-88557.1093750000,,,
0.7959999987,6,204889.2343750000,194905.4062500000,202575.9843750000,188536.3593750000,187673.7656250000,166737.5156250000,171920.5312500000,-88561.9687500000,,,
0.7999999986,6,204919.4843750000,194926.7031250000,202607.1562500000,188576.9218750000,187706.4062500000,166764.2968750000,171950.1406250000,-88542.2031250000,,,
0.8039999986,6,204910.5468750000,194907.9218750000,202604.5156250000,188560.0781250000,187709.5937500000,166762.7968750000,171953.6562500000,-88548.9609375000,,,
0.8079999986,6,204900.1250000000,194901.3437500000,202595.5625000000,188540.6562500000,187703.1250000000,166763.0937500000,171949.0156250000,-88546.1953125000,,,
0.8119999988,6,204888.0937500000,194902.0781250000,202579.2500000000,188535.6093750000,187683.2500000000,166745.4687500000,171924.5312500000,-88553.0390625000,,,
0.8159999987,6,204899.9843750000,194918.5937500000,202590.0625000000,188549.6093750000,187689.8281250000,166746.3593750000,171923.7968750000,-88547.9921875000,,,
0.8199999987,6,204927.1250000000,194934.9531250000,202617.6406250000,188573.9687500000,187720.3281250000,166770.0625000000,171948.8593750000,-88530.5312500000,,,
0.8239999986,6,204922.0781250000,194920.2812500000,202615.1093750000,188555.0312500000,187722.2812500000,166767.0625000000,171950.4843750000,-88536.3828125000,,,
0.8279999986,6,204902.9843750000,194907.2500000000,202595.1406250000,188536.1250000000,187701.9531250000,166748.2343750000,171930.5312500000,-88548.3125000000,,,
0.8319999985,6,204902.3125000000,194918.1875000000,202588.8281250000,188529.8906250000,187690.5781250000,166742.6562500000,171920.8437500000,-88545.9531250000,,,
0.8359999987,6,204926.8593750000,194940.2656250000,202609.4375000000,188564.1250000000,187705.9218750000,166752.3906250000,171935.0937500000,-88533.7812500000,,,
0.8399999987,6,204954.8281250000,194956.5781250000,202636.7812500000,188598.0468750000,187732.9531250000,166773.8593750000,171959.9375000000,-88522.5625000000,,,
0.8439999986,6,204946.9218750000,194942.7656250000,202632.7187500000,188583.4531250000,187735.2343750000,166774.1250000000,171962.9062500000,-88527.8515625000,,,
0.8479999986,6,204917.8125000000,194917.4687500000,202608.2812500000,188548.6718750000,187715.2031250000,166755.2343750000,171943.2968750000,-88546.5703125000,,,
0.8519999986,6,204884.7968750000,194897.7343750000,202572.2812500000,188500.3125000000,187676.4218750000,166724.5000000000,171902.0781250000,-88574.5234375000,,,
0.8559999987,6,204884.8281250000,194902.2343750000,202569.5156250000,188513.5312500000,187670.3593750000,166718.0625000000,171894.9687500000,-88579.8828125000,,,
0.8599999987,6,204916.3906250000,194921.5000000000,202604.0625000000,188548.1406250000,187705.1406250000,166750.0937500000,171930.0000000000,-88557.4609375000,,,
0.8639999987,6,204920.0468750000,194916.6406250000,202614.9062500000,188556.7968750000,187717.3750000000,166759.0781250000,171942.0156250000,-88554.6484375000,,,
0.8679999986,6,204909.9062500000,194910.2812500000,202604.0312500000,188542.7656250000,187707.3437500000,166754.4062500000,171935.3906250000,-88555.3671875000,,,
0.8719999986,6,204901.2500000000,194914.8437500000,202587.3281250000,188533.6562500000,187686.9531250000,166742.7187500000,171915.0625000000,-88559.5000000000,,,
0.8759999985,6,204896.6562500000,194917.5312500000,202579.5312500000,188533.3906250000,187675.7656250000,166733.2656250000,171904.3750000000,-88571.5703125000,,,
0.8799999987,6,204915.4531250000,194931.6093750000,202601.1093750000,188566.2343750000,187697.6562500000,166749.4375000000,171927.2343750000,-88561.7265625000,,,
0.8839999987,6,204917.1562500000,194926.9062500000,202609.4531250000,188575.4375000000,187709.4375000000,166760.4687500000,171941.9375000000,-88558.4296875000,,,
0.8879999986,6,204913.1250000000,194924.7187500000,202612.1093750000,188567.2656250000,187713.0312500000,166764.6562500000,171948.8750000000,-88552.3671875000,,,
0.8919999986,6,204886.4062500000,194911.5625000000,202580.4062500000,188533.5156250000,187681.1093750000,166739.2500000000,171914.4687500000,-88572.4296875000,,,
0.8959999986,7,204878.9062500000,194913.2812500000,202569.4062500000,188517.9062500000,187669.5781250000,166732.8125000000,171900.2500000000,-88581.6250000000,,,
0.8999999985,7,204912.1875000000,194941.8593750000,202604.2031250000,188559.2968750000,187705.9531250000,166770.6093750000,171939.0312500000,-88553.1718750000,,,
0.9039999985,7,204928.0625000000,194948.0937500000,202622.8906250000,188584.4218750000,187727.4843750000,166789.9218750000,171959.9531250000,-88537.2656250000,,,
0.9079999984,7,204903.4375000000,194927.5000000000,202599.1562500000,188549.3125000000,187705.5937500000,166776.3125000000,171937.7187500000,-88551.5625000000,,,
0.9119999984,7,204885.5000000000,194920.3437500000,202574.1093750000,188533.7656250000,187676.7343750000,166752.2031250000,171906.7968750000,-88567.1406250000,,,
0.9159999983,7,204879.1718750000,194915.4375000000,202564.9062500000,188530.0625000000,187662.2500000000,166730.9843750000,171891.4218750000,-88583.5625000000,,,
0.9199999985,7,204910.0468750000,194936.0781250000,202593.3906250000,188572.0937500000,187690.6562500000,166752.3750000000,171917.8437500000,-88567.3281250000,,,
0.9239999985,7,204904.7812500000,194920.2031250000,202594.4843750000,188562.2500000000,187695.2187500000,166750.2968750000,171924.2812500000,-88572.7734375000,,,
0.9279999984,7,204896.6875000000,194908.7187500000,202593.3437500000,188539.1718750000,187695.0625000000,166745.4218750000,171926.6406250000,-88572.4843750000,,,
0.9319999984,7,204905.2343750000,194926.4531250000,202598.8593750000,188534.1406250000,187696.6718750000,166745.9531250000,171918.9687500000,-88560.4375000000,,,
0.9359999984,7,204916.9062500000,194938.9218750000,202606.5312500000,188555.4843750000,187702.3593750000,166751.2968750000,171919.9687500000,-88555.5859375000,33029,0.9376598641,0.0000000000
0.9399999985,7,204936.6718750000,194951.4531250000,202626.6562500000,188579.2187500000,187723.7031250000,166773.2812500000,171944.5937500000,-88543.8593750000,,,
0.9439999985,7,204929.0781250000,194935.8906250000,202623.1875000000,188573.0781250000,187724.5156250000,166773.4531250000,171945.5468750000,-88548.1796875000,,,
0.9479999985,7,204927.7656250000,194935.8125000000,202621.6875000000,188565.0000000000,187725.9375000000,166777.7187500000,171946.4062500000,-88540.6171875000,,,
0.9519999984,7,204901.7812500000,194919.4218750000,202588.1875000000,188531.1875000000,187689.4531250000,166746.1250000000,171907.2812500000,-88563.3359375000,,,
0.9559999984,7,204899.7343750000,194919.6718750000,202582.2031250000,188527.3437500000,187679.9843750000,166740.8593750000,171898.4843750000,-88571.9453125000,,,
0.9599999983,7,204915.6406250000,194929.8281250000,202601.8125000000,188549.6406250000,187699.8281250000,166761.0312500000,171923.4218750000,-88562.7421875000,,,
0.9639999985,7,204913.0937500000,194921.0156250000,202603.6093750000,188569.6250000000,187703.4531250000,166761.4843750000,171928.1406250000,-88565.3203125000,,,
0.9679999985,7,204906.8750000000,194914.7343750000,202603.6093750000,188565.7500000000,187703.3750000000,166757.5937500000,171927.9062500000,-88564.0859375000,,,
0.9719999984,7,204881.7500000000,194900.9531250000,202580.5468750000,188512.7343750000,187677.5156250000,166736.0625000000,171902.2343750000,-88583.0781250000,,,
0.9759999984,7,204876.9218750000,194903.2500000000,202572.8906250000,188508.7812500000,187667.0625000000,166726.9062500000,171891.6875000000,-88592.0078125000,,,
0.9799999984,7,204901.7343750000,194920.8750000000,202599.0781250000,188551.5156250000,187694.4687500000,166751.3750000000,171919.0312500000,-88576.0781250000,,,
0.9839999985,7,204885.1718750000,194896.7343750000,202585.7187500000,188539.8750000000,187687.2812500000,166746.0156250000,171912.8593750000,-88591.6562500000,,,
0.9879999985,7,204881.9531250000,194895.9375000000,202583.3906250000,188527.3750000000,187688.9218750000,166752.8750000000,171914.7968750000,-88584.2812500000,,,
0.9919999985,7,204878.4375000000,194904.0312500000,202573.4375000000,188523.1406250000,187674.5625000000,166746.1718750000,171899.8281250000,-88585.2187500000,,,
0.9959999984,7,204863.5625000000,194896.0156250000,202551.2500000000,188515.2812500000,187648.1406250000,166722.2656250000,171869.7031250000,-88608.5000000000,,,
0.9999999984,7,204899.2812500000,194919.6093750000,202589.8281250000,188551.7500000000,187687.9531250000,166751.5937500000,171906.1718750000,-88581.2812500000,,,
1.0039999983,7,204913.0937500000,194920.9375000000,202607.5468750000,188569.1406250000,187709.7031250000,166769.2656250000,171931.4218750000,-88565.9140625000,,,
1.0079999985,7,204904.6562500000,194915.2187500000,202602.2343750000,188562.2968750000,187704.4531250000,166767.5000000000,171934.2031250000,-88565.7187500000,,,
1.0119999985,7,204898.8281250000,194921.6875000000,202593.5468750000,188549.3437500000,187691.4843750000,166759.0156250000,171923.5625000000,-88569.6640625000,,,
1.0159999984,7,204893.6562500000,194921.7656250000,202584.2187500000,188534.0312500000,187678.0312500000,166747.3593750000,171907.9531250000,-88583.1015625000,,,
1.0199999984,7,204919.1093750000,194940.5156250000,202609.4843750000,188563.7968750000,187703.9375000000,166770.0468750000,171928.8125000000,-88568.1875000000,,,
1.0239999983,8,204910.2500000000,194922.9218750000,202606.4531250000,188544.1718750000,187705.7031250000,166765.1093750000,171928.0468750000,-88576.8828125000,,,
1.0279999983,8,204904.7031250000,194914.7343750000,202607.5781250000,188528.1562500000,187708.1406250000,166766.2343750000,171932.8125000000,-88573.5781250000,,,
1.0319999983,8,204901.6718750000,194921.4687500000,202601.7031250000,188524.4218750000,187699.0781250000,166758.0781250000,171921.4687500000,-88572.1093750000,,,
1.0359999982,8,204901.9218750000,194929.2500000000,202591.2656250000,188541.9687500000,187688.2968750000,166752.9062500000,171905.1093750000,-88575.3515625000,,,
1.0399999982,8,204896.0937500000,194916.2343750000,202584.5468750000,188538.8281250000,187683.0156250000,166746.0156250000,171898.4062500000,-88591.0703125000,,,
1.0439999981,8,204905.8593750000,194913.8281250000,202595.4218750000,188537.9687500000,187699.1093750000,166761.1093750000,171915.8125000000,-88581.5234375000,,,
1.0479999983,8,204915.5156250000,194922.4375000000,202604.2031250000,188544.9375000000,187708.8125000000,166774.8125000000,171929.5937500000,-88564.0859375000,,,
1.0519999983,8,204915.1093750000,194926.9687500000,202603.6562500000,188553.9531250000,187703.7812500000,166769.5937500000,171926.3750000000,-88563.7656250000,,,
1.0559999982,8,204918.9531250000,194937.0000000000,202601.3593750000,188566.5156250000,187699.5156250000,166764.0312500000,171917.3437500000,-88567.6796875000,,,
1.0599999982,8,204938.1562500000,194948.5000000000,202620.5937500000,188584.3750000000,187719.3593750000,166776.1875000000,171931.6093750000,-88561.5078125000,,,
1.0639999982,8,204947.2968750000,194949.9218750000,202638.0000000000,188593.4062500000,187738.7812500000,166792.4375000000,171944.7812500000,-88550.6250000000,,,
1.0679999983,8,204921.6875000000,194931.5312500000,202616.8593750000,188563.1875000000,187719.6250000000,166776.0468750000,171927.6406250000,-88565.2656250000,,,
1.0719999983,8,204904.0625000000,194922.2187500000,202595.5625000000,188537.7031250000,187695.7031250000,166755.8593750000,171908.9375000000,-88578.1953125000,,,
1.0759999983,8,204901.1875000000,194922.1718750000,202586.6250000000,188533.8125000000,187682.1250000000,166744.0468750000,171892.8750000000,-88590.9375000000,,,
1.0799999982,8,204919.2968750000,194930.2656250000,202606.9375000000,188568.9531250000,187701.0937500000,166755.0156250000,171908.6250000000,-88585.1718750000,,,
1.0839999982,8,204921.3593750000,194922.6406250000,202617.2031250000,188594.5312500000,187713.7812500000,166763.2500000000,171922.2656250000,-88580.6875000000,,,
1.0879999981,8,204915.7500000000,194917.3437500000,202616.0625000000,188591.4531250000,187712.7656250000,166767.8125000000,171924.7968750000,-88575.9921875000,,,
1.0919999983,8,204894.7187500000,194912.0781250000,202591.2968750000,188543.9218750000,187685.8125000000,166749.1718750000,171898.6093750000,-88588.7109375000,,,
1.0959999983,8,204907.3125000000,194929.7812500000,202600.3593750000,188567.1718750000,187692.4843750000,166757.0937500000,171904.2968750000,-88581.4375000000,,,
1.0999999982,8,204930.1250000000,194942.9218750000,202625.5781250000,188605.1250000000,187718.5312500000,166776.5625000000,171929.3593750000,-88571.4375000000,,,
1.1039999982,8,204930.0781250000,194936.1718750000,202628.7343750000,188603.8750000000,187726.5781250000,166782.8125000000,171938.5781250000,-88571.7031250000,,,
1.1079999981,8,204920.1875000000,194929.2500000000,202618.2812500000,188587.1875000000,187718.0937500000,166781.7656250000,171934.8281250000,-88572.9140625000,,,
1.1119999983,8,204902.6406250000,194924.4687500000,202594.8906250000,188576.2500000000,187691.8437500000,166760.8437500000,171909.6875000000,-88584.7968750000,,,
1.1159999983,8,204891.7968750000,194920.6093750000,202579.6875000000,188568.2500000000,187672.8281250000,166743.9218750000,171890.0000000000,-88600.4062500000,,,
1.1199999982,8,204913.9375000000,194933.5156250000,202604.1250000000,188566.7031250000,187698.4843750000,166762.7812500000,171910.3125000000,-88587.1015625000,,,
1.1239999982,8,204914.0625000000,194921.8437500000,202609.0468750000,188542.0156250000,187708.1406250000,166769.6875000000,171914.6250000000,-88585.2500000000,,,
1.1279999982,8,204899.0156250000,194906.5312500000,202592.7968750000,188525.9218750000,187697.2343750000,166762.9687500000,171910.9531250000,-88590.6953125000,,,
1.1319999981,8,204888.9375000000,194907.0156250000,202578.6406250000,188504.8750000000,187682.6406250000,166752.3437500000,171900.8750000000,-88594.1250000000,,,
1.1359999983,8,204912.3750000000,194934.2656250000,202597.9218750000,188540.4843750000,187696.9843750000,166765.5312500000,171911.5468750000,-88576.3437500000,,,
1.1399999983,8,204926.1875000000,194940.5156250000,202611.4375000000,188556.4843750000,187709.8437500000,166774.4687500000,171918.7031250000,-88576.7968750000,,,
1.1439999982,8,204931.4218750000,194937.5625000000,202623.8281250000,188562.1562500000,187726.1718750000,166787.1875000000,171935.6875000000,-88570.3593750000,,,
1.1479999982,8,204925.0625000000,194931.3125000000,202621.3906250000,188555.5937500000,187727.2968750000,166785.5468750000,171940.0312500000,-88566.7968750000,,,
1.1519999981,9,204908.5468750000,194924.8437500000,202600.7656250000,188536.7343750000,187703.9062500000,166761.2500000000,171913.0937500000,-88579.6718750000,,,
1.1559999981,9,204913.4531250000,194931.6562500000,202602.0468750000,188543.1406250000,187699.4375000000,166752.3125000000,171904.6562500000,-88585.7343750000,,,
1.1599999981,9,204933.2500000000,194942.1250000000,202626.6562500000,188571.9531250000,187723.8437500000,166768.5468750000,171926.4843750000,-88577.1718750000,,,
1.1639999980,9,204941.5000000000,194942.2500000000,202641.2187500000,188583.9375000000,187744.0156250000,166785.1250000000,171945.1250000000,-88565.3984375000,,,
1.1679999980,9,204944.2187500000,194942.8750000000,202643.7343750000,188581.6093750000,187747.8125000000,166794.0000000000,171949.8437500000,-88551.5312500000,,,
1.1719999979,9,204927.4687500000,194937.1093750000,202619.7343750000,188552.7968750000,187718.1250000000,166766.9375000000,171921.3125000000,-88565.8281250000,,,
1.1759999981,9,204923.1093750000,194936.6718750000,202613.5937500000,188553.3125000000,187706.9375000000,166749.6875000000,171909.6718750000,-88578.5468750000,,,
1.1799999981,9,204935.9218750000,194942.6562500000,202627.2656250000,188580.6093750000,187722.2812500000,166764.5781250000,171923.1875000000,-88575.4843750000,,,
1.1839999980,9,204934.9062500000,194939.2031250000,202633.2187500000,188596.2343750000,187732.4687500000,166782.7343750000,171932.7812500000,-88573.7968750000,,,
1.1879999980,9,204928.4687500000,194935.3281250000,202630.7031250000,188583.7500000000,187732.3750000000,166793.9687500000,171932.6250000000,-88569.3984375000,,,
1.1919999979,9,204919.7031250000,194937.7500000000,202613.5312500000,188577.3750000000,187714.4218750000,166785.9687500000,171911.8593750000,-88571.5156250000,,,
1.1959999981,9,204914.6875000000,194941.6875000000,202604.8125000000,188568.0937500000,187704.4687500000,166776.8593750000,171900.2812500000,-88578.2734375000,,,
1.1999999981,9,204934.7187500000,194953.7031250000,202626.4687500000,188581.0937500000,187726.6562500000,166794.0000000000,171921.6250000000,-88566.8515625000,,,
1.2039999980,9,204939.6562500000,194949.1718750000,202635.7656250000,188594.3281250000,187738.7812500000,166802.7968750000,171934.2656250000,-88564.2734375000,,,
1.2079999980,9,204919.0000000000,194930.0781250000,202620.0781250000,188546.9218750000,187724.4218750000,166794.5000000000,171924.1250000000,-88573.9531250000,,,
1.2119999980,9,204902.7187500000,194923.6406250000,202599.1093750000,188522.9687500000,187699.1093750000,166775.8437500000,171898.2187500000,-88586.0781250000,,,
1.2159999979,9,204923.1250000000,194946.4687500000,202616.7031250000,188560.7656250000,187711.0937500000,166785.1718750000,171904.8906250000,-88574.3359375000,,,
1.2199999981,9,204943.8125000000,194959.3125000000,202638.0781250000,188586.7812500000,187734.3593750000,166801.7187500000,171922.8593750000,-88564.7265625000,,,
1.2239999981,9,204944.2187500000,194951.6406250000,202643.2812500000,188590.4062500000,187745.4531250000,166812.4687500000,171938.6406250000,-88562.9609375000,,,
1.2279999980,9,204933.7031250000,194942.3906250000,202632.1718750000,188589.5468750000,187736.4218750000,166806.9531250000,171933.1406250000,-88566.4765625000,,,
1.2319999980,9,204919.0468750000,194938.9843750000,202609.4062500000,188580.4218750000,187706.6250000000,166784.5781250000,171903.2500000000,-88578.1406250000,,,
1.2359999979,9,204919.5625000000,194943.5156250000,202601.0312500000,188581.5312500000,187692.5312500000,166771.0312500000,171886.2812500000,-88587.1796875000,,,
1.2399999981,9,204930.7968750000,194945.2343750000,202614.5312500000,188580.1093750000,187707.2031250000,166777.2656250000,171898.8593750000,-88588.2812500000,,,
1.2439999981,9,204937.4531250000,194937.9687500000,202629.1718750000,188593.2812500000,187725.4531250000,166782.1875000000,171915.9218750000,-88586.2968750000,,,
1.2479999980,9,204941.4218750000,194941.3906250000,202636.8125000000,188582.2812500000,187736.3593750000,166789.0937500000,171931.2656250000,-88573.6093750000,,,
1.2519999980,9,204927.5000000000,194939.4375000000,202618.0156250000,188562.0781250000,187714.5000000000,166771.9687500000,171911.8593750000,-88581.3359375000,,,
1.2559999980,9,204921.2812500000,194939.4375000000,202606.8593750000,188555.5937500000,187700.0937500000,166755.1875000000,171894.3281250000,-88594.6093750000,,,
1.2599999979,9,204939.1406250000,194953.5937500000,202625.9531250000,188575.2187500000,187720.5468750000,166774.6093750000,171912.5312500000,-88585.2500000000,,,
1.2639999981,9,204950.5156250000,194956.3125000000,202646.6093750000,188582.1406250000,187742.7968750000,166795.0937500000,171937.6875000000,-88573.6875000000,,,
1.2679999981,9,204936.6562500000,194941.1875000000,202636.2812500000,188583.4375000000,187733.8906250000,166783.4843750000,171929.7812500000,-88578.7343750000,,,
1.2719999980,9,204936.0312500000,194956.4218750000,202631.1562500000,188577.9062500000,187726.0625000000,166782.4375000000,171920.9062500000,-88569.1015625000,,,
1.2759999980,9,204923.7187500000,194947.0312500000,202615.0937500000,188570.3437500000,187706.0625000000,166766.7968750000,171899.6093750000,-88586.3515625000,,,
1.2799999979,10,204938.9062500000,194954.0000000000,202631.8750000000,188578.0468750000,187725.0937500000,166779.3281250000,171916.4531250000,-88580.1562500000,,,
1.2839999979,10,204945.5781250000,194954.7187500000,202644.7343750000,188583.4375000000,187743.0937500000,166797.4062500000,171936.5468750000,-88571.3046875000,,,
1.2879999978,10,204925.3906250000,194935.4218750000,202628.6562500000,188567.3437500000,187728.2968750000,166786.1562500000,171926.8125000000,-88581.3828125000,,,
1.2919999978,10,204912.6093750000,194930.6406250000,202613.2187500000,188552.5937500000,187708.7656250000,166767.1250000000,171907.8906250000,-88590.7734375000,,,
1.2959999978,10,204917.2500000000,194937.9062500000,202614.5781250000,188546.3437500000,187707.6718750000,166762.9375000000,171905.5156250000,-88594.3437500000,,,
1.2999999977,10,204949.2343750000,194959.5468750000,202644.5156250000,188577.6406250000,187741.7500000000,166791.0468750000,171936.4375000000,-88574.0390625000,,,
1.3039999979,10,204962.5312500000,194963.6250000000,202662.0000000000,188594.2968750000,187763.6093750000,166811.8593750000,171957.4843750000,-88562.3671875000,,,
1.3079999979,10,204947.5937500000,194951.0000000000,202650.3125000000,188583.9687500000,187753.7187500000,166809.2031250000,171952.8437500000,-88566.3906250000,,,
1.3119999978,10,204953.0156250000,194966.4687500000,202651.0312500000,188597.8125000000,187749.6718750000,166812.5781250000,171952.9843750000,-88556.5468750000,,,
1.3159999978,10,204948.6718750000,194969.9062500000,202640.8125000000,188588.7187500000,187734.5156250000,166800.7812500000,171938.3125000000,-88567.4921875000,,,
1.3199999977,10,204955.2656250000,194970.9843750000,202647.7812500000,188598.0312500000,187741.5156250000,166806.7968750000,171946.7812500000,-88571.3515625000,,,
1.3239999979,10,204954.6718750000,194964.3593750000,202651.3750000000,188614.1406250000,187748.4843750000,166816.7343750000,171957.8593750000,-88572.2968750000,,,
1.3279999979,10,204944.9843750000,194956.0468750000,202646.6250000000,188598.2968750000,187745.4375000000,166819.7968750000,171961.8281250000,-88571.9687500000,,,
1.3319999978,10,204935.5156250000,194956.2500000000,202634.8906250000,188576.7812500000,187733.0312500000,166811.6406250000,171952.5468750000,-88573.6875000000,,,
1.3359999978,10,204934.3125000000,194958.8281250000,202629.5468750000,188574.6406250000,187724.7812500000,166804.9375000000,171944.1250000000,-88579.1328125000,,,
1.3399999978,10,204960.8437500000,194975.2500000000,202655.0312500000,188609.2968750000,187751.1093750000,166832.0625000000,171971.7812500000,-88562.1796875000,,,
1.3439999977,10,204974.4218750000,194978.8125000000,202671.5156250000,188620.5781250000,187773.1093750000,166852.5468750000,171996.0312500000,-88547.8828125000,,,
1.3479999979,10,204965.7031250000,194971.7812500000,202667.6093750000,188590.0625000000,187771.6406250000,166855.0937500000,171998.3906250000,-88547.6718750000,,,
1.3519999979,10,204965.9687500000,194980.1562500000,202667.6875000000,188580.3281250000,187768.5312500000,166851.2812500000,172002.0468750000,-88543.1093750000,,,
1.3559999978,10,204963.4687500000,194983.9375000000,202663.6875000000,188574.7968750000,187764.2031250000,166855.2812500000,172007.3281250000,-88544.7187500000,,,
1.3599999978,10,204973.9375000000,194993.7031250000,202675.3593750000,188586.4375000000,187779.0312500000,166879.7656250000,172027.2812500000,-88536.7265625000,,,
1.3639999977,10,204982.2187500000,194992.0156250000,202689.3906250000,188596.5781250000,187797.5156250000,166893.6406250000,172049.3750000000,-88527.9531250000,,,
1.3679999979,10,204983.9687500000,194991.2812500000,202694.0468750000,188587.3437500000,187804.5937500000,166909.8125000000,172060.6718750000,-88517.8203125000,,,
1.3719999979,10,204966.5000000000,194986.5156250000,202673.2968750000,188555.2500000000,187783.8437500000,166904.5625000000,172044.4218750000,-88526.4296875000,,,
1.3759999978,10,204969.0468750000,194998.3125000000,202671.2343750000,188566.1093750000,187778.7968750000,166904.6562500000,172043.5625000000,-88527.6328125000,,,
1.3799999978,10,204996.2968750000,195020.0937500000,202697.2656250000,188598.7812500000,187805.0625000000,166928.0000000000,172074.5156250000,-88512.8281250000,,,
1.3839999977,10,204998.2656250000,195014.5468750000,202702.2031250000,188603.1250000000,187815.2500000000,166949.1875000000,172088.5156250000,-88509.5312500000,,,
1.3879999977,10,204998.5468750000,195013.2031250000,202704.7031250000,188602.2031250000,187820.8750000000,166959.6250000000,172096.4062500000,-88498.8515625000,,,
1.3919999979,10,204996.3750000000,195019.6406250000,202696.6562500000,188597.0312500000,187809.7968750000,166954.0468750000,172086.2031250000,-88496.8437500000,,,
1.3959999979,10,204995.6562500000,195026.8750000000,202689.0156250000,188601.6718750000,187799.4218750000,166951.1250000000,172077.8437500000,-88503.3046875000,,,
1.3999999978,10,205012.6875000000,195034.3125000000,202708.9687500000,188618.8437500000,187818.3125000000,166960.5000000000,172094.3593750000,-88499.4687500000,,,
1.4039999978,10,205022.8750000000,195031.9218750000,202723.1250000000,188625.2500000000,187835.9531250000,166970.2187500000,172102.9218750000,-88494.2421875000,,,
1.4079999977,11,204994.1250000000,195003.7343750000,202696.8125000000,188596.5000000000,187812.7031250000,166953.5000000000,172075.1562500000,-88513.0703125000,,,
1.4119999977,11,204992.2500000000,195013.6875000000,202691.7812500000,188585.2343750000,187805.5625000000,166954.0625000000,172078.1562500000,-88505.8046875000,,,
1.4159999976,11,205003.2968750000,195033.9375000000,202695.2656250000,188593.0625000000,187805.2500000000,166952.2656250000,172084.3281250000,-88500.4140625000,,,
1.4199999976,11,205023.5000000000,195046.1406250000,202715.5625000000,188623.9062500000,187825.4375000000,166964.3125000000,172100.1093750000,-88491.9375000000,,,
1.4239999976,11,205035.4375000000,195043.9687500000,202734.5625000000,188641.6093750000,187847.1718750000,166976.8125000000,172119.4687500000,-88482.1953125000,,,
1.4279999975,11,205010.8437500000,195021.4375000000,202712.7500000000,188608.5937500000,187829.5156250000,166963.1875000000,172101.7968750000,-88496.5781250000,,,
1.4319999977,11,204986.2968750000,195008.6718750000,202683.4531250000,188570.5000000000,187800.0937500000,166945.3281250000,172070.7343750000,-88511.4843750000,,,
1.4359999977,11,204995.7656250000,195023.7343750000,202688.0781250000,188586.9687500000,187799.9531250000,166943.0156250000,172068.7500000000,-88508.1093750000,,,
1.4399999976,11,205016.7187500000,195038.5781250000,202711.0312500000,188619.2187500000,187822.1406250000,166957.2812500000,172087.8750000000,-88498.0000000000,,,
1.4439999976,11,205020.7343750000,195038.4062500000,202720.3906250000,188627.6406250000,187834.8281250000,166967.1562500000,172096.4062500000,-88491.7500000000,,,
1.4479999975,11,204996.5156250000,195014.1718750000,202697.8906250000,188592.8750000000,187814.2500000000,166945.8125000000,172069.8437500000,-88509.7968750000,,,
1.4519999977,11,204963.0625000000,194988.9531250000,202660.6875000000,188550.2343750000,187773.7812500000,166908.5468750000,172024.5937500000,-88539.3046875000,,,
1.4559999977,11,204960.0937500000,194991.8750000000,202652.2187500000,188546.8750000000,187759.7500000000,166896.6093750000,172014.1093750000,-88549.2265625000,,,
1.4599999976,11,204983.7812500000,195008.1562500000,202676.1562500000,188575.5000000000,187781.0156250000,166913.5937500000,172035.3281250000,-88538.2265625000,,,
1.4639999976,11,205003.9687500000,195015.1562500000,202700.7656250000,188604.8593750000,187808.3750000000,166924.3750000000,172057.7031250000,-88524.2578125000,,,
1.4679999975,11,205006.0625000000,195012.9531250000,202705.8593750000,188606.7968750000,187815.7656250000,166922.3437500000,172061.1562500000,-88517.6562500000,,,
1.4719999975,11,204996.2500000000,195007.9687500000,202693.5156250000,188604.4687500000,187800.0156250000,166904.7187500000,172040.4531250000,-88524.4453125000,,,
1.4759999977,11,205006.5468750000,195024.0625000000,202696.7968750000,188620.3125000000,187799.0781250000,166905.6875000000,172033.6718750000,-88518.6484375000,,,
1.4799999977,11,205024.8906250000,195040.3125000000,202712.6875000000,188632.6562500000,187813.6406250000,166919.4687500000,172047.0000000000,-88510.7890625000,,,
1.4839999976,11,205017.9687500000,195027.0156250000,202710.9218750000,188637.3125000000,187813.8750000000,166918.3750000000,172050.4218750000,-88518.1953125000,,,
1.4879999976,11,204995.9531250000,195007.3750000000,202691.6875000000,188633.8281250000,187797.3593750000,166907.7500000000,172036.4062500000,-88529.2421875000,,,
1.4919999975,11,204984.5468750000,195008.5312500000,202677.1562500000,188622.1093750000,187779.6093750000,166896.2968750000,172018.2656250000,-88534.5859375000,,,
1.4959999977,11,204982.1406250000,195014.6406250000,202668.7031250000,188613.4687500000,187766.8906250000,166889.4531250000,172001.7500000000,-88541.0703125000,,,
1.4999999977,11,204997.6718750000,195025.0312500000,202684.0156250000,188640.7500000000,187782.9531250000,166902.7343750000,172014.3281250000,-88534.7734375000,,,
1.5039999976,11,204999.0937500000,195018.2343750000,202693.5156250000,188663.7656250000,187795.4531250000,166907.4531250000,172026.6718750000,-88534.4218750000,,,
1.5079999976,11,204982.8437500000,194999.7343750000,202681.3906250000,188656.3125000000,187786.0156250000,166895.9218750000,172017.2968750000,-88543.9140625000,,,
1.5119999975,11,204969.6406250000,194995.6562500000,202665.4062500000,188609.5000000000,187769.0625000000,166881.8125000000,172000.3750000000,-88552.5000000000,,,
1.5159999975,11,204966.7656250000,195000.0781250000,202657.3906250000,188596.2031250000,187758.2031250000,166872.2656250000,171987.9062500000,-88559.6875000000,,,
1.5199999977,11,204990.1093750000,195019.0468750000,202679.0312500000,188629.0312500000,187778.3125000000,166889.7968750000,172007.5625000000,-88547.2968750000,,,
1.5239999976,11,204985.5781250000,195007.2656250000,202677.7187500000,188638.7343750000,187779.8906250000,166889.5156250000,172008.8281250000,-88554.9140625000,,,
1.5279999976,11,204979.1093750000,194995.3906250000,202675.0937500000,188621.5000000000,187781.6406250000,166882.8593750000,172009.9218750000,-88555.7734375000,,,
1.5319999976,11,204972.2968750000,194996.3281250000,202667.4687500000,188577.6093750000,187772.5156250000,166878.7031250000,172003.6562500000,-88553.3281250000,,,
1.5359999975,12,204972.1093750000,194998.6562500000,202664.4687500000,188570.1250000000,187765.4375000000,166870.7343750000,171990.7031250000,-88558.0234375000,,,
1.5399999975,12,204988.6250000000,195009.2031250000,202679.1718750000,188599.6406250000,187779.8125000000,166879.8750000000,171998.6406250000,-88554.4609375000,,,
1.5439999974,12,204998.0781250000,195013.0156250000,202693.4687500000,188606.0937500000,187798.2656250000,166895.1406250000,172021.2968750000,-88545.7109375000,,,
1.5479999974,12,204980.0937500000,194996.1875000000,202680.0312500000,188580.7968750000,187788.9687500000,166885.4843750000,172017.5468750000,-88553.1406250000,,,
1.5519999973,12,204980.0468750000,195006.5781250000,202675.4375000000,188589.7968750000,187781.7812500000,166881.9375000000,172010.1718750000,-88549.2812500000,,,
1.5559999973,12,204994.2343750000,195029.4218750000,202681.0937500000,188628.4375000000,187781.0468750000,166883.9375000000,172002.9218750000,-88543.8593750000,,,
1.5599999975,12,205005.9843750000,195035.0000000000,202694.3750000000,188621.2500000000,187791.8906250000,166890.7500000000,172014.7343750000,-88543.9140625000,,,
1.5639999975,12,205008.2968750000,195024.5156250000,202704.3750000000,188626.9687500000,187805.2968750000,166896.2656250000,172031.8437500000,-88544.2109375000,,,
1.5679999974,12,204986.6718750000,194998.2343750000,202686.8906250000,188612.7187500000,187790.1406250000,166888.4062500000,172022.5000000000,-88558.1328125000,,,
1.5719999974,12,204967.3125000000,194991.7343750000,202665.1875000000,188584.8281250000,187768.2812500000,166882.9375000000,172009.7656250000,-88567.1953125000,,,
1.5759999973,12,204966.2031250000,194996.5156250000,202660.2031250000,188574.0156250000,187762.1093750000,166882.5312500000,172009.9062500000,-88570.1484375000,,,
1.5799999975,12,204982.2500000000,195005.5312500000,202675.0625000000,188608.5625000000,187776.9218750000,166894.6093750000,172023.3906250000,-88563.5781250000,,,
1.5839999975,12,204983.3125000000,194997.4843750000,202680.7031250000,188628.8750000000,187786.7968750000,166900.1093750000,172034.9218750000,-88564.3828125000,,,
1.5879999974,12,204975.2968750000,194988.5468750000,202679.0312500000,188619.1562500000,187789.5781250000,166904.6093750000,172044.5000000000,-88560.4375000000,,,
1.5919999974,12,204973.9531250000,194996.7031250000,202671.8125000000,188606.0156250000,187781.5000000000,166904.5312500000,172040.8593750000,-88555.1015625000,,,
1.5959999973,12,204975.0625000000,195005.0468750000,202666.7812500000,188593.1406250000,187773.2500000000,166904.2343750000,172034.3281250000,-88556.8437500000,,,
1.5999999973,12,204983.1250000000,195010.0312500000,202673.8281250000,188603.6093750000,187782.5781250000,166922.2343750000,172047.6093750000,-88555.8515625000,,,
1.6039999975,12,204996.1406250000,195014.5156250000,202690.8281250000,188621.0312500000,187804.1718750000,166938.2656250000,172071.1406250000,-88547.0000000000,,,
1.6079999974,12,204968.7500000000,194989.7500000000,202669.1875000000,188582.8437500000,187785.9375000000,166919.5468750000,172054.3125000000,-88565.2421875000,,,
1.6119999974,12,204948.6406250000,194979.4843750000,202649.7656250000,188556.2656250000,187766.1093750000,166907.7812500000,172038.0937500000,-88575.2968750000,,,
1.6159999974,12,204947.0312500000,194980.4687500000,202645.0156250000,188561.5156250000,187758.8750000000,166902.5156250000,172036.5312500000,-88580.5312500000,,,
1.6199999973,12,204976.1562500000,195002.6562500000,202674.1562500000,188598.6875000000,187788.7500000000,166924.6718750000,172065.1875000000,-88560.8437500000,,,
1.6239999975,12,204993.0625000000,195010.1875000000,202694.9062500000,188606.8437500000,187813.3125000000,166941.1406250000,172088.7500000000,-88546.6796875000,,,
1.6279999975,12,204983.0312500000,194996.8593750000,202688.8281250000,188581.8437500000,187810.1562500000,166939.1250000000,172092.1093750000,-88548.9062500000,,,
1.6319999974,12,204962.0781250000,194988.3281250000,202663.5625000000,188546.3125000000,187783.7343750000,166920.4375000000,172064.0781250000,-88562.1015625000,,,
1.6359999974,12,204957.4843750000,194991.8281250000,202653.6875000000,188542.9531250000,187770.3750000000,166907.5312500000,172039.6406250000,-88570.6015625000,,,
1.6399999973,12,204973.5312500000,194999.2812500000,202670.4843750000,188566.0468750000,187785.7187500000,166914.6406250000,172049.5156250000,-88568.3281250000,,,
1.6439999973,12,204965.1093750000,194981.8125000000,202668.1718750000,188565.6562500000,187785.3906250000,166903.4218750000,172053.9687500000,-88581.6796875000,,,
1.6479999975,12,204958.7812500000,194973.9062500000,202667.9062500000,188574.5312500000,187788.0000000000,166906.1093750000,172061.3125000000,-88578.3828125000,,,
1.6519999974,12,204957.0937500000,194982.8906250000,202661.3281250000,188586.4843750000,187777.6718750000,166905.5000000000,172047.9062500000,-88572.7734375000,,,
1.6559999974,12,204960.7343750000,194994.3750000000,202657.5468750000,188575.5000000000,187768.0468750000,166894.2031250000,172032.5625000000,-88575.3281250000,,,
1.6599999974,12,204965.6093750000,194997.3437500000,202660.7187500000,188569.0625000000,187770.8593750000,166895.5468750000,172030.1250000000,-88581.6796875000,,,
1.6639999973,13,204957.5625000000,194981.4375000000,202656.8437500000,188561.3281250000,187769.1406250000,166894.4375000000,172024.2187500000,-88591.0703125000,,,
1.6679999973,13,204950.6562500000,194969.0156250000,202655.4843750000,188549.0156250000,187767.5000000000,166893.1875000000,172021.9687500000,-88590.8828125000,,,
1.6719999972,13,204928.4218750000,194957.9687500000,202631.0156250000,188512.1718750000,187738.5156250000,166866.7343750000,171992.3281250000,-88606.6015625000,,,
1.6759999972,13,204918.7343750000,194955.3750000000,202616.8906250000,188513.7500000000,187718.9531250000,166846.3750000000,171967.9531250000,-88618.6171875000,,,
1.6799999971,13,204948.0468750000,194974.2031250000,202646.8437500000,188574.9843750000,187747.3125000000,166861.2656250000,171991.0156250000,-88603.0625000000,,,
1.6839999971,13,204961.6406250000,194977.5312500000,202666.3437500000,188602.3125000000,187769.8593750000,166870.4062500000,172010.0625000000,-88596.0859375000,,,
1.6879999973,13,204942.4218750000,194961.9687500000,202652.6718750000,188563.8281250000,187759.2500000000,166862.9531250000,171997.0312500000,-88605.2343750000,,,
1.6919999972,13,204917.4218750000,194944.2343750000,202625.0937500000,188515.1093750000,187730.6250000000,166840.8750000000,171968.2656250000,-88622.7968750000,,,
1.6959999972,13,204919.6093750000,194950.7031250000,202620.1562500000,188518.7656250000,187722.3125000000,166831.4375000000,171957.0000000000,-88625.6171875000,,,
1.6999999972,13,204941.7968750000,194965.0781250000,202639.2031250000,188543.5781250000,187740.2500000000,166846.5937500000,171966.2812500000,-88616.6015625000,,,
1.7039999971,13,204952.4687500000,194966.6093750000,202652.2656250000,188558.4843750000,187756.7031250000,166858.1562500000,171978.3281250000,-88607.7500000000,,,
1.7079999973,13,204939.9687500000,194953.5156250000,202641.5625000000,188545.8593750000,187749.2343750000,166851.4218750000,171975.2500000000,-88610.4921875000,,,
1.7119999973,13,204928.2343750000,194950.1093750000,202625.1250000000,188525.7656250000,187730.5937500000,166835.7031250000,171954.0000000000,-88617.4921875000,,,
1.7159999972,13,204919.7187500000,194946.6875000000,202612.0000000000,188520.0000000000,187714.7656250000,166816.0156250000,171933.2968750000,-88632.4296875000,,,
1.7199999972,13,204930.2656250000,194949.9218750000,202622.0156250000,188540.6250000000,187724.7812500000,166816.3593750000,171940.2500000000,-88635.7031250000,,,
1.7239999971,13,204940.6250000000,194948.9531250000,202637.3750000000,188551.5156250000,187741.8437500000,166823.0781250000,171954.9218750000,-88632.5937500000,,,
1.7279999971,13,204921.1406250000,194930.6093750000,202623.4062500000,188522.4375000000,187728.1875000000,166809.0937500000,171941.3125000000,-88642.5156250000,,,
1.7319999973,13,204912.1093750000,194934.9062500000,202609.6406250000,188502.1406250000,187712.3593750000,166798.1250000000,171924.7343750000,-88642.0312500000,,,
1.7359999972,13,204910.7187500000,194940.4531250000,202603.5625000000,188517.7500000000,187700.6406250000,166786.7500000000,171911.7656250000,-88645.8671875000,,,
1.7399999972,13,204937.8906250000,194958.4843750000,202630.9375000000,188560.7343750000,187726.8750000000,166803.6250000000,171934.8281250000,-88631.4609375000,,,
1.7439999972,13,204943.6562500000,194954.6250000000,202640.0625000000,188565.4375000000,187738.9062500000,166808.9062500000,171942.4687500000,-88629.6406250000,,,
1.7479999971,13,204933.2500000000,194947.1562500000,202634.5625000000,188558.7343750000,187736.2343750000,166808.6406250000,171938.7968750000,-88630.9296875000,,,
1.7519999973,13,204910.5312500000,194934.6093750000,202611.5468750000,188525.0937500000,187710.3437500000,166788.1718750000,171915.7343750000,-88648.3906250000,,,
1.7559999973,13,204896.7968750000,194926.4531250000,202590.8437500000,188522.5000000000,187684.8906250000,166768.0312500000,171887.3437500000,-88668.2343750000,,,
1.7599999972,13,204919.7500000000,194942.1250000000,202611.9843750000,188562.4062500000,187705.2812500000,166785.7812500000,171903.9843750000,-88655.8750000000,,,
1.7639999972,13,204950.7343750000,194964.4843750000,202647.6718750000,188594.2187500000,187745.6718750000,166819.3750000000,171944.0468750000,-88624.9687500000,,,
1.7679999971,13,204956.0468750000,194971.8437500000,202656.8281250000,188590.4062500000,187760.1093750000,166839.2656250000,171962.3125000000,-88607.6484375000,,,
1.7719999971,13,204946.5468750000,194972.1875000000,202644.4531250000,188551.7500000000,187746.7187500000,166835.2500000000,171953.5468750000,-88607.7500000000,,,
1.7759999973,13,204936.5937500000,194970.4218750000,202628.0781250000,188528.9531250000,187727.4531250000,166821.2500000000,171934.3437500000,-88620.8437500000,,,
1.7799999972,13,204958.7187500000,194985.1093750000,202649.2343750000,188557.5000000000,187749.2656250000,166834.7968750000,171952.5000000000,-88610.3046875000,,,
1.7839999972,13,204959.7656250000,194978.4062500000,202654.2968750000,188563.2343750000,187759.2968750000,166839.4062500000,171959.2031250000,-88611.3750000000,,,
1.7879999971,13,204928.4218750000,194947.3437500000,202629.1250000000,188518.6093750000,187737.6562500000,166821.1875000000,171942.1250000000,-88632.9921875000,,,
1.7919999971,14,204919.8281250000,194949.1718750000,202621.2343750000,188501.2031250000,187726.3125000000,166818.5312500000,171936.0625000000,-88630.9531250000,,,
1.7959999971,14,204921.4375000000,194959.6406250000,202616.2968750000,188497.9843750000,187716.8906250000,166815.3437500000,171926.2343750000,-88634.6562500000,,,
1.7999999970,14,204944.1093750000,194978.0937500000,202634.9062500000,188543.2031250000,187735.0156250000,166830.0156250000,171942.8437500000,-88625.1093750000,,,
1.8039999970,14,204953.8125000000,194978.7656250000,202647.1093750000,188581.4218750000,187750.9531250000,166841.0156250000,171959.2343750000,-88619.7968750000,,,
1.8079999969,14,204936.4843750000,194960.1250000000,202634.2343750000,188551.8437500000,187742.2656250000,166837.6562500000,171956.9843750000,-88629.1015625000,,,
1.8119999969,14,204908.3593750000,194942.9218750000,202603.7187500000,188519.0312500000,187710.9843750000,166811.1093750000,171929.3750000000,-88653.1875000000,,,
1.8159999971,14,204910.9062500000,194952.7187500000,202602.2187500000,188522.9218750000,187706.4062500000,166808.1562500000,171925.2812500000,-88655.5781250000,,,
1.8199999970,14,204929.0312500000,194966.0937500000,202620.2968750000,188547.1406250000,187723.4843750000,166825.1875000000,171942.4687500000,-88649.1953125000,,,
1.8239999970,14,204934.0000000000,194963.3125000000,202630.3437500000,188562.6250000000,187736.5312500000,166837.1250000000,171956.4687500000,-88645.5468750000,,,
1.8279999970,14,204923.8281250000,194951.4062500000,202625.1250000000,188558.7500000000,187735.3437500000,166837.2812500000,171963.3125000000,-88645.0625000000,,,
1.8319999969,14,204922.4531250000,194957.2968750000,202620.7500000000,188557.7968750000,187730.0937500000,166836.7500000000,171965.7187500000,-88638.2187500000,,,
1.8359999971,14,204925.4843750000,194969.1093750000,202617.9531250000,188557.6093750000,187726.0156250000,166839.4062500000,171965.1093750000,-88633.5312500000,,,
1.8399999971,14,204946.0625000000,194986.8281250000,202639.7656250000,188573.2968750000,187749.3125000000,166865.1250000000,171992.0625000000,-88617.9687500000,,,
1.8439999970,14,204945.7187500000,194976.1093750000,202648.5312500000,188565.2968750000,187761.9062500000,166876.0781250000,172010.5937500000,-88621.1093750000,,,
1.8479999970,14,204944.1250000000,194972.1875000000,202652.3437500000,188561.8125000000,187771.1250000000,166887.8437500000,172024.8437500000,-88614.6171875000,,,
1.8519999969,14,204948.9062500000,194987.9843750000,202653.0156250000,188554.4375000000,187772.7031250000,166895.6562500000,172030.6406250000,-88600.9140625000,,,
1.8559999969,14,204955.8281250000,194999.5156250000,202652.6093750000,188562.7187500000,187769.4687500000,166902.8906250000,172028.3281250000,-88596.2187500000,,,
1.8599999971,14,204964.8437500000,195005.3593750000,202659.2343750000,188558.5468750000,187777.0312500000,166918.7968750000,172038.2812500000,-88593.2187500000,,,
1.8639999970,14,204980.9375000000,195013.1406250000,202677.6093750000,188569.8125000000,187799.9843750000,166937.2812500000,172063.5781250000,-88579.3984375000,,,
1.8679999970,14,204964.4375000000,194992.4843750000,202666.2343750000,188549.1562500000,187791.2500000000,166924.4843750000,172058.1562500000,-88591.5234375000,,,
1.8719999969,14,204941.0000000000,194977.2812500000,202642.3437500000,188526.5625000000,187765.6875000000,166902.0312500000,172035.7812500000,-88610.2500000000,,,
1.8759999969,14,204931.2812500000,194978.0156250000,202628.2812500000,188508.9218750000,187747.7343750000,166890.3906250000,172016.0937500000,-88622.1796875000,,,
1.8799999971,14,204962.3750000000,195002.8437500000,202660.1718750000,188547.8437500000,187779.5468750000,166919.9531250000,172050.3750000000,-88599.4609375000,,,
1.8839999971,14,204974.2500000000,195010.6562500000,202676.0312500000,188575.7031250000,187799.3750000000,166942.3750000000,172068.1875000000,-88587.5000000000,,,
1.8879999970,14,204961.2187500000,194998.4531250000,202667.9843750000,188564.8750000000,187795.4218750000,166941.7031250000,172062.3437500000,-88590.6953125000,,,
1.8919999970,14,204950.4843750000,194998.6093750000,202654.1718750000,188555.4531250000,187779.1250000000,166933.4375000000,172048.2031250000,-88592.2734375000,,,
1.8959999969,14,204945.0937500000,194999.9218750000,202642.3750000000,188559.7500000000,187763.7187500000,166917.1875000000,172032.1562500000,-88599.6796875000,,,
1.8999999969,14,204964.7656250000,195012.3906250000,202658.8125000000,188576.7812500000,187778.5625000000,166924.4375000000,172039.0781250000,-88590.9375000000,,,
1.9039999971,14,204981.9218750000,195020.2812500000,202681.4687500000,188575.0937500000,187805.5937500000,166946.9843750000,172065.0468750000,-88574.9765625000,,,
1.9079999970,14,204977.6093750000,195014.4062500000,202683.6250000000,188561.5000000000,187810.9531250000,166945.9375000000,172076.0781250000,-88571.5156250000,,,
1.9119999970,14,204962.9687500000,195008.5781250000,202665.4687500000,188535.9375000000,187788.6093750000,166925.8593750000,172054.3125000000,-88581.8984375000,,,
1.9159999969,14,204942.0625000000,194995.6875000000,202634.9843750000,188517.8281250000,187752.5625000000,166894.4375000000,172014.1093750000,-88609.9531250000,,,
1.9199999969,15,204964.7812500000,195010.5468750000,202657.1250000000,188551.5468750000,187772.7343750000,166900.4843750000,172029.1562500000,-88601.9843750000,,,
1.9239999969,15,204969.9687500000,195002.3281250000,202669.1875000000,188555.1093750000,187786.3125000000,166899.8281250000,172038.3906250000,-88604.6953125000,,,
1.9279999968,15,204954.4062500000,194980.2031250000,202658.5156250000,188548.7812500000,187779.0156250000,166884.8125000000,172030.7656250000,-88616.4140625000,,,
1.9319999968,15,204949.3906250000,194977.2812500000,202650.3906250000,188554.9218750000,187769.2968750000,166874.2812500000,172018.2968750000,-88617.9453125000,,,
1.9359999967,15,204940.2968750000,194976.1875000000,202632.5312500000,188559.7031250000,187745.6718750000,166850.6406250000,171986.6406250000,-88633.6640625000,,,
1.9399999967,15,204955.8750000000,194988.3906250000,202648.0781250000,188564.8437500000,187758.8906250000,166858.0000000000,171995.9531250000,-88628.9453125000,,,
1.9439999969,15,204955.1875000000,194977.7343750000,202654.8593750000,188547.8593750000,187768.0468750000,166857.0781250000,172003.5156250000,-88631.9765625000,,,
1.9479999968,15,204948.5000000000,194972.1875000000,202652.6875000000,188562.5625000000,187767.4843750000,166855.7187500000,171997.1562500000,-88629.1328125000,,,
1.9519999968,15,204924.3906250000,194963.5312500000,202625.2500000000,188538.6093750000,187736.7656250000,166834.9218750000,171971.2500000000,-88644.3359375000,,,
1.9559999967,15,204909.9062500000,194958.7031250000,202607.7656250000,188522.5000000000,187714.6718750000,166809.7656250000,171954.1875000000,-88661.4765625000,,,
1.9599999967,15,204932.7343750000,194970.7968750000,202627.6406250000,188539.1250000000,187733.9531250000,166822.4062500000,171971.0312500000,-88652.2812500000,,,
1.9639999969,15,204932.7656250000,194954.5156250000,202629.9531250000,188531.1093750000,187738.8125000000,166822.8906250000,171973.3750000000,-88663.3828125000,,,
1.9679999969,15,204924.2500000000,194939.8125000000,202629.0937500000,188512.0312500000,187739.0781250000,166818.3750000000,171969.6406250000,-88668.3984375000,,,
1.9719999968,15,204917.2812500000,194941.5625000000,202615.3281250000,188499.1093750000,187723.9531250000,166807.6718750000,171948.5625000000,-88667.9687500000,,,
1.9759999968,15,204919.3750000000,194948.9531250000,202605.1093750000,188523.3437500000,187710.0468750000,166797.0468750000,171930.1250000000,-88669.9296875000,,,
1.9799999967,15,204947.6718750000,194978.2031250000,202627.2187500000,188570.3906250000,187730.0312500000,166821.3281250000,171949.8125000000,-88646.9140625000,,,
1.9839999967,15,204956.1250000000,194981.0937500000,202638.1250000000,188582.4062500000,187743.1562500000,166835.5937500000,171965.3750000000,-88639.9921875000,,,
1.9879999969,15,204943.9218750000,194969.9062500000,202631.2968750000,188579.1406250000,187739.0468750000,166831.5937500000,171964.1093750000,-88642.8906250000,,,
1.9919999968,15,204926.2656250000,194965.2656250000,202611.5000000000,188560.5781250000,187717.0468750000,166814.6718750000,171942.3281250000,-88653.1640625000,,,
1.9959999968,15,204909.1093750000,194955.3125000000,202587.9218750000,188529.0156250000,187689.1093750000,166786.8593750000,171916.8750000000,-88676.1484375000,,,
1.9999999967,15,204931.9531250000,194970.6875000000,202609.1562500000,188549.2343750000,187710.4218750000,166801.1250000000,171934.7187500000,-88662.7343750000,,,
2.0039999967,15,204971.0937500000,194995.5000000000,202650.0156250000,188600.0312500000,187756.1093750000,166835.2500000000,171968.7031250000,-88632.1875000000,,,
2.0079999969,15,204967.0156250000,194987.8750000000,202651.6718750000,188596.0156250000,187760.8593750000,166834.9062500000,171970.9531250000,-88632.1875000000,,,
2.0119999968,15,204944.6093750000,194973.3906250000,202630.0781250000,188559.1250000000,187736.5468750000,166818.7031250000,171953.0312500000,-88647.5859375000,,,
2.0159999968,15,204938.0156250000,194974.7968750000,202617.6406250000,188541.6406250000,187718.6093750000,166803.4375000000,171934.7500000000,-88657.9921875000,,,
2.0199999968,15,204959.5000000000,194987.7656250000,202638.8593750000,188566.6718750000,187736.7656250000,166815.2343750000,171946.0625000000,-88647.9609375000,,,
2.0239999967,15,204978.5781250000,194997.6718750000,202664.0625000000,188587.5625000000,187762.0312500000,166835.7343750000,171973.4531250000,-88632.9921875000,,,
2.0279999967,15,204970.6250000000,194988.6875000000,202660.2812500000,188579.1718750000,187759.6406250000,166836.0468750000,171975.0781250000,-88632.2968750000,,,
2.0319999969,15,204961.4843750000,194989.2187500000,202647.6562500000,188556.3437500000,187745.4375000000,166833.5312500000,171964.3281250000,-88631.1171875000,,,
2.0359999968,15,204962.5312500000,194999.5156250000,202643.4687500000,188552.5000000000,187737.4375000000,166830.0781250000,171957.7343750000,-88631.1718750000,,,
2.0399999968,15,204975.6250000000,195009.9531250000,202657.1406250000,188567.1562500000,187751.5156250000,166838.2812500000,171969.9687500000,-88628.2734375000,,,
2.0439999967,15,204979.1093750000,195000.2656250000,202666.7500000000,188576.3750000000,187764.4218750000,166845.8906250000,171980.3437500000,-88629.9609375000,,,
2.0479999967,16,204976.3437500000,194995.2812500000,202670.1875000000,188578.0625000000,187772.0156250000,166854.9062500000,171987.9062500000,-88623.1250000000,,,
2.0519999966,16,204967.9843750000,194997.1093750000,202660.5312500000,188572.2187500000,187762.4687500000,166852.3593750000,171981.2031250000,-88622.1328125000,,,
2.0559999966,16,204944.2656250000,194981.4218750000,202628.3906250000,188555.8125000000,187728.9687500000,166821.8906250000,171945.6406250000,-88650.0546875000,,,
2.0599999966,16,204962.3437500000,194994.4531250000,202641.9375000000,188596.0937500000,187743.0937500000,166832.7187500000,171957.5937500000,-88645.0625000000,,,
2.0639999965,16,204965.9687500000,194987.9062500000,202648.3750000000,188611.3750000000,187753.7500000000,166838.3281250000,171968.7343750000,-88648.2031250000,,,
2.0679999965,16,204961.1875000000,194979.6718750000,202650.0625000000,188613.3125000000,187757.9062500000,166839.2968750000,171976.5312500000,-88647.1250000000,,,
2.0719999967,16,204959.4218750000,194984.3125000000,202647.8125000000,188608.8125000000,187755.0625000000,166838.5937500000,171974.8750000000,-88642.8906250000,,,
2.0759999966,16,204936.3750000000,194970.1250000000,202618.1250000000,188584.8281250000,187720.5625000000,166805.6875000000,171936.8125000000,-88671.6718750000,,,
2.0799999966,16,204941.2656250000,194972.2968750000,202622.8906250000,188590.4375000000,187723.6718750000,166805.2031250000,171934.5312500000,-88676.0937500000,,,
2.0839999965,16,204951.8281250000,194973.3437500000,202637.5625000000,188592.2812500000,187740.1250000000,166823.7187500000,171946.6562500000,-88669.0390625000,,,
2.0879999965,16,204941.0156250000,194964.1875000000,202630.5468750000,188571.5468750000,187734.2187500000,166824.5937500000,171946.6250000000,-88668.8828125000,,,
2.0919999967,16,204918.5781250000,194951.8281250000,202604.8437500000,188552.4218750000,187705.6875000000,166805.8750000000,171924.0156250000,-88680.1718750000,,,
2.0959999966,16,204917.0156250000,194959.3593750000,202597.8750000000,188548.5312500000,187694.3906250000,166796.9218750000,171913.0468750000,-88682.8046875000,,,
2.0999999966,16,204955.5781250000,194996.2500000000,202633.7812500000,188576.7343750000,187729.7187500000,166826.4218750000,171944.7812500000,-88654.5000000000,,,
2.1039999966,16,204955.9062500000,194989.2187500000,202638.8593750000,188575.5781250000,187737.7656250000,166830.4218750000,171952.8437500000,-88659.1171875000,,,
2.1079999965,16,204938.1562500000,194967.9531250000,202627.7031250000,188565.2812500000,187728.4218750000,166822.6406250000,171947.1875000000,-88669.7109375000,,,
2.1119999965,16,204931.6875000000,194969.7812500000,202618.7656250000,188556.1562500000,187718.3906250000,166818.8906250000,171939.5000000000,-88670.3828125000,,,
2.1159999967,16,204933.6718750000,194978.2812500000,202616.8281250000,188550.5468750000,187713.9218750000,166817.2187500000,171934.9375000000,-88672.0703125000,,,
2.1199999966,16,204938.3125000000,194980.8437500000,202619.5937500000,188557.5000000000,187717.0468750000,166817.4062500000,171934.9375000000,-88677.1406250000,,,
2.1239999966,16,204950.0625000000,194984.5312500000,202632.7656250000,188570.6875000000,187735.0781250000,166834.3906250000,171952.9062500000,-88668.9062500000,,,
2.1279999965,16,204932.2968750000,194965.2656250000,202618.0937500000,188558.3281250000,187725.7187500000,166828.2500000000,171944.9375000000,-88675.9609375000,,,
2.1319999965,16,204923.2343750000,194966.1250000000,202607.4218750000,188541.9062500000,187714.3125000000,166823.0468750000,171936.4375000000,-88674.6718750000,,,
2.1359999967,16,204916.3437500000,194970.5312500000,202593.6875000000,188534.4531250000,187697.5000000000,166812.2656250000,171920.6562500000,-88678.8593750000,,,
2.1399999966,16,204945.2656250000,194996.0000000000,202622.9687500000,188572.9218750000,187721.9375000000,166830.6406250000,171945.0468750000,-88660.5937500000,,,
2.1439999966,16,204968.7343750000,195005.5781250000,202653.2343750000,188595.0781250000,187752.0625000000,166850.4062500000,171975.0625000000,-88644.1796875000,,,
2.1479999966,16,204963.7187500000,194990.9687500000,202654.5781250000,188585.6250000000,187755.8906250000,166851.6093750000,171977.3906250000,-88646.6484375000,,,
2.1519999965,16,204958.4843750000,194987.7187500000,202645.8281250000,188572.6718750000,187747.2500000000,166843.9062500000,171967.2500000000,-88649.1953125000,,,
2.1559999965,16,204952.7968750000,194990.3437500000,202631.2343750000,188573.6718750000,187728.8593750000,166825.2656250000,171946.0156250000,-88660.8046875000,,,
2.1599999967,16,204967.6093750000,194999.7656250000,202642.6562500000,188578.8437500000,187739.0000000000,166831.5156250000,171949.0937500000,-88656.9687500000,,,
2.1639999966,16,204979.6406250000,195003.1406250000,202655.3437500000,188588.5781250000,187756.8906250000,166841.7343750000,171959.4218750000,-88650.2109375000,,,
2.1679999966,16,204958.7031250000,194982.8281250000,202642.0468750000,188574.6875000000,187748.6562500000,166829.5312500000,171959.9843750000,-88661.8515625000,,,
2.1719999965,16,204942.3281250000,194975.2187500000,202627.1093750000,188553.7656250000,187733.2812500000,166820.8437500000,171955.0781250000,-88664.8281250000,,,
2.1759999965,17,204935.0937500000,194979.3750000000,202615.4062500000,188541.9375000000,187715.6875000000,166807.8281250000,171929.5937500000,-88671.0546875000,,,
2.1799999964,17,204963.3125000000,195005.8437500000,202642.7500000000,188581.1562500000,187738.0468750000,166835.1093750000,171947.8281250000,-88650.6406250000,,,
2.1839999964,17,204972.9375000000,195003.6562500000,202654.2968750000,188587.5312500000,187752.3437500000,166851.7500000000,171966.8750000000,-88644.7968750000,,,
2.1879999964,17,204960.9218750000,194989.9218750000,202647.0625000000,188569.5468750000,187748.1093750000,166849.3593750000,171964.2968750000,-88647.4531250000,,,
2.1919999963,17,204959.4531250000,195001.4843750000,202643.7343750000,188567.8750000000,187742.6093750000,166850.1093750000,171962.1093750000,-88641.3906250000,,,
2.1959999963,17,204943.1718750000,194992.5781250000,202623.5625000000,188558.4062500000,187717.3437500000,166825.0625000000,171938.9218750000,-88667.8359375000,,,
2.1999999965,17,204949.0937500000,194990.5625000000,202630.3437500000,188565.0312500000,187721.3750000000,166822.5000000000,171942.3906250000,-88680.0937500000,,,
2.2039999964,17,204967.9843750000,194991.9062500000,202655.1406250000,188591.2343750000,187749.2343750000,166843.3437500000,171969.1562500000,-88671.1093750000,,,
2.2079999964,17,204954.1562500000,194974.7343750000,202644.1718750000,188582.6875000000,187743.6406250000,166836.7031250000,171961.7031250000,-88677.8359375000,,,
2.2119999963,17,204947.5156250000,194977.1718750000,202635.5625000000,188563.9531250000,187736.2812500000,166831.5937500000,171954.4062500000,-88670.8125000000,,,
2.2159999963,17,204942.5000000000,194982.2187500000,202626.7812500000,188551.8906250000,187725.5000000000,166822.4531250000,171941.9843750000,-88671.5078125000,,,
2.2199999965,17,204971.2968750000,195007.7500000000,202654.2968750000,188591.3125000000,187752.5625000000,166843.7187500000,171965.0312500000,-88651.3671875000,,,
2.2239999964,17,204989.0312500000,195017.1718750000,202676.3750000000,188623.6875000000,187775.9218750000,166860.2500000000,171986.3750000000,-88638.1953125000,,,
2.2279999964,17,204975.6718750000,195001.5312500000,202670.2968750000,188599.0468750000,187772.6562500000,166857.0781250000,171986.8281250000,-88644.1484375000,,,
2.2319999964,17,204932.5937500000,194968.6718750000,202624.3437500000,188528.4687500000,187724.7031250000,166820.1718750000,171945.8281250000,-88682.1328125000,,,
2.2359999963,17,204937.4843750000,194981.4375000000,202622.8906250000,188556.6718750000,187715.7656250000,166815.7812500000,171940.8281250000,-88683.2265625000,,,
2.2399999963,17,204959.8437500000,195002.9218750000,202642.2343750000,188584.5312500000,187731.5156250000,166830.2031250000,171955.8281250000,-88671.5390625000,,,
2.2439999965,17,204976.5625000000,195007.8593750000,202661.9218750000,188591.5937500000,187753.0468750000,166852.5468750000,171981.7031250000,-88659.3046875000,,,
2.2479999964,17,204957.2187500000,194985.4843750000,202644.8125000000,188568.8125000000,187737.9218750000,166842.5156250000,171969.9375000000,-88672.6640625000,,,
2.2519999964,17,204946.2500000000,194981.3906250000,202630.5625000000,188556.9375000000,187722.3125000000,166833.1250000000,171959.8281250000,-88675.1562500000,,,
2.2559999963,17,204937.8281250000,194982.9375000000,202616.8281250000,188542.8750000000,187707.4531250000,166818.6406250000,171944.3437500000,-88682.9375000000,,,
2.2599999963,17,204951.7031250000,194993.1875000000,202633.9687500000,188560.7343750000,187727.6718750000,166826.8281250000,171958.8593750000,-88673.5468750000,,,
2.2639999965,17,204983.5625000000,195011.0468750000,202672.4375000000,188608.3437500000,187772.2812500000,166856.7656250000,171996.0625000000,-88643.9921875000,,,
2.2679999964,17,204983.9843750000,195006.4062500000,202678.7343750000,188607.4687500000,187781.7812500000,166861.1562500000,172001.5312500000,-88637.7421875000,,,
2.2719999964,17,204979.7812500000,195011.6718750000,202672.3750000000,188591.4531250000,187775.7656250000,166859.7343750000,171991.8750000000,-88633.5000000000,,,
2.2759999963,17,204982.0312500000,195021.4843750000,202669.5937500000,188589.0937500000,187770.3750000000,166851.6093750000,171984.1250000000,-88636.7500000000,,,
2.2799999963,17,204987.3750000000,195023.3906250000,202670.0000000000,188606.6406250000,187769.0625000000,166853.0781250000,171983.6406250000,-88644.9843750000,,,
2.2839999963,17,205001.0781250000,195026.0156250000,202687.8593750000,188633.6718750000,187788.1250000000,166870.2500000000,172004.4062500000,-88639.1640625000,,,
2.2879999964,17,204990.1093750000,195011.3281250000,202681.9375000000,188631.1718750000,187783.5781250000,166870.0625000000,172003.7812500000,-88647.4218750000,,,
2.2919999964,17,204947.8593750000,194983.4531250000,202640.9531250000,188564.7968750000,187739.6562500000,166842.2968750000,171968.1093750000,-88681.6171875000,,,
2.2959999964,17,204929.1718750000,194980.5312500000,202618.6093750000,188529.9218750000,187711.7656250000,166828.5937500000,171943.0312500000,-88698.0078125000,,,
2.2999999963,17,204943.5625000000,194994.9843750000,202632.7656250000,188559.0000000000,187723.4843750000,166841.7968750000,171952.5000000000,-88689.6406250000,,,
2.3039999963,18,204950.7343750000,194995.8437500000,202643.2187500000,188568.0312500000,187736.6562500000,166850.8593750000,171972.2968750000,-88683.3671875000,,,
2.3079999962,18,204943.8906250000,194989.3281250000,202639.3906250000,188558.2968750000,187738.1875000000,166855.1562500000,171978.2500000000,-88678.1875000000,,,
2.3119999962,18,204938.7343750000,194991.5468750000,202630.7500000000,188540.2968750000,187731.2187500000,166852.0312500000,171969.9375000000,-88672.9296875000,,,
2.3159999961,18,204936.5937500000,194995.4375000000,202621.3593750000,188538.2656250000,187719.0937500000,166838.0937500000,171951.1406250000,-88679.3125000000,,,
2.3199999961,18,204964.4687500000,195013.0156250000,202648.0000000000,188586.3593750000,187745.7031250000,166849.9531250000,171970.7187500000,-88665.9531250000,,,
2.3239999961,18,204989.8593750000,195023.6875000000,202678.2500000000,188627.6093750000,187779.3281250000,166871.4843750000,171998.5312500000,-88648.4140625000,,,
2.3279999963,18,204975.1406250000,195000.8906250000,202670.6875000000,188586.4843750000,187776.3906250000,166862.5000000000,171995.9218750000,-88660.1093750000,,,
2.3319999962,18,204958.3750000000,194986.3281250000,202653.3437500000,188551.3750000000,187758.4375000000,166842.7343750000,171979.2968750000,-88674.6484375000,,,
2.3359999962,18,204946.7812500000,194980.1875000000,202634.7031250000,188550.3593750000,187735.0781250000,166823.7187500000,171956.2812500000,-88693.6093750000,,,
2.3399999961,18,204958.1875000000,194987.1875000000,202639.7656250000,188574.7187500000,187738.2343750000,166828.2812500000,171963.9062500000,-88695.7578125000,,,
2.3439999961,18,204969.6093750000,194990.5312500000,202650.3281250000,188599.0937500000,187750.6093750000,166840.6406250000,171979.6250000000,-88687.8984375000,,,
2.3479999963,18,204973.6875000000,194993.0312500000,202660.2656250000,188613.4531250000,187762.0000000000,166851.8281250000,171993.4843750000,-88676.0937500000,,,
2.3519999962,18,204971.1093750000,195003.2968750000,202658.8906250000,188597.5468750000,187759.6406250000,166855.2031250000,171992.7656250000,-88667.6484375000,,,
2.3559999962,18,204967.1406250000,195010.8437500000,202652.4843750000,188574.9062500000,187749.4218750000,166847.2656250000,171983.9375000000,-88669.3906250000,,,
2.3599999961,18,204988.1718750000,195024.2031250000,202671.6875000000,188602.8750000000,187766.8125000000,166860.6250000000,171995.5781250000,-88658.6093750000,,,
2.3639999961,18,205026.3437500000,195050.2187500000,202715.1875000000,188654.4531250000,187812.2968750000,166893.3906250000,172040.4531250000,-88628.8046875000,,,
2.3679999961,18,205018.9375000000,195039.3750000000,202711.1875000000,188635.5156250000,187812.7500000000,166890.6093750000,172043.9687500000,-88630.0937500000,,,
2.3719999962,18,204994.1875000000,195021.3750000000,202685.7187500000,188589.5156250000,187788.5312500000,166871.4375000000,172020.6562500000,-88643.3437500000,,,
2.3759999962,18,204982.9375000000,195018.7968750000,202668.8437500000,188579.8593750000,187770.1093750000,166855.2031250000,171997.1093750000,-88654.9843750000,,,
2.3799999962,18,204991.7187500000,195025.8281250000,202671.9843750000,188599.1562500000,187774.0781250000,166855.6093750000,171995.5000000000,-88657.4531250000,,,
2.3839999961,18,204997.3437500000,195016.5000000000,202682.7812500000,188601.4843750000,187787.6406250000,166862.5312500000,172005.4218750000,-88659.4687500000,,,
2.3879999961,18,204990.9062500000,195001.1093750000,202685.2031250000,188590.8125000000,187793.5781250000,166865.6093750000,172014.0000000000,-88662.3593750000,,,
2.3919999963,18,204994.3125000000,195010.7812500000,202691.5312500000,188591.4062500000,187798.2968750000,166872.8593750000,172022.8593750000,-88651.6093750000,,,
2.3959999962,18,204987.0937500000,195014.8281250000,202679.0312500000,188591.3125000000,187782.2500000000,166863.1718750000,172006.8437500000,-88658.8515625000,,,
2.3999999962,18,204993.0000000000,195025.3437500000,202680.5937500000,188611.5937500000,187781.6406250000,166864.3750000000,172005.6875000000,-88659.8125000000,,,
2.4039999961,18,205004.5156250000,195032.4843750000,202694.2968750000,188630.6875000000,187798.6250000000,166880.4218750000,172026.2812500000,-88649.3281250000,,,
2.4079999961,18,204991.9531250000,195019.3750000000,202685.3593750000,188600.7031250000,187794.1718750000,166880.0625000000,172020.2343750000,-88651.5234375000,,,
2.4119999961,18,204970.2812500000,195007.3750000000,202659.7187500000,188559.7500000000,187768.1250000000,166861.3437500000,171995.4375000000,-88664.5078125000,,,
2.4159999962,18,204956.4687500000,195001.6718750000,202637.5625000000,188545.5312500000,187740.9843750000,166836.8906250000,171970.7656250000,-88680.5781250000,,,
2.4199999962,18,204970.7187500000,195014.1093750000,202646.4687500000,188570.2343750000,187746.2812500000,166843.9687500000,171973.7656250000,-88678.2656250000,,,
2.4239999962,18,204989.2968750000,195019.3750000000,202667.2031250000,188605.8593750000,187767.3125000000,166860.4843750000,171992.2031250000,-88667.8593750000,,,
2.4279999961,18,204984.9843750000,195014.4531250000,202670.2343750000,188613.6093750000,187773.9375000000,166866.2812500000,171995.7656250000,-88664.8281250000,,,
2.4319999961,19,204957.3593750000,195001.5625000000,202645.7968750000,188570.2656250000,187750.2656250000,166852.2187500000,171978.0937500000,-88680.8671875000,,,
2.4359999960,19,204941.0156250000,194994.2343750000,202627.7500000000,188555.1093750000,187728.6875000000,166835.5156250000,171960.8906250000,-88697.2031250000,,,
2.4399999960,19,204952.2031250000,194998.1718750000,202639.4218750000,188566.8281250000,187739.0781250000,166845.3281250000,171971.0937500000,-88699.0781250000,,,
2.4439999959,19,204962.6718750000,194996.8593750000,202653.3906250000,188579.7812500000,187756.5312500000,166856.2812500000,171988.9062500000,-88698.5703125000,,,
2.4479999959,19,204955.7968750000,194985.9218750000,202649.2656250000,188573.7031250000,187756.4218750000,166854.0781250000,171992.4687500000,-88704.4453125000,,,
2.4519999959,19,204943.2812500000,194975.7343750000,202636.4375000000,188551.7812500000,187742.3750000000,166838.2187500000,171985.7812500000,-88713.0546875000,,,
2.4559999960,19,204931.7343750000,194970.1718750000,202618.6093750000,188543.2031250000,187720.2187500000,166816.3593750000,171964.0625000000,-88723.5703125000,,,
2.4599999960,19,204965.2187500000,194999.2031250000,202646.1250000000,188581.7968750000,187746.9062500000,166839.9687500000,171988.7031250000,-88698.2265625000,,,
2.4639999960,19,204979.9687500000,195000.5937500000,202666.0312500000,188591.5312500000,187770.0312500000,166851.8437500000,172009.4375000000,-88689.9609375000,,,
2.4679999959,19,204965.4843750000,194984.5312500000,202661.4062500000,188572.9531250000,187767.9531250000,166846.1406250000,172006.9531250000,-88695.4062500000,,,
2.4719999959,19,204942.0625000000,194970.7187500000,202640.9531250000,188546.2500000000,187746.2343750000,166833.5000000000,171988.3906250000,-88705.3593750000,,,
2.4759999961,19,204933.3437500000,194971.8906250000,202628.7968750000,188542.7187500000,187729.6875000000,166825.0625000000,171973.1875000000,-88712.7578125000,,,
2.4799999960,19,204938.2656250000,194976.0468750000,202630.6718750000,188555.1406250000,187728.7968750000,166820.3906250000,171963.7968750000,-88720.8359375000,,,
2.4839999960,19,204959.9843750000,194983.8281250000,202655.6250000000,188573.7031250000,187754.7656250000,166838.2187500000,171989.7812500000,-88710.2109375000,,,
2.4879999959,19,204959.3125000000,194976.6093750000,202657.6093750000,188552.3437500000,187760.3750000000,166843.7187500000,172001.7187500000,-88707.8281250000,,,
2.4919999959,19,204958.4531250000,194980.5625000000,202651.1093750000,188544.1406250000,187753.3437500000,166840.4843750000,171994.5000000000,-88701.4140625000,,,
2.4959999959,19,204957.2968750000,194986.2656250000,202638.7968750000,188548.4375000000,187738.1562500000,166829.6406250000,171975.9687500000,-88704.1250000000,,,
2.4999999960,19,204979.0312500000,195002.0625000000,202655.7031250000,188570.9843750000,187755.5625000000,166842.8906250000,171989.6718750000,-88693.8750000000,,,
2.5039999960,19,204987.6093750000,195002.6875000000,202666.5000000000,188583.5156250000,187769.5937500000,166850.7968750000,171999.2031250000,-88692.7265625000,,,
2.5079999960,19,204979.0781250000,194990.4062500000,202664.7968750000,188579.1718750000,187771.6093750000,166851.9531250000,172002.5312500000,-88693.3437500000,,,
2.5119999959,19,204972.4375000000,194992.1718750000,202655.5156250000,188570.0000000000,187763.8906250000,166851.2343750000,171998.0937500000,-88690.5546875000,,,
2.5159999959,19,204947.7031250000,194980.9531250000,202627.2343750000,188539.5781250000,187732.8750000000,166825.4531250000,171966.9843750000,-88715.5000000000,,,
2.5199999961,19,204962.0781250000,194994.8281250000,202645.5000000000,188553.2343750000,187748.5468750000,166836.9843750000,171980.4218750000,-88707.3125000000,,,
2.5239999960,19,204979.4375000000,195007.9687500000,202670.7656250000,188577.1093750000,187776.4062500000,166857.4062500000,172006.2500000000,-88690.7421875000,,,
2.5279999960,19,204972.2343750000,194997.9062500000,202671.3906250000,188566.1093750000,187783.0625000000,166861.7968750000,172014.3281250000,-88687.6562500000,,,
2.5319999959,19,204950.9687500000,194987.8281250000,202647.4687500000,188541.7812500000,187762.5156250000,166847.6406250000,171992.8750000000,-88697.1796875000,,,
2.5359999959,19,204943.6718750000,194989.8125000000,202635.1250000000,188540.5468750000,187748.1093750000,166836.6718750000,171978.5781250000,-88703.9062500000,,,
2.5399999958,19,204973.7187500000,195013.5937500000,202664.0937500000,188577.2343750000,187775.4218750000,166856.0312500000,172006.6875000000,-88685.1328125000,,,
2.5439999960,19,204992.7343750000,195022.0781250000,202683.7812500000,188608.0781250000,187798.4375000000,166870.6562500000,172027.6562500000,-88674.9453125000,,,
2.5479999960,19,204988.6875000000,195015.2968750000,202685.4687500000,188602.7500000000,187802.1562500000,166874.1093750000,172033.7187500000,-88672.4218750000,,,
2.5519999960,19,204985.1406250000,195015.4843750000,202682.5468750000,188599.9843750000,187796.1718750000,166872.7968750000,172032.0000000000,-88669.8750000000,,,
2.5559999959,19,204978.4375000000,195016.1562500000,202668.3906250000,188572.8125000000,187777.7031250000,166859.5781250000,172015.5312500000,-88678.4843750000,,,
2.5599999959,20,204985.8125000000,195022.7187500000,202672.6718750000,188575.0312500000,187780.2187500000,166860.9218750000,172023.7968750000,-88680.3359375000,,,
2.5639999958,20,204998.5312500000,195026.2343750000,202689.3593750000,188597.8593750000,187798.0625000000,166872.1250000000,172042.2187500000,-88675.6640625000,,,
2.5679999958,20,204992.2187500000,195011.0468750000,202688.5312500000,188606.1562500000,187801.3593750000,166872.3437500000,172046.2187500000,-88681.8593750000,,,
2.5719999957,20,204975.3593750000,194997.3437500000,202669.9687500000,188581.2343750000,187782.9843750000,166855.2031250000,172028.6562500000,-88696.1562500000,,,
2.5759999957,20,204966.9531250000,194997.7500000000,202654.1406250000,188563.4218750000,187764.4218750000,166841.4218750000,172006.6875000000,-88705.6562500000,,,
2.5799999957,20,204988.6250000000,195020.6875000000,202670.7656250000,188580.3750000000,187780.9218750000,166856.7812500000,172018.1562500000,-88690.2812500000,,,
2.5839999958,20,204991.4218750000,195019.9843750000,202673.7968750000,188582.8906250000,187787.1718750000,166861.9843750000,172022.8593750000,-88689.6406250000,,,
2.5879999958,20,204966.8750000000,194993.5312500000,202652.8281250000,188569.1875000000,187767.6093750000,166845.4375000000,172004.6718750000,-88706.1640625000,,,
2.5919999958,20,204956.5781250000,194992.6250000000,202639.6562500000,188545.3750000000,187752.0625000000,166843.2968750000,171996.2187500000,-88706.2734375000,,,
2.5959999957,20,204945.0937500000,194996.6562500000,202622.1093750000,188531.3750000000,187730.1093750000,166826.3906250000,171977.8281250000,-88715.7421875000,,,
2.5999999957,20,204952.1718750000,195007.0312500000,202626.2500000000,188546.6093750000,187732.0937500000,166831.1250000000,171978.0156250000,-88713.2734375000,,,
2.6039999959,20,204977.7968750000,195022.9843750000,202658.2656250000,188584.6875000000,187765.9218750000,166858.8750000000,172010.1093750000,-88693.4218750000,,,
2.6079999958,20,204975.4062500000,195016.8125000000,202665.5625000000,188578.7656250000,187774.9375000000,166866.0937500000,172018.4218750000,-88690.7421875000,,,
2.6119999958,20,204959.7968750000,195008.4531250000,202652.4218750000,188563.1875000000,187761.9843750000,166852.0312500000,172006.2187500000,-88698.0859375000,,,
2.6159999957,20,204947.8906250000,195003.8906250000,202638.4843750000,188557.6250000000,187744.0156250000,166831.0312500000,171987.8593750000,-88712.3828125000,,,
2.6199999957,20,204952.2812500000,195006.3125000000,202640.8906250000,188566.7812500000,187744.3593750000,166828.4375000000,171985.8437500000,-88721.5312500000,,,
2.6239999956,20,204962.6406250000,195003.5468750000,202655.1875000000,188584.2031250000,187761.8750000000,166842.5625000000,172005.3437500000,-88718.6093750000,,,
2.6279999958,20,204962.9062500000,194998.6093750000,202660.9218750000,188576.9687500000,187772.5468750000,166853.2968750000,172020.2812500000,-88710.9375000000,,,
2.6319999958,20,204947.4531250000,194987.6875000000,202647.8125000000,188554.4687500000,187761.4687500000,166844.3750000000,172012.0468750000,-88715.4453125000,,,
2.6359999957,20,204951.1562500000,194996.5937500000,202647.8906250000,188552.3437500000,187759.4375000000,166839.0781250000,172003.5468750000,-88712.2812500000,,,
2.6399999957,20,204962.0781250000,195007.9375000000,202654.5781250000,188553.3125000000,187763.5156250000,166840.5781250000,172010.5156250000,-88709.3515625000,,,
2.6439999957,20,204980.5625000000,195013.4062500000,202677.1250000000,188583.2656250000,187788.1562500000,166858.7500000000,172040.7656250000,-88699.7500000000,,,
2.6479999959,20,204980.7968750000,195003.8437500000,202682.2500000000,188597.5625000000,187796.8750000000,166864.0781250000,172051.6093750000,-88698.4375000000,,,
2.6519999958,20,204970.8750000000,195002.1250000000,202666.5625000000,188598.7187500000,187778.4531250000,166855.0156250000,172033.1875000000,-88702.6796875000,,,
2.6559999958,20,204955.3750000000,194994.0156250000,202644.6718750000,188556.8593750000,187752.3281250000,166835.5156250000,172007.6406250000,-88719.4921875000,,,
2.6599999957,20,204965.6406250000,195007.0625000000,202651.0625000000,188554.9218750000,187756.8593750000,166841.9062500000,172013.0312500000,-88716.1171875000,,,
2.6639999957,20,204983.7500000000,195017.6250000000,202672.7812500000,188567.3437500000,187781.0156250000,166861.5937500000,172036.4218750000,-88704.2031250000,,,
2.6679999956,20,204973.9843750000,195003.5625000000,202665.9375000000,188560.9531250000,187779.3593750000,166861.4062500000,172032.4375000000,-88710.1093750000,,,
2.6719999958,20,204954.2500000000,194990.5312500000,202645.6875000000,188538.5000000000,187759.2656250000,166848.3437500000,172013.7656250000,-88722.7109375000,,,
2.6759999958,20,204951.7812500000,194997.0000000000,202637.0781250000,188539.2812500000,187746.5000000000,166843.0000000000,172002.7343750000,-88725.1250000000,,,
2.6799999957,20,204965.4843750000,195007.0000000000,202649.5625000000,188547.1718750000,187754.0937500000,166849.4062500000,172007.0625000000,-88722.0156250000,,,
2.6839999957,20,204978.0937500000,195010.2812500000,202665.0781250000,188569.7500000000,187772.0156250000,166861.5312500000,172018.7812500000,-88716.0078125000,,,
2.6879999957,21,204963.6093750000,194993.1562500000,202655.1093750000,188561.6875000000,187766.2656250000,166858.1562500000,172011.4531250000,-88722.2265625000,,,
2.6919999956,21,204950.7343750000,194988.7656250000,202640.9687500000,188541.1093750000,187749.6406250000,166845.0625000000,171995.3906250000,-88724.9921875000,,,
2.6959999956,21,204937.1562500000,194984.6562500000,202622.7812500000,188527.9687500000,187726.0312500000,166827.7343750000,171971.7656250000,-88736.8750000000,,,
2.6999999955,21,204944.0312500000,194994.1562500000,202627.4843750000,188544.6718750000,187727.2500000000,166830.0937500000,171973.2812500000,-88738.2968750000,,,
2.7039999955,21,204960.2500000000,195002.0156250000,202643.5781250000,188564.8125000000,187743.2343750000,166842.9218750000,171985.5781250000,-88730.0625000000,,,
2.7079999954,21,204934.6406250000,194973.4218750000,202620.9062500000,188539.7343750000,187723.5156250000,166829.0468750000,171963.6250000000,-88749.1562500000,,,
2.7119999956,21,204931.6093750000,194975.2500000000,202619.2187500000,188534.7968750000,187722.3593750000,166837.4218750000,171972.5937500000,-88738.6718750000,,,
2.7159999956,21,204912.9843750000,194963.9531250000,202594.4062500000,188508.6562500000,187697.2031250000,166815.6718750000,171949.3593750000,-88756.1093750000,,,
2.7199999955,21,204929.1406250000,194973.9062500000,202607.9843750000,188528.2812500000,187711.3593750000,166824.4062500000,171959.6875000000,-88750.0156250000,,,
2.7239999955,21,204954.5156250000,194985.6250000000,202636.5781250000,188557.8437500000,187744.0937500000,166847.3437500000,171988.3125000000,-88734.0859375000,,,
2.7279999955,21,204969.3750000000,194987.7500000000,202660.2812500000,188570.6093750000,187773.1718750000,166870.4687500000,172015.6093750000,-88712.0078125000,,,
2.7319999957,21,204962.5000000000,194986.1562500000,202653.2031250000,188561.1718750000,187768.7343750000,166865.1875000000,172008.5937500000,-88709.8906250000,,,
2.7359999956,21,204949.8437500000,194985.2500000000,202636.0312500000,188551.7031250000,187750.0781250000,166845.8437500000,171999.1406250000,-88725.3125000000,,,
2.7399999956,21,204952.6093750000,194988.8437500000,202637.1406250000,188550.7343750000,187749.7500000000,166846.3281250000,172010.1406250000,-88731.8593750000,,,
2.7439999955,21,204966.8750000000,194993.6250000000,202656.4531250000,188579.4062500000,187769.8593750000,166860.4375000000,172030.0937500000,-88724.7265625000,,,
2.7479999955,21,204974.0312500000,194997.6406250000,202670.8281250000,188590.8125000000,187784.5625000000,166872.2968750000,172043.5625000000,-88713.1640625000,,,
2.7519999954,21,204973.0000000000,195003.6718750000,202669.3281250000,188574.8281250000,187777.9687500000,166877.1718750000,172042.0625000000,-88707.8828125000,,,
2.7559999956,21,204954.5937500000,194996.4375000000,202640.0625000000,188526.9218750000,187741.1093750000,166856.6250000000,172008.3125000000,-88728.3203125000,,,
2.7599999956,21,204956.8437500000,195001.9062500000,202637.2656250000,188521.0468750000,187734.9687500000,166850.8281250000,172001.7187500000,-88733.7656250000,,,
2.7639999955,21,204981.8906250000,195018.1093750000,202666.7968750000,188564.5000000000,187766.6250000000,166870.3906250000,172029.8750000000,-88717.7265625000,,,
2.7679999955,21,204991.1562500000,195022.7500000000,202682.3281250000,188582.8125000000,187789.0156250000,166882.9375000000,172046.4531250000,-88703.7187500000,,,
2.7719999955,21,204978.6718750000,195015.5781250000,202669.6250000000,188569.8125000000,187780.3593750000,166876.9531250000,172033.7968750000,-88703.5625000000,,,
2.7759999956,21,204965.6093750000,195013.2187500000,202651.3593750000,188553.4531250000,187760.6406250000,166861.6093750000,172008.4218750000,-88713.0312500000,,,
2.7799999956,21,204983.1250000000,195026.2812500000,202666.8593750000,188573.7812500000,187773.5937500000,166871.4531250000,172016.6093750000,-88706.0546875000,,,
2.7839999956,21,205002.9843750000,195033.7656250000,202690.4375000000,188596.7968750000,187797.9218750000,166886.4218750000,172037.4687500000,-88696.3437500000,,,
2.7879999955,21,204992.8906250000,195017.2968750000,202682.9687500000,188586.5937500000,187796.6406250000,166884.6250000000,172034.7031250000,-88698.7031250000,,,
2.7919999955,21,204975.7343750000,195006.8906250000,202666.2187500000,188577.3437500000,187779.1718750000,166875.6718750000,172018.5625000000,-88704.0703125000,,,
2.7959999954,21,204962.4531250000,195007.7031250000,202647.4687500000,188564.7656250000,187756.7500000000,166863.5468750000,171999.7656250000,-88712.8437500000,,,
2.7999999956,21,204971.1718750000,195020.0937500000,202650.6875000000,188584.8750000000,187756.8281250000,166866.9843750000,172007.7031250000,-88711.3359375000,,,
2.8039999956,21,204995.0156250000,195035.7500000000,202673.5937500000,188612.2968750000,187780.9218750000,166889.4843750000,172034.2812500000,-88694.9765625000,,,
2.8079999955,21,204993.5625000000,195029.2343750000,202676.9375000000,188611.4375000000,187787.1875000000,166896.0312500000,172040.5000000000,-88690.7968750000,,,
2.8119999955,21,204979.7812500000,195017.3593750000,202664.4375000000,188579.4062500000,187774.4218750000,166883.7343750000,172029.5000000000,-88699.0312500000,,,
2.8159999955,22,204964.5781250000,195006.5781250000,202646.1718750000,188551.9375000000,187752.0312500000,166861.7187500000,172003.3593750000,-88716.3281250000,,,
2.8199999954,22,204974.1406250000,195010.7343750000,202654.1718750000,188569.2656250000,187757.2812500000,166860.5468750000,172003.1875000000,-88718.4218750000,,,
2.8239999954,22,205003.7343750000,195030.3437500000,202688.3437500000,188610.1718750000,187793.9531250000,166887.5000000000,172034.2500000000,-88696.0781250000,,,
2.8279999953,22,204992.1718750000,195012.3437500000,202685.8125000000,188602.5312500000,187797.1406250000,166882.8906250000,172037.2031250000,-88702.7812500000,,,
2.8319999953,22,204967.3281250000,194988.8750000000,202664.5156250000,188564.0937500000,187778.7968750000,166866.0156250000,172023.8281250000,-88718.6875000000,,,
2.8359999952,22,204959.0468750000,194993.0312500000,202649.2031250000,188554.7656250000,187759.7812500000,166853.7343750000,172003.5156250000,-88725.5000000000,,,
2.8399999954,22,204974.9843750000,195012.4687500000,202658.9218750000,188571.0156250000,187766.3437500000,166859.1250000000,172007.9687500000,-88719.1953125000,,,
2.8439999954,22,204972.6406250000,195004.3437500000,202658.2656250000,188553.1250000000,187766.3750000000,166854.4062500000,172007.0312500000,-88732.8750000000,,,
2.8479999953,22,204959.6406250000,194990.9375000000,202651.4375000000,188548.8593750000,187761.6875000000,166849.1718750000,172003.4687500000,-88741.3515625000,,,
2.8519999953,22,204960.8750000000,194998.7187500000,202652.1562500000,188565.4687500000,187762.4687500000,166855.0468750000,172010.5468750000,-88732.2343750000,,,
2.8559999953,22,204958.6093750000,195009.7968750000,202643.8125000000,188568.7656250000,187751.3593750000,166851.6562500000,172002.6875000000,-88734.1406250000,,,
2.8599999954,22,204972.0000000000,195025.0000000000,202651.2656250000,188579.9687500000,187758.1093750000,166858.0468750000,172004.5312500000,-88730.3281250000,,,
2.8639999954,22,204989.1406250000,195032.1093750000,202668.7656250000,188593.8906250000,187778.9531250000,166873.2031250000,172025.5312500000,-88721.7500000000,,,
2.8679999954,22,204979.6406250000,195015.2031250000,202665.0000000000,188594.2656250000,187779.2812500000,166867.8437500000,172033.1250000000,-88726.8437500000,,,
2.8719999953,22,204958.7812500000,194996.3593750000,202644.1406250000,188562.7500000000,187757.5000000000,166849.0625000000,172017.0937500000,-88740.6796875000,,,
2.8759999953,22,204955.6406250000,194998.8437500000,202633.6562500000,188547.2187500000,187742.0000000000,166838.7656250000,172002.5312500000,-88744.2500000000,,,
2.8799999952,22,204968.6406250000,195010.2187500000,202645.0156250000,188567.6406250000,187750.5312500000,166841.6875000000,172006.4375000000,-88738.3515625000,,,
2.8839999954,22,204982.2187500000,195013.3125000000,202667.9531250000,188584.3750000000,187776.2187500000,166858.7187500000,172029.6406250000,-88727.2421875000,,,
2.8879999954,22,204975.0781250000,195002.2031250000,202672.8593750000,188563.7500000000,187786.5468750000,166864.9687500000,172037.4531250000,-88725.7187500000,,,
2.8919999953,22,204971.5781250000,195005.7343750000,202673.1093750000,188563.3750000000,187785.9843750000,166866.5000000000,172034.7343750000,-88716.6796875000,,,
2.8959999953,22,204973.3437500000,195016.9843750000,202669.2500000000,188574.8437500000,187777.6093750000,166861.5000000000,172024.2187500000,-88714.2343750000,,,
2.8999999953,22,204980.4687500000,195020.4375000000,202670.5000000000,188588.5781250000,187777.0468750000,166862.7343750000,172021.4843750000,-88718.4765625000,,,
2.9039999954,22,205000.9687500000,195029.7968750000,202696.4687500000,188604.8593750000,187804.6562500000,166888.0000000000,172050.9375000000,-88705.1953125000,,,
2.9079999954,22,204990.3437500000,195014.2656250000,202693.2187500000,188589.8750000000,187803.0937500000,166883.5468750000,172053.1093750000,-88715.4687500000,,,
2.9119999954,22,204974.9531250000,195003.8437500000,202674.9531250000,188562.6250000000,187784.6406250000,166871.0312500000,172034.7968750000,-88725.1250000000,,,
2.9159999953,22,204980.0468750000,195013.3906250000,202670.9375000000,188585.9531250000,187778.2031250000,166867.8593750000,172031.0937500000,-88722.8203125000,,,
2.9199999953,22,204994.1250000000,195023.2500000000,202679.6562500000,188598.1250000000,187783.4062500000,166869.4218750000,172039.1406250000,-88721.6406250000,,,
2.9239999952,22,205006.0625000000,195024.0312500000,202692.1250000000,188599.5781250000,187796.6406250000,166871.7812500000,172051.1562500000,-88721.0234375000,,,
2.9279999954,22,204999.2187500000,195012.1562500000,202689.5937500000,188590.1093750000,187798.2656250000,166876.5781250000,172051.8750000000,-88720.7031250000,,,
2.9319999954,22,204980.4687500000,195005.0468750000,202671.0625000000,188566.5156250000,187781.4218750000,166871.2968750000,172029.4843750000,-88723.3828125000,,,
2.9359999953,22,204977.3593750000,195015.6718750000,202661.1093750000,188566.6093750000,187768.9531250000,166860.7031250000,172003.7812500000,-88722.5000000000,,,
2.9399999953,22,204990.3437500000,195033.0468750000,202665.5468750000,188579.6718750000,187772.3125000000,166862.1562500000,172005.6093750000,-88718.3437500000,,,
2.9439999952,23,205017.2968750000,195054.2968750000,202693.6562500000,188603.6562500000,187801.3281250000,166885.2656250000,172040.8281250000,-88698.3828125000,,,
