Time:250Hz,Epoch,Channel 1,Channel 2,Channel 3,Channel 4,Channel 5,Channel 6,Channel 7,Channel 8,Event Id,Event Date,Event Duration
0.0000000000,0,159550.7500000000,142771.2500000000,170811.3750000000,163455.6562500000,127453.7343750000,-11971.2636718750,88829.4375000000,150567.9218750000,,,
0.0040000000,0,158713.8593750000,142459.7343750000,170003.3593750000,162673.2343750000,126643.6796875000,-12753.1542968750,88143.5156250000,151539.8437500000,,,
0.0079999999,0,159080.2812500000,142526.7656250000,170406.2812500000,162978.6093750000,127043.4921875000,-12502.2607421875,88549.9531250000,150810.6093750000,,,
0.0119999999,0,160113.8437500000,142830.2187500000,171479.7031250000,163931.5937500000,128115.2734375000,-11593.2597656250,89389.6406250000,149328.0937500000,,,
0.0159999998,0,160400.8437500000,142989.5000000000,171685.9375000000,164229.1093750000,128323.4921875000,-11268.6855468750,89722.1562500000,149180.8437500000,,,
0.0199999998,0,159616.7812500000,142835.7968750000,170886.3437500000,163502.2343750000,127550.3515625000,-11895.9208984375,89048.0937500000,150623.2031250000,,,
0.0240000000,0,158834.4062500000,142564.7343750000,170159.9218750000,162788.4062500000,126815.9062500000,-12657.6679687500,88192.9453125000,151648.3437500000,,,
0.0279999999,0,159078.4843750000,142538.0468750000,170370.5312500000,163004.6562500000,126987.7578125000,-12501.7509765625,88465.0312500000,150838.0156250000,,,
0.0319999999,0,160075.1718750000,142803.2187500000,171416.8125000000,163878.5156250000,128058.4687500000,-11649.7470703125,89568.1953125000,149301.6250000000,,,
0.0359999998,0,160432.7656250000,143002.0781250000,171798.9375000000,164206.7343750000,128449.9609375000,-11264.9306640625,89725.5625000000,149173.8593750000,,,
0.0399999998,0,159607.7968750000,142832.6718750000,170850.0625000000,163512.1718750000,127490.8593750000,-11875.1064453125,88954.5078125000,150598.9218750000,,,
0.0440000000,0,158866.2187500000,142625.6250000000,170143.2500000000,162807.3281250000,126786.3984375000,-12571.1396484375,88356.8046875000,151706.9375000000,,,
0.0480000000,0,159159.7031250000,142635.5781250000,170480.0781250000,163049.6093750000,127107.1640625000,-12387.1669921875,88691.9218750000,150946.7500000000,,,
0.0519999999,0,160065.2968750000,142806.2968750000,171394.7031250000,163893.4218750000,128021.8515625000,-11653.9853515625,89476.9531250000,149306.0156250000,,,
0.0559999999,0,160375.5781250000,142954.8593750000,171692.0000000000,164178.8750000000,128346.5859375000,-11297.5732421875,89779.5859375000,149113.4375000000,,,
0.0599999998,0,159681.7968750000,142881.4531250000,170987.1718750000,163545.7031250000,127658.3046875000,-11818.9140625000,89148.3515625000,150631.7500000000,,,
0.0639999998,0,158957.8437500000,142708.7187500000,170267.1093750000,162880.0937500000,126915.1484375000,-12461.3037109375,88471.5000000000,151786.8750000000,,,
0.0680000000,0,159204.5156250000,142693.5156250000,170524.0937500000,163085.0625000000,127179.1875000000,-12318.3417968750,88710.2421875000,151019.2812500000,,,
0.0719999999,0,160096.2187500000,142871.8593750000,171467.5312500000,163849.2500000000,128133.9140625000,-11568.2080078125,89518.4687500000,149403.1875000000,,,
0.0759999999,0,160325.6562500000,142936.2500000000,171617.8906250000,164112.9687500000,128266.7656250000,-11333.9707031250,89660.4140625000,149104.8437500000,,,
0.0799999998,0,159664.8437500000,142847.8750000000,170961.2343750000,163530.9218750000,127635.0781250000,-11855.3925781250,89186.4375000000,150589.3125000000,,,
0.0839999998,0,159012.2343750000,142756.2031250000,170346.4218750000,162919.2968750000,127029.6484375000,-12410.7705078125,88575.4296875000,151847.7656250000,,,
0.0880000000,0,159213.2968750000,142710.4375000000,170521.8593750000,163104.3281250000,127173.2578125000,-12306.5400390625,88665.0703125000,151060.2656250000,,,
0.0919999999,0,160015.8437500000,142790.1562500000,171349.2187500000,163812.2343750000,128005.9218750000,-11677.1865234375,89456.6718750000,149326.7968750000,,,
0.0959999999,0,160318.5312500000,142898.3281250000,171706.2812500000,164066.2343750000,128394.0078125000,-11372.3535156250,89765.7187500000,149063.4843750000,,,
0.0999999999,0,159664.4218750000,142874.4218750000,170949.6250000000,163546.0781250000,127617.4296875000,-11821.7041015625,89110.5312500000,150619.8125000000,,,
0.1039999998,0,158972.9218750000,142724.1718750000,170293.2343750000,162905.8437500000,126965.0390625000,-12454.8925781250,88553.4375000000,151824.3437500000,,,
0.1079999998,0,159193.1562500000,142687.3750000000,170530.9531250000,163067.0937500000,127198.4140625000,-12350.5546875000,88684.6484375000,151054.8437500000,,,
0.1120000000,0,160041.9062500000,142808.1718750000,171409.7031250000,163837.4218750000,128069.6796875000,-11684.8037109375,89412.4687500000,149350.1875000000,,,
0.1159999999,0,160302.5156250000,142913.2968750000,171575.8593750000,164124.0937500000,128235.4375000000,-11354.4892578125,89695.1484375000,149073.8750000000,,,
0.1199999999,0,159687.1562500000,142904.3593750000,170992.2187500000,163556.2968750000,127680.7812500000,-11833.6933593750,89066.7031250000,150642.1562500000,,,
0.1239999998,0,158968.9375000000,142733.7656250000,170285.4062500000,162893.0937500000,126974.7734375000,-12485.9257812500,88388.0000000000,151824.0781250000,,,
0.1279999998,1,159173.4375000000,142680.8750000000,170526.3750000000,163064.0937500000,127181.5468750000,-12385.4775390625,88955.5781250000,151058.2968750000,,,
0.1319999998,1,160052.0468750000,142842.8593750000,171410.4062500000,163868.1406250000,128037.1718750000,-11639.4472656250,89468.4218750000,149407.2656250000,,,
0.1359999997,1,160317.6875000000,142927.3281250000,171599.1250000000,164145.3125000000,128261.1093750000,-11394.6152343750,89620.6875000000,149085.1562500000,,,
0.1399999997,1,159708.3281250000,142909.3281250000,171023.6562500000,163564.5156250000,127728.3125000000,-11826.2363281250,89203.5000000000,150625.9375000000,,,
0.1439999996,1,159060.5937500000,142822.6562500000,170444.3437500000,162944.3281250000,127145.9218750000,-12398.4326171875,88507.6250000000,151912.6093750000,,,
0.1479999996,1,159201.8125000000,142728.6718750000,170496.3593750000,163131.2812500000,127138.1484375000,-12376.8134765625,88609.4687500000,151111.6562500000,,,
0.1519999998,1,160003.7968750000,142806.1406250000,171323.2031250000,163859.4375000000,127961.3437500000,-11700.5751953125,89447.6875000000,149377.4218750000,,,
0.1559999997,1,160350.0625000000,142904.1718750000,171760.0781250000,164126.2500000000,128452.9687500000,-11413.6054687500,89796.9140625000,149047.2343750000,,,
0.1599999997,1,159768.2500000000,142929.0625000000,171178.0937500000,163580.4375000000,127882.8359375000,-11808.0517578125,89319.8515625000,150634.7812500000,,,
0.1639999996,1,159007.4375000000,142785.0781250000,170314.7500000000,162961.7343750000,126997.2734375000,-12394.5166015625,88381.3203125000,151885.6875000000,,,
0.1679999996,1,159164.4218750000,142687.9843750000,170458.7187500000,163115.3750000000,127102.6328125000,-12440.1943359375,88600.4843750000,151086.6093750000,,,
0.1719999998,1,159966.6406250000,142759.8437500000,171280.9531250000,163836.4375000000,127936.9062500000,-11805.0742187500,89327.2578125000,149331.5312500000,,,
0.1759999997,1,160348.3281250000,142919.4687500000,171765.7187500000,164119.5937500000,128475.7656250000,-11435.2509765625,89679.8281250000,149057.8593750000,,,
0.1799999997,1,159730.8593750000,142893.5468750000,171127.3750000000,163577.3281250000,127830.5625000000,-11823.9570312500,88900.3828125000,150587.1718750000,,,
0.1839999997,1,158912.0312500000,142682.1718750000,170163.7656250000,162922.2187500000,126821.6171875000,-12566.8486328125,88311.4453125000,151754.3437500000,,,
0.1879999996,1,159147.8437500000,142656.4687500000,170494.6718750000,163097.7968750000,127136.1875000000,-12471.8984375000,88673.4140625000,151046.2031250000,,,
0.1919999996,1,160022.2968750000,142803.1875000000,171417.4218750000,163841.5781250000,128087.9453125000,-11722.0332031250,89543.9765625000,149383.3437500000,,,
0.1959999998,1,160347.3125000000,142935.5625000000,171689.0000000000,164163.3125000000,128367.8359375000,-11463.8437500000,89560.3359375000,149075.3125000000,,,
0.1999999997,1,159674.1250000000,142859.9375000000,170969.6875000000,163573.9218750000,127675.3671875000,-11951.8710937500,88883.6953125000,150530.4531250000,,,
0.2039999997,1,158945.9062500000,142710.5156250000,170284.8437500000,162899.5156250000,126960.2109375000,-12556.5488281250,88420.4531250000,151767.4531250000,,,
0.2079999996,1,159159.8125000000,142683.3125000000,170562.2031250000,163076.2656250000,127230.0937500000,-12486.1406250000,88616.1250000000,151077.8593750000,,,
0.2119999996,1,160037.1406250000,142828.6093750000,171428.6406250000,163859.3437500000,128075.2578125000,-11737.5087890625,89350.4531250000,149405.2343750000,,,
0.2159999998,1,160342.5781250000,142941.1562500000,171643.7187500000,164209.9843750000,128274.0859375000,-11438.6035156250,89630.6953125000,149056.6562500000,,,
0.2199999997,1,159665.1875000000,142857.0468750000,170966.7812500000,163615.5781250000,127627.6796875000,-11959.2470703125,88989.6484375000,150493.7500000000,,,
0.2239999997,1,158877.4218750000,142679.7031250000,170136.7812500000,162878.8593750000,126806.3281250000,-12591.8466796875,88468.2265625000,151722.0156250000,,,
0.2279999997,1,159080.9843750000,142652.1250000000,170386.2187500000,163087.9531250000,127050.4140625000,-12507.0351562500,88532.1171875000,151045.4531250000,,,
0.2319999996,1,160012.1875000000,142842.7812500000,171382.5312500000,163891.8125000000,128038.5390625000,-11790.2148437500,89380.5234375000,149422.9843750000,,,
0.2359999996,1,160361.2812500000,142941.3437500000,171735.5312500000,164167.0625000000,128421.7421875000,-11453.0068359375,89627.2343750000,149048.3125000000,,,
0.2399999998,1,159672.5937500000,142874.7500000000,171013.9687500000,163595.8125000000,127674.1328125000,-11930.6552734375,88885.1718750000,150496.7031250000,,,
0.2439999997,1,158839.9843750000,142662.7187500000,170145.8437500000,162858.0156250000,126812.6640625000,-12679.5283203125,88245.0390625000,151697.2812500000,,,
0.2479999997,1,159036.5937500000,142607.7031250000,170364.5000000000,162997.5468750000,127015.0078125000,-12573.3125000000,88585.5468750000,151002.8125000000,,,
0.2519999996,1,159968.0937500000,142790.8437500000,171295.2187500000,163844.3437500000,127946.4062500000,-11780.9882812500,89441.3046875000,149369.5312500000,,,
0.2559999996,2,160330.8593750000,142942.8437500000,171630.6406250000,164211.8906250000,128288.5703125000,-11391.9873046875,89611.1171875000,149032.9375000000,,,
0.2599999995,2,159620.6406250000,142832.2968750000,170866.0937500000,163623.9218750000,127504.0546875000,-12004.1210937500,88975.8359375000,150406.9531250000,,,
0.2639999995,2,158847.0312500000,142647.1093750000,170141.0156250000,162896.7500000000,126822.5546875000,-12665.9023437500,88359.5937500000,151642.5468750000,,,
0.2679999995,2,159137.7968750000,142667.8750000000,170579.2343750000,163052.8750000000,127270.6171875000,-12521.3046875000,88697.1250000000,151051.0156250000,,,
0.2719999994,2,160046.8750000000,142865.1250000000,171397.9531250000,163933.4531250000,128010.6171875000,-11765.4042968750,89370.8984375000,149443.9062500000,,,
0.2759999994,2,160351.8125000000,142976.3750000000,171564.8437500000,164352.2500000000,128201.7500000000,-11456.8964843750,89551.2187500000,149064.2968750000,,,
0.2799999996,2,159695.8750000000,142889.6562500000,170973.2500000000,163620.2656250000,127641.4921875000,-11900.5341796875,89133.2500000000,150481.1718750000,,,
0.2839999995,2,158888.1562500000,142668.8437500000,170191.7343750000,162892.7812500000,126853.9140625000,-12637.5517578125,88462.9921875000,151685.6406250000,,,
0.2879999995,2,159062.7656250000,142624.1562500000,170387.1093750000,163019.5937500000,127034.2343750000,-12554.7246093750,88529.5156250000,151040.1250000000,,,
0.2919999994,2,159993.3906250000,142806.4375000000,171329.3437500000,163891.4375000000,127958.5781250000,-11824.3593750000,89348.7968750000,149399.8437500000,,,
0.2959999994,2,160366.1093750000,142950.6562500000,171648.6406250000,164266.7656250000,128303.0000000000,-11440.9101562500,89670.3906250000,149030.6406250000,,,
0.2999999996,2,159699.6562500000,142873.9375000000,170996.3125000000,163648.3281250000,127663.2656250000,-11924.3789062500,89068.1562500000,150454.5468750000,,,
0.3039999995,2,158900.5468750000,142683.2968750000,170196.0781250000,162919.4375000000,126850.5625000000,-12605.6064453125,88516.4531250000,151707.3437500000,,,
0.3079999995,2,159102.5156250000,142669.0312500000,170417.8750000000,163092.3906250000,127069.6171875000,-12556.4677734375,88564.3046875000,151097.5468750000,,,
0.3119999995,2,160021.5781250000,142867.9375000000,171311.4062500000,163945.1093750000,127947.9062500000,-11761.1123046875,89317.0390625000,149479.8750000000,,,
0.3159999994,2,160447.5625000000,143021.7656250000,171770.6718750000,164312.5468750000,128430.7812500000,-11378.4150390625,89823.2265625000,149096.7187500000,,,
0.3199999994,2,159721.3593750000,142894.7656250000,170990.1562500000,163681.9843750000,127654.8750000000,-11915.4199218750,89094.2500000000,150454.1406250000,,,
0.3239999996,2,158900.9218750000,142677.0156250000,170207.7968750000,162917.4218750000,126844.8437500000,-12633.6894531250,88447.6015625000,151691.8906250000,,,
0.3279999995,2,159071.7500000000,142648.0781250000,170393.8906250000,163049.3906250000,127022.9453125000,-12554.6445312500,88627.9218750000,151084.5937500000,,,
0.3319999995,2,159987.4531250000,142819.8437500000,171317.1875000000,163886.0468750000,127970.4609375000,-11830.6357421875,89412.0703125000,149430.2812500000,,,
0.3359999994,2,160393.5468750000,142991.3125000000,171671.9687500000,164285.2656250000,128370.7578125000,-11409.0996093750,89645.0468750000,149062.5312500000,,,
0.3399999994,2,159724.6875000000,142900.0937500000,170983.6875000000,163700.1406250000,127656.7812500000,-11892.6748046875,89167.1796875000,150450.0312500000,,,
0.3439999996,2,158908.9375000000,142683.4531250000,170203.7812500000,162933.5937500000,126855.2031250000,-12642.4863281250,88371.9296875000,151693.7968750000,,,
0.3479999995,2,159019.2968750000,142608.2187500000,170310.3437500000,163003.3906250000,126956.8593750000,-12615.4228515625,88545.2265625000,151057.0781250000,,,
0.3519999995,2,160010.0468750000,142857.8281250000,171333.7343750000,163900.4531250000,127981.7265625000,-11772.7265625000,89418.6406250000,149485.7187500000,,,
0.3559999994,2,160445.5781250000,143025.2812500000,171786.0625000000,164296.9062500000,128466.3750000000,-11352.1025390625,89968.5156250000,149105.8437500000,,,
0.3599999994,2,159763.8750000000,142935.7187500000,171045.8125000000,163700.0937500000,127711.7656250000,-11893.3183593750,89185.8203125000,150488.9531250000,,,
0.3639999994,2,158914.3906250000,142695.9062500000,170197.2968750000,162906.7812500000,126853.4531250000,-12561.6445312500,88388.1875000000,151718.6093750000,,,
0.3679999996,2,159062.0156250000,142643.8125000000,170359.7031250000,163057.5937500000,127002.6953125000,-12553.9736328125,88542.2812500000,151102.6406250000,,,
0.3719999995,2,159961.0468750000,142811.3906250000,171248.0156250000,163886.8281250000,127893.7265625000,-11819.9599609375,89434.8906250000,149454.5312500000,,,
0.3759999995,2,160375.7031250000,142961.4687500000,171659.8750000000,164273.9062500000,128326.3906250000,-11442.1445312500,89731.6015625000,149034.0156250000,,,
0.3799999994,2,159734.1718750000,142883.8750000000,171034.7343750000,163689.2343750000,127701.6015625000,-11935.4023437500,89150.6875000000,150419.0468750000,,,
0.3839999994,3,158893.9843750000,142678.6562500000,170144.4843750000,162924.9843750000,126804.6171875000,-12639.7509765625,88448.7500000000,151699.3750000000,,,
0.3879999993,3,159076.7187500000,142658.1562500000,170389.1718750000,163050.9218750000,127048.1875000000,-12565.3466796875,88637.2578125000,151135.5000000000,,,
0.3919999993,3,160003.2812500000,142860.8750000000,171300.1406250000,163905.2500000000,127928.0859375000,-11763.0439453125,89527.3203125000,149520.3750000000,,,
0.3959999993,3,160405.4531250000,142986.5937500000,171678.8125000000,164304.8437500000,128328.1640625000,-11415.2421875000,89847.7109375000,149062.3125000000,,,
0.3999999992,3,159763.9531250000,142904.5000000000,171053.3125000000,163715.4687500000,127719.0859375000,-11901.4990234375,89115.0390625000,150435.2812500000,,,
0.4039999992,3,158912.9375000000,142680.0156250000,170202.7031250000,162921.6875000000,126873.1406250000,-12621.3242187500,88447.3593750000,151707.4531250000,,,
0.4079999994,3,159048.4375000000,142629.7812500000,170367.3906250000,163033.8906250000,127024.6093750000,-12586.9648437500,88542.6250000000,151129.5781250000,,,
0.4119999993,3,159952.7812500000,142806.2187500000,171241.7656250000,163882.1875000000,127880.6640625000,-11836.1875000000,89350.8046875000,149468.7812500000,,,
0.4159999993,3,160387.8281250000,142969.5312500000,171691.6562500000,164275.3437500000,128352.8906250000,-11418.1386718750,89848.0078125000,149031.0625000000,,,
0.4199999992,3,159731.5468750000,142894.3281250000,170992.2656250000,163696.8281250000,127656.1875000000,-11903.2158203125,89312.4531250000,150417.3906250000,,,
0.4239999992,3,158906.5781250000,142687.5625000000,170182.0781250000,162919.4375000000,126853.2968750000,-12606.4111328125,88479.9453125000,151713.4375000000,,,
0.4279999994,3,159026.9375000000,142626.5937500000,170329.2812500000,163016.7812500000,126976.4921875000,-12593.6171875000,88573.3671875000,151132.6875000000,,,
0.4319999993,3,159936.3593750000,142789.7031250000,171285.9218750000,163827.2031250000,127942.0312500000,-11888.2226562500,89433.6015625000,149460.9218750000,,,
0.4359999993,3,160326.7656250000,142925.1250000000,171610.1718750000,164223.2031250000,128249.4687500000,-11470.2265625000,89782.5625000000,148980.3437500000,,,
0.4399999992,3,159683.4843750000,142859.9375000000,170923.0156250000,163642.1562500000,127584.8671875000,-11901.8486328125,89060.0234375000,150369.5625000000,,,
0.4439999992,3,158928.9218750000,142713.2031250000,170213.6250000000,162942.4531250000,126881.9921875000,-12537.9072265625,88429.6015625000,151739.9062500000,,,
0.4479999992,3,159059.4687500000,142650.9218750000,170378.9843750000,163064.0625000000,127021.3359375000,-12606.5449218750,88646.8593750000,151164.8750000000,,,
0.4519999993,3,159924.8906250000,142784.3593750000,171238.3125000000,163858.9687500000,127877.0937500000,-11878.7539062500,89440.1796875000,149456.7031250000,,,
0.4559999993,3,160384.5000000000,142951.0312500000,171739.4218750000,164258.4218750000,128418.2343750000,-11444.6123046875,89791.9218750000,148996.7031250000,,,
0.4599999993,3,159733.5625000000,142883.9687500000,171005.2031250000,163703.5468750000,127674.5312500000,-11909.3046875000,89172.6250000000,150379.0937500000,,,
0.4639999992,3,158940.0312500000,142712.1875000000,170228.3281250000,162950.3281250000,126889.1328125000,-12589.7275390625,88451.5937500000,151733.9062500000,,,
0.4679999992,3,159061.4218750000,142665.8593750000,170360.9062500000,163056.0468750000,126994.2421875000,-12566.2050781250,88592.0625000000,151190.5312500000,,,
0.4719999994,3,159908.2500000000,142772.0156250000,171186.4687500000,163842.6250000000,127806.1484375000,-11900.0507812500,89371.2734375000,149450.5312500000,,,
0.4759999993,3,160320.1406250000,142903.3906250000,171592.8906250000,164222.1562500000,128253.6796875000,-11492.6503906250,89756.4609375000,148949.6875000000,,,
0.4799999993,3,159755.1875000000,142888.3281250000,171043.3125000000,163698.5312500000,127720.8281250000,-11890.1269531250,89280.2343750000,150374.8750000000,,,
0.4839999992,3,158963.7968750000,142732.8125000000,170235.6718750000,162968.5000000000,126894.9531250000,-12546.0078125000,88575.4062500000,151749.8281250000,,,
0.4879999992,3,159059.1250000000,142664.3593750000,170365.5468750000,163039.5156250000,127015.8125000000,-12593.6708984375,88577.4453125000,151192.2812500000,,,
0.4919999992,3,159889.0781250000,142755.3906250000,171210.4687500000,163788.7968750000,127851.7500000000,-11920.1142578125,89405.7109375000,149449.7500000000,,,
0.4959999993,3,160289.0000000000,142872.5156250000,171586.2656250000,164156.1250000000,128249.7343750000,-11529.5302734375,89772.6093750000,148915.7031250000,,,
0.4999999993,3,159709.0937500000,142853.8281250000,170984.4843750000,163634.2500000000,127652.4609375000,-11941.5175781250,89197.0859375000,150326.2500000000,,,
0.5039999993,3,158913.5312500000,142696.7031250000,170171.3750000000,162926.2187500000,126814.1093750000,-12613.1699218750,88430.6171875000,151705.5781250000,,,
0.5079999992,3,159037.7500000000,142648.6875000000,170327.9062500000,163031.6875000000,126960.6640625000,-12595.8964843750,88560.7890625000,151182.4843750000,,,
0.5119999992,4,159894.7343750000,142768.4843750000,171214.7031250000,163797.3281250000,127842.7343750000,-11937.1464843750,89370.5468750000,149459.8437500000,,,
0.5159999991,4,160312.5156250000,142899.8281250000,171614.2968750000,164187.7187500000,128265.5312500000,-11526.0166015625,89753.2968750000,148927.3750000000,,,
0.5199999991,4,159741.9375000000,142884.0000000000,171008.5312500000,163679.8437500000,127675.9062500000,-11919.7119140625,89213.7968750000,150334.0781250000,,,
0.5239999990,4,158973.1875000000,142738.0156250000,170241.2812500000,162974.6406250000,126899.8828125000,-12561.0283203125,88504.2968750000,151731.9375000000,,,
0.5279999990,4,159077.3125000000,142685.5937500000,170376.9218750000,163059.3906250000,127026.9453125000,-12569.5576171875,88647.7187500000,151222.9062500000,,,
0.5319999990,4,159924.1562500000,142794.9062500000,171244.1093750000,163833.2187500000,127883.5625000000,-11911.7187500000,89427.3828125000,149493.3125000000,,,
0.5359999991,4,160332.2343750000,142913.4062500000,171639.2187500000,164218.8281250000,128286.5312500000,-11494.5546875000,89746.7031250000,148941.9062500000,,,
0.5399999991,4,159758.2187500000,142889.2343750000,171052.1562500000,163701.7812500000,127723.8906250000,-11898.0390625000,89214.7656250000,150332.2812500000,,,
0.5439999991,4,158972.6718750000,142739.0312500000,170246.6406250000,162994.5312500000,126894.2812500000,-12560.9208984375,88506.4218750000,151731.3437500000,,,
0.5479999990,4,159030.8750000000,142651.9843750000,170311.6562500000,163044.5156250000,126933.2500000000,-12601.8242187500,88618.9375000000,151201.4062500000,,,
0.5519999990,4,159852.7031250000,142737.2812500000,171163.6093750000,163784.8750000000,127790.2421875000,-11955.4121093750,89333.6406250000,149445.9218750000,,,
0.5559999992,4,160272.9843750000,142859.1875000000,171565.5937500000,164178.2187500000,128200.2187500000,-11541.0371093750,89693.4609375000,148876.1093750000,,,
0.5599999991,4,159702.7187500000,142830.4375000000,170987.3593750000,163651.4062500000,127642.1328125000,-11934.2763671875,89176.2734375000,150257.1875000000,,,
0.5639999991,4,158938.6406250000,142706.4062500000,170219.8281250000,162954.8906250000,126880.0625000000,-12577.7382812500,88503.6796875000,151691.2500000000,,,
0.5679999990,4,159038.5468750000,142660.4687500000,170342.6875000000,163023.6406250000,126985.1250000000,-12585.2216796875,88653.9140625000,151213.1250000000,,,
0.5719999990,4,159859.5937500000,142749.5468750000,171176.3281250000,163773.4843750000,127800.2734375000,-11963.3779296875,89252.1015625000,149460.9687500000,,,
0.5759999990,4,160263.8593750000,142847.7187500000,171553.6093750000,164156.1718750000,128185.8984375000,-11558.2568359375,89644.6406250000,148859.2187500000,,,
0.5799999991,4,159728.7031250000,142851.8906250000,171008.5312500000,163672.1406250000,127665.2031250000,-11920.1142578125,89227.0781250000,150262.5468750000,,,
0.5839999991,4,158954.8906250000,142718.9687500000,170227.0156250000,162972.0156250000,126875.5859375000,-12578.7041015625,88481.0703125000,151694.8437500000,,,
0.5879999991,4,159011.3750000000,142644.0468750000,170293.7187500000,163008.9687500000,126920.1640625000,-12607.7255859375,88547.6171875000,151204.8281250000,,,
0.5919999990,4,159820.4687500000,142725.0000000000,171120.6406250000,163741.4218750000,127745.9375000000,-11978.0761718750,89283.9921875000,149453.9062500000,,,
0.5959999990,4,160257.1093750000,142852.2500000000,171542.2343750000,164145.6093750000,128182.1953125000,-11554.6093750000,89702.7109375000,148870.5625000000,,,
0.5999999992,4,159737.0468750000,142867.7500000000,171023.4687500000,163672.3281250000,127673.8359375000,-11901.2578125000,89173.0312500000,150275.1875000000,,,
0.6039999991,4,158989.3906250000,142758.5781250000,170257.2343750000,162997.9687500000,126902.3828125000,-12539.6240234375,88552.5781250000,151736.1718750000,,,
0.6079999991,4,159049.7343750000,142674.7031250000,170351.0000000000,163045.0937500000,126984.2656250000,-12580.6884765625,88594.5859375000,151247.0000000000,,,
0.6119999990,4,159852.3281250000,142756.9218750000,171155.9062500000,163786.1875000000,127782.2812500000,-11942.4570312500,89297.9375000000,149493.4531250000,,,
0.6159999990,4,160275.0468750000,142868.5312500000,171571.7812500000,164176.1093750000,128206.7656250000,-11527.7070312500,89665.5859375000,148882.3125000000,,,
0.6199999989,4,159724.5781250000,142842.3437500000,171011.3906250000,163660.7656250000,127672.6015625000,-11920.7304687500,89209.2890625000,150240.6875000000,,,
0.6239999991,4,158945.0468750000,142699.6875000000,170234.6250000000,162944.1718750000,126891.2734375000,-12584.2294921875,88532.6484375000,151681.4843750000,,,
0.6279999991,4,159025.0625000000,142645.3125000000,170361.2343750000,163000.2500000000,127002.4531250000,-12591.2031250000,88534.8515625000,151233.0781250000,,,
0.6319999991,4,159819.3906250000,142733.5312500000,171103.4531250000,163762.5156250000,127729.2812500000,-11973.3017578125,89200.6562500000,149482.9687500000,,,
0.6359999990,4,160262.7031250000,142855.6562500000,171532.2812500000,164158.0468750000,128164.1718750000,-11550.7734375000,89687.2890625000,148861.9843750000,,,
0.6399999990,5,159743.5156250000,142855.4843750000,171019.6250000000,163676.6562500000,127665.6796875000,-11901.3925781250,89219.6171875000,150228.2968750000,,,
0.6439999989,5,158970.8750000000,142718.0781250000,170271.7968750000,162961.8750000000,126916.3281250000,-12552.9003906250,88500.4609375000,151682.4531250000,,,
0.6479999989,5,159025.5156250000,142645.1562500000,170360.8437500000,162998.5312500000,126994.7265625000,-12606.8134765625,88572.2656250000,151234.0625000000,,,
0.6519999988,5,159823.2343750000,142731.7812500000,171126.8437500000,163746.0625000000,127749.0703125000,-11966.4091796875,89317.4921875000,149482.7187500000,,,
0.6559999988,5,160273.2500000000,142858.3906250000,171586.1093750000,164152.0156250000,128237.8515625000,-11532.7763671875,89576.5703125000,148855.7500000000,,,
0.6599999988,5,159726.4062500000,142839.1250000000,170996.0000000000,163670.0781250000,127651.1171875000,-11911.1015625000,89188.5859375000,150201.1250000000,,,
0.6639999989,5,158935.4218750000,142692.7656250000,170200.7031250000,162949.8750000000,126842.1093750000,-12586.1064453125,88451.5937500000,151651.3125000000,,,
0.6679999989,5,158987.2343750000,142622.8906250000,170285.7031250000,162976.0625000000,126909.8906250000,-12627.9492187500,88592.0859375000,151218.7812500000,,,
0.6719999989,5,159829.3125000000,142738.5000000000,171155.4531250000,163741.6875000000,127784.0468750000,-11964.7724609375,89324.3828125000,149495.1406250000,,,
0.6759999988,5,160299.1875000000,142889.4218750000,171608.9062500000,164177.9843750000,128243.8359375000,-11503.6474609375,89697.8828125000,148877.8593750000,,,
0.6799999988,5,159758.2656250000,142871.6093750000,171037.9531250000,163710.0781250000,127689.6640625000,-11872.7197265625,89239.6796875000,150213.2812500000,,,
0.6839999990,5,158955.5937500000,142717.3906250000,170244.9531250000,162970.5312500000,126892.0781250000,-12560.4912109375,88460.0468750000,151664.2656250000,,,
0.6879999989,5,158993.7343750000,142641.2656250000,170300.4531250000,162997.7031250000,126937.5156250000,-12616.2011718750,88488.5312500000,151233.6406250000,,,
0.6919999989,5,159825.4843750000,142745.8750000000,171149.1562500000,163751.7187500000,127781.2578125000,-11960.2939453125,89243.8359375000,149500.9531250000,,,
0.6959999988,5,160296.7656250000,142888.2187500000,171595.7187500000,164190.9843750000,128235.7343750000,-11500.5361328125,89724.8906250000,148863.2968750000,,,
0.6999999988,5,159748.0468750000,142859.8437500000,171014.8750000000,163704.3281250000,127664.9609375000,-11877.5205078125,89239.5234375000,150180.7656250000,,,
0.7039999987,5,158963.5000000000,142714.0781250000,170273.0312500000,162976.7500000000,126931.5859375000,-12559.8212890625,88450.7109375000,151649.4843750000,,,
0.7079999989,5,158982.8906250000,142637.0000000000,170282.9531250000,162998.3750000000,126910.2421875000,-12613.6796875000,88580.7968750000,151238.2031250000,,,
0.7119999989,5,159814.6718750000,142748.3437500000,171130.0781250000,163748.2968750000,127760.8515625000,-11953.0244140625,89262.8828125000,149515.1718750000,,,
0.7159999989,5,160319.0312500000,142913.0468750000,171637.0937500000,164200.1093750000,128276.5000000000,-11470.0664062500,89739.3750000000,148886.8125000000,,,
0.7199999988,5,159777.7656250000,142883.7031250000,171062.9218750000,163720.0156250000,127702.5937500000,-11856.6259765625,89227.1250000000,150191.3906250000,,,
0.7239999988,5,158946.1406250000,142701.7187500000,170236.0468750000,162945.6718750000,126882.9375000000,-12571.8906250000,88528.4921875000,151633.3125000000,,,
0.7279999990,5,158950.0937500000,142606.1250000000,170248.8125000000,162943.9843750000,126868.6093750000,-12642.1113281250,88456.8281250000,151216.1250000000,,,
0.7319999989,5,159792.3281250000,142727.8437500000,171094.0312500000,163702.1875000000,127722.8984375000,-11963.2441406250,89253.9531250000,149503.4218750000,,,
0.7359999989,5,160292.5000000000,142880.9687500000,171587.8593750000,164167.8906250000,128229.8359375000,-11483.7187500000,89735.7812500000,148850.1562500000,,,
0.7399999988,5,159748.3125000000,142843.8437500000,171037.2968750000,163677.7500000000,127691.9687500000,-11864.8603515625,89141.7812500000,150143.2656250000,,,
0.7439999988,5,158914.4687500000,142658.5156250000,170228.5937500000,162918.1250000000,126887.0625000000,-12587.3408203125,88388.4296875000,151584.3593750000,,,
0.7479999987,5,158960.4218750000,142597.8906250000,170286.9843750000,162942.5000000000,126923.5703125000,-12642.0839843750,88481.5000000000,151206.4375000000,,,
0.7519999989,5,159805.4375000000,142736.7812500000,171097.2500000000,163727.4062500000,127714.3671875000,-11941.8671875000,89319.9296875000,149517.4531250000,,,
0.7559999989,5,160328.4687500000,142915.6562500000,171626.8750000000,164215.5937500000,128262.6640625000,-11438.3896484375,89746.2421875000,148879.0156250000,,,
0.7599999988,5,159778.9218750000,142877.6406250000,171052.2187500000,163738.4687500000,127688.9687500000,-11826.7197265625,89206.2109375000,150157.4062500000,,,
0.7639999988,5,158897.9687500000,142657.0312500000,170168.5625000000,162935.0156250000,126810.0859375000,-12591.1220703125,88439.4140625000,151572.8281250000,,,
0.7679999988,6,158903.3437500000,142573.1875000000,170200.0468750000,162921.5312500000,126828.2421875000,-12666.0097656250,88457.5234375000,151192.2812500000,,,
0.7719999987,6,159783.2656250000,142730.5781250000,171110.6406250000,163706.7187500000,127731.0781250000,-11959.7568359375,89270.3125000000,149520.4531250000,,,
0.7759999987,6,160326.8906250000,142919.6562500000,171641.2500000000,164211.6718750000,128280.5234375000,-11449.6542968750,89766.6250000000,148874.4531250000,,,
0.7799999986,6,159794.0468750000,142886.8125000000,171082.0781250000,163746.3906250000,127723.9687500000,-11818.5117187500,89239.9765625000,150149.0625000000,,,
0.7839999986,6,158930.5937500000,142679.5937500000,170217.0781250000,162956.3750000000,126861.1015625000,-12560.8671875000,88434.8828125000,151583.7812500000,,,
0.7879999985,6,158937.3750000000,142600.8125000000,170228.5156250000,162942.5781250000,126851.0156250000,-12639.2675781250,88464.2265625000,151219.7187500000,,,
0.7919999987,6,159828.3750000000,142765.6093750000,171142.4687500000,163736.9218750000,127758.7812500000,-11926.5244140625,89282.5390625000,149556.7500000000,,,
0.7959999987,6,160356.7187500000,142939.8437500000,171658.6875000000,164221.2187500000,128297.5546875000,-11419.3457031250,89785.5078125000,148890.4687500000,,,
0.7999999986,6,159818.2656250000,142896.6562500000,171109.0781250000,163732.2812500000,127761.0859375000,-11804.9667968750,89272.5078125000,150144.7500000000,,,
0.8039999986,6,158940.0781250000,142679.3750000000,170227.1718750000,162931.2656250000,126871.7500000000,-12573.4199218750,88462.9921875000,151575.5468750000,,,
0.8079999986,6,158943.5468750000,142603.0468750000,170230.3281250000,162930.2187500000,126856.6718750000,-12648.5751953125,88482.0078125000,151228.4062500000,,,
0.8119999988,6,159829.8750000000,142767.9218750000,171139.4218750000,163730.8593750000,127763.8515625000,-11942.7519531250,89309.2812500000,149567.8281250000,,,
0.8159999987,6,160378.1250000000,142951.5156250000,171682.6093750000,164238.4687500000,128323.3046875000,-11423.6904296875,89795.4062500000,148893.8437500000,,,
0.8199999987,6,159821.7500000000,142895.0468750000,171099.5000000000,163742.1250000000,127749.5312500000,-11814.8906250000,89283.1875000000,150125.5468750000,,,
0.8239999986,6,158915.7343750000,142659.5781250000,170198.5468750000,162912.9218750000,126839.8281250000,-12592.2216796875,88434.9921875000,151544.6093750000,,,
0.8279999986,6,158903.6875000000,142575.7343750000,170216.4687500000,162888.0625000000,126848.3593750000,-12676.6044921875,88433.9453125000,151207.6562500000,,,
0.8319999985,6,159793.8906250000,142744.7968750000,171117.2031250000,163700.5156250000,127744.4609375000,-11963.9951171875,89303.8671875000,149550.9062500000,,,
0.8359999987,6,160328.4218750000,142916.3437500000,171624.5937500000,164216.1562500000,128257.1093750000,-11466.8740234375,89730.4453125000,148850.1718750000,,,
0.8399999987,6,159782.8281250000,142865.7656250000,171052.4843750000,163731.7968750000,127695.5390625000,-11845.9775390625,89216.9609375000,150076.4843750000,,,
0.8439999986,6,158905.7812500000,142652.8437500000,170199.4062500000,162919.1093750000,126845.6796875000,-12601.4755859375,88456.2343750000,151525.9531250000,,,
0.8479999986,6,158896.3125000000,142562.5937500000,170237.2500000000,162891.8593750000,126873.8125000000,-12703.1044921875,88400.7968750000,151195.7343750000,,,
0.8519999986,6,159747.7812500000,142710.9531250000,171051.5781250000,163676.4062500000,127671.0234375000,-11991.7822265625,89210.5000000000,149524.1093750000,,,
0.8559999987,6,160299.7968750000,142894.8593750000,171596.2031250000,164179.1406250000,128238.1484375000,-11466.0966796875,89725.2109375000,148828.1562500000,,,
0.8599999987,6,159762.6562500000,142843.9062500000,171040.4687500000,163698.7031250000,127694.5156250000,-11848.7939453125,89218.9453125000,150048.4218750000,,,
0.8639999987,6,158877.8906250000,142628.0937500000,170157.0000000000,162885.1250000000,126804.5078125000,-12608.4765625000,88422.1718750000,151499.4531250000,,,
0.8679999986,6,158870.6093750000,142550.8750000000,170173.5468750000,162870.4375000000,126802.3046875000,-12701.2265625000,88421.9843750000,151191.4218750000,,,
0.8719999986,6,159755.5625000000,142715.0312500000,171073.0312500000,163672.8437500000,127695.3750000000,-11993.5263671875,89230.6953125000,149533.4687500000,,,
0.8759999985,6,160317.9062500000,142898.6250000000,171632.6718750000,164182.4843750000,128271.8125000000,-11465.6669921875,89716.8437500000,148821.0781250000,,,
0.8799999987,6,159783.3906250000,142850.4687500000,171062.7656250000,163713.5781250000,127703.5000000000,-11834.7392578125,89243.0312500000,150032.2187500000,,,
0.8839999987,6,158909.3125000000,142646.1406250000,170192.7812500000,162914.2656250000,126835.2734375000,-12583.5048828125,88458.8359375000,151501.3281250000,,,
0.8879999986,6,158885.8437500000,142562.6250000000,170195.8437500000,162876.7343750000,126828.3750000000,-12690.4443359375,88451.7265625000,151203.7031250000,,,
0.8919999986,6,159758.4843750000,142724.8125000000,171081.5312500000,163671.0937500000,127704.8984375000,-11985.0234375000,89232.7343750000,149552.6406250000,,,
0.8959999986,7,160321.3125000000,142909.0312500000,171630.0468750000,164194.2968750000,128264.8046875000,-11450.5126953125,89757.8593750000,148830.8125000000,,,
0.8999999985,7,159814.9375000000,142876.0312500000,171103.9375000000,163743.0625000000,127757.9218750000,-11800.9707031250,89296.0859375000,150042.8437500000,,,
0.9039999985,7,158937.3281250000,142665.8906250000,170238.1718750000,162932.9062500000,126892.8593750000,-12557.8095703125,88503.8671875000,151512.3281250000,,,
0.9079999984,7,158899.6875000000,142576.3750000000,170216.6093750000,162888.8593750000,126844.8437500000,-12670.7568359375,88418.8437500000,151223.6406250000,,,
0.9119999984,7,159764.6718750000,142732.6406250000,171092.6718750000,163674.9687500000,127717.4531250000,-11978.6396484375,89226.2421875000,149567.7187500000,,,
0.9159999983,7,160336.4218750000,142921.6875000000,171664.1875000000,164202.1250000000,128298.8203125000,-11447.5888671875,89753.9921875000,148838.5156250000,,,
0.9199999985,7,159812.2812500000,142874.9687500000,171087.7812500000,163754.0000000000,127729.7578125000,-11809.2587890625,89279.2187500000,150028.7343750000,,,
0.9239999985,7,158924.9531250000,142663.6562500000,170205.7187500000,162944.3281250000,126848.4687500000,-12567.1162109375,88466.5312500000,151504.1718750000,,,
0.9279999984,7,158893.1406250000,142579.2968750000,170208.2656250000,162889.1875000000,126838.8359375000,-12686.6894531250,88447.6796875000,151233.9062500000,,,
0.9319999984,7,159762.6093750000,142733.7968750000,171095.7031250000,163682.3437500000,127709.0000000000,-12003.5302734375,89267.1718750000,149574.9843750000,,,
0.9359999984,7,160315.8125000000,142903.8437500000,171625.2187500000,164199.5781250000,128255.1015625000,-11469.6640625000,89732.8593750000,148813.8281250000,,,
0.9399999985,7,159828.6406250000,142873.0312500000,171150.9531250000,163743.8906250000,127807.3828125000,-11811.3505859375,89328.2500000000,150011.9218750000,,,
0.9439999985,7,158948.5625000000,142675.0312500000,170255.9843750000,162939.7656250000,126903.0000000000,-12551.9082031250,88487.4531250000,151508.1093750000,,,
0.9479999985,7,158881.5000000000,142571.0468750000,170173.8281250000,162890.6875000000,126800.0781250000,-12678.5888671875,88413.9609375000,151233.4843750000,,,
0.9519999984,7,159721.5937500000,142699.8125000000,171042.5937500000,163643.6093750000,127671.2109375000,-12009.2705078125,89196.2265625000,149557.7187500000,,,
0.9559999984,7,160305.7812500000,142885.1250000000,171630.0937500000,164170.7656250000,128266.1796875000,-11469.7714843750,89739.3203125000,148797.3437500000,,,
0.9599999983,7,159828.8593750000,142870.0625000000,171141.1875000000,163739.7968750000,127796.6562500000,-11798.6640625000,89291.4218750000,149996.6093750000,,,
0.9639999985,7,158935.2812500000,142669.7500000000,170208.5625000000,162940.8437500000,126849.4843750000,-12541.9306640625,88458.1640625000,151492.1250000000,,,
0.9679999985,7,158873.4531250000,142569.4531250000,170176.1875000000,162869.5937500000,126804.4765625000,-12684.0341796875,88427.5859375000,151234.2500000000,,,
0.9719999984,7,159704.6406250000,142691.5468750000,171031.9375000000,163617.4531250000,127656.1875000000,-12029.6015625000,89189.7890625000,149553.5781250000,,,
0.9759999984,7,160301.5468750000,142881.3750000000,171626.7187500000,164172.9375000000,128267.6250000000,-11474.6523437500,89767.2187500000,148784.3281250000,,,
0.9799999984,7,159859.0937500000,142899.0468750000,171159.9843750000,163787.4218750000,127805.2890625000,-11762.8027343750,89332.1093750000,150006.4218750000,,,
0.9839999985,7,159000.0781250000,142727.9062500000,170289.0468750000,163007.2031250000,126932.4218750000,-12481.1787109375,88496.6250000000,151542.1406250000,,,
0.9879999985,7,158942.0625000000,142637.1562500000,170247.4687500000,162945.1250000000,126880.6796875000,-12607.8857421875,88477.2656250000,151311.6875000000,,,
0.9919999985,7,159766.3125000000,142755.5000000000,171088.8281250000,163688.7812500000,127709.6718750000,-11965.2558593750,89248.2109375000,149625.8750000000,,,
0.9959999984,7,160304.2343750000,142894.4062500000,171612.6406250000,164171.8906250000,128246.5703125000,-11466.4990234375,89740.7187500000,148795.0781250000,,,
0.9999999984,7,159817.9687500000,142861.7968750000,171114.0625000000,163702.2343750000,127775.9765625000,-11797.2148437500,89299.0078125000,149956.5937500000,,,
1.0039999983,7,158975.4375000000,142700.6718750000,170274.8593750000,162947.0625000000,126926.4375000000,-12510.3613281250,88498.3203125000,151501.8906250000,,,
1.0079999985,7,158921.5000000000,142621.7343750000,170228.1562500000,162914.7968750000,126858.8203125000,-12634.8964843750,88455.3750000000,151293.4531250000,,,
1.0119999985,7,159760.3281250000,142754.5937500000,171088.8281250000,163680.5625000000,127712.4062500000,-11974.4023437500,89233.0546875000,149630.2968750000,,,
1.0159999984,7,160321.6093750000,142907.1562500000,171637.3437500000,164195.6562500000,128271.5937500000,-11455.8232421875,89752.4375000000,148800.1718750000,,,
1.0199999984,7,159868.2968750000,142899.9687500000,171160.8750000000,163786.4375000000,127810.7890625000,-11753.2001953125,89337.3906250000,149970.5937500000,,,
1.0239999983,8,159030.6875000000,142747.8750000000,170324.8593750000,163015.1875000000,126973.2187500000,-12451.9960937500,88574.9765625000,151534.0000000000,,,
1.0279999983,8,158954.2500000000,142656.2812500000,170267.0468750000,162934.6718750000,126900.9296875000,-12596.8623046875,88522.6718750000,151332.6093750000,,,
1.0319999983,8,159740.7187500000,142741.9531250000,171070.4843750000,163648.9218750000,127698.2734375000,-11985.0234375000,89232.7109375000,149625.6875000000,,,
1.0359999982,8,160301.3281250000,142886.2812500000,171632.4062500000,164167.1718750000,128276.8515625000,-11473.0703125000,89729.4765625000,148770.8281250000,,,
1.0399999982,8,159861.7187500000,142889.2656250000,171163.7656250000,163781.6093750000,127815.1640625000,-11756.8212890625,89324.1171875000,149943.8125000000,,,
1.0439999981,8,159031.8437500000,142740.2031250000,170331.9843750000,163025.1718750000,126977.8593750000,-12452.5595703125,88555.1796875000,151519.0000000000,,,
1.0479999983,8,158935.8750000000,142635.3593750000,170258.8125000000,162927.1562500000,126894.9765625000,-12612.7949218750,88493.8906250000,151320.9687500000,,,
1.0519999983,8,159708.6718750000,142710.1718750000,171051.8125000000,163623.1718750000,127682.8750000000,-12013.8037109375,89215.9687500000,149607.1718750000,,,
1.0559999982,8,160270.8906250000,142863.0312500000,171577.7500000000,164150.6562500000,128221.9453125000,-11483.2089843750,89725.4531250000,148752.0625000000,,,
1.0599999982,8,159852.9218750000,142881.2343750000,171145.6093750000,163777.9375000000,127800.7578125000,-11746.2265625000,89316.4765625000,149925.7343750000,,,
1.0639999982,8,159020.6562500000,142735.6250000000,170323.8593750000,163010.9531250000,126975.7109375000,-12441.5087890625,88570.7656250000,151508.2500000000,,,
1.0679999983,8,158927.4218750000,142637.9062500000,170262.2500000000,162905.8593750000,126910.1875000000,-12599.8398437500,88506.5000000000,151331.0781250000,,,
1.0719999983,8,159696.8125000000,142721.1875000000,171031.5625000000,163610.8593750000,127656.2968750000,-11996.1279296875,89137.3828125000,149625.6093750000,,,
1.0759999983,8,160279.0156250000,142883.1406250000,171584.3125000000,164158.6250000000,128227.0156250000,-11450.8076171875,89717.1718750000,148756.4843750000,,,
1.0799999982,8,159865.6093750000,142897.5781250000,171160.5000000000,163792.0625000000,127813.0703125000,-11716.3193359375,89326.5078125000,149916.5625000000,,,
1.0839999982,8,159019.9375000000,142740.9843750000,170328.0156250000,163008.3593750000,126978.3671875000,-12428.8486328125,88556.7890625000,151493.7656250000,,,
1.0879999981,8,158895.4531250000,142621.3593750000,170201.8750000000,162888.1406250000,126837.6015625000,-12621.2968750000,88455.9687500000,151308.9531250000,,,
1.0919999983,8,159675.6250000000,142706.7968750000,170994.6875000000,163598.7031250000,127626.8750000000,-12013.6699218750,89169.1406250000,149611.7031250000,,,
1.0959999983,8,160277.1093750000,142875.6875000000,171601.4218750000,164152.0000000000,128246.7031250000,-11461.9921875000,89716.6328125000,148742.2187500000,,,
1.0999999982,8,159869.4375000000,142896.3437500000,171175.8750000000,163792.6250000000,127833.6406250000,-11718.5996093750,89355.5781250000,149900.9843750000,,,
1.1039999982,8,159013.6093750000,142735.5156250000,170311.7343750000,163021.7343750000,126966.7265625000,-12433.1406250000,88558.3437500000,151488.5312500000,,,
1.1079999981,8,158904.5781250000,142632.2812500000,170222.4218750000,162913.9062500000,126860.2421875000,-12606.6259765625,88471.2265625000,151335.3437500000,,,
1.1119999983,8,159701.9375000000,142736.1093750000,171030.1093750000,163635.2656250000,127655.8125000000,-11988.6708984375,89182.7656250000,149651.9687500000,,,
1.1159999983,8,160286.8750000000,142886.7343750000,171605.9843750000,164169.7968750000,128245.5781250000,-11455.0722656250,89716.2265625000,148751.8125000000,,,
1.1199999982,8,159863.5937500000,142877.4062500000,171172.6718750000,163793.9218750000,127833.2421875000,-11739.8691406250,89325.8593750000,149869.8125000000,,,
1.1239999982,8,159028.0937500000,142731.3906250000,170340.3125000000,163025.3593750000,127002.1015625000,-12441.0527343750,88566.5234375000,151467.7968750000,,,
1.1279999982,8,158915.6718750000,142632.8906250000,170234.8906250000,162919.9531250000,126870.0312500000,-12606.0888671875,88474.7656250000,151333.6562500000,,,
1.1319999981,8,159700.8593750000,142730.3593750000,171032.8281250000,163630.7656250000,127660.4765625000,-11991.7822265625,89195.5078125000,149653.7968750000,,,
1.1359999983,8,160289.2656250000,142878.5781250000,171621.7343750000,164167.7656250000,128268.1875000000,-11451.4511718750,89737.8750000000,148742.8281250000,,,
1.1399999983,8,159879.3593750000,142884.4531250000,171192.0625000000,163794.7968750000,127853.6250000000,-11713.6640625000,89358.4531250000,149864.9375000000,,,
1.1439999982,8,159016.5000000000,142719.3437500000,170318.4531250000,163009.3750000000,126981.2656250000,-12441.3476562500,88560.6796875000,151456.7500000000,,,
1.1479999982,8,158888.4531250000,142610.0625000000,170205.5312500000,162884.1093750000,126850.2109375000,-12629.0214843750,88434.0234375000,151327.8125000000,,,
1.1519999981,9,159669.6718750000,142707.7500000000,170994.7656250000,163597.5000000000,127625.1015625000,-12015.6542968750,89169.0859375000,149655.0000000000,,,
1.1559999981,9,160289.6093750000,142884.0781250000,171614.3593750000,164167.7031250000,128258.7734375000,-11447.3476562500,89742.4609375000,148751.1718750000,,,
1.1599999981,9,159887.2500000000,142896.0000000000,171192.5468750000,163809.9062500000,127847.2187500000,-11705.9394531250,89347.6171875000,149861.5000000000,,,
1.1639999980,9,159013.0625000000,142719.6718750000,170315.0937500000,163009.8750000000,126969.9453125000,-12437.3779296875,88555.4218750000,151449.1562500000,,,
1.1679999980,9,158887.7500000000,142615.2968750000,170206.1875000000,162885.7187500000,126849.3515625000,-12621.5654296875,88451.6718750000,151335.3437500000,,,
1.1719999979,9,159708.5156250000,142740.3437500000,171057.7968750000,163626.6875000000,127697.2031250000,-11986.2841796875,89190.4375000000,149685.6562500000,,,
1.1759999981,9,160319.7812500000,142909.3750000000,171641.1718750000,164188.0625000000,128284.8203125000,-11421.1962890625,89743.6171875000,148765.2031250000,,,
1.1799999981,9,159876.2031250000,142883.6562500000,171163.6093750000,163800.0000000000,127819.8281250000,-11708.9707031250,89335.1640625000,149830.9062500000,,,
1.1839999980,9,158994.9062500000,142701.4843750000,170288.2656250000,162997.5625000000,126943.5234375000,-12448.5087890625,88526.8281250000,151412.4062500000,,,
1.1879999980,9,158861.0468750000,142593.4062500000,170177.4218750000,162866.7812500000,126820.0390625000,-12642.4863281250,88416.6171875000,151311.9062500000,,,
1.1919999979,9,159670.0156250000,142718.3281250000,171011.6562500000,163594.6093750000,127649.1093750000,-12006.8300781250,89166.1328125000,149672.5937500000,,,
1.1959999981,9,160301.3593750000,142901.4687500000,171624.7343750000,164193.3750000000,128266.7968750000,-11416.7167968750,89753.9921875000,148759.7031250000,,,
1.1999999981,9,159889.8750000000,142897.5468750000,171190.4843750000,163830.5312500000,127851.0781250000,-11674.4775390625,89371.6484375000,149838.4062500000,,,
1.2039999980,9,158996.4375000000,142702.7187500000,170302.4843750000,163001.3750000000,126966.5625000000,-12433.5966796875,88545.3125000000,151414.5000000000,,,
1.2079999980,9,158856.8750000000,142596.3906250000,170185.4062500000,162844.9218750000,126841.3046875000,-12629.2363281250,88442.9843750000,151328.0468750000,,,
1.2119999980,9,159657.6093750000,142715.1093750000,170991.2968750000,163581.7812500000,127629.9843750000,-12003.2089843750,89143.7890625000,149685.0625000000,,,
1.2159999979,9,160293.5312500000,142894.5156250000,171605.8281250000,164176.0312500000,128249.9218750000,-11411.6210937500,89743.9921875000,148752.7500000000,,,
1.2199999981,9,159890.8125000000,142889.8750000000,171198.2656250000,163813.3593750000,127864.5937500000,-11675.9521484375,89348.8437500000,149818.1093750000,,,
1.2239999981,9,158991.3906250000,142698.6562500000,170300.9843750000,162987.3750000000,126970.8046875000,-12436.3583984375,88527.6328125000,151402.6250000000,,,
1.2279999980,9,158843.0625000000,142591.1875000000,170161.1093750000,162840.0468750000,126811.0234375000,-12637.7929687500,88409.8046875000,151332.1562500000,,,
1.2319999980,9,159659.9375000000,142724.1093750000,170986.3750000000,163581.3593750000,127623.2500000000,-11996.8789062500,89175.2265625000,149705.2656250000,,,
1.2359999979,9,160305.9687500000,142908.9687500000,171630.7656250000,164173.1562500000,128284.7343750000,-11400.7578125000,89771.3750000000,148761.0937500000,33029,1.2394375345,0.0000000000
1.2399999981,9,159900.1562500000,142899.6875000000,171202.5000000000,163810.2812500000,127870.8203125000,-11670.7226562500,89377.0937500000,149811.1250000000,,,
1.2439999981,9,158996.8906250000,142706.3906250000,170296.5625000000,162983.0312500000,126959.8359375000,-12432.8183593750,88540.9140625000,151413.0312500000,,,
1.2479999980,9,158848.6718750000,142598.6718750000,170164.0625000000,162843.0468750000,126810.7031250000,-12634.1445312500,88417.8515625000,151357.1562500000,,,
1.2519999980,9,159674.2812500000,142732.2656250000,171008.7968750000,163592.0312500000,127647.8437500000,-11991.0048828125,89188.4531250000,149723.9531250000,,,
1.2559999980,9,160327.2656250000,142922.1718750000,171654.6875000000,164195.5781250000,128309.6250000000,-11388.9023437500,89780.8671875000,148769.6093750000,,,
1.2599999979,9,159941.0781250000,142929.4062500000,171251.0000000000,163860.2500000000,127915.9609375000,-11626.9755859375,89400.7500000000,149823.2031250000,,,
1.2639999981,9,159012.5000000000,142715.7812500000,170321.0781250000,163014.2031250000,126986.3359375000,-12406.9882812500,88562.8515625000,151410.0781250000,,,
1.2679999981,9,158839.0156250000,142596.6250000000,170163.1718750000,162849.0312500000,126812.7656250000,-12624.4082031250,88413.0234375000,151359.6250000000,,,
1.2719999980,9,159658.1093750000,142727.6875000000,170994.6093750000,163579.2656250000,127636.0703125000,-11984.5947265625,89163.9921875000,149727.3437500000,,,
1.2759999980,9,160327.1562500000,142918.4218750000,171658.5625000000,164195.7656250000,128314.0546875000,-11374.4726562500,89780.7109375000,148756.8906250000,,,
1.2799999979,10,159930.5625000000,142914.1718750000,171235.3125000000,163851.3125000000,127905.3359375000,-11625.2851562500,89405.5234375000,149789.1093750000,,,
1.2839999979,10,159000.7343750000,142704.2343750000,170305.8125000000,162997.0937500000,126976.6796875000,-12409.9931640625,88551.4765625000,151389.0781250000,,,
1.2879999978,10,158815.2031250000,142576.2968750000,170137.6093750000,162821.6093750000,126788.8984375000,-12650.6943359375,88396.0468750000,151345.5156250000,,,
1.2919999978,10,159634.5312500000,142707.4375000000,170974.2968750000,163565.0937500000,127614.9609375000,-12010.0488281250,89144.0078125000,149717.2500000000,,,
1.2959999978,10,160321.1875000000,142912.7812500000,171653.0937500000,164196.9218750000,128305.3125000000,-11380.0244140625,89777.2734375000,148748.4062500000,,,
1.2999999977,10,159931.0468750000,142909.5312500000,171246.3593750000,163838.8125000000,127918.0781250000,-11625.7949218750,89417.4609375000,149772.6718750000,,,
1.3039999979,10,158997.9687500000,142699.7812500000,170309.2656250000,162994.0625000000,126978.5312500000,-12409.0810546875,88551.8046875000,151378.1562500000,,,
1.3079999979,10,158808.3593750000,142571.8750000000,170134.9218750000,162820.1406250000,126785.9453125000,-12649.9970703125,88383.6250000000,151348.7031250000,,,
1.3119999978,10,159643.6562500000,142723.8437500000,170985.0625000000,163577.8593750000,127626.9531250000,-11983.7363281250,89163.6953125000,149742.0156250000,,,
1.3159999978,10,160316.6718750000,142911.8125000000,171650.0312500000,164186.9375000000,128305.2578125000,-11369.2958984375,89772.8515625000,148747.8750000000,,,
1.3199999977,10,159905.7031250000,142880.1406250000,171227.1250000000,163824.6562500000,127905.0468750000,-11643.6318359375,89394.9296875000,149732.5625000000,,,
1.3239999979,10,158960.7968750000,142664.5156250000,170273.0625000000,162972.2500000000,126943.4453125000,-12429.3847656250,88522.9140625000,151335.3750000000,,,
1.3279999979,10,158796.1875000000,142564.5468750000,170126.9687500000,162823.2812500000,126778.0859375000,-12643.5595703125,88382.1484375000,151345.1093750000,,,
1.3319999978,10,159647.3593750000,142725.4062500000,170995.5156250000,163593.2343750000,127636.1015625000,-11977.5673828125,89184.2421875000,149751.5781250000,,,
1.3359999978,10,160358.5468750000,142944.0781250000,171697.2031250000,164244.5312500000,128349.3281250000,-11331.4228515625,89837.5703125000,148771.0000000000,,,
1.3399999978,10,159973.9687500000,142937.2500000000,171294.9531250000,163899.0312500000,127968.5078125000,-11583.0410156250,89471.1015625000,149772.2343750000,,,
1.3439999977,10,159022.4062500000,142711.7500000000,170337.6250000000,163027.7500000000,127010.3359375000,-12382.7148437500,88585.0312500000,151373.8437500000,,,
1.3479999979,10,158821.2656250000,142586.3281250000,170151.5000000000,162835.7500000000,126809.3046875000,-12628.3515625000,88411.0156250000,151371.3125000000,,,
1.3519999979,10,159632.2500000000,142717.1406250000,170978.8593750000,163571.6406250000,127627.6796875000,-11985.4257812500,89159.6953125000,149753.4843750000,,,
1.3559999978,10,160324.8750000000,142919.4062500000,171666.2500000000,164210.1718750000,128327.8671875000,-11357.2519531250,89799.2734375000,148752.8906250000,,,
1.3599999978,10,159953.7968750000,142925.2812500000,171267.0937500000,163880.7187500000,127944.6328125000,-11586.9296875000,89455.3828125000,149753.7343750000,,,
1.3639999977,10,159008.9843750000,142711.6718750000,170319.2187500000,163006.5312500000,126997.3593750000,-12370.2158203125,88579.8593750000,151368.6562500000,,,
1.3679999979,10,158806.3281250000,142584.7187500000,170131.2343750000,162801.7656250000,126793.3750000000,-12611.8017578125,88396.6093750000,151377.2656250000,,,
1.3719999979,10,159612.9375000000,142710.4375000000,170955.8437500000,163541.7968750000,127609.7031250000,-11984.4062500000,89148.9140625000,149761.2968750000,,,
1.3759999978,10,160318.2812500000,142916.1562500000,171654.0468750000,164205.6406250000,128318.0000000000,-11349.7685546875,89789.0000000000,148747.9843750000,,,
1.3799999978,10,159949.6875000000,142914.5781250000,171263.7343750000,163866.4218750000,127941.7109375000,-11577.8105468750,89444.8671875000,149729.8593750000,,,
1.3839999977,10,159010.6562500000,142699.8125000000,170324.0468750000,162998.5312500000,127003.5781250000,-12362.5976562500,88581.4140625000,151344.9843750000,,,
1.3879999977,10,158777.4062500000,142551.0937500000,170110.3593750000,162766.3906250000,126776.4765625000,-12633.2333984375,88374.2421875000,151349.5625000000,,,
1.3919999979,10,159574.2968750000,142672.5312500000,170920.5937500000,163496.5625000000,127575.8593750000,-12010.6923828125,89118.0937500000,149737.8593750000,,,
1.3959999979,10,160303.0781250000,142901.2812500000,171635.2812500000,164185.4687500000,128297.5312500000,-11350.8691406250,89777.3281250000,148739.5000000000,,,
1.3999999978,10,159959.3437500000,142920.2968750000,171274.0312500000,163880.1718750000,127953.5390625000,-11557.1308593750,89456.2734375000,149729.7500000000,,,
1.4039999978,10,159031.1406250000,142721.5156250000,170345.3281250000,163030.5625000000,127023.2109375000,-12332.0478515625,88598.5000000000,151362.3125000000,,,
1.4079999977,11,158805.7812500000,142587.2656250000,170133.7968750000,162803.7187500000,126796.0859375000,-12605.8476562500,88396.3437500000,151395.5156250000,,,
1.4119999977,11,159607.9843750000,142715.5000000000,170949.2968750000,163526.6093750000,127599.6484375000,-11980.4365234375,89146.5546875000,149792.1406250000,,,
1.4159999976,11,160307.7187500000,142910.8281250000,171641.7656250000,164176.5625000000,128300.0781250000,-11345.1826171875,89776.2578125000,148745.7812500000,,,
1.4199999976,11,159964.0468750000,142921.9531250000,171283.8750000000,163876.6406250000,127960.2187500000,-11558.3642578125,89457.6093750000,149710.4375000000,,,
1.4239999976,11,159049.0937500000,142730.6562500000,170369.6250000000,163043.0000000000,127045.7968750000,-12329.7412109375,88621.1406250000,151356.7812500000,,,
1.4279999975,11,158841.0312500000,142615.8281250000,170175.5312500000,162853.5312500000,126835.4609375000,-12576.8525390625,88441.1093750000,151422.6875000000,,,
1.4319999977,11,159634.2187500000,142742.4687500000,170981.1875000000,163571.9687500000,127633.1250000000,-11956.0556640625,89161.6328125000,149822.1562500000,,,
1.4359999977,11,160344.2968750000,142939.6093750000,171683.3906250000,164228.6250000000,128346.9609375000,-11318.6826171875,89812.2812500000,148768.2812500000,,,
1.4399999976,11,160004.1406250000,142952.9843750000,171323.1250000000,163923.4375000000,128002.9140625000,-11536.0488281250,89496.7734375000,149728.8437500000,,,
1.4439999976,11,159082.0781250000,142761.4062500000,170396.2812500000,163074.8750000000,127076.6953125000,-12297.0986328125,88647.2109375000,151377.7500000000,,,
1.4479999975,11,158852.7812500000,142631.2031250000,170183.7500000000,162846.9375000000,126851.1484375000,-12557.2724609375,88450.4687500000,151441.5312500000,,,
1.4519999977,11,159630.6718750000,142741.3125000000,170980.3593750000,163542.4062500000,127640.6875000000,-11951.2548828125,89181.7968750000,149836.7968750000,,,
1.4559999977,11,160335.5312500000,142931.2968750000,171674.4375000000,164195.3593750000,128343.6093750000,-11312.4599609375,89807.1015625000,148762.0625000000,,,
1.4599999976,11,159994.0000000000,142941.3281250000,171314.1406250000,163902.2500000000,128001.6875000000,-11511.7207031250,89491.3828125000,149704.3750000000,,,
1.4639999976,11,159073.5000000000,142755.9531250000,170388.7187500000,163066.2031250000,127077.2890625000,-12270.0351562500,88649.2734375000,151369.1250000000,,,
1.4679999975,11,158842.1250000000,142630.5000000000,170175.0000000000,162835.6406250000,126851.1796875000,-12538.3095703125,88446.2812500000,151455.1406250000,,,
1.4719999975,11,159602.5625000000,142721.5156250000,170948.5781250000,163524.8125000000,127610.9921875000,-11954.9287109375,89145.9375000000,149831.9218750000,,,
1.4759999977,11,160304.7343750000,142903.3906250000,171641.7187500000,164176.4062500000,128312.7421875000,-11323.9121093750,89784.3281250000,148737.0937500000,,,
1.4799999977,11,159978.4531250000,142916.0000000000,171299.2187500000,163895.3125000000,127987.7343750000,-11511.6669921875,89476.4921875000,149669.0781250000,,,
1.4839999976,11,159066.6875000000,142740.5625000000,170384.5937500000,163065.4062500000,127072.9687500000,-12270.6250000000,88641.7109375000,151347.5000000000,,,
1.4879999976,11,158812.3593750000,142604.0312500000,170143.6718750000,162819.0625000000,126811.9062500000,-12566.6337890625,88412.8359375000,151440.7812500000,,,
1.4919999975,11,159567.0468750000,142700.4843750000,170915.0156250000,163502.7968750000,127571.5078125000,-11985.0771484375,89108.3906250000,149824.0312500000,,,
1.4959999977,11,160277.8593750000,142889.5312500000,171618.7031250000,164160.5781250000,128282.5390625000,-11332.3613281250,89761.0234375000,148719.8125000000,,,
1.4999999977,11,159965.4375000000,142909.4375000000,171284.0625000000,163883.0781250000,127965.1015625000,-11507.1074218750,89461.5546875000,149645.7187500000,,,
1.5039999976,11,159059.2500000000,142737.9375000000,170373.2500000000,163055.2343750000,127056.3359375000,-12260.7812500000,88625.8593750000,151330.4687500000,,,
1.5079999976,11,158810.7187500000,142610.6250000000,170140.3437500000,162820.4687500000,126808.8515625000,-12540.1875000000,88408.4609375000,151447.2500000000,,,
1.5119999975,11,159570.9687500000,142704.7031250000,170918.6406250000,163505.2812500000,127575.5625000000,-11962.5468750000,89114.8281250000,149834.5000000000,,,
1.5159999975,11,160285.4218750000,142890.5781250000,171622.7187500000,164150.6562500000,128290.2109375000,-11320.8007812500,89760.0000000000,148718.4531250000,,,
1.5199999977,11,159966.0781250000,142904.2500000000,171283.4531250000,163870.6093750000,127969.4453125000,-11506.1953125000,89457.6875000000,149630.4375000000,,,
1.5239999976,11,159051.0468750000,142728.9375000000,170366.3437500000,163034.2343750000,127054.6796875000,-12262.1494140625,88615.2890625000,151318.2656250000,,,
1.5279999976,11,158807.6093750000,142605.1093750000,170142.7343750000,162794.8750000000,126817.1640625000,-12545.8203125000,88409.4843750000,151448.9218750000,,,
1.5319999976,11,159557.0937500000,142696.4062500000,170907.9687500000,163478.0625000000,127572.2109375000,-11970.6464843750,89106.9921875000,149841.1250000000,,,
1.5359999975,12,160272.9531250000,142881.1093750000,171613.0156250000,164144.0781250000,128284.4687500000,-11324.8515625000,89752.0390625000,148716.4062500000,,,
1.5399999975,12,159968.6093750000,142904.5468750000,171290.1562500000,163875.7812500000,127980.3359375000,-11504.1572265625,89465.8437500000,149622.1718750000,,,
1.5439999974,12,159054.5312500000,142730.3593750000,170370.9843750000,163044.3750000000,127063.5546875000,-12257.8847656250,88628.8906250000,151309.5156250000,,,
1.5479999974,12,158790.5781250000,142597.5468750000,170122.3281250000,162790.6875000000,126799.1953125000,-12559.3652343750,88394.6250000000,151446.0468750000,,,
1.5519999973,12,159540.9843750000,142688.8125000000,170891.0937500000,163466.2812500000,127557.5937500000,-11990.1201171875,89092.1562500000,149838.7031250000,,,
1.5559999973,12,160280.3906250000,142885.8593750000,171629.4531250000,164150.8437500000,128307.0000000000,-11327.8017578125,89765.4453125000,148711.7812500000,,,
1.5599999975,12,159980.5468750000,142911.8125000000,171304.7968750000,163894.2812500000,127996.8281250000,-11497.2636718750,89472.2265625000,149608.8437500000,,,
1.5639999975,12,159081.9218750000,142748.7343750000,170408.9687500000,163081.6875000000,127098.9062500000,-12237.7685546875,88661.2109375000,151310.3750000000,,,
1.5679999974,12,158838.0000000000,142639.4062500000,170177.3125000000,162852.6250000000,126849.2968750000,-12511.3261718750,88443.4687500000,151482.1250000000,,,
1.5719999974,12,159581.3750000000,142732.5312500000,170932.4843750000,163515.9531250000,127592.4843750000,-11938.6484375000,89129.1484375000,149890.3593750000,,,
1.5759999973,12,160292.7500000000,142903.7187500000,171637.3437500000,164166.1562500000,128305.9843750000,-11305.5927734375,89768.1875000000,148736.7187500000,,,
1.5799999975,12,160006.2343750000,142930.6406250000,171335.6718750000,163910.2500000000,128023.1718750000,-11463.9238281250,89500.3906250000,149621.4375000000,,,
1.5839999975,12,159100.4531250000,142761.6875000000,170427.1562500000,163074.8750000000,127116.5546875000,-12210.8925781250,88673.7343750000,151317.8906250000,,,
1.5879999974,12,158823.0625000000,142628.1718750000,170159.4687500000,162812.5312500000,126834.5468750000,-12518.0859375000,88411.0937500000,151482.0937500000,,,
1.5919999974,12,159563.2656250000,142717.0312500000,170909.6250000000,163482.1093750000,127575.2109375000,-11957.7724609375,89108.7890625000,149892.9843750000,,,
1.5959999973,12,160297.5156250000,142902.7187500000,171640.8281250000,164154.4062500000,128314.8046875000,-11301.9990234375,89771.8046875000,148741.2968750000,,,
1.5999999973,12,160008.8593750000,142922.4375000000,171335.1406250000,163906.8437500000,128026.5468750000,-11463.0927734375,89494.4609375000,149602.5937500000,,,
1.6039999975,12,159091.9843750000,142742.2812500000,170414.5156250000,163085.4062500000,127107.9687500000,-12215.2373046875,88663.0859375000,151284.7968750000,,,
1.6079999974,12,158809.5468750000,142611.3906250000,170145.6250000000,162823.3281250000,126821.6718750000,-12520.0703125000,88411.7343750000,151462.8906250000,,,
1.6119999974,12,159537.1718750000,142699.0625000000,170890.4531250000,163474.0312500000,127557.5078125000,-11962.8417968750,89085.5625000000,149883.7656250000,,,
1.6159999974,12,160278.2343750000,142890.7968750000,171629.7187500000,164155.4062500000,128309.1171875000,-11304.1982421875,89760.5625000000,148729.0937500000,,,
1.6199999973,12,159998.2187500000,142918.0468750000,171324.2187500000,163908.5000000000,128020.1875000000,-11453.8115234375,89497.7109375000,149591.7187500000,,,
1.6239999975,12,159095.9687500000,142754.0156250000,170416.1875000000,163076.2656250000,127114.5156250000,-12194.6914062500,88667.9687500000,151293.5625000000,,,
1.6279999975,12,158825.6562500000,142633.5937500000,170161.1875000000,162813.9531250000,126844.0390625000,-12496.8154296875,88422.8984375000,151493.9687500000,,,
1.6319999974,12,159565.3593750000,142730.7656250000,170916.5312500000,163491.8437500000,127585.4843750000,-11936.3144531250,89105.9765625000,149925.7968750000,,,
1.6359999974,12,160300.2656250000,142917.0000000000,171643.0000000000,164174.7656250000,128320.9218750000,-11285.2080078125,89778.6718750000,148756.1718750000,,,
1.6399999973,12,160033.7500000000,142950.3281250000,171356.4531250000,163942.4531250000,128049.9062500000,-11427.3652343750,89514.8203125000,149607.2500000000,,,
1.6439999973,12,159110.8593750000,142770.2968750000,170431.9062500000,163096.8125000000,127128.9218750000,-12181.4687500000,88673.7343750000,151298.9062500000,,,
1.6479999975,12,158814.8593750000,142630.0468750000,170152.0937500000,162816.4375000000,126833.8750000000,-12505.6943359375,88415.4140625000,151495.1562500000,,,
1.6519999974,12,159553.4531250000,142727.9843750000,170904.8281250000,163487.0781250000,127571.6718750000,-11943.5830078125,89097.2031250000,149935.3437500000,,,
1.6559999974,12,160313.9375000000,142932.6562500000,171658.8750000000,164190.5312500000,128335.5625000000,-11262.9462890625,89789.8593750000,148772.7343750000,,,
1.6599999974,12,160042.0468750000,142955.2968750000,171366.0312500000,163962.4687500000,128062.0312500000,-11408.0800781250,89520.5859375000,149603.7968750000,,,
1.6639999973,13,159123.4687500000,142773.3125000000,170441.6406250000,163105.2031250000,127139.7578125000,-12164.1416015625,88680.9531250000,151292.8906250000,,,
1.6679999973,13,158822.3906250000,142631.3437500000,170153.9218750000,162820.7812500000,126836.9609375000,-12489.4667968750,88409.5078125000,151500.6875000000,,,
1.6719999972,13,159572.0468750000,142738.9218750000,170922.2031250000,163492.7343750000,127595.2734375000,-11913.0595703125,89105.7578125000,149960.3125000000,,,
1.6759999972,13,160330.7031250000,142942.4687500000,171677.5937500000,164191.2812500000,128361.4453125000,-11236.9550781250,89801.4140625000,148793.0937500000,,,
1.6799999971,13,160048.4843750000,142954.8593750000,171375.6718750000,163942.5625000000,128076.3281250000,-11390.9140625000,89537.2187500000,149602.9062500000,,,
1.6839999971,13,159128.5937500000,142771.4375000000,170453.0156250000,163104.7500000000,127156.8671875000,-12143.6757812500,88697.9843750000,151290.7500000000,,,
1.6879999973,13,158813.3750000000,142622.5156250000,170152.6250000000,162803.5937500000,126841.5781250000,-12479.4355468750,88412.4843750000,151504.3750000000,,,
1.6919999972,13,159538.3437500000,142711.2187500000,170894.8593750000,163452.9531250000,127571.5078125000,-11933.3906250000,89078.7500000000,149952.4218750000,,,
1.6959999972,13,160312.7812500000,142921.5468750000,171662.8437500000,164167.7656250000,128346.9375000000,-11248.2744140625,89790.3671875000,148775.3125000000,,,
1.6999999972,13,160054.1875000000,142951.4843750000,171382.1875000000,163950.4218750000,128083.4375000000,-11375.2763671875,89544.4375000000,149584.0000000000,,,
1.7039999971,13,159119.2343750000,142757.5937500000,170444.4531250000,163097.1093750000,127148.9296875000,-12146.6269531250,88683.7421875000,151265.3437500000,,,
1.7079999973,13,158799.1562500000,142612.5625000000,170136.1562500000,162798.5781250000,126823.8203125000,-12490.5664062500,88396.2578125000,151497.3281250000,,,
1.7119999973,13,159533.4218750000,142720.3593750000,170881.0937500000,163464.4687500000,127554.6093750000,-11922.8496093750,89084.5937500000,149968.1406250000,,,
1.7159999972,13,160311.5781250000,142936.9531250000,171655.0468750000,164184.3125000000,128340.3359375000,-11230.2500000000,89795.4609375000,148789.5000000000,,,
1.7199999972,13,160050.4687500000,142961.4687500000,171375.7187500000,163960.2968750000,128081.3750000000,-11370.6093750000,89543.1484375000,149582.2343750000,,,
1.7239999971,13,159096.8906250000,142747.8750000000,170420.2343750000,163091.0468750000,127131.1718750000,-12153.9218750000,88675.1796875000,151247.4062500000,,,
1.7279999971,13,158763.1406250000,142591.1093750000,170100.6562500000,162780.4687500000,126793.1328125000,-12507.7060546875,88373.1953125000,151480.9375000000,,,
1.7319999973,13,159525.6406250000,142719.5000000000,170880.0781250000,163471.4375000000,127558.0703125000,-11921.9111328125,89083.7109375000,149977.3750000000,,,
1.7359999972,13,160309.8281250000,142935.7500000000,171659.7343750000,164189.0937500000,128346.2421875000,-11220.4863281250,89797.2031250000,148790.2500000000,,,
1.7399999972,13,160052.4218750000,142953.8281250000,171382.0468750000,163959.5156250000,128084.9140625000,-11357.1181640625,89548.2656250000,149560.8750000000,,,
1.7439999972,13,159111.8281250000,142751.3750000000,170436.0312500000,163106.3906250000,127140.5312500000,-12132.6787109375,88680.9765625000,151238.3281250000,,,
1.7479999971,13,158787.4062500000,142606.3437500000,170127.5312500000,162803.4062500000,126815.9843750000,-12479.0869140625,88388.5390625000,151498.5312500000,,,
1.7519999973,13,159530.2500000000,142723.6875000000,170884.9062500000,163478.2812500000,127559.9218750000,-11913.3007812500,89077.9453125000,149993.2500000000,,,
1.7559999973,13,160323.1718750000,142946.8281250000,171672.1562500000,164203.4843750000,128357.2890625000,-11211.5283203125,89802.9687500000,148802.6250000000,,,
1.7599999972,13,160074.6562500000,142970.9375000000,171404.0937500000,163981.8593750000,128108.4921875000,-11343.3857421875,89559.2968750000,149571.2343750000,,,
1.7639999972,13,159118.8750000000,142757.7812500000,170444.7187500000,163100.5625000000,127150.1093750000,-12131.9814453125,88682.7734375000,151240.7500000000,,,
1.7679999971,13,158769.5156250000,142598.7812500000,170110.2500000000,162767.9218750000,126797.7187500000,-12494.5361328125,88370.7812500000,151501.1875000000,,,
1.7719999971,13,159506.1718750000,142713.2343750000,170863.1562500000,163446.9687500000,127539.7500000000,-11932.0234375000,89060.3750000000,149996.5781250000,,,
1.7759999973,13,160305.6250000000,142939.0625000000,171658.2031250000,164186.3281250000,128347.5781250000,-11213.9150390625,89802.7578125000,148797.3437500000,,,
1.7799999972,13,160066.0468750000,142966.6093750000,171400.4218750000,163975.0156250000,128109.6953125000,-11332.0400390625,89576.9687500000,149554.7343750000,,,
1.7839999972,13,159120.7500000000,142755.2500000000,170451.8281250000,163109.7968750000,127163.6015625000,-12115.0302734375,88709.9218750000,151225.8281250000,,,
1.7879999971,13,158769.8750000000,142588.7500000000,170113.6562500000,162783.1250000000,126809.5468750000,-12487.8574218750,88389.9296875000,151490.7031250000,,,
1.7919999971,14,159519.8125000000,142711.0781250000,170877.8125000000,163471.1718750000,127559.8203125000,-11918.0214843750,89088.9375000000,149998.8906250000,,,
1.7959999971,14,160312.8593750000,142929.9218750000,171664.1093750000,164188.9062500000,128356.4843750000,-11214.6933593750,89817.8828125000,148788.7500000000,,,
1.7999999970,14,160078.8125000000,142955.5937500000,171410.2968750000,163976.8125000000,128119.8359375000,-11329.9472656250,89589.5234375000,149532.3906250000,,,
1.8039999970,14,159135.9687500000,142757.2968750000,170459.0468750000,163116.0468750000,127170.0625000000,-12104.3281250000,88718.9296875000,151218.0781250000,,,
1.8079999969,14,158775.9062500000,142600.1250000000,170111.6718750000,162783.9843750000,126807.7265625000,-12481.7421875000,88391.8593750000,151509.0156250000,,,
1.8119999969,14,159519.3281250000,142724.4687500000,170871.9687500000,163462.0937500000,127555.3906250000,-11913.2744140625,89085.3203125000,150026.9218750000,,,
1.8159999971,14,160318.9843750000,142947.9687500000,171666.5781250000,164195.0468750000,128359.0312500000,-11201.8984375000,89816.6250000000,148810.8750000000,,,
1.8199999970,14,160076.6406250000,142965.6718750000,171406.9687500000,163979.4218750000,128118.9218750000,-11319.5400390625,89584.0234375000,149537.9687500000,,,
1.8239999970,14,159110.5625000000,142742.4687500000,170436.1406250000,163095.6562500000,127148.8750000000,-12119.8583984375,88690.9531250000,151197.5312500000,,,
1.8279999970,14,158739.6718750000,142571.3906250000,170077.5781250000,162751.6875000000,126771.4609375000,-12513.6865234375,88348.0859375000,151480.3750000000,,,
1.8319999969,14,159463.0312500000,142680.7187500000,170816.8593750000,163418.9687500000,127494.4765625000,-11964.6123046875,89014.9140625000,149993.5781250000,,,
1.8359999971,14,160270.4531250000,142902.0781250000,171622.7500000000,164132.8750000000,128309.4921875000,-11239.9052734375,89764.5859375000,148768.7187500000,,,
1.8399999971,14,160084.3125000000,142963.2656250000,171419.7343750000,163965.1718750000,128127.6406250000,-11311.2529296875,89591.9375000000,149519.6875000000,,,
1.8439999970,14,159160.8593750000,142782.0000000000,170490.8906250000,163128.2968750000,127204.3671875000,-12064.4970703125,88741.7812500000,151227.1250000000,,,
1.8479999970,14,158800.3437500000,142637.3750000000,170142.5468750000,162802.3906250000,126841.0937500000,-12433.8916015625,88419.6484375000,151558.1093750000,,,
1.8519999969,14,159506.9687500000,142733.3906250000,170864.5468750000,163446.2812500000,127550.8828125000,-11898.1201171875,89076.8203125000,150074.3906250000,,,
1.8559999969,14,160318.9843750000,142956.6406250000,171672.0781250000,164177.5312500000,128366.1406250000,-11180.7626953125,89816.0859375000,148837.4687500000,,,
1.8599999971,14,160109.4218750000,142986.7343750000,171447.7031250000,163993.9375000000,128160.4140625000,-11280.0849609375,89616.0468750000,149540.5156250000,,,
1.8639999970,14,159158.8125000000,142775.5000000000,170490.4531250000,163125.1406250000,127204.9609375000,-12065.4365234375,88740.3046875000,151214.1406250000,,,
1.8679999970,14,158780.3281250000,142606.3125000000,170122.8593750000,162773.1718750000,126820.5703125000,-12453.3906250000,88402.2187500000,151530.1562500000,,,
1.8719999969,14,159511.3437500000,142724.9531250000,170870.9531250000,163433.6093750000,127555.8984375000,-11896.5107421875,89084.4609375000,150066.3437500000,,,
1.8759999969,14,160337.0000000000,142959.3750000000,171691.0625000000,164193.5937500000,128384.7031250000,-11158.8222656250,89840.4687500000,148833.4062500000,,,
1.8799999971,14,160121.0625000000,142985.9843750000,171455.7812500000,164006.1875000000,128168.6484375000,-11257.0722656250,89636.0312500000,149524.5625000000,,,
1.8839999971,14,159151.2500000000,142761.4843750000,170480.1250000000,163120.4687500000,127197.1562500000,-12055.6464843750,88735.8828125000,151185.7343750000,,,
1.8879999970,14,158768.0156250000,142595.4531250000,170110.9218750000,162767.5468750000,126812.5234375000,-12450.7353515625,88383.3046875000,151517.4375000000,,,
1.8919999970,14,159495.7812500000,142714.4062500000,170857.4687500000,163434.8750000000,127546.2421875000,-11901.0166015625,89068.7421875000,150062.6718750000,,,
1.8959999969,14,160326.8437500000,142951.6250000000,171678.8125000000,164207.8437500000,128376.2031250000,-11165.2871093750,89832.6875000000,148822.7656250000,,,
1.8999999969,14,160129.8906250000,142996.8125000000,171459.8906250000,164038.9062500000,128177.5312500000,-11245.5654296875,89646.3046875000,149520.0781250000,,,
1.9039999971,14,159172.5781250000,142784.0312500000,170497.0000000000,163162.6875000000,127219.0937500000,-12034.8320312500,88758.3828125000,151196.2031250000,,,
1.9079999970,14,158762.8437500000,142602.2031250000,170101.0781250000,162777.5000000000,126807.3750000000,-12451.5400390625,88384.6484375000,151532.5156250000,,,
1.9119999970,14,159468.9687500000,142707.3750000000,170826.8281250000,163414.1718750000,127517.5156250000,-11917.0830078125,89049.5156250000,150074.7968750000,,,
1.9159999969,14,160291.2187500000,142935.9062500000,171645.8750000000,164166.9062500000,128344.3593750000,-11191.5458984375,89807.2656250000,148819.2500000000,,,
1.9199999969,15,160100.0625000000,142975.6250000000,171438.4062500000,164004.3437500000,128155.9609375000,-11269.2226562500,89623.7187500000,149495.4687500000,,,
1.9239999969,15,159171.5781250000,142787.2343750000,170505.0937500000,163158.2343750000,127226.9531250000,-12020.6972656250,88768.3359375000,151191.6875000000,,,
1.9279999968,15,158791.5156250000,142633.1093750000,170138.8906250000,162794.6093750000,126843.8515625000,-12408.4638671875,88431.9609375000,151563.0468750000,,,
1.9319999968,15,159488.3593750000,142730.3593750000,170849.6250000000,163424.5781250000,127541.0390625000,-11887.2031250000,89081.4609375000,150103.5781250000,,,
1.9359999967,15,160304.1406250000,142948.5937500000,171660.7812500000,164171.4375000000,128362.8437500000,-11166.4667968750,89828.6953125000,148829.8906250000,,,
1.9399999967,15,160119.4218750000,142989.5000000000,171455.2968750000,164014.4531250000,128177.4218750000,-11235.8554687500,89646.7578125000,149494.2343750000,,,
1.9439999969,15,159176.5000000000,142787.7187500000,170503.8437500000,163156.1875000000,127229.8515625000,-12006.4003906250,88775.5000000000,151180.9687500000,,,
1.9479999968,15,158774.6718750000,142622.1406250000,170114.0937500000,162780.4218750000,126824.4921875000,-12412.7822265625,88404.2812500000,151557.3593750000,,,
1.9519999968,15,159452.5937500000,142707.8593750000,170807.9531250000,163393.8437500000,127503.4921875000,-11911.4775390625,89031.6250000000,150101.2187500000,,,
1.9559999967,15,160275.5000000000,142926.8437500000,171627.0468750000,164151.1406250000,128329.0468750000,-11189.7480468750,89784.2265625000,148818.9843750000,,,
1.9599999967,15,160100.4375000000,142971.3125000000,171430.5468750000,164005.0000000000,128150.4375000000,-11251.8955078125,89608.9687500000,149474.0000000000,,,
1.9639999969,15,159167.9062500000,142779.5312500000,170490.4843750000,163159.3125000000,127215.4765625000,-12011.4433593750,88751.3593750000,151169.0468750000,,,
1.9679999969,15,158774.8125000000,142619.3437500000,170114.4375000000,162793.7968750000,126824.0859375000,-12415.6250000000,88398.9453125000,151559.0156250000,,,
1.9719999968,15,159461.6406250000,142717.0937500000,170817.7968750000,163403.5156250000,127514.5156250000,-11900.6679687500,89045.5156250000,150118.3437500000,,,
1.9759999968,15,160272.8750000000,142923.4375000000,171627.7187500000,164151.3750000000,128335.2187500000,-11187.3339843750,89798.5234375000,148819.0312500000,,,
1.9799999967,15,160109.8281250000,142966.3437500000,171444.1406250000,164019.5937500000,128168.3593750000,-11244.2236328125,89639.8671875000,149453.1875000000,,,
1.9839999967,15,159191.6406250000,142788.0312500000,170517.4687500000,163184.9531250000,127244.3593750000,-11992.6943359375,88788.9921875000,151158.9375000000,,,
1.9879999969,15,158776.2343750000,142617.7968750000,170114.6562500000,162793.8281250000,126827.4921875000,-12410.9580078125,88413.3750000000,151557.0625000000,,,
1.9919999968,15,159430.5781250000,142686.2968750000,170786.8593750000,163365.4843750000,127487.5312500000,-11924.7812500000,89025.2109375000,150099.7968750000,,,
1.9959999968,15,160263.5468750000,142904.9843750000,171617.5000000000,164123.5000000000,128327.0625000000,-11192.2158203125,89789.7500000000,148800.3593750000,,,
1.9999999967,15,160118.0781250000,142966.5156250000,171454.0625000000,164006.8593750000,128182.8671875000,-11230.7597656250,89646.3281250000,149447.2343750000,,,
2.0039999967,15,159212.7031250000,142803.0312500000,170545.1718750000,163184.8906250000,127277.2968750000,-11962.1445312500,88814.7421875000,151170.9062500000,,,
2.0079999969,15,158815.4687500000,142658.5625000000,170160.4062500000,162810.9218750000,126875.3671875000,-12357.9042968750,88458.0078125000,151607.9375000000,,,
2.0119999968,15,159474.2656250000,142738.3125000000,170833.9687500000,163405.1875000000,127534.2578125000,-11862.5810546875,89070.5156250000,150169.7656250000,,,
2.0159999968,15,160280.4687500000,142940.0625000000,171634.8437500000,164146.8750000000,128342.4062500000,-11155.8994140625,89809.0625000000,148847.3906250000,,,
2.0199999968,15,160117.6562500000,142984.4531250000,171451.7343750000,164010.3750000000,128176.2421875000,-11209.0869140625,89650.1093750000,149461.2656250000,,,
2.0239999967,15,159188.0781250000,142795.6250000000,170517.0312500000,163163.3281250000,127246.3750000000,-11969.4130859375,88798.7265625000,151157.2187500000,,,
2.0279999967,15,158757.5937500000,142620.0781250000,170098.8750000000,162765.3437500000,126816.7109375000,-12404.2792968750,88410.2109375000,151576.9843750000,,,
2.0319999969,15,159431.0312500000,142708.7812500000,170788.8437500000,163376.7812500000,127494.2890625000,-11900.1582031250,89038.0078125000,150152.1718750000,,,
2.0359999968,15,160271.0000000000,142927.1562500000,171625.2656250000,164148.7500000000,128340.2031250000,-11165.1523437500,89809.4609375000,148832.8281250000,,,
2.0399999968,15,160128.1093750000,142977.1562500000,171464.2343750000,164027.6406250000,128196.8671875000,-11201.6572265625,89665.4843750000,149436.3750000000,,,
2.0439999967,15,159201.5156250000,142792.5625000000,170530.3906250000,163175.5000000000,127265.7656250000,-11951.7373046875,88812.3750000000,151140.7031250000,,,
2.0479999967,16,158772.7968750000,142625.5468750000,170115.7500000000,162776.3437500000,126835.0546875000,-12377.1357421875,88426.3046875000,151581.5781250000,,,
2.0519999966,16,159429.8281250000,142705.8437500000,170788.0156250000,163372.2812500000,127494.2890625000,-11888.9199218750,89036.6406250000,150161.7500000000,,,
2.0559999966,16,160263.2187500000,142920.2343750000,171616.5468750000,164140.5625000000,128330.3359375000,-11161.4775390625,89799.0546875000,148832.8750000000,,,
2.0599999966,16,160125.4375000000,142973.4531250000,171457.4218750000,164026.7812500000,128189.0625000000,-11197.2851562500,89661.9921875000,149427.3593750000,,,
2.0639999965,16,159217.1250000000,142802.4843750000,170543.5625000000,163208.7656250000,127279.6328125000,-11937.6015625000,88830.3203125000,151142.6093750000,,,
2.0679999965,16,158786.5468750000,142640.9375000000,170125.0000000000,162798.3281250000,126847.5546875000,-12365.4951171875,88438.2343750000,151604.6093750000,,,
2.0719999967,16,159421.3750000000,142706.2187500000,170778.4687500000,163360.8437500000,127488.6015625000,-11898.8974609375,89027.3593750000,150180.5781250000,,,
2.0759999966,16,160239.4218750000,142906.3125000000,171595.2343750000,164097.4687500000,128313.4375000000,-11187.8173828125,89778.7812500000,148833.2812500000,,,
2.0799999966,16,160106.9843750000,142957.1406250000,171444.8437500000,163983.6250000000,128177.6406250000,-11216.9189453125,89644.7734375000,149409.6562500000,,,
2.0839999965,16,159191.1406250000,142778.7187500000,170520.4218750000,163154.7500000000,127255.8671875000,-11961.1513671875,88795.0000000000,151113.5625000000,,,
2.0879999965,16,158755.2500000000,142612.9687500000,170099.6562500000,162749.8125000000,126819.6093750000,-12391.2705078125,88409.3750000000,151582.9218750000,,,
2.0919999967,16,159410.9218750000,142697.0781250000,170773.7031250000,163347.1093750000,127476.8046875000,-11906.9980468750,89021.0000000000,150178.7343750000,,,
2.0959999966,16,160250.3906250000,142907.5468750000,171613.3593750000,164124.0781250000,128324.0859375000,-11174.2724609375,89793.1562500000,148832.6562500000,,,
2.0999999966,16,160133.8593750000,142968.7812500000,171478.3906250000,164025.6093750000,128208.7734375000,-11184.9208984375,89681.9218750000,149408.1875000000,,,
2.1039999966,16,159215.7343750000,142793.3750000000,170552.9843750000,163187.3281250000,127289.9843750000,-11927.4902343750,88837.2656250000,151121.1250000000,,,
2.1079999965,16,158764.2343750000,142622.0781250000,170115.1875000000,162764.0625000000,126841.0625000000,-12378.2626953125,88424.0234375000,151600.5468750000,,,
2.1119999965,16,159404.5312500000,142694.4218750000,170771.3906250000,163340.1718750000,127483.9921875000,-11910.8066406250,89019.4687500000,150194.0625000000,,,
2.1159999967,16,160267.1875000000,142925.3125000000,171634.6562500000,164136.7500000000,128354.0468750000,-11157.5888671875,89815.2265625000,148855.1406250000,,,
2.1199999966,16,160170.0312500000,143006.8281250000,171518.4062500000,164061.7343750000,128257.1640625000,-11152.1171875000,89716.6875000000,149437.8437500000,,,
2.1239999966,16,159240.2031250000,142820.9218750000,170576.0781250000,163212.2031250000,127321.2578125000,-11899.8095703125,88855.8046875000,151140.1875000000,,,
2.1279999965,16,158777.6562500000,142642.0625000000,170128.2187500000,162781.1093750000,126859.8906250000,-12348.0341796875,88441.6406250000,151625.3281250000,,,
2.1319999965,16,159416.8750000000,142718.5625000000,170784.6406250000,163364.0937500000,127501.3437500000,-11873.6308593750,89042.3515625000,150232.6093750000,,,
2.1359999967,16,160268.0156250000,142936.7656250000,171630.2343750000,164142.3593750000,128353.7265625000,-11127.5214843750,89822.8203125000,148873.8593750000,,,
2.1399999966,16,160148.3593750000,142987.5625000000,171490.9218750000,164039.5312500000,128233.1562500000,-11146.4580078125,89703.7265625000,149413.7812500000,,,
2.1439999966,16,159213.8281250000,142790.6875000000,170548.7968750000,163177.7812500000,127296.2109375000,-11907.7753906250,88845.0468750000,151103.7656250000,,,
2.1479999966,16,158746.5937500000,142607.7343750000,170096.5781250000,162737.6093750000,126829.7968750000,-12374.4267578125,88419.5937500000,151596.5625000000,,,
2.1519999965,16,159389.3750000000,142687.3750000000,170758.3750000000,163315.1406250000,127476.8593750000,-11907.2392578125,89022.4765625000,150214.4062500000,,,
2.1559999965,16,160249.2968750000,142907.9843750000,171616.6406250000,164106.2343750000,128339.5312500000,-11161.2900390625,89813.6718750000,148845.7812500000,,,
2.1599999967,16,160150.5312500000,142973.0468750000,171497.4687500000,164031.0000000000,128236.0000000000,-11162.3359375000,89707.0546875000,149381.8750000000,,,
2.1639999966,16,159216.3593750000,142781.2187500000,170556.6562500000,163174.0000000000,127297.3593750000,-11915.6347656250,88844.8906250000,151075.2500000000,,,
2.1679999966,16,158739.4531250000,142600.4375000000,170092.1250000000,162726.8593750000,126818.4531250000,-12376.8408203125,88413.5312500000,151584.1250000000,,,
2.1719999965,16,159363.1718750000,142675.2187500000,170730.2187500000,163296.6875000000,127441.6093750000,-11911.9335937500,88992.8906250000,150212.1250000000,,,
2.1759999965,17,160217.7343750000,142895.6093750000,171582.8906250000,164083.1406250000,128299.5468750000,-11161.7998046875,89780.7656250000,148842.5781250000,,,
2.1799999964,17,160120.8437500000,142959.2187500000,171468.5156250000,164010.3437500000,128202.2031250000,-11161.3173828125,89680.6093750000,149366.4531250000,,,
2.1839999964,17,159206.1093750000,142782.9687500000,170545.1718750000,163179.0468750000,127285.0781250000,-11903.1357421875,88836.0625000000,151074.7656250000,,,
2.1879999964,17,158747.6406250000,142617.6875000000,170098.9062500000,162744.7500000000,126826.9843750000,-12360.0234375000,88421.8203125000,151610.4843750000,,,
2.1919999963,17,159382.1093750000,142699.5156250000,170752.1562500000,163319.8906250000,127467.8437500000,-11892.8095703125,89018.9375000000,150247.5781250000,,,
2.1959999963,17,160239.7500000000,142917.7968750000,171607.4687500000,164112.2656250000,128331.0625000000,-11139.7792968750,89810.5078125000,148868.7031250000,,,
2.1999999965,17,160149.2031250000,142983.2656250000,171496.7187500000,164052.7500000000,128240.6953125000,-11131.7324218750,89718.9140625000,149381.0156250000,,,
2.2039999964,17,159229.4062500000,142802.5937500000,170568.2656250000,163230.2812500000,127316.1953125000,-11876.5009765625,88868.4609375000,151083.0312500000,,,
2.2079999964,17,158735.0312500000,142613.2812500000,170085.6250000000,162750.6406250000,126818.8281250000,-12358.3330078125,88418.2031250000,151612.8750000000,,,
2.2119999963,17,159362.5000000000,142687.7187500000,170729.0625000000,163316.1875000000,127446.7578125000,-11897.5029296875,89003.1875000000,150248.1093750000,,,
2.2159999963,17,160242.2656250000,142916.2656250000,171607.8437500000,164128.2812500000,128329.5312500000,-11131.0351562500,89814.4531250000,148861.1250000000,,,
2.2199999965,17,160155.7343750000,142978.3437500000,171503.3125000000,164068.6875000000,128241.7421875000,-11122.1562500000,89723.6015625000,149358.6718750000,,,
2.2239999964,17,159216.6718750000,142779.4531250000,170555.2812500000,163207.9375000000,127299.1093750000,-11885.3261718750,88853.0937500000,151055.7500000000,,,
2.2279999964,17,158719.5000000000,142588.7500000000,170071.4687500000,162726.7968750000,126804.6640625000,-12369.4111328125,88407.5234375000,151598.4531250000,,,
2.2319999964,17,159348.9843750000,142671.0625000000,170720.3750000000,163295.9843750000,127442.7109375000,-11910.1357421875,89000.6718750000,150252.6250000000,,,
2.2359999963,17,160241.5937500000,142911.4687500000,171612.9531250000,164118.2968750000,128341.7890625000,-11137.0966796875,89823.8906250000,148870.6406250000,,,
2.2399999963,17,160172.1093750000,142983.1093750000,171522.2500000000,164073.6250000000,128266.9843750000,-11115.8535156250,89746.2421875000,149362.0781250000,,,
2.2439999965,17,159240.7031250000,142791.7812500000,170582.6093750000,163220.2968750000,127331.2109375000,-11873.6044921875,88884.4765625000,151058.0937500000,,,
2.2479999964,17,158746.5156250000,142609.7968750000,170101.0468750000,162753.2187500000,126834.4687500000,-12359.0312500000,88437.4843750000,151615.6093750000,,,
2.2519999964,17,159367.4062500000,142689.8437500000,170738.8750000000,163306.7500000000,127456.2578125000,-11904.0205078125,89016.3593750000,150272.6875000000,,,
2.2559999963,17,160248.6250000000,142921.0781250000,171616.9375000000,164112.8281250000,128339.5078125000,-11135.1650390625,89827.0312500000,148873.9062500000,,,
2.2599999963,17,160175.8593750000,142985.1250000000,171524.7187500000,164055.8125000000,128266.4140625000,-11113.8955078125,89749.8906250000,149342.2812500000,,,
2.2639999965,17,159261.7656250000,142807.0000000000,170604.6562500000,163229.5312500000,127352.6953125000,-11848.6601562500,88908.0546875000,151047.7656250000,,,
2.2679999964,17,158764.1093750000,142628.6093750000,170119.6875000000,162770.8906250000,126854.9296875000,-12328.5068359375,88456.3984375000,151628.5937500000,,,
2.2719999964,17,159373.6562500000,142704.4531250000,170744.6718750000,163321.0156250000,127466.2578125000,-11878.0566406250,89025.0234375000,150297.2812500000,,,
2.2759999963,17,160245.0625000000,142927.9843750000,171614.3750000000,164119.5312500000,128344.6015625000,-11112.1787109375,89827.2734375000,148888.9843750000,,,
2.2799999963,17,160187.1250000000,143004.9218750000,171538.0937500000,164078.2812500000,128289.4296875000,-11075.1914062500,89766.2500000000,149357.8437500000,,,
2.2839999963,17,159252.7812500000,142814.4218750000,170593.3125000000,163236.3593750000,127352.0000000000,-11831.7080078125,88896.8437500000,151058.2187500000,,,
2.2879999964,17,158747.0937500000,142631.1250000000,170099.3593750000,162774.8593750000,126842.1953125000,-12323.4375000000,88435.1015625000,151647.0156250000,,,
2.2919999964,17,159374.0312500000,142718.7812500000,170742.0156250000,163341.1562500000,127466.6875000000,-11864.4042968750,89018.2109375000,150330.8125000000,,,
2.2959999964,17,160247.3125000000,142941.1093750000,171612.0000000000,164120.6875000000,128341.5468750000,-11105.9833984375,89823.5703125000,148912.6250000000,,,
2.2999999963,17,160181.7656250000,143003.2812500000,171529.5468750000,164080.2968750000,128275.0546875000,-11082.2724609375,89759.3828125000,149349.6093750000,,,
2.3039999963,18,159251.0312500000,142807.7812500000,170594.6875000000,163228.8593750000,127347.0937500000,-11830.6357421875,88904.4843750000,151036.5312500000,,,
2.3079999962,18,158745.1406250000,142619.8281250000,170102.9843750000,162764.0781250000,126841.4921875000,-12324.1083984375,88443.4687500000,151628.8906250000,,,
2.3119999962,18,159361.5625000000,142695.7656250000,170738.5625000000,163310.6093750000,127462.3437500000,-11879.2099609375,89022.1015625000,150314.9375000000,,,
2.3159999961,18,160259.1406250000,142928.3125000000,171636.3437500000,164128.9218750000,128365.5234375000,-11105.8486328125,89845.9140625000,148898.9843750000,,,
2.3199999961,18,160196.1093750000,142988.3906250000,171555.4062500000,164085.5000000000,128303.3750000000,-11075.1376953125,89780.0390625000,149327.2812500000,,,
2.3239999961,18,159263.9062500000,142793.4218750000,170613.9375000000,163227.2968750000,127369.7031250000,-11822.8837890625,88914.0078125000,151015.8125000000,,,
2.3279999963,18,158734.2031250000,142600.1406250000,170095.9531250000,162726.6718750000,126838.5156250000,-12332.3691406250,88428.5000000000,151623.2031250000,,,
2.3319999962,18,159336.1875000000,142673.3125000000,170717.8281250000,163264.8593750000,127446.0937500000,-11895.8398437500,88998.5468750000,150317.6718750000,,,
2.3359999962,18,160241.7031250000,142913.6406250000,171621.8125000000,164097.7656250000,128354.9062500000,-11108.5039062500,89831.9375000000,148898.7812500000,,,
2.3399999961,18,160212.0468750000,143001.6250000000,171568.9375000000,164091.9062500000,128317.2734375000,-11048.8515625000,89785.0781250000,149336.3750000000,,,
2.3439999961,18,159298.5625000000,142825.7656250000,170645.0000000000,163267.6875000000,127400.3593750000,-11785.6816406250,88942.7343750000,151041.0000000000,,,
2.3479999963,18,158760.2187500000,142630.4218750000,170120.0156250000,162764.8125000000,126862.9765625000,-12301.0683593750,88455.2187500000,151656.2968750000,,,
2.3519999962,18,159353.0312500000,142703.0937500000,170731.5937500000,163298.3750000000,127459.9609375000,-11865.8525390625,89015.2109375000,150359.9062500000,,,
2.3559999962,18,160251.0937500000,142933.2500000000,171631.1406250000,164125.5937500000,128364.6953125000,-11094.4492187500,89846.9296875000,148923.2343750000,,,
2.3599999961,18,160212.2812500000,143002.4687500000,171572.1875000000,164100.3593750000,128324.7812500000,-11046.1425781250,89797.5781250000,149324.6250000000,,,
2.3639999961,18,159286.0625000000,142814.2656250000,170635.3281250000,163251.2812500000,127395.1562500000,-11792.8964843750,88939.1406250000,151015.9218750000,,,
2.3679999961,18,158751.6093750000,142624.3593750000,170111.5625000000,162757.2968750000,126858.4218750000,-12307.2109375000,88454.0625000000,151648.8125000000,,,
2.3719999962,18,159343.2187500000,142696.7812500000,170716.1875000000,163293.4687500000,127448.9843750000,-11874.7578125000,89004.5312500000,150359.5937500000,,,
2.3759999962,18,160240.3125000000,142929.2031250000,171611.7187500000,164112.9687500000,128352.4062500000,-11097.1582031250,89830.2265625000,148922.3281250000,,,
2.3799999962,18,160212.3906250000,143005.8593750000,171567.3593750000,164088.6718750000,128329.1250000000,-11040.1611328125,89799.1640625000,149319.2343750000,,,
2.3839999961,18,159310.5312500000,142838.0781250000,170656.5937500000,163267.3125000000,127424.5000000000,-11761.1396484375,88963.6250000000,151027.2500000000,,,
2.3879999961,18,158769.1718750000,142650.8593750000,170126.0312500000,162763.8125000000,126880.8437500000,-12273.9511718750,88473.1093750000,151682.3281250000,,,
2.3919999963,18,159347.0781250000,142716.7656250000,170719.1875000000,163285.1562500000,127457.0078125000,-11858.3427734375,89012.7109375000,150400.4375000000,,,
2.3959999962,18,160247.5000000000,142945.2187500000,171618.5156250000,164115.8437500000,128359.8125000000,-11080.9580078125,89839.3671875000,148945.8750000000,,,
2.3999999962,18,160212.1562500000,143008.4062500000,171564.1093750000,164084.4531250000,128324.3828125000,-11030.9619140625,89798.1718750000,149314.0625000000,,,
2.4039999961,18,159295.1875000000,142822.5000000000,170639.4218750000,163249.0781250000,127405.7500000000,-11771.8681640625,88952.6875000000,151003.5312500000,,,
2.4079999961,18,158740.3906250000,142622.0781250000,170096.9531250000,162735.3281250000,126849.2968750000,-12300.4511718750,88448.1875000000,151659.8437500000,,,
2.4119999961,18,159314.8906250000,142688.1718750000,170687.8437500000,163256.2343750000,127422.7031250000,-11883.9042968750,88983.3671875000,150388.3125000000,,,
2.4159999962,18,160226.1718750000,142923.2968750000,171599.7968750000,164098.4531250000,128338.1640625000,-11100.1630859375,89825.5546875000,148934.7656250000,,,
2.4199999962,18,160216.3906250000,142997.3281250000,171575.1406250000,164098.7500000000,128333.4765625000,-11026.6435546875,89813.2734375000,149297.5625000000,,,
2.4239999962,18,159302.0781250000,142813.9687500000,170653.8593750000,163258.6875000000,127420.8281250000,-11755.2919921875,88972.6171875000,150990.1250000000,,,
2.4279999961,18,158747.7968750000,142619.2187500000,170111.3281250000,162744.9843750000,126862.3359375000,-12285.1894531250,88463.4531250000,151663.7656250000,,,
2.4319999961,19,159315.0781250000,142678.5000000000,170697.1250000000,163255.4687500000,127430.9062500000,-11880.7656250000,88994.3906250000,150392.1562500000,,,
2.4359999960,19,160219.7343750000,142907.1250000000,171602.1250000000,164089.8125000000,128340.0468750000,-11098.0976562500,89829.6328125000,148922.8125000000,,,
2.4399999960,19,160205.5781250000,142985.0625000000,171566.6875000000,164093.5000000000,128322.3671875000,-11024.0947265625,89803.2656250000,149274.9531250000,,,
2.4439999959,19,159302.5781250000,142814.6718750000,170654.4531250000,163275.5000000000,127416.3984375000,-11745.7167968750,88968.8046875000,150973.7031250000,,,
2.4479999959,19,158743.0468750000,142622.3750000000,170106.7187500000,162759.6250000000,126856.0546875000,-12277.5722656250,88461.6562500000,151658.6562500000,,,
2.4519999959,19,159298.7968750000,142681.2031250000,170679.1250000000,163260.3125000000,127413.3671875000,-11883.1533203125,88980.7968750000,150399.9062500000,,,
2.4559999960,19,160204.1875000000,142911.3593750000,171584.2343750000,164089.1406250000,128322.7734375000,-11101.6376953125,89817.9687500000,148929.6562500000,,,
2.4599999960,19,160208.2031250000,142996.6562500000,171570.4531250000,164106.2656250000,128328.3203125000,-11014.6005859375,89814.5625000000,149274.2343750000,,,
2.4639999960,19,159298.7187500000,142817.5312500000,170651.0156250000,163273.9687500000,127416.9609375000,-11744.7246093750,88971.8593750000,150963.1093750000,,,
2.4679999959,19,158744.0468750000,142632.3593750000,170106.3125000000,162756.0312500000,126860.1328125000,-12268.1035156250,88465.8906250000,151672.2656250000,,,
2.4719999959,19,159296.9843750000,142689.4687500000,170675.9843750000,163257.3750000000,127414.3046875000,-11871.0292968750,88983.6093750000,150423.9062500000,,,
2.4759999961,19,160198.7968750000,142912.9687500000,171576.1406250000,164088.0000000000,128318.2109375000,-11089.5410156250,89813.5390625000,148939.2031250000,,,
2.4799999960,19,160219.3125000000,143006.2031250000,171578.1250000000,164117.8750000000,128338.0078125000,-10990.9970703125,89825.3671875000,149276.3281250000,,,
2.4839999960,19,159326.1406250000,142840.9843750000,170675.5781250000,163296.2031250000,127442.3593750000,-11702.8017578125,89000.3515625000,150972.7968750000,,,
2.4879999959,19,158752.2968750000,142646.4375000000,170114.2500000000,162761.5156250000,126866.7343750000,-12245.2246093750,88474.3359375000,151682.2656250000,,,
2.4919999959,19,159277.2656250000,142684.7968750000,170656.8906250000,163232.2968750000,127393.6015625000,-11882.2412109375,88963.9218750000,150430.9843750000,,,
2.4959999959,19,160179.2968750000,142901.7812500000,171560.4218750000,164056.6093750000,128300.5078125000,-11107.3505859375,89797.7968750000,148936.7812500000,,,
2.4999999960,19,160196.3750000000,142983.7812500000,171562.2187500000,164087.8593750000,128322.0234375000,-11012.2402343750,89807.6640625000,149248.6718750000,,,
2.5039999960,19,159308.7343750000,142815.6562500000,170664.8750000000,163275.5781250000,127434.2656250000,-11717.9560546875,88990.5859375000,150937.8750000000,,,
2.5079999960,19,158734.9218750000,142623.4062500000,170095.3906250000,162743.6718750000,126852.2265625000,-12253.3251953125,88463.2109375000,151666.0937500000,,,
2.5119999959,19,159267.4218750000,142669.5000000000,170645.2187500000,163217.7500000000,127385.5781250000,-11876.9306640625,88959.9296875000,150434.5000000000,,,
2.5159999959,19,160171.3750000000,142887.5156250000,171548.9687500000,164040.7656250000,128292.1171875000,-11104.3740234375,89790.7421875000,148938.9843750000,,,
2.5199999961,19,160208.7187500000,142984.1875000000,171567.1250000000,164086.7343750000,128326.9843750000,-10994.2158203125,89811.9062500000,149250.8906250000,,,
2.5239999960,19,159323.4843750000,142821.2656250000,170673.6718750000,163285.2968750000,127440.5390625000,-11700.9238281250,88990.7734375000,150942.7031250000,,,
2.5279999960,19,158740.6875000000,142623.5312500000,170102.0468750000,162750.0625000000,126856.9687500000,-12250.1601562500,88459.6953125000,151673.6093750000,,,
2.5319999959,19,159278.7968750000,142679.7031250000,170658.5000000000,163236.9375000000,127399.7187500000,-11873.3359375000,88971.2734375000,150456.4375000000,,,
2.5359999959,19,160196.1406250000,142908.9218750000,171577.9531250000,164080.6406250000,128321.8046875000,-11091.6064453125,89817.2109375000,148962.6093750000,,,
2.5399999958,19,160235.0781250000,143002.6875000000,171599.0156250000,164128.3593750000,128359.6015625000,-10980.1875000000,89841.5703125000,149253.1718750000,,,
2.5439999960,19,159352.3437500000,142843.1250000000,170703.6875000000,163326.1875000000,127471.6250000000,-11681.3437500000,89025.3750000000,150942.2968750000,,,
2.5479999960,19,158753.6093750000,142639.5468750000,170113.9531250000,162766.5312500000,126869.5468750000,-12245.3857421875,88475.1953125000,151684.7656250000,,,
2.5519999960,19,159288.3750000000,142694.5781250000,170665.7187500000,163240.6562500000,127405.4296875000,-11868.1591796875,88974.7031250000,150480.1875000000,,,
2.5559999959,19,160196.0312500000,142919.1875000000,171572.9687500000,164068.6562500000,128317.8125000000,-11087.6904296875,89812.6015625000,148981.7187500000,,,
2.5599999959,20,160224.8281250000,143002.0781250000,171585.5468750000,164108.4531250000,128350.5312500000,-10983.1113281250,89828.5859375000,149252.6875000000,,,
2.5639999958,20,159351.2187500000,142845.6250000000,170703.7968750000,163315.1406250000,127478.8671875000,-11668.8447265625,89022.0703125000,150938.1718750000,,,
2.5679999958,20,158746.7812500000,142642.8750000000,170107.3281250000,162750.1093750000,126871.6953125000,-12226.4218750000,88469.5078125000,151690.2031250000,,,
2.5719999957,20,159265.9531250000,142689.0937500000,170646.2968750000,163211.0468750000,127395.9843750000,-11866.3085937500,88963.7343750000,150489.6562500000,,,
2.5759999957,20,160187.5312500000,142921.9062500000,171570.0781250000,164052.0781250000,128324.9687500000,-11076.2910156250,89821.8828125000,148993.6406250000,,,
2.5799999957,20,160244.9531250000,143024.3906250000,171609.4531250000,164122.4687500000,128382.6093750000,-10942.8242187500,89870.3750000000,149265.3281250000,,,
2.5839999958,20,159349.9062500000,142849.8125000000,170705.5937500000,163313.2656250000,127485.3828125000,-11657.4453125000,89040.5234375000,150933.5000000000,,,
2.5879999958,20,158743.4843750000,142644.1093750000,170107.5625000000,162754.2187500000,126873.6250000000,-12227.5761718750,88484.4218750000,151696.5156250000,,,
2.5919999958,20,159258.8593750000,142687.1562500000,170638.8906250000,163222.3437500000,127386.5156250000,-11866.5771484375,88966.5000000000,150505.9531250000,,,
2.5959999957,20,160177.5156250000,142908.3281250000,171560.4375000000,164055.2656250000,128310.0000000000,-11078.7851562500,89819.4921875000,148988.6093750000,,,
2.5999999957,20,160228.1093750000,142997.3281250000,171593.5937500000,164106.7968750000,128362.0625000000,-10952.0244140625,89860.7500000000,149233.9687500000,,,
2.6039999959,20,159347.2656250000,142830.0312500000,170702.6718750000,163300.9843750000,127479.0859375000,-11654.6826171875,89042.5937500000,150906.4375000000,,,
2.6079999958,20,158757.1562500000,142635.9218750000,170122.1093750000,162751.3125000000,126887.7109375000,-12207.9951171875,88498.1562500000,151690.8437500000,,,
2.6119999958,20,159269.1718750000,142682.6562500000,170652.8906250000,163214.7187500000,127404.3593750000,-11849.2236328125,88978.4843750000,150517.0937500000,,,
2.6159999957,20,160190.8281250000,142911.2343750000,171576.8906250000,164064.6093750000,128332.0000000000,-11062.5576171875,89826.3593750000,149007.9687500000,,,
2.6199999957,20,160242.7812500000,143000.2187500000,171611.8281250000,164129.5468750000,128384.7031250000,-10940.8662109375,89868.1796875000,149239.5000000000,,,
2.6239999956,20,159357.4062500000,142829.7656250000,170716.2187500000,163328.4687500000,127497.5859375000,-11647.4941406250,89049.8906250000,150898.5000000000,,,
2.6279999958,20,158755.5156250000,142638.3906250000,170125.7031250000,162775.2187500000,126894.0937500000,-12209.8730468750,88502.5000000000,151693.9687500000,,,
2.6319999958,20,159257.3906250000,142683.8593750000,170645.1093750000,163229.2343750000,127396.0390625000,-11862.5000000000,88975.0546875000,150527.3593750000,,,
2.6359999957,20,160182.8125000000,142914.7187500000,171571.2500000000,164074.7187500000,128325.5859375000,-11069.7197265625,89831.1875000000,149013.4375000000,,,
2.6399999957,20,160247.3437500000,143012.6093750000,171614.8437500000,164140.6250000000,128388.2734375000,-10935.0458984375,89875.0703125000,149241.1562500000,,,
2.6439999957,20,159369.3437500000,142844.8906250000,170724.4218750000,163336.6250000000,127505.0156250000,-11635.7197265625,89059.7031250000,150897.2343750000,,,
2.6479999959,20,158760.2343750000,142643.8125000000,170124.2031250000,162767.0000000000,126892.5625000000,-12208.8535156250,88504.5937500000,151693.2968750000,,,
2.6519999958,20,159252.0000000000,142684.9843750000,170633.4687500000,163213.6718750000,127386.3828125000,-11868.8300781250,88966.9843750000,150538.1406250000,,,
2.6559999958,20,160163.9531250000,142903.3437500000,171547.8437500000,164055.6250000000,128304.3984375000,-11088.9511718750,89807.4531250000,149009.6562500000,,,
2.6599999957,20,160236.8593750000,143000.8125000000,171601.4843750000,164132.8437500000,128376.7656250000,-10942.7705078125,89866.2421875000,149222.6875000000,,,
2.6639999957,20,159355.8281250000,142833.6093750000,170709.7187500000,163333.6250000000,127494.5312500000,-11635.6660156250,89053.9375000000,150876.7656250000,,,
2.6679999956,20,158733.4687500000,142627.4531250000,170098.4843750000,162750.7812500000,126873.4375000000,-12211.4287109375,88486.4609375000,151681.9687500000,,,
2.6719999958,20,159218.3437500000,142663.9218750000,170597.8437500000,163186.9843750000,127356.6406250000,-11881.4638671875,88945.5234375000,150534.2500000000,,,
2.6759999958,20,160137.1875000000,142887.2500000000,171518.3281250000,164033.1093750000,128278.6250000000,-11101.1816406250,89793.9062500000,149008.8281250000,,,
2.6799999957,20,160218.2968750000,142986.6718750000,171582.8125000000,164119.3281250000,128359.0859375000,-10956.5566406250,89858.7890625000,149208.3906250000,,,
2.6839999957,20,159356.7656250000,142827.6718750000,170712.5468750000,163321.0937500000,127495.7109375000,-11639.9306640625,89058.2812500000,150863.0625000000,,,
2.6879999957,21,158744.2343750000,142630.7812500000,170110.4375000000,162745.2343750000,126879.9062500000,-12211.4023437500,88499.3125000000,151684.2031250000,,,
2.6919999956,21,159247.2187500000,142684.6562500000,170628.7812500000,163199.7343750000,127381.8281250000,-11863.7070312500,88968.0546875000,150561.7968750000,,,
2.6959999956,21,160171.9375000000,142915.0312500000,171552.7500000000,164049.6875000000,128308.7968750000,-11076.6132812500,89820.7031250000,149043.1562500000,,,
2.6999999955,21,160260.6406250000,143015.7812500000,171626.5625000000,164135.5468750000,128401.0625000000,-10921.5810546875,89896.0703125000,149232.5312500000,,,
2.7039999955,21,159396.6250000000,142853.8750000000,170754.2187500000,163345.4218750000,127538.8984375000,-11607.4218750000,89096.3984375000,150877.6093750000,,,
2.7079999954,21,158774.0000000000,142650.7812500000,170142.4375000000,162771.8281250000,126916.4375000000,-12190.1318359375,88527.3671875000,151703.6718750000,,,
2.7119999956,21,159264.8750000000,142697.9062500000,170651.2343750000,163216.2500000000,127411.8906250000,-11849.4375000000,88993.9375000000,150586.9375000000,,,
2.7159999956,21,160176.4218750000,142916.7812500000,171564.2812500000,164052.0468750000,128329.3671875000,-11069.3173828125,89837.4921875000,149053.8125000000,,,
2.7199999955,21,160265.7968750000,143014.4687500000,171634.7968750000,164137.0000000000,128415.9765625000,-10917.3164062500,89908.2734375000,149222.3593750000,,,
2.7239999955,21,159409.0156250000,142863.0625000000,170764.4218750000,163359.1875000000,127552.1718750000,-11594.3593750000,89111.3906250000,150874.8437500000,,,
2.7279999955,21,158751.5468750000,142642.7187500000,170117.8750000000,162753.1718750000,126892.6171875000,-12201.0214843750,88507.9218750000,151709.2187500000,,,
2.7319999957,21,159222.3906250000,142678.8125000000,170608.6093750000,163177.7812500000,127366.3515625000,-11876.0449218750,88951.1562500000,150591.6875000000,,,
2.7359999956,21,160156.5781250000,142909.4062500000,171546.8906250000,164034.0781250000,128307.4531250000,-11076.6396484375,89817.1640625000,149045.8125000000,,,
2.7399999956,21,160263.7500000000,143016.2343750000,171637.6406250000,164146.0312500000,128416.9140625000,-10906.1855468750,89908.5937500000,149203.9531250000,,,
2.7439999955,21,159396.9218750000,142854.8281250000,170758.7812500000,163360.6562500000,127549.1171875000,-11587.4667968750,89105.0859375000,150851.4843750000,,,
2.7479999955,21,158743.9531250000,142641.9531250000,170111.9218750000,162752.4687500000,126893.8750000000,-12187.3154296875,88508.6953125000,151708.8281250000,,,
2.7519999954,21,159201.1406250000,142666.9062500000,170583.6562500000,163162.0937500000,127351.6484375000,-11877.8964843750,88942.5468750000,150594.2500000000,,,
2.7559999956,21,160124.3125000000,142880.6562500000,171506.9843750000,163997.5000000000,128276.3984375000,-11094.2617187500,89796.1562500000,149030.5000000000,,,
2.7599999956,21,160240.6562500000,142989.0312500000,171603.8125000000,164108.0625000000,128389.5546875000,-10921.7958984375,89890.4687500000,149176.6875000000,,,
2.7639999955,21,159379.0468750000,142831.5156250000,170729.6875000000,163324.3906250000,127524.0078125000,-11606.0273437500,89088.3515625000,150823.3750000000,,,
2.7679999955,21,158751.3125000000,142646.0156250000,170113.8750000000,162751.3437500000,126895.7812500000,-12188.9521484375,88518.0312500000,151713.2187500000,,,
2.7719999955,21,159219.1406250000,142692.2187500000,170602.4062500000,163171.1093750000,127367.2109375000,-11869.0986328125,88960.6250000000,150631.1406250000,,,
2.7759999956,21,160130.2812500000,142896.6406250000,171518.2812500000,164005.3750000000,128283.7187500000,-11098.5000000000,89798.7343750000,149055.5000000000,,,
2.7799999956,21,160271.1250000000,143021.8906250000,171645.3281250000,164158.2343750000,128428.1562500000,-10899.9892578125,89921.5000000000,149200.7343750000,,,
2.7839999956,21,159425.6406250000,142877.2500000000,170789.8906250000,163383.7500000000,127581.3828125000,-11564.1582031250,89136.6015625000,150852.7968750000,,,
2.7879999955,21,158753.8281250000,142652.6093750000,170125.0312500000,162755.2656250000,126904.1796875000,-12182.9707031250,88514.9765625000,151718.7968750000,,,
2.7919999955,21,159197.5781250000,142675.0312500000,170584.2187500000,163156.2812500000,127345.2109375000,-11884.2255859375,88929.6171875000,150626.2500000000,,,
2.7959999954,21,160137.8437500000,142898.8125000000,171525.0312500000,164015.8437500000,128288.0390625000,-11085.9199218750,89799.5390625000,149061.7968750000,,,
2.7999999956,21,160280.3593750000,143017.9218750000,171650.3437500000,164152.8437500000,128430.9453125000,-10885.6123046875,89920.9921875000,149190.2031250000,,,
2.8039999956,21,159421.6250000000,142857.6406250000,170780.2656250000,163373.6093750000,127569.0703125000,-11563.3798828125,89122.6562500000,150826.6406250000,,,
2.8079999955,21,158755.0312500000,142643.0625000000,170124.5156250000,162762.0781250000,126900.3984375000,-12177.7402343750,88514.4140625000,151713.5468750000,,,
2.8119999955,21,159197.7343750000,142667.2812500000,170585.4062500000,163155.5312500000,127344.6484375000,-11879.7470703125,88933.2890625000,150629.8437500000,,,
2.8159999955,22,160120.5000000000,142881.7812500000,171509.1093750000,163992.1875000000,128271.7812500000,-11096.0048828125,89784.6250000000,149050.8125000000,,,
2.8199999954,22,160252.1406250000,142994.7812500000,171622.4843750000,164124.2812500000,128403.9062500000,-10906.4804687500,89897.2812500000,149158.2343750000,,,
2.8239999954,22,159408.9687500000,142852.3281250000,170768.4062500000,163365.6250000000,127560.3828125000,-11566.5185546875,89119.7031250000,150801.7500000000,,,
2.8279999953,22,158738.5937500000,142641.9375000000,170107.6250000000,162752.8437500000,126889.2343750000,-12179.7783203125,88509.0468750000,151703.7187500000,,,
2.8319999953,22,159169.2187500000,142662.4531250000,170555.6093750000,163129.6718750000,127321.6093750000,-11892.2724609375,88915.2656250000,150630.7656250000,,,
2.8359999952,22,160098.9843750000,142874.7031250000,171488.3750000000,163977.2187500000,128255.8515625000,-11108.9335937500,89769.2812500000,149043.3750000000,,,
2.8399999954,22,160241.4687500000,142987.1406250000,171612.5000000000,164116.2968750000,128397.8750000000,-10912.2197265625,89885.2343750000,149135.8906250000,,,
2.8439999954,22,159383.2656250000,142830.0312500000,170740.8437500000,163338.2656250000,127537.1250000000,-11587.6005859375,89088.5937500000,150769.7500000000,,,
2.8479999953,22,158711.2343750000,142618.3906250000,170078.9843750000,162710.3281250000,126864.5859375000,-12202.7119140625,88477.7187500000,151683.9375000000,,,
2.8519999953,22,159143.5000000000,142642.4687500000,170529.1093750000,163089.5625000000,127298.7578125000,-11912.5234375000,88889.6796875000,150627.6562500000,,,
2.8559999953,22,160089.3906250000,142868.5312500000,171477.2968750000,163957.2656250000,128250.0546875000,-11110.0332031250,89767.0546875000,149051.9843750000,,,
2.8599999954,22,160249.4062500000,142993.8906250000,171619.6875000000,164129.1406250000,128411.3906250000,-10895.4296875000,89907.4687500000,149143.0937500000,,,
2.8639999954,22,159429.8281250000,142866.2500000000,170787.7812500000,163398.7812500000,127588.7812500000,-11537.9531250000,89146.7421875000,150798.7500000000,,,
2.8679999954,22,158749.9687500000,142653.9531250000,170118.0312500000,162751.3437500000,126906.2421875000,-12159.8496093750,88521.3046875000,151729.1250000000,,,
2.8719999953,22,159172.3906250000,142673.0781250000,170559.4375000000,163125.0000000000,127329.8203125000,-11882.8847656250,88917.7656250000,150677.0312500000,,,
2.8759999953,22,160106.7968750000,142886.0937500000,171496.7968750000,163977.8437500000,128268.4296875000,-11095.0126953125,89777.4609375000,149081.7812500000,,,
2.8799999952,22,160261.0937500000,142995.2656250000,171634.4218750000,164128.5781250000,128422.5234375000,-10889.5283203125,89911.1718750000,149139.9375000000,,,
2.8839999954,22,159425.8906250000,142852.4062500000,170787.5625000000,163371.9843750000,127585.4609375000,-11542.4589843750,89142.6953125000,150774.7968750000,,,
2.8879999954,22,158747.9375000000,142645.0937500000,170118.3593750000,162746.6250000000,126904.6640625000,-12161.1640625000,88525.7578125000,151719.0156250000,,,
2.8919999953,22,159156.6406250000,142657.5937500000,170543.6093750000,163111.0000000000,127314.1250000000,-11896.1083984375,88911.4296875000,150679.1718750000,,,
2.8959999953,22,160088.3906250000,142868.1562500000,171478.2812500000,163961.7656250000,128249.9453125000,-11110.0332031250,89772.1015625000,149081.4687500000,,,
2.8999999953,22,160254.7656250000,142985.6875000000,171628.2187500000,164122.3593750000,128418.5546875000,-10890.8964843750,89917.4218750000,149133.9531250000,,,
2.9039999954,22,159433.8281250000,142852.9375000000,170794.9062500000,163381.7187500000,127596.5078125000,-11533.6611328125,89154.1484375000,150766.9375000000,,,
2.9079999954,22,158749.8125000000,142645.6875000000,170119.2968750000,162750.6406250000,126911.8515625000,-12159.4472656250,88527.3906250000,151718.9375000000,,,
2.9119999954,22,159146.3125000000,142651.2343750000,170536.0000000000,163097.6406250000,127311.5234375000,-11900.7753906250,88904.5390625000,150682.0156250000,,,
2.9159999953,22,160067.9218750000,142854.2500000000,171461.1406250000,163947.8437500000,128236.9375000000,-11115.3710937500,89756.3515625000,149073.6093750000,,,
2.9199999953,22,160217.9218750000,142960.7187500000,171593.4062500000,164094.7031250000,128387.3828125000,-10905.5146484375,89886.0390625000,149110.1406250000,,,
2.9239999952,22,159403.0000000000,142833.4218750000,170767.1250000000,163354.9687500000,127569.5234375000,-11537.7646484375,89133.8125000000,150742.2812500000,,,
2.9279999954,22,158725.5312500000,142631.6093750000,170096.8437500000,162736.3437500000,126887.3906250000,-12157.3017578125,88515.4296875000,151705.3281250000,,,
2.9319999954,22,159128.7812500000,142650.8593750000,170516.2812500000,163096.1093750000,127291.1953125000,-11894.3115234375,88898.3671875000,150694.8125000000,,,
2.9359999953,22,160064.9531250000,142865.0156250000,171456.4062500000,163953.2343750000,128231.0937500000,-11106.6533203125,89764.4531250000,149094.4687500000,,,
2.9399999953,22,160239.5625000000,142979.6718750000,171614.4843750000,164125.8906250000,128404.6562500000,-10886.7929687500,89911.9218750000,149116.9218750000,,,
2.9439999952,23,159424.7031250000,142848.2812500000,170788.6875000000,163384.6875000000,127587.4453125000,-11522.9326171875,89153.7734375000,150740.6718750000,,,
2.9479999952,23,158728.9687500000,142639.5937500000,170104.4375000000,162745.0468750000,126892.0781250000,-12153.3857421875,88518.9687500000,151712.1406250000,,,
2.9519999952,23,159123.8906250000,142653.3593750000,170518.1562500000,163097.7812500000,127289.4218750000,-11898.3349609375,88891.3437500000,150708.0312500000,,,
2.9559999951,23,160078.6562500000,142878.7656250000,171476.2968750000,163967.1093750000,128248.0156250000,-11088.8164062500,89774.1093750000,149112.6093750000,,,
2.9599999951,23,160268.8750000000,143003.8437500000,171648.8281250000,164160.0312500000,128438.1875000000,-10846.1572265625,89943.2812500000,149131.8281250000,,,
