Time:250Hz,Epoch,Channel 1,Channel 2,Channel 3,Channel 4,Channel 5,Channel 6,Channel 7,Channel 8,Event Id,Event Date,Event Duration
0.0000000000,0,150267.2187500000,150459.2656250000,175972.1406250000,169049.4687500000,159221.5625000000,162536.6562500000,63918.2851562500,175185.9375000000,,,
0.0040000000,0,150262.9531250000,150458.4218750000,175960.0156250000,169048.1562500000,159212.0000000000,162527.1875000000,63916.2187500000,175182.5468750000,,,
0.0079999999,0,150255.8750000000,150450.2500000000,175952.0781250000,169042.4062500000,159207.1250000000,162537.4843750000,63913.0000000000,175185.0000000000,,,
0.0119999999,0,150249.8281250000,150443.2187500000,175950.7656250000,169042.9687500000,159207.5781250000,162538.9843750000,63904.8203125000,175192.3125000000,,,
0.0159999998,0,150255.8750000000,150451.1093750000,175957.7031250000,169059.9531250000,159213.5625000000,162531.1093750000,63904.4960937500,175203.6406250000,,,
0.0199999998,0,150254.7968750000,150446.3593750000,175956.3750000000,169042.2968750000,159212.1406250000,162528.1093750000,63906.4804687500,175192.1562500000,,,
0.0240000000,0,150253.2656250000,150446.8906250000,175953.7343750000,169024.0937500000,159208.1406250000,162536.2343750000,63908.1992187500,175194.2187500000,,,
0.0279999999,0,150237.8125000000,150424.9531250000,175941.2187500000,169041.4531250000,159194.7031250000,162520.6718750000,63906.4804687500,175182.8125000000,,,
0.0319999999,0,150227.9531250000,150413.0468750000,175934.2656250000,169024.2187500000,159187.9218750000,162514.5781250000,63895.4023437500,175176.9531250000,,,
0.0359999998,0,150232.1093750000,150419.7187500000,175934.1562500000,169019.2343750000,159189.0781250000,162530.5156250000,63893.0703125000,175178.9062500000,,,
0.0399999998,0,150235.8281250000,150425.5156250000,175931.3125000000,169005.8750000000,159185.8281250000,162528.8281250000,63897.3085937500,175176.5937500000,,,
0.0440000000,0,150237.6250000000,150428.8750000000,175929.2812500000,169009.4531250000,159183.3593750000,162512.8125000000,63896.0195312500,175170.3437500000,,,
0.0480000000,0,150238.0312500000,150428.7656250000,175931.7656250000,169017.0625000000,159184.2187500000,162518.7187500000,63892.8007812500,175169.4843750000,,,
0.0519999999,0,150233.4375000000,150420.7500000000,175931.5781250000,169023.2031250000,159182.5000000000,162508.9531250000,63887.9726562500,175165.1406250000,,,
0.0559999999,0,150233.9218750000,150425.9218750000,175936.3125000000,169029.4062500000,159185.4062500000,162512.6250000000,63886.0976562500,175166.2187500000,,,
0.0599999998,0,150241.0156250000,150436.9218750000,175944.2187500000,169044.3125000000,159192.0468750000,162522.1406250000,63876.3085937500,175169.0000000000,,,
0.0639999998,0,150232.2031250000,150421.3125000000,175938.4218750000,169018.4375000000,159188.6250000000,162517.0000000000,63858.5507812500,175152.7031250000,,,
0.0680000000,0,150229.9531250000,150420.6875000000,175936.0625000000,168992.1406250000,159186.9218750000,162510.9843750000,63878.4804687500,175151.2500000000,,,
0.0719999999,0,150225.3750000000,150417.8750000000,175929.4062500000,169010.9531250000,159179.4218750000,162507.3906250000,63898.5976562500,175147.2343750000,,,
0.0759999999,0,150226.9843750000,150422.7343750000,175930.2968750000,169023.9843750000,159178.7500000000,162515.3593750000,63899.1601562500,175148.9687500000,,,
0.0799999998,0,150234.4687500000,150430.9062500000,175938.8750000000,169034.4375000000,159187.0156250000,162519.4687500000,63904.1484375000,175151.5937500000,,,
0.0839999998,0,150236.0937500000,150432.2187500000,175942.4218750000,169031.5781250000,159190.6875000000,162523.0000000000,63904.8203125000,175150.1718750000,,,
0.0880000000,0,150229.9843750000,150422.8281250000,175935.9843750000,169022.3437500000,159185.2656250000,162517.6093750000,63897.3632812500,175145.8593750000,,,
0.0919999999,0,150230.5000000000,150425.2031250000,175934.5312500000,169017.6250000000,159188.0312500000,162520.4062500000,63900.6875000000,175154.1250000000,,,
0.0959999999,0,150235.7500000000,150430.5312500000,175938.5625000000,169031.9531250000,159192.4531250000,162524.1875000000,63902.0039062500,175161.3593750000,,,
0.0999999999,0,150243.3125000000,150439.8750000000,175948.0468750000,169022.6093750000,159200.3437500000,162528.7187500000,63910.1015625000,175162.1875000000,,,
0.1039999998,0,150253.2968750000,150446.8125000000,175960.2656250000,169031.5156250000,159210.3125000000,162531.7187500000,63920.0820312500,175166.6250000000,,,
0.1079999998,0,150232.4062500000,150429.8593750000,175932.7968750000,169039.4062500000,159187.1406250000,162518.6406250000,63890.9531250000,175157.8281250000,,,
0.1120000000,0,150236.6562500000,150437.6406250000,175935.2343750000,169037.0781250000,159190.6562500000,162523.3281250000,63879.3359375000,175169.7031250000,,,
0.1159999999,0,150233.6562500000,150435.6875000000,175930.2500000000,169036.9687500000,159187.2187500000,162520.7187500000,63874.9140625000,175172.1250000000,,,
0.1199999999,0,150224.0625000000,150424.9843750000,175915.2812500000,169022.0468750000,159174.4531250000,162514.1250000000,63891.1132812500,175158.8437500000,,,
0.1239999998,0,150231.2500000000,150433.4375000000,175922.0156250000,169023.1562500000,159179.9062500000,162523.6250000000,63909.4335937500,175162.3593750000,,,
0.1279999998,1,150233.7968750000,150436.2968750000,175926.5937500000,169032.6406250000,159182.9843750000,162526.5156250000,63907.7695312500,175168.6093750000,,,
0.1319999998,1,150239.4062500000,150440.6718750000,175933.4687500000,169030.6093750000,159189.4218750000,162527.9687500000,63908.5468750000,175177.3750000000,,,
0.1359999997,1,150241.4375000000,150432.7031250000,175941.8281250000,169021.6562500000,159196.1875000000,162526.3281250000,63911.2578125000,175175.4375000000,,,
0.1399999997,1,150235.6718750000,150424.7968750000,175934.1093750000,169018.2500000000,159188.8281250000,162520.7500000000,63899.0234375000,175164.2031250000,,,
0.1439999996,1,150241.1718750000,150433.7187500000,175942.1562500000,169017.2031250000,159194.8593750000,162524.1562500000,63899.0781250000,175163.3125000000,,,
0.1479999996,1,150236.7500000000,150430.7187500000,175935.0156250000,169023.4218750000,159189.0468750000,162521.7187500000,63904.8984375000,175163.8906250000,,,
0.1519999998,1,150227.1718750000,150419.2656250000,175924.1875000000,169026.0156250000,159181.3437500000,162512.2812500000,63906.4296875000,175160.3125000000,,,
0.1559999997,1,150232.6718750000,150424.7187500000,175930.5625000000,169025.8281250000,159187.7031250000,162517.9843750000,63907.5820312500,175164.3125000000,,,
0.1599999997,1,150232.0000000000,150425.6250000000,175930.9687500000,169017.1406250000,159185.7500000000,162523.6250000000,63903.3984375000,175159.0781250000,,,
0.1639999996,1,150234.7343750000,150432.2968750000,175932.6562500000,169015.9843750000,159186.2031250000,162531.3750000000,63905.5156250000,175159.0000000000,,,
0.1679999996,1,150221.4531250000,150419.2187500000,175920.4218750000,169006.8750000000,159175.0781250000,162523.0312500000,63895.2968750000,175150.9062500000,,,
0.1719999998,1,150226.1562500000,150423.2031250000,175927.5156250000,169017.0937500000,159183.3125000000,162525.7968750000,63902.1914062500,175158.7656250000,,,
0.1759999997,1,150225.1875000000,150420.5781250000,175927.2968750000,169019.2656250000,159183.1718750000,162524.0312500000,63902.2187500000,175161.3906250000,,,
0.1799999997,1,150223.8437500000,150421.2187500000,175921.8281250000,169021.7812500000,159178.7500000000,162529.0625000000,63898.6484375000,175161.7968750000,,,
0.1839999997,1,150229.3437500000,150426.1093750000,175924.3906250000,169028.2968750000,159181.2343750000,162534.3593750000,63900.7148437500,175163.6093750000,,,
0.1879999996,1,150238.6718750000,150439.9218750000,175929.3125000000,169032.5468750000,159188.4843750000,162546.2812500000,63906.5351562500,175180.1093750000,,,
0.1919999996,1,150227.1718750000,150426.3750000000,175920.3125000000,169019.0468750000,159181.4062500000,162532.7968750000,63901.4375000000,175179.0156250000,,,
0.1959999998,1,150235.0000000000,150434.2812500000,175926.2187500000,169039.0781250000,159187.0937500000,162534.2968750000,63916.3242187500,175187.6406250000,,,
0.1999999997,1,150245.8593750000,150439.8750000000,175936.1250000000,169071.7031250000,159194.5937500000,162539.1875000000,63924.4531250000,175188.4062500000,,,
0.2039999997,1,150242.0468750000,150434.6406250000,175934.7187500000,169027.1718750000,159191.0312500000,162535.5625000000,63920.4296875000,175176.6250000000,,,
0.2079999996,1,150230.8906250000,150421.8125000000,175921.4687500000,169021.7812500000,159178.9375000000,162522.0625000000,63902.8593750000,175165.1250000000,,,
0.2119999996,1,150222.7968750000,150414.0312500000,175911.5781250000,169011.4062500000,159170.8281250000,162515.0937500000,63877.9687500000,175160.9375000000,,,
0.2159999998,1,150221.5625000000,150411.1718750000,175910.3906250000,169011.5625000000,159169.4687500000,162512.6250000000,63884.8085937500,175158.6562500000,,,
0.2199999997,1,150232.2656250000,150422.2968750000,175922.3906250000,169030.8281250000,159179.4687500000,162522.1718750000,63905.9453125000,175163.3750000000,,,
0.2239999997,1,150240.0468750000,150432.4062500000,175933.0937500000,169035.8593750000,159189.5781250000,162533.5156250000,63919.9179687500,175170.3437500000,,,
0.2279999997,1,150247.8281250000,150437.8281250000,175946.0937500000,169044.0468750000,159201.7031250000,162541.0000000000,63930.9687500000,175178.7187500000,,,
0.2319999996,1,150244.1406250000,150433.5625000000,175946.5000000000,169035.4843750000,159203.1562500000,162541.0781250000,63930.9453125000,175181.2343750000,,,
0.2359999996,1,150226.2812500000,150417.2031250000,175928.5312500000,169014.9687500000,159187.5937500000,162529.3125000000,63915.5742187500,175170.4218750000,,,
0.2399999998,1,150213.5625000000,150402.1093750000,175916.0781250000,168995.5312500000,159175.9531250000,162516.4843750000,63907.3945312500,175151.7031250000,,,
0.2439999997,1,150220.3281250000,150409.5312500000,175919.8437500000,169002.5312500000,159179.4375000000,162519.7343750000,63911.4960937500,175150.3125000000,,,
0.2479999997,1,150231.3750000000,150418.9218750000,175930.6406250000,169016.5000000000,159188.8906250000,162523.3281250000,63919.6796875000,175160.7500000000,,,
0.2519999996,1,150233.2343750000,150420.5625000000,175925.9218750000,169030.2812500000,159185.0156250000,162524.6406250000,63913.2695312500,175166.7500000000,,,
0.2559999996,2,150241.0312500000,150432.0312500000,175932.4375000000,169050.8281250000,159192.1093750000,162533.7343750000,63913.8046875000,175186.2031250000,,,
0.2599999995,2,150241.9218750000,150432.2031250000,175936.3125000000,169042.1718750000,159197.1406250000,162536.1250000000,63914.5000000000,175194.5625000000,,,
0.2639999995,2,150237.0937500000,150425.2500000000,175933.4843750000,169033.6875000000,159192.9375000000,162531.7968750000,63909.4335937500,175182.6562500000,,,
0.2679999995,2,150233.9218750000,150422.7343750000,175932.7656250000,169035.1718750000,159192.1562500000,162531.7187500000,63908.8164062500,175180.5156250000,,,
0.2719999994,2,150234.8593750000,150422.4375000000,175936.9218750000,169030.2812500000,159197.9218750000,162534.2656250000,63906.6953125000,175186.9531250000,,,
0.2759999994,2,150231.5937500000,150423.3750000000,175927.2656250000,169025.1093750000,159191.0625000000,162536.5781250000,63902.8085937500,175185.9062500000,,,
0.2799999996,2,150227.7656250000,150425.2187500000,175922.9687500000,169018.2656250000,159184.4062500000,162534.0312500000,63902.7265625000,175179.8750000000,,,
0.2839999995,2,150226.8125000000,150422.3593750000,175922.6250000000,169024.6250000000,159181.5937500000,162531.7500000000,63898.8906250000,175172.8437500000,,,
0.2879999995,2,150235.4218750000,150430.9375000000,175928.4218750000,169043.6718750000,159185.0468750000,162541.3281250000,63910.5859375000,175180.6718750000,,,
0.2919999994,2,150235.5312500000,150430.3437500000,175927.9687500000,169061.9843750000,159184.1875000000,162540.7031250000,63912.4648437500,175184.3437500000,,,
0.2959999994,2,150236.9375000000,150430.9843750000,175931.5625000000,169030.0468750000,159188.6718750000,162540.8437500000,63915.5195312500,175187.5156250000,,,
0.2999999996,2,150239.1093750000,150432.9687500000,175936.7031250000,169002.2031250000,159193.5000000000,162540.2812500000,63917.8007812500,175185.6406250000,,,
0.3039999995,2,150244.7968750000,150433.7500000000,175945.2656250000,169001.9062500000,159202.3750000000,162544.3906250000,63923.3242187500,175182.7656250000,,,
0.3079999995,2,150237.5156250000,150426.2968750000,175937.1875000000,169011.1406250000,159197.4687500000,162543.0625000000,63916.2734375000,175179.2031250000,,,
0.3119999995,2,150239.4843750000,150428.3281250000,175941.9062500000,169019.3906250000,159202.9062500000,162546.9843750000,63920.8867187500,175187.5625000000,,,
0.3159999994,2,150238.0000000000,150425.9531250000,175941.8906250000,169017.1250000000,159201.6875000000,162542.1093750000,63920.1054687500,175185.7968750000,,,
0.3199999994,2,150231.8281250000,150420.0156250000,175932.5312500000,169023.2812500000,159193.8281250000,162534.1875000000,63913.2421875000,175174.1562500000,,,
0.3239999996,2,150238.2968750000,150424.0625000000,175938.3906250000,169029.6718750000,159198.4062500000,162537.8593750000,63916.9687500000,175174.6718750000,,,
0.3279999995,2,150238.2968750000,150422.6718750000,175938.5937500000,169030.3906250000,159197.7968750000,162539.2343750000,63916.4609375000,175175.9218750000,,,
0.3319999995,2,150232.7500000000,150416.1250000000,175932.9218750000,169024.2031250000,159193.6093750000,162534.7031250000,63914.0742187500,175173.6406250000,,,
0.3359999994,2,150236.0937500000,150420.3750000000,175935.0156250000,169032.2187500000,159195.2656250000,162534.9375000000,63916.5390625000,175175.4218750000,,,
0.3399999994,2,150249.4375000000,150430.8750000000,175947.3593750000,169045.8125000000,159204.9843750000,162545.0781250000,63923.1132812500,175177.8906250000,,,
0.3439999996,2,150248.8125000000,150431.0156250000,175946.1250000000,169037.7656250000,159202.5156250000,162543.9062500000,63920.7500000000,175175.3906250000,,,
0.3479999995,2,150244.3125000000,150427.7187500000,175941.9062500000,169027.8437500000,159198.8593750000,162538.4531250000,63912.9453125000,175175.3906250000,,,
0.3519999995,2,150232.4843750000,150419.4062500000,175929.0156250000,169025.7500000000,159188.1875000000,162531.9062500000,63898.6484375000,175174.3125000000,,,
0.3559999994,2,150234.0625000000,150420.9375000000,175928.9062500000,169029.4218750000,159188.3281250000,162533.2031250000,63906.8320312500,175175.7656250000,,,
0.3599999994,2,150239.4218750000,150425.4687500000,175936.1406250000,169026.5625000000,159194.9531250000,162536.0937500000,63917.2656250000,175177.5937500000,,,
0.3639999994,2,150239.3750000000,150423.8281250000,175934.3281250000,169029.5937500000,159193.2812500000,162533.2500000000,63916.2734375000,175171.2812500000,,,
0.3679999996,2,150241.2968750000,150423.9687500000,175935.6093750000,169027.8125000000,159195.1875000000,162536.0156250000,63917.1562500000,175171.6093750000,,,
0.3719999995,2,150246.8750000000,150428.2500000000,175942.6406250000,169050.1093750000,159200.8281250000,162540.2031250000,63916.0585937500,175182.0468750000,,,
0.3759999995,2,150245.1406250000,150425.7031250000,175942.1562500000,169052.0468750000,159199.5000000000,162537.4843750000,63912.4375000000,175182.9531250000,,,
0.3799999994,2,150253.6406250000,150434.2343750000,175955.9375000000,169023.9531250000,159210.3750000000,162542.6093750000,63926.9726562500,175188.1562500000,,,
0.3839999994,3,150253.7968750000,150438.5312500000,175948.0312500000,169036.8125000000,159203.9843750000,162542.9843750000,63921.1523437500,175189.5468750000,,,
0.3879999993,3,150240.5000000000,150426.7031250000,175931.2968750000,169031.3125000000,159190.9843750000,162534.2187500000,63904.5507812500,175185.2343750000,,,
0.3919999993,3,150231.1875000000,150417.5468750000,175922.2031250000,169030.3125000000,159182.5625000000,162527.8906250000,63897.7109375000,175179.8750000000,,,
0.3959999993,3,150233.4687500000,150420.7968750000,175924.3125000000,169037.2031250000,159184.0625000000,162531.6718750000,63903.2617187500,175182.0156250000,,,
0.3999999992,3,150235.5156250000,150420.4218750000,175927.0312500000,169031.6875000000,159186.2343750000,162531.8593750000,63904.8710937500,175177.9687500000,,,
0.4039999992,3,150239.7968750000,150425.9687500000,175933.0312500000,169040.8593750000,159190.5000000000,162536.4687500000,63906.0273437500,175177.7812500000,,,
0.4079999994,3,150242.4531250000,150428.9843750000,175936.0156250000,169057.3750000000,159193.3906250000,162540.3125000000,63909.7812500000,175182.3593750000,,,
0.4119999993,3,150237.4218750000,150422.0781250000,175933.2187500000,169047.6875000000,159191.2500000000,162538.7812500000,63913.7226562500,175183.7656250000,,,
0.4159999993,3,150247.5781250000,150430.9843750000,175947.7343750000,169065.0781250000,159201.4687500000,162542.7812500000,63922.6562500000,175191.8125000000,,,
0.4199999992,3,150244.9218750000,150422.8125000000,175947.1093750000,169056.6875000000,159197.2500000000,162533.2500000000,63918.7109375000,175182.0468750000,,,
0.4239999992,3,150231.7812500000,150410.3593750000,175930.7812500000,169021.3750000000,159183.0312500000,162520.0312500000,63902.2695312500,175165.4062500000,,,
0.4279999994,3,150232.3125000000,150412.0312500000,175931.9843750000,169019.6718750000,159185.7500000000,162521.7187500000,63903.6367187500,175167.9375000000,,,
0.4319999993,3,150232.8593750000,150417.5781250000,175928.7656250000,169031.0156250000,159184.4843750000,162525.2343750000,63907.3398437500,175181.5625000000,,,
0.4359999993,3,150230.8125000000,150415.0312500000,175926.6250000000,169039.6406250000,159182.8437500000,162522.8125000000,63898.9726562500,175184.1562500000,,,
0.4399999992,3,150233.9843750000,150419.7500000000,175930.4843750000,169048.8281250000,159185.8593750000,162527.3750000000,63904.0156250000,175185.4531250000,,,
0.4439999992,3,150234.8125000000,150421.6562500000,175929.9687500000,169050.2187500000,159185.4531250000,162528.9062500000,63909.5664062500,175183.8593750000,,,
0.4479999992,3,150239.5625000000,150427.0781250000,175936.9531250000,169054.1093750000,159193.6406250000,162533.0937500000,63916.2968750000,175190.8125000000,,,
0.4519999993,3,150228.2656250000,150418.4062500000,175928.3125000000,169038.5468750000,159187.2812500000,162530.0312500000,63910.9609375000,175192.3437500000,,,
0.4559999993,3,150221.9375000000,150414.0156250000,175923.9218750000,169025.6406250000,159182.1875000000,162527.7343750000,63904.4687500000,175190.8125000000,,,
0.4599999993,3,150228.4531250000,150423.4062500000,175926.4843750000,169042.4687500000,159184.1406250000,162533.3906250000,63906.4804687500,175192.6093750000,,,
0.4639999992,3,150232.8593750000,150426.1875000000,175928.1718750000,169040.1562500000,159185.8281250000,162534.2500000000,63908.0898437500,175185.2656250000,,,
0.4679999992,3,150226.2343750000,150417.2031250000,175921.3906250000,169024.5156250000,159179.4375000000,162527.9687500000,63903.3710937500,175178.1562500000,,,
0.4719999994,3,150219.7968750000,150411.0937500000,175915.3281250000,169023.7968750000,159174.7187500000,162524.7968750000,63898.9179687500,175175.1250000000,,,
0.4759999993,3,150225.1562500000,150414.6250000000,175918.7656250000,169042.6562500000,159177.2187500000,162525.5781250000,63898.0859375000,175176.6718750000,,,
0.4799999993,3,150221.3281250000,150407.1250000000,175911.6093750000,169042.2031250000,159169.3906250000,162516.8593750000,63888.1875000000,175164.5781250000,,,
0.4839999992,3,150224.9375000000,150408.7500000000,175918.6562500000,169030.4687500000,159172.9531250000,162518.7968750000,63892.9375000000,175158.3593750000,,,
0.4879999992,3,150236.0937500000,150416.0000000000,175936.9218750000,169052.2031250000,159188.9687500000,162532.0468750000,63908.0898437500,175164.3125000000,,,
0.4919999992,3,150235.6406250000,150415.3281250000,175938.1562500000,169052.4687500000,159193.2812500000,162532.8750000000,63912.7304687500,175167.2031250000,,,
0.4959999993,3,150231.0312500000,150414.0937500000,175928.5000000000,169032.9375000000,159186.5000000000,162531.7812500000,63906.9101562500,175165.9531250000,,,
0.4999999993,3,150229.0468750000,150411.8125000000,175925.8125000000,169037.0000000000,159181.7031250000,162528.5625000000,63901.5195312500,175161.1718750000,,,
0.5039999993,3,150236.2656250000,150416.7968750000,175937.6718750000,169028.1718750000,159189.9375000000,162532.3593750000,63907.8242187500,175161.3125000000,,,
0.5079999992,3,150239.3437500000,150420.3437500000,175942.0000000000,169040.4062500000,159194.4843750000,162535.0156250000,63911.0429687500,175168.6093750000,,,
0.5119999992,4,150246.6093750000,150432.2812500000,175948.6718750000,169059.5468750000,159203.6406250000,162548.1875000000,63918.1484375000,175180.5625000000,,,
0.5159999991,4,150246.3750000000,150428.4375000000,175949.9062500000,169054.5156250000,159206.9062500000,162547.9843750000,63919.3828125000,175182.4375000000,,,
0.5199999991,4,150238.5156250000,150417.0937500000,175941.9687500000,169076.6562500000,159198.7343750000,162537.8906250000,63914.6367187500,175169.1875000000,,,
0.5239999990,4,150233.6093750000,150416.1875000000,175931.0468750000,169054.7968750000,159187.2187500000,162538.3437500000,63907.2851562500,175162.4062500000,,,
0.5279999990,4,150226.5468750000,150412.3437500000,175917.9843750000,169042.6562500000,159174.7187500000,162532.0781250000,63893.6875000000,175158.0625000000,,,
0.5319999990,4,150230.9531250000,150416.6093750000,175923.5156250000,169045.3281250000,159179.7968750000,162535.9062500000,63899.1054687500,175164.8281250000,,,
0.5359999991,4,150236.5625000000,150421.3281250000,175932.6562500000,169042.9531250000,159187.7656250000,162540.3593750000,63910.4257812500,175167.3750000000,,,
0.5399999991,4,150243.0000000000,150429.1093750000,175937.7343750000,169059.3281250000,159191.2500000000,162541.4531250000,63913.2929687500,175169.8125000000,,,
0.5439999991,4,150227.7812500000,150414.6250000000,175922.1406250000,169024.7656250000,159176.8750000000,162529.6562500000,63901.8164062500,175158.0156250000,,,
0.5479999990,4,150224.5937500000,150409.7500000000,175922.1718750000,168997.7812500000,159176.2812500000,162524.1562500000,63899.0000000000,175158.8125000000,,,
0.5519999990,4,150230.1406250000,150414.9218750000,175930.8906250000,169000.7343750000,159186.1250000000,162527.6406250000,63907.5820312500,175167.9375000000,,,
0.5559999992,4,150229.0468750000,150420.8750000000,175922.7656250000,169010.3906250000,159183.4375000000,162531.5156250000,63905.1406250000,175173.4531250000,,,
0.5599999991,4,150238.2187500000,150422.4843750000,175935.4531250000,169026.5625000000,159193.8281250000,162533.5468750000,63915.8710937500,175170.7500000000,,,
0.5639999991,4,150246.0000000000,150429.7812500000,175947.2500000000,169024.8906250000,159202.5937500000,162535.3437500000,63922.8984375000,175170.5156250000,,,
0.5679999990,4,150255.5000000000,150436.0312500000,175961.2031250000,169043.0312500000,159213.8906250000,162540.5781250000,63931.8554687500,175180.4375000000,,,
0.5719999990,4,150236.1562500000,150421.2187500000,175933.6562500000,169049.2812500000,159192.7187500000,162531.1406250000,63912.3281250000,175174.5000000000,,,
0.5759999990,4,150235.4062500000,150418.1875000000,175932.0937500000,169031.2500000000,159190.8437500000,162529.3437500000,63913.1328125000,175173.2656250000,,,
0.5799999991,4,150241.3906250000,150423.1093750000,175939.9843750000,169037.7500000000,159196.3125000000,162532.9843750000,63919.8398437500,175171.7187500000,,,
0.5839999991,4,150241.7656250000,150423.3750000000,175942.9843750000,169028.1718750000,159197.8750000000,162537.1093750000,63922.1718750000,175163.7812500000,,,
0.5879999991,4,150241.6718750000,150421.8906250000,175944.3593750000,169024.5937500000,159199.8281250000,162541.5468750000,63923.0039062500,175166.0781250000,,,
0.5919999990,4,150239.0000000000,150418.1406250000,175941.3281250000,169022.5937500000,159199.4531250000,162543.1718750000,63921.2890625000,175168.7187500000,,,
0.5959999990,4,150239.6406250000,150421.5468750000,175941.4218750000,169024.3906250000,159201.4062500000,162548.9375000000,63921.1523437500,175175.1718750000,,,
0.5999999992,4,150241.9218750000,150426.1562500000,175943.6250000000,169025.8906250000,159202.6406250000,162552.1406250000,63922.3320312500,175176.2500000000,,,
0.6039999991,4,150241.9687500000,150426.9687500000,175947.5781250000,169021.8906250000,159203.0156250000,162548.5625000000,63926.4101562500,175173.5156250000,,,
0.6079999991,4,150238.8906250000,150425.2187500000,175941.9687500000,169027.4375000000,159198.6250000000,162544.4843750000,63922.5468750000,175172.4375000000,,,
0.6119999990,4,150231.7812500000,150421.5000000000,175932.1250000000,169028.9687500000,159190.7968750000,162542.5625000000,63918.3632812500,175172.6250000000,,,
0.6159999990,4,150234.4687500000,150426.4218750000,175934.8906250000,169032.4531250000,159193.0468750000,162549.9375000000,63925.7382812500,175179.1406250000,,,
0.6199999989,4,150240.6562500000,150432.9531250000,175941.4218750000,169038.6250000000,159196.3906250000,162554.4375000000,63930.5156250000,175179.2187500000,,,
0.6239999991,4,150239.8750000000,150435.0156250000,175940.2031250000,169035.2968750000,159192.8750000000,162555.2656250000,63928.2890625000,175177.0000000000,,,
0.6279999991,4,150240.6875000000,150431.4218750000,175943.7343750000,169041.0937500000,159194.2031250000,162554.0156250000,63929.4140625000,175176.0625000000,,,
0.6319999991,4,150232.6406250000,150421.0625000000,175934.8593750000,169038.7031250000,159187.6562500000,162548.6250000000,63922.1718750000,175172.5468750000,,,
0.6359999990,4,150222.3906250000,150412.1562500000,175922.1718750000,169037.0781250000,159178.1093750000,162541.3281250000,63911.8476562500,175167.7968750000,,,
0.6399999990,5,150221.7187500000,150412.8593750000,175920.7187500000,169039.7812500000,159177.2656250000,162538.2656250000,63911.7929687500,175166.3281250000,,,
0.6439999989,5,150220.1406250000,150412.0312500000,175918.8437500000,169042.1718750000,159174.8593750000,162539.9375000000,63911.0156250000,175163.7968750000,,,
0.6479999989,5,150216.5000000000,150410.1250000000,175914.9531250000,169033.2656250000,159171.1875000000,162535.4218750000,63905.8125000000,175163.2187500000,,,
0.6519999988,5,150214.6093750000,150407.1718750000,175914.6562500000,169035.8125000000,159171.6406250000,162530.7031250000,63903.6914062500,175163.2343750000,,,
0.6559999988,5,150217.2500000000,150410.2343750000,175917.6718750000,169045.6562500000,159174.9843750000,162531.6406250000,63906.9648437500,175164.6093750000,,,
0.6599999988,5,150226.7343750000,150417.7343750000,175930.2500000000,169053.7343750000,159185.9843750000,162538.7812500000,63919.6796875000,175167.7656250000,,,
0.6639999989,5,150228.0000000000,150421.4687500000,175931.2343750000,169059.9062500000,159187.5156250000,162549.7812500000,63921.3671875000,175169.9687500000,,,
0.6679999989,5,150233.4218750000,150426.5937500000,175937.9375000000,169054.7968750000,159194.7656250000,162559.4375000000,63928.7421875000,175176.7343750000,,,
0.6719999989,5,150237.6250000000,150431.0156250000,175945.3125000000,169038.7031250000,159200.5312500000,162562.0312500000,63933.7851562500,175186.7343750000,,,
0.6759999988,5,150228.5312500000,150418.5781250000,175934.3281250000,169040.4062500000,159190.4375000000,162550.4375000000,63924.3203125000,175177.5156250000,,,
0.6799999988,5,150229.7656250000,150418.5937500000,175935.1562500000,169044.8750000000,159190.0468750000,162545.3281250000,63920.4296875000,175173.3281250000,,,
0.6839999990,5,150228.4843750000,150418.0000000000,175934.5625000000,169048.1562500000,159188.3750000000,162544.2812500000,63917.9609375000,175171.2656250000,,,
0.6879999989,5,150225.8593750000,150417.4375000000,175933.8593750000,169050.9062500000,159187.7656250000,162544.3906250000,63916.6757812500,175171.0937500000,,,
0.6919999989,5,150233.7343750000,150426.2187500000,175942.2812500000,169059.1250000000,159196.3125000000,162549.6875000000,63924.1562500000,175180.7031250000,,,
0.6959999988,5,150230.0312500000,150423.2031250000,175933.9687500000,169057.1406250000,159190.8750000000,162545.8906250000,63918.9023437500,175179.8906250000,,,
0.6999999988,5,150229.7656250000,150418.8437500000,175934.7812500000,169044.3906250000,159192.4843750000,162542.9843750000,63919.1406250000,175171.5468750000,,,
0.7039999987,5,150223.8906250000,150417.7187500000,175927.3437500000,169019.9843750000,159184.9375000000,162543.2500000000,63914.6640625000,175162.9687500000,,,
0.7079999989,5,150223.2187500000,150416.8593750000,175928.2343750000,169023.5625000000,159184.7812500000,162543.6093750000,63915.8164062500,175161.2343750000,,,
0.7119999989,5,150225.2968750000,150417.7343750000,175932.4375000000,169032.1406250000,159188.4062500000,162546.3750000000,63918.6328125000,175165.8750000000,,,
0.7159999989,5,150228.0468750000,150421.3906250000,175936.4375000000,169034.3125000000,159192.1093750000,162548.5937500000,63920.0546875000,175171.6875000000,,,
0.7199999988,5,150236.5625000000,150428.4375000000,175945.2343750000,169027.9843750000,159200.3593750000,162557.9843750000,63928.5546875000,175175.8437500000,,,
0.7239999988,5,150235.0000000000,150424.2343750000,175943.8750000000,169026.6093750000,159198.5156250000,162556.3437500000,63926.4921875000,175169.9687500000,,,
0.7279999990,5,150234.9531250000,150426.1093750000,175940.0625000000,169036.6718750000,159198.0000000000,162562.0000000000,63920.1601562500,175172.1718750000,,,
0.7319999989,5,150233.2031250000,150427.6562500000,175936.7343750000,169037.8281250000,159198.3281250000,162563.0312500000,63911.1757812500,175178.7500000000,,,
0.7359999989,5,150239.3437500000,150435.8906250000,175942.5625000000,169032.3750000000,159204.5156250000,162570.5312500000,63929.3593750000,175190.7812500000,,,
0.7399999988,5,150233.8750000000,150426.2968750000,175937.5937500000,169032.1406250000,159199.2187500000,162561.4218750000,63932.2851562500,175185.0937500000,,,
0.7439999988,5,150232.7187500000,150421.8437500000,175937.3281250000,169037.0156250000,159197.4687500000,162550.0468750000,63926.8671875000,175175.9218750000,,,
0.7479999987,5,150236.1250000000,150428.5156250000,175939.8750000000,169047.9375000000,159198.6718750000,162551.5468750000,63929.0117187500,175179.7812500000,,,
0.7519999989,5,150223.5000000000,150416.3906250000,175928.2031250000,169030.2656250000,159186.9843750000,162545.2187500000,63921.3125000000,175176.8593750000,,,
0.7559999989,5,150227.3281250000,150422.0781250000,175932.0937500000,169030.4687500000,159187.8125000000,162547.2187500000,63920.3750000000,175179.1250000000,,,
0.7599999988,5,150232.8593750000,150424.9843750000,175935.1250000000,169045.9218750000,159189.4531250000,162542.4218750000,63918.3359375000,175176.7812500000,,,
0.7639999988,5,150232.6406250000,150419.7968750000,175935.6562500000,169051.3125000000,159190.9531250000,162541.1093750000,63919.9726562500,175168.5781250000,,,
0.7679999988,6,150241.2968750000,150425.7343750000,175950.2812500000,169053.2187500000,159203.8750000000,162549.4062500000,63930.4882812500,175174.4218750000,,,
0.7719999987,6,150234.2031250000,150418.1093750000,175941.3281250000,169055.7656250000,159198.7343750000,162548.4375000000,63923.4062500000,175175.0937500000,,,
0.7759999987,6,150224.2656250000,150411.2812500000,175928.3593750000,169042.1093750000,159188.3437500000,162546.2343750000,63915.7343750000,175172.4375000000,,,
0.7799999986,6,150218.7656250000,150410.2343750000,175922.8906250000,169032.0312500000,159182.6406250000,162542.9062500000,63910.9062500000,175169.4062500000,,,
0.7839999986,6,150217.6406250000,150411.1875000000,175922.6562500000,169030.6562500000,159181.8593750000,162543.0625000000,63909.4609375000,175162.8125000000,,,
0.7879999985,6,150220.9218750000,150413.5781250000,175925.9531250000,169038.3593750000,159185.7500000000,162547.7031250000,63913.8593750000,175164.3125000000,,,
0.7919999987,6,150217.1875000000,150408.7343750000,175920.6406250000,169042.0937500000,159180.2031250000,162541.0781250000,63908.7890625000,175163.2968750000,,,
0.7959999987,6,150216.6250000000,150405.5937500000,175920.2343750000,169043.3281250000,159177.2656250000,162530.0312500000,63902.9687500000,175160.6093750000,,,
0.7999999986,6,150223.0625000000,150413.0781250000,175925.6250000000,169047.1562500000,159181.4843750000,162535.0000000000,63903.2343750000,175163.5625000000,,,
0.8039999986,6,150223.2031250000,150413.4218750000,175924.7187500000,169041.8750000000,159180.0000000000,162536.5781250000,63904.7382812500,175161.2343750000,,,
0.8079999986,6,150228.3750000000,150420.7187500000,175930.7812500000,169035.8593750000,159187.4843750000,162544.8906250000,63906.8046875000,175170.4531250000,,,
0.8119999988,6,150226.7343750000,150416.3125000000,175932.2500000000,169042.2968750000,159190.1718750000,162543.3125000000,63899.8046875000,175173.1562500000,,,
0.8159999987,6,150227.2187500000,150414.6562500000,175930.8125000000,169052.8125000000,159190.1718750000,162542.6875000000,63918.6601562500,175175.8750000000,,,
0.8199999987,6,150219.3906250000,150403.2031250000,175919.4062500000,169052.2500000000,159179.9843750000,162530.5937500000,63913.3203125000,175166.6250000000,,,
0.8239999986,6,150222.7187500000,150410.5000000000,175920.5625000000,169036.3750000000,159180.2812500000,162533.9218750000,63912.1406250000,175166.7812500000,,,
0.8279999986,6,150228.8593750000,150415.8281250000,175926.2812500000,169034.0937500000,159184.5156250000,162538.7968750000,63917.4804687500,175168.0156250000,,,
0.8319999985,6,150229.6406250000,150417.7343750000,175925.4687500000,169040.2343750000,159183.6562500000,162541.7343750000,63913.5898437500,175173.1093750000,,,
0.8359999987,6,150226.2500000000,150415.7500000000,175922.9218750000,169023.8437500000,159180.1718750000,162536.2031250000,63908.3593750000,175172.4375000000,,,
0.8399999987,6,150228.1562500000,150416.9375000000,175926.1875000000,169022.3750000000,159182.2343750000,162537.2968750000,63911.9804687500,175170.8906250000,,,
0.8439999986,6,150227.2500000000,150414.1250000000,175924.5781250000,169027.1250000000,159181.1562500000,162538.9375000000,63912.6523437500,175162.5937500000,,,
0.8479999986,6,150225.9375000000,150411.7031250000,175924.1250000000,169028.7343750000,159183.4062500000,162539.5312500000,63914.2070312500,175160.7500000000,,,
0.8519999986,6,150227.5781250000,150412.3281250000,175929.0156250000,169026.5312500000,159190.5781250000,162540.7031250000,63919.5156250000,175166.2187500000,,,
0.8559999987,6,150220.1406250000,150405.9062500000,175919.7812500000,169020.1718750000,159184.8593750000,162535.1093750000,63913.9921875000,175162.7812500000,,,
0.8599999987,6,150220.8437500000,150408.0781250000,175919.5937500000,169020.6093750000,159185.0781250000,162538.3750000000,63918.1757812500,175160.3750000000,,,
0.8639999987,6,150226.9531250000,150413.6875000000,175926.1875000000,169037.9062500000,159189.6406250000,162541.3281250000,63925.9023437500,175157.6093750000,,,
0.8679999986,6,150233.5312500000,150420.4531250000,175937.5937500000,169046.8906250000,159197.5156250000,162543.5312500000,63932.4453125000,175164.0937500000,,,
0.8719999986,6,150229.4218750000,150418.0625000000,175935.7187500000,169044.2031250000,159194.8437500000,162545.3281250000,63924.7460937500,175169.7812500000,,,
0.8759999985,6,150229.6093750000,150424.2031250000,175935.8437500000,169048.1250000000,159195.5937500000,162557.1718750000,63925.0703125000,175179.7812500000,,,
0.8799999987,6,150225.8750000000,150418.5781250000,175934.2968750000,169037.2656250000,159193.6562500000,162551.1406250000,63920.6171875000,175171.9843750000,33029,0.8834287287,0.0000000000
0.8839999987,6,150212.9531250000,150405.5937500000,175919.1718750000,169027.2500000000,159180.7656250000,162534.6406250000,63897.6835937500,175155.0312500000,,,
0.8879999986,6,150219.7968750000,150410.6093750000,175923.9218750000,169034.7968750000,159185.0000000000,162532.6562500000,63914.5273437500,175155.3281250000,,,
0.8919999986,6,150225.7500000000,150417.3906250000,175928.5468750000,169036.9375000000,159190.1406250000,162539.2656250000,63925.3125000000,175166.9687500000,,,
0.8959999986,7,150228.7187500000,150419.6718750000,175932.8437500000,169037.2031250000,159195.3281250000,162542.1250000000,63924.6679687500,175173.4062500000,,,
0.8999999985,7,150231.7031250000,150421.9218750000,175936.6562500000,169037.0156250000,159198.2812500000,162542.6718750000,63922.5742187500,175173.2500000000,,,
0.9039999985,7,150241.7656250000,150429.4843750000,175947.5468750000,169036.6718750000,159206.4843750000,162548.8593750000,63927.3476562500,175177.1875000000,,,
0.9079999984,7,150252.6718750000,150440.4062500000,175956.5312500000,169061.1562500000,159214.8281250000,162559.2656250000,63937.6484375000,175187.1875000000,,,
0.9119999984,7,150259.6250000000,150446.4062500000,175960.7343750000,169056.6875000000,159220.4531250000,162567.2656250000,63945.9921875000,175197.8437500000,,,
0.9159999983,7,150254.7187500000,150440.1562500000,175957.8437500000,169029.1093750000,159218.4687500000,162564.3906250000,63944.3007812500,175198.8281250000,,,
0.9199999985,7,150252.5468750000,150437.7968750000,175957.2031250000,169019.2031250000,159217.7656250000,162564.3906250000,63945.7773437500,175193.4375000000,,,
0.9239999985,7,150247.6406250000,150432.1093750000,175954.1718750000,169017.8125000000,159214.6875000000,162561.5468750000,63947.1718750000,175181.0156250000,,,
0.9279999984,7,150253.3125000000,150438.6406250000,175961.1406250000,169037.3906250000,159221.1562500000,162564.7187500000,63952.8046875000,175182.8437500000,,,
0.9319999984,7,150250.5625000000,150435.3125000000,175958.7031250000,169031.5156250000,159219.4062500000,162563.4062500000,63949.5859375000,175189.0156250000,,,
0.9359999984,7,150248.9531250000,150433.9687500000,175957.8750000000,169017.6250000000,159219.8593750000,162562.0000000000,63950.8437500000,175190.2500000000,,,
0.9399999985,7,150245.5468750000,150427.1562500000,175954.1093750000,169011.2500000000,159216.6406250000,162556.7187500000,63948.0039062500,175182.4375000000,,,
0.9439999985,7,150238.3281250000,150420.9843750000,175944.1875000000,169008.0468750000,159207.6406250000,162551.2187500000,63941.4023437500,175170.2187500000,,,
0.9479999985,7,150246.2656250000,150427.2656250000,175955.5312500000,169018.9375000000,159217.6093750000,162560.0000000000,63955.6210937500,175173.7031250000,,,
0.9519999984,7,150246.5625000000,150429.6406250000,175955.4062500000,169023.6093750000,159218.3593750000,162563.4843750000,63956.3437500000,175179.7343750000,,,
0.9559999984,7,150239.8750000000,150425.4687500000,175950.2343750000,169017.1250000000,159213.6093750000,162559.7187500000,63950.2031250000,175182.8437500000,,,
0.9599999983,7,150240.5000000000,150425.8906250000,175952.1562500000,169014.5468750000,159215.3281250000,162562.7812500000,63952.2148437500,175180.5625000000,,,
0.9639999985,7,150238.6250000000,150418.0000000000,175952.1093750000,169018.7812500000,159215.3125000000,162559.4062500000,63946.3125000000,175167.3437500000,,,
0.9679999985,7,150241.0937500000,150423.0156250000,175955.7187500000,169020.4687500000,159220.0000000000,162560.9843750000,63941.0000000000,175168.5312500000,,,
0.9719999984,7,150234.2968750000,150419.5312500000,175943.7031250000,169015.0000000000,159210.6718750000,162557.1718750000,63940.7343750000,175171.6562500000,,,
0.9759999984,7,150239.8750000000,150427.1875000000,175942.4531250000,169022.4062500000,159209.0781250000,162564.1718750000,63948.6210937500,175179.2031250000,,,
0.9799999984,7,150242.4531250000,150429.7343750000,175946.0625000000,169024.3593750000,159210.2968750000,162565.6250000000,63950.2812500000,175178.8281250000,,,
0.9839999985,7,150244.3125000000,150429.1406250000,175951.0000000000,169022.2968750000,159213.1562500000,162565.1718750000,63954.6289062500,175175.4687500000,,,
0.9879999985,7,150244.3281250000,150428.7031250000,175951.9687500000,169020.5781250000,159211.6250000000,162563.0312500000,63951.1406250000,175173.9218750000,,,
0.9919999985,7,150250.1875000000,150437.9687500000,175960.4687500000,169015.0312500000,159219.0625000000,162567.8750000000,63954.0625000000,175182.2343750000,,,
0.9959999984,7,150245.3750000000,150439.2500000000,175953.3125000000,169023.5000000000,159214.8437500000,162571.9062500000,63949.7734375000,175185.0468750000,,,
0.9999999984,7,150244.4218750000,150436.9218750000,175950.5000000000,169044.9375000000,159211.6093750000,162570.8281250000,63946.6093750000,175181.1250000000,,,
1.0039999983,7,150249.5937500000,150438.1718750000,175956.5781250000,169041.4531250000,159217.8593750000,162572.5781250000,63956.4257812500,175178.4531250000,,,
1.0079999985,7,150248.0937500000,150428.8906250000,175959.7812500000,169023.9531250000,159222.9218750000,162567.2656250000,63954.0390625000,175174.8281250000,,,
1.0119999985,7,150238.4062500000,150413.5000000000,175953.6562500000,169015.2968750000,159220.4843750000,162555.5937500000,63940.8945312500,175169.4375000000,,,
1.0159999984,7,150239.3437500000,150418.8906250000,175952.1562500000,169007.7500000000,159219.8125000000,162559.8125000000,63958.6523437500,175178.3906250000,,,
1.0199999984,7,150237.6093750000,150419.8281250000,175946.6562500000,169012.2656250000,159214.5000000000,162557.3593750000,63961.6015625000,175175.5468750000,,,
1.0239999983,8,150244.8125000000,150426.7500000000,175955.4531250000,169027.8437500000,159221.5625000000,162565.3593750000,63955.5390625000,175177.6093750000,,,
1.0279999983,8,150244.3593750000,150425.1718750000,175956.9062500000,169032.9687500000,159220.5312500000,162565.2968750000,63960.0742187500,175177.5156250000,,,
1.0319999983,8,150245.5156250000,150426.5937500000,175958.0625000000,169015.1875000000,159221.6406250000,162565.5468750000,63966.1601562500,175185.1250000000,,,
1.0359999982,8,150252.0625000000,150434.1250000000,175963.9375000000,169014.4843750000,159227.4062500000,162571.1718750000,63967.6367187500,175196.6562500000,,,
1.0399999982,8,150249.3437500000,150433.0781250000,175958.6250000000,169012.2343750000,159223.2500000000,162573.6250000000,63963.7460937500,175191.5625000000,,,
1.0439999981,8,150254.5312500000,150438.1562500000,175960.8281250000,169020.0468750000,159227.2187500000,162579.6875000000,63965.6796875000,175189.6250000000,,,
1.0479999983,8,150257.2031250000,150439.5468750000,175963.2343750000,169026.7812500000,159231.4531250000,162580.8906250000,63966.5078125000,175189.0625000000,,,
1.0519999983,8,150264.2343750000,150447.1093750000,175974.7968750000,169029.5312500000,159242.6562500000,162586.6562500000,63972.2773437500,175200.8125000000,,,
1.0559999982,8,150264.3437500000,150450.5156250000,175973.2343750000,169028.5156250000,159243.9218750000,162589.9062500000,63972.0625000000,175208.7500000000,,,
1.0599999982,8,150268.5781250000,150452.7968750000,175975.0156250000,169045.7656250000,159246.9062500000,162585.8437500000,63973.7500000000,175208.5937500000,,,
1.0639999982,8,150268.7656250000,150445.9531250000,175976.9218750000,169040.7187500000,159247.1406250000,162573.2187500000,63973.2695312500,175197.7812500000,,,
1.0679999983,8,150259.7812500000,150443.4687500000,175965.6250000000,169040.6406250000,159235.8750000000,162572.8750000000,63961.8710937500,175192.7500000000,,,
1.0719999983,8,150254.1562500000,150445.8281250000,175959.0312500000,169040.3125000000,159229.2031250000,162585.6875000000,63960.9296875000,175201.7343750000,,,
1.0759999983,8,150251.0156250000,150445.8437500000,175953.4218750000,169050.5625000000,159220.4062500000,162583.4843750000,63953.5000000000,175206.2656250000,,,
1.0799999982,8,150260.8593750000,150453.7656250000,175958.7500000000,169076.0468750000,159220.3437500000,162581.9687500000,63945.6132812500,175209.2656250000,,,
1.0839999982,8,150267.2187500000,150462.2656250000,175964.3125000000,169052.6875000000,159222.7812500000,162586.8437500000,63944.7031250000,175210.8437500000,,,
1.0879999981,8,150257.9375000000,150454.2187500000,175956.6875000000,169031.3125000000,159214.7968750000,162578.4218750000,63937.9179687500,175202.6875000000,,,
1.0919999983,8,150256.1406250000,150452.8437500000,175956.2656250000,169040.8281250000,159215.3593750000,162575.4687500000,63937.1406250000,175202.5625000000,,,
1.0959999983,8,150262.3906250000,150458.2968750000,175967.2656250000,169060.7031250000,159228.2031250000,162581.6875000000,63948.2695312500,175211.2500000000,,,
1.0999999982,8,150256.5625000000,150448.4531250000,175966.0468750000,169053.4843750000,159228.6093750000,162577.3750000000,63947.1171875000,175205.4062500000,,,
1.1039999982,8,150257.4843750000,150449.9843750000,175967.6093750000,169027.4375000000,159231.4531250000,162581.2343750000,63954.4921875000,175202.4843750000,,,
1.1079999981,8,150260.9062500000,150454.1875000000,175972.6250000000,169038.9843750000,159235.3906250000,162582.2500000000,63962.7539062500,175205.2187500000,,,
1.1119999983,8,150241.7031250000,150434.0156250000,175951.7031250000,169037.4687500000,159217.2031250000,162569.1718750000,63948.7265625000,175192.6093750000,,,
1.1159999983,8,150239.9687500000,150433.8281250000,175948.5625000000,169030.3906250000,159214.7187500000,162568.8437500000,63947.0625000000,175193.1250000000,,,
1.1199999982,8,150245.1406250000,150433.7812500000,175952.6875000000,169052.4375000000,159216.3750000000,162568.4687500000,63948.4570312500,175190.7656250000,,,
1.1239999982,8,150255.3906250000,150439.5781250000,175963.7187500000,169074.4062500000,159224.2968750000,162575.0625000000,63957.7929687500,175189.8437500000,,,
1.1279999982,8,150247.9531250000,150430.7500000000,175958.9687500000,169048.2031250000,159221.2031250000,162570.5625000000,63956.8554687500,175181.4218750000,,,
1.1319999981,8,150246.4218750000,150426.3750000000,175963.2031250000,169037.4687500000,159226.0937500000,162569.4843750000,63960.5273437500,175180.4062500000,,,
1.1359999983,8,150245.9687500000,150424.1718750000,175961.4062500000,169045.4218750000,159227.5937500000,162569.8125000000,63957.5781250000,175181.7500000000,,,
1.1399999983,8,150246.2656250000,150424.7656250000,175957.2031250000,169045.5156250000,159224.9843750000,162567.0468750000,63952.9648437500,175180.6250000000,,,
1.1439999982,8,150243.5000000000,150424.2812500000,175946.6875000000,169050.6250000000,159214.9375000000,162561.4375000000,63943.0664062500,175174.5000000000,,,
1.1479999982,8,150246.1875000000,150427.5312500000,175946.1250000000,169052.4218750000,159214.9843750000,162561.8750000000,63942.6914062500,175177.6718750000,,,
1.1519999981,9,150251.8437500000,150435.6875000000,175952.8750000000,169041.5468750000,159224.2968750000,162569.2812500000,63953.2851562500,175191.4375000000,,,
1.1559999981,9,150250.2031250000,150434.2031250000,175952.7500000000,169045.8125000000,159225.4375000000,162567.7500000000,63955.2187500000,175195.6406250000,,,
1.1599999981,9,150249.2500000000,150436.1875000000,175951.4531250000,169046.4687500000,159223.3750000000,162568.6875000000,63953.7421875000,175195.4531250000,,,
1.1639999980,9,150252.3750000000,150439.1718750000,175953.7656250000,169048.7343750000,159224.4218750000,162575.0625000000,63957.7929687500,175192.3437500000,,,
1.1679999980,9,150247.7343750000,150436.3281250000,175951.1718750000,169038.0937500000,159219.5625000000,162575.7968750000,63955.3789062500,175191.5156250000,,,
1.1719999979,9,150247.0468750000,150435.6875000000,175953.7968750000,169042.5468750000,159221.6875000000,162575.3437500000,63955.0312500000,175196.4218750000,,,
1.1759999981,9,150251.5156250000,150442.4218750000,175962.8906250000,169043.2187500000,159230.9218750000,162583.9687500000,63962.9414062500,175205.6250000000,,,
1.1799999981,9,150246.4531250000,150436.7812500000,175959.5625000000,169047.8593750000,159228.0937500000,162582.0937500000,63961.5468750000,175199.9375000000,,,
1.1839999980,9,150241.5156250000,150427.5781250000,175954.9531250000,169048.0781250000,159222.3125000000,162572.7656250000,63954.0898437500,175185.2343750000,,,
1.1879999980,9,150250.5000000000,150431.5468750000,175965.5937500000,169045.6875000000,159231.9375000000,162574.8593750000,63956.8007812500,175188.4218750000,,,
1.1919999979,9,150244.4218750000,150423.7187500000,175958.3750000000,169047.5312500000,159226.5468750000,162569.7500000000,63952.0273437500,175187.1406250000,,,
1.1959999981,9,150236.0000000000,150415.7500000000,175947.2812500000,169053.2968750000,159216.2968750000,162562.3593750000,63944.5156250000,175182.0468750000,,,
1.1999999981,9,150246.1250000000,150426.3750000000,175956.8750000000,169060.1718750000,159224.3125000000,162565.0156250000,63951.6250000000,175186.3281250000,,,
1.2039999980,9,150254.3437500000,150433.5312500000,175965.1875000000,169063.7031250000,159229.8437500000,162565.2187500000,63955.0546875000,175184.9375000000,,,
1.2079999980,9,150253.1093750000,150432.0625000000,175962.7500000000,169057.1406250000,159227.4062500000,162568.3593750000,63950.8710937500,175184.4843750000,,,
1.2119999980,9,150251.6875000000,150429.2500000000,175961.6875000000,169041.3125000000,159228.2812500000,162571.9531250000,63951.9453125000,175188.4531250000,,,
1.2159999979,9,150253.8281250000,150425.1718750000,175965.7500000000,169041.3437500000,159233.6718750000,162570.0468750000,63955.5117187500,175190.4687500000,,,
1.2199999981,9,150253.1875000000,150425.0937500000,175960.7656250000,169030.5781250000,159232.2812500000,162571.5781250000,63952.8554687500,175189.5312500000,,,
1.2239999981,9,150255.9687500000,150425.7031250000,175961.1093750000,169028.8437500000,159232.6562500000,162574.8750000000,63962.8632812500,175183.7031250000,,,
1.2279999980,9,150262.4375000000,150435.1718750000,175966.8593750000,169030.0000000000,159238.0000000000,162582.7343750000,63970.8007812500,175187.6718750000,,,
1.2319999980,9,150265.3125000000,150442.0937500000,175972.4375000000,169026.6093750000,159245.0000000000,162589.2812500000,63975.6289062500,175198.2500000000,,,
1.2359999979,9,150247.3906250000,150419.2968750000,175957.5781250000,169025.5625000000,159232.3437500000,162572.0937500000,63960.8789062500,175183.0312500000,,,
1.2399999981,9,150250.4843750000,150424.6250000000,175956.9375000000,169025.8906250000,159228.8437500000,162573.3437500000,63956.8554687500,175182.5781250000,,,
1.2439999981,9,150251.6250000000,150432.5468750000,175949.7500000000,169033.6875000000,159219.9218750000,162576.9218750000,63953.9570312500,175181.1875000000,,,
1.2479999980,9,150255.5781250000,150440.9062500000,175952.7812500000,169036.7500000000,159220.0781250000,162578.9062500000,63956.3437500000,175188.0468750000,,,
1.2519999980,9,150253.4062500000,150440.0000000000,175952.7812500000,169047.7968750000,159218.8750000000,162575.6093750000,63951.8906250000,175193.2343750000,,,
1.2559999980,9,150244.5781250000,150431.4687500000,175947.3593750000,169039.6406250000,159215.3906250000,162571.6406250000,63947.8671875000,175190.8125000000,,,
1.2599999979,9,150253.1875000000,150440.4843750000,175958.5156250000,169058.5781250000,159225.8750000000,162580.1093750000,63955.1093750000,175195.8281250000,,,
1.2639999981,9,150258.8125000000,150444.6406250000,175963.9531250000,169057.0625000000,159231.2968750000,162585.2812500000,63959.1328125000,175195.9843750000,,,
1.2679999981,9,150253.8281250000,150438.9218750000,175959.8750000000,169036.3437500000,159226.7656250000,162585.4687500000,63956.3710937500,175191.6718750000,,,
1.2719999980,9,150247.1250000000,150431.7656250000,175956.9062500000,169031.3906250000,159223.8593750000,162581.0156250000,63954.8164062500,175190.3593750000,,,
1.2759999980,9,150242.4843750000,150425.7031250000,175953.3906250000,169037.3125000000,159219.7812500000,162573.3281250000,63951.7578125000,175189.4218750000,,,
1.2799999979,10,150244.9843750000,150429.6718750000,175954.0156250000,169047.8281250000,159217.8593750000,162574.0000000000,63950.4414062500,175190.0156250000,,,
1.2839999979,10,150246.0468750000,150429.9375000000,175953.5312500000,169043.0781250000,159217.4531250000,162576.6562500000,63951.5976562500,175186.4375000000,,,
1.2879999978,10,150249.4843750000,150431.3906250000,175955.3750000000,169037.7656250000,159220.9687500000,162574.6718750000,63951.6757812500,175187.8125000000,,,
1.2919999978,10,150248.5937500000,150425.7031250000,175953.0156250000,169037.8281250000,159221.0468750000,162566.9687500000,63946.5820312500,175187.4062500000,,,
1.2959999978,10,150247.0156250000,150421.7343750000,175950.9531250000,169032.0000000000,159221.6406250000,162566.3281250000,63940.8398437500,175188.7187500000,,,
1.2999999977,10,150252.6250000000,150426.1562500000,175954.6562500000,169039.4843750000,159226.5781250000,162568.6875000000,63942.8007812500,175190.6718750000,,,
1.3039999979,10,150256.4062500000,150430.8750000000,175958.0625000000,169039.0781250000,159230.3750000000,162572.4375000000,63946.3671875000,175186.9218750000,,,
1.3079999979,10,150255.5937500000,150433.2656250000,175958.4062500000,169036.0781250000,159231.3125000000,162575.9531250000,63946.4179687500,175188.6875000000,,,
1.3119999978,10,150252.7500000000,150436.1093750000,175955.3750000000,169034.4687500000,159230.7343750000,162579.3906250000,63947.5468750000,175195.4531250000,,,
1.3159999978,10,150241.2500000000,150427.0156250000,175945.0156250000,169025.1718750000,159221.2812500000,162572.8750000000,63942.5039062500,175192.0781250000,,,
1.3199999977,10,150236.6875000000,150423.6406250000,175937.7500000000,169020.3906250000,159213.9062500000,162570.1093750000,63940.9492187500,175188.6093750000,,,
1.3239999979,10,150239.7812500000,150427.5781250000,175940.2187500000,169022.2656250000,159212.8906250000,162573.1406250000,63943.4960937500,175185.0937500000,,,
1.3279999979,10,150248.2187500000,150437.2343750000,175950.1406250000,169028.8437500000,159220.5937500000,162581.8281250000,63955.0820312500,175188.4843750000,,,
1.3319999978,10,150257.4843750000,150449.8437500000,175957.4218750000,169047.6093750000,159229.7968750000,162590.2031250000,63964.2304687500,175202.7968750000,,,
1.3359999978,10,150247.9531250000,150432.7656250000,175950.6250000000,169057.6406250000,159223.4531250000,162573.7343750000,63953.7148437500,175190.9531250000,,,
1.3399999978,10,150239.2656250000,150423.7812500000,175940.5468750000,169034.4218750000,159216.0312500000,162565.1093750000,63943.3906250000,175178.9375000000,,,
1.3439999977,10,150242.9687500000,150430.5937500000,175941.7500000000,169032.4062500000,159217.9375000000,162565.9531250000,63940.9492187500,175177.9843750000,,,
1.3479999979,10,150239.0312500000,150422.7343750000,175941.0781250000,169044.5625000000,159215.1250000000,162558.9531250000,63936.3085937500,175171.5000000000,,,
1.3519999979,10,150232.4218750000,150413.5625000000,175940.9531250000,169041.9843750000,159213.7187500000,162553.2343750000,63936.0390625000,175167.4218750000,,,
1.3559999978,10,150228.7968750000,150410.7343750000,175941.3437500000,169038.2031250000,159214.2343750000,162555.1875000000,63936.6562500000,175172.6562500000,,,
1.3599999978,10,150221.7812500000,150400.2187500000,175935.3906250000,169034.2812500000,159207.8750000000,162549.7968750000,63925.4453125000,175167.0156250000,,,
1.3639999977,10,150231.5625000000,150410.6250000000,175942.6562500000,169047.2656250000,159212.8906250000,162553.7500000000,63937.3554687500,175170.4062500000,,,
1.3679999979,10,150242.7500000000,150427.9531250000,175952.8750000000,169044.2656250000,159221.8750000000,162565.7031250000,63949.8515625000,175180.7343750000,,,
1.3719999979,10,150245.1718750000,150430.9062500000,175954.9218750000,169027.6250000000,159224.1562500000,162568.6250000000,63950.9257812500,175186.9218750000,,,
1.3759999978,10,150248.1406250000,150428.2812500000,175955.8281250000,169044.1250000000,159226.4843750000,162562.5156250000,63948.8085937500,175187.4375000000,,,
1.3799999978,10,150250.9531250000,150431.3437500000,175956.0468750000,169054.1093750000,159227.4531250000,162559.1093750000,63941.6992187500,175188.3125000000,,,
1.3839999977,10,150252.5625000000,150434.6093750000,175955.7187500000,169038.0625000000,159228.5625000000,162562.2968750000,63943.8984375000,175185.9843750000,,,
1.3879999977,10,150250.4531250000,150433.5312500000,175957.3281250000,169027.5468750000,159229.1718750000,162563.7187500000,63950.8203125000,175183.6250000000,,,
1.3919999979,10,150251.0937500000,150432.4843750000,175962.9375000000,169040.6093750000,159233.8593750000,162565.3281250000,63953.4726562500,175185.4531250000,,,
1.3959999979,10,150241.8125000000,150427.5000000000,175946.4687500000,169043.2968750000,159221.4218750000,162565.5937500000,63933.5468750000,175183.9687500000,,,
1.3999999978,10,150248.1718750000,150437.6875000000,175949.0000000000,169040.5000000000,159223.7031250000,162574.7187500000,63941.0820312500,175190.7656250000,,,
1.4039999978,10,150235.0000000000,150421.0312500000,175933.5468750000,169029.1562500000,159209.0000000000,162566.3281250000,63941.8867187500,175175.4375000000,,,
1.4079999977,11,150240.2500000000,150431.4218750000,175935.6093750000,169047.8281250000,159209.2968750000,162573.0781250000,63945.5625000000,175179.6250000000,,,
1.4119999977,11,150244.2343750000,150435.1250000000,175940.6250000000,169059.7343750000,159212.4375000000,162569.4843750000,63946.2304687500,175187.6718750000,,,
1.4159999976,11,150227.0625000000,150417.1250000000,175926.0937500000,169021.9531250000,159197.5156250000,162556.7968750000,63933.0351562500,175177.3437500000,,,
1.4199999976,11,150228.1093750000,150417.2500000000,175930.7031250000,169008.5156250000,159201.2031250000,162561.1718750000,63938.2382812500,175175.6875000000,,,
1.4239999976,11,150232.7968750000,150422.5625000000,175939.5468750000,169015.3437500000,159207.9062500000,162564.7187500000,63944.6757812500,175175.1250000000,,,
1.4279999975,11,150231.7343750000,150425.0937500000,175940.4062500000,169015.4843750000,159208.3906250000,162567.8593750000,63946.7421875000,175176.5625000000,,,
1.4319999977,11,150234.6250000000,150427.0468750000,175944.7500000000,169021.9531250000,159212.2187500000,162569.4687500000,63950.6054687500,175181.4218750000,,,
1.4359999977,11,150238.3281250000,150425.6250000000,175949.1875000000,169038.1718750000,159216.2500000000,162562.3593750000,63952.5351562500,175179.9531250000,,,
1.4399999976,11,150237.3906250000,150422.6250000000,175945.7812500000,169031.8906250000,159214.3125000000,162560.9531250000,63951.3554687500,175176.3750000000,,,
1.4439999976,11,150237.4687500000,150423.0156250000,175945.5000000000,169037.0468750000,159213.3750000000,162559.8906250000,63949.7460937500,175171.3125000000,,,
1.4479999975,11,150247.4218750000,150432.8125000000,175959.6093750000,169042.8125000000,159224.7500000000,162566.6406250000,63956.5039062500,175177.3281250000,,,
1.4519999977,11,150236.0781250000,150425.5781250000,175944.0625000000,169025.2656250000,159213.5937500000,162562.2968750000,63941.5117187500,175180.1718750000,,,
1.4559999977,11,150226.5468750000,150417.0625000000,175929.9687500000,169021.7343750000,159202.7031250000,162557.0468750000,63925.1757812500,175180.9687500000,,,
1.4599999976,11,150229.7187500000,150420.7500000000,175931.0156250000,169032.0000000000,159204.4375000000,162557.8437500000,63932.2851562500,175183.3593750000,,,
1.4639999976,11,150232.4218750000,150423.6406250000,175933.0625000000,169033.7187500000,159206.6718750000,162559.0000000000,63937.7578125000,175180.4531250000,,,
1.4679999975,11,150235.3437500000,150426.4531250000,175936.0312500000,169033.0468750000,159209.6406250000,162563.8281250000,63942.2890625000,175181.0468750000,,,
1.4719999975,11,150234.0156250000,150425.0937500000,175937.0625000000,169024.8750000000,159211.7187500000,162563.7187500000,63947.5742187500,175183.8125000000,,,
1.4759999977,11,150230.2812500000,150422.2968750000,175934.1875000000,169012.7656250000,159210.0156250000,162562.9218750000,63950.2812500000,175185.4531250000,,,
1.4799999977,11,150227.0937500000,150413.9843750000,175931.3125000000,169022.4843750000,159208.2187500000,162560.6875000000,63948.8593750000,175176.7656250000,,,
1.4839999976,11,150241.0625000000,150424.3437500000,175943.7656250000,169035.5156250000,159218.9062500000,162570.9687500000,63955.0820312500,175177.5156250000,,,
1.4879999976,11,150247.5468750000,150427.2343750000,175951.4531250000,169052.9218750000,159222.5468750000,162570.9375000000,63954.8437500000,175173.4531250000,,,
1.4919999975,11,150234.2500000000,150411.8906250000,175940.8125000000,169040.2968750000,159211.1406250000,162557.1562500000,63942.8242187500,175159.6406250000,,,
1.4959999977,11,150227.4062500000,150409.9843750000,175932.5000000000,169012.7187500000,159205.7812500000,162556.5625000000,63937.9453125000,175159.4375000000,,,
1.4999999977,11,150223.7812500000,150409.0781250000,175929.2187500000,168998.2812500000,159202.7812500000,162554.5468750000,63936.7109375000,175157.5468750000,,,
1.5039999976,11,150230.3906250000,150416.1875000000,175936.7343750000,169018.4375000000,159205.5625000000,162553.5625000000,63939.2851562500,175158.0156250000,,,
1.5079999976,11,150229.4218750000,150413.3125000000,175937.1093750000,169028.2968750000,159203.5781250000,162546.4218750000,63937.0312500000,175154.3906250000,,,
1.5119999975,11,150216.5000000000,150397.8593750000,175927.0468750000,169007.5625000000,159195.4375000000,162533.9531250000,63927.9414062500,175144.5468750000,,,
1.5159999975,11,150224.0781250000,150411.0937500000,175937.3281250000,169018.4531250000,159205.4375000000,162542.8593750000,63931.9882812500,175155.3281250000,,,
1.5199999977,11,150232.5937500000,150428.3906250000,175946.1250000000,169021.8125000000,159212.6250000000,162553.9843750000,63938.1054687500,175168.8125000000,,,
1.5239999976,11,150229.0468750000,150420.2343750000,175940.5156250000,169029.1406250000,159208.6562500000,162549.7812500000,63940.4648437500,175160.7187500000,,,
1.5279999976,11,150222.8750000000,150412.5625000000,175932.4218750000,169036.7187500000,159202.7500000000,162543.0625000000,63933.1171875000,175153.1250000000,,,
1.5319999976,11,150219.0468750000,150410.0156250000,175932.3593750000,169036.7500000000,159201.9531250000,162540.3125000000,63929.4414062500,175153.0468750000,,,
1.5359999975,12,150215.8750000000,150406.9375000000,175930.8281250000,169029.3281250000,159199.3125000000,162537.7343750000,63931.6953125000,175152.1093750000,,,
1.5399999975,12,150218.2968750000,150410.2031250000,175933.5625000000,169005.0937500000,159201.9218750000,162540.5781250000,63935.0742187500,175153.4218750000,,,
1.5439999974,12,150216.4375000000,150406.9531250000,175930.8593750000,169002.1562500000,159199.6406250000,162540.4375000000,63933.2773437500,175145.4375000000,,,
1.5479999974,12,150216.6875000000,150407.4062500000,175926.1875000000,169020.3125000000,159195.4843750000,162538.4062500000,63929.3593750000,175142.8281250000,,,
1.5519999973,12,150217.4843750000,150406.1718750000,175926.3750000000,169035.6250000000,159194.5937500000,162535.5781250000,63927.6718750000,175147.4218750000,,,
1.5559999973,12,150210.9375000000,150400.1718750000,175920.0312500000,169022.7187500000,159188.6718750000,162531.7968750000,63918.9531250000,175151.1406250000,,,
1.5599999975,12,150210.6718750000,150401.4843750000,175920.5156250000,169017.7812500000,159189.8750000000,162534.4531250000,63919.6796875000,175152.2968750000,,,
1.5639999975,12,150211.4843750000,150399.9062500000,175923.1562500000,169004.0312500000,159192.4531250000,162535.9375000000,63927.8593750000,175149.7187500000,,,
1.5679999974,12,150210.3437500000,150399.5781250000,175921.5000000000,169007.3750000000,159192.0000000000,162535.1562500000,63930.7812500000,175147.5781250000,,,
1.5719999974,12,150206.7031250000,150397.2187500000,175916.1875000000,169006.3281250000,159189.0468750000,162538.0781250000,63930.8085937500,175150.3906250000,,,
1.5759999973,12,150205.0937500000,150394.0000000000,175915.1406250000,169012.7968750000,159188.3437500000,162535.0156250000,63926.4101562500,175150.7343750000,,,
1.5799999975,12,150205.5156250000,150393.5781250000,175917.8281250000,169014.8593750000,159188.7500000000,162533.0625000000,63921.3398437500,175149.1562500000,,,
1.5839999975,12,150209.9531250000,150396.8906250000,175924.2343750000,169018.7812500000,159191.0781250000,162539.8437500000,63927.3242187500,175148.0625000000,,,
1.5879999974,12,150208.8437500000,150394.9375000000,175927.9687500000,169015.2343750000,159191.1718750000,162540.5781250000,63924.5859375000,175145.1093750000,,,
1.5919999974,12,150208.9062500000,150400.5781250000,175926.8125000000,169026.8593750000,159192.6406250000,162542.9843750000,63906.0781250000,175150.7187500000,,,
1.5959999973,12,150212.2031250000,150403.6562500000,175930.0312500000,169037.8750000000,159196.2656250000,162543.9531250000,63918.6054687500,175158.0312500000,,,
1.5999999973,12,150212.5156250000,150404.3281250000,175929.5468750000,169030.7500000000,159194.4375000000,162542.2968750000,63935.5820312500,175157.6093750000,,,
1.6039999975,12,150220.1093750000,150409.7500000000,175936.6875000000,169042.6250000000,159200.1562500000,162544.7343750000,63939.9023437500,175157.6406250000,,,
1.6079999974,12,150225.9843750000,150411.8125000000,175943.3593750000,169043.5625000000,159208.3281250000,162547.1406250000,63943.3906250000,175159.4843750000,,,
1.6119999974,12,150225.5312500000,150414.3281250000,175937.3750000000,169045.4375000000,159205.7500000000,162545.0000000000,63939.6875000000,175167.0156250000,,,
1.6159999974,12,150227.4375000000,150417.2812500000,175939.5000000000,169042.2500000000,159207.5312500000,162545.4531250000,63940.7343750000,175175.0937500000,,,
1.6199999973,12,150228.7187500000,150417.4375000000,175940.3593750000,169042.8593750000,159208.4062500000,162546.8750000000,63945.0781250000,175175.4687500000,,,
1.6239999975,12,150240.5468750000,150428.8750000000,175952.9687500000,169053.2812500000,159220.1562500000,162556.2656250000,63960.4218750000,175178.3906250000,,,
1.6279999975,12,150240.7187500000,150426.5625000000,175957.9218750000,169048.4218750000,159224.0000000000,162555.9218750000,63962.4335937500,175176.2500000000,,,
1.6319999974,12,150238.6250000000,150424.3125000000,175958.8125000000,169038.6875000000,159226.7031250000,162556.2187500000,63962.3515625000,175178.6875000000,,,
1.6359999974,12,150232.2968750000,150421.5000000000,175950.4218750000,169026.2031250000,159220.7031250000,162550.5000000000,63954.8164062500,175180.6406250000,,,
1.6399999973,12,150228.4062500000,150422.4375000000,175942.5000000000,169029.8906250000,159214.6875000000,162549.5625000000,63953.6875000000,175180.7812500000,,,
1.6439999973,12,150225.5781250000,150422.5625000000,175937.4062500000,169031.7343750000,159209.6250000000,162552.3281250000,63955.5117187500,175175.8750000000,,,
1.6479999975,12,150233.3437500000,150430.5312500000,175946.7968750000,169029.8125000000,159217.4531250000,162563.6406250000,63966.2968750000,175181.5625000000,,,
1.6519999974,12,150233.2343750000,150430.5937500000,175943.2812500000,169041.0937500000,159215.2500000000,162565.7656250000,63961.1445312500,175189.1718750000,,,
1.6559999974,12,150229.0468750000,150423.6406250000,175934.9687500000,169036.0312500000,159208.5156250000,162560.2031250000,63953.5000000000,175188.0781250000,,,
1.6599999974,12,150228.4062500000,150419.7031250000,175932.9531250000,169038.1718750000,159206.9687500000,162556.0000000000,63950.4414062500,175182.2343750000,,,
1.6639999973,13,150228.3437500000,150415.7500000000,175933.5625000000,169044.3437500000,159206.9843750000,162553.0156250000,63945.9101562500,175170.4218750000,,,
1.6679999973,13,150230.4062500000,150417.5312500000,175937.1093750000,169030.3125000000,159210.3437500000,162554.5156250000,63953.1523437500,175168.2500000000,,,
1.6719999972,13,150226.3125000000,150412.5625000000,175933.3750000000,169024.9843750000,159207.7968750000,162550.2343750000,63950.5234375000,175166.9218750000,,,
1.6759999972,13,150225.4531250000,150413.3125000000,175932.5312500000,169033.4062500000,159206.0468750000,162549.6406250000,63947.1445312500,175171.6562500000,,,
1.6799999971,13,150227.8437500000,150418.6718750000,175936.2812500000,169023.6875000000,159207.9218750000,162551.0625000000,63948.3242187500,175176.0000000000,,,
1.6839999971,13,150234.5937500000,150423.4218750000,175943.3906250000,169028.2812500000,159214.0468750000,162552.0000000000,63952.4296875000,175177.2187500000,,,
1.6879999973,13,150236.7656250000,150421.5156250000,175947.8125000000,169032.0781250000,159218.6093750000,162549.1562500000,63944.6210937500,175175.9531250000,,,
1.6919999972,13,150238.9687500000,150423.5000000000,175952.3437500000,169023.5312500000,159224.7500000000,162549.5625000000,63948.5390625000,175181.9687500000,,,
1.6959999972,13,150248.3281250000,150434.8750000000,175957.2812500000,169031.4375000000,159229.6562500000,162554.2031250000,63962.9140625000,175194.9687500000,,,
1.6999999972,13,150234.9218750000,150421.6093750000,175943.9218750000,169027.2343750000,159217.8281250000,162545.0781250000,63955.7539062500,175184.4062500000,,,
1.7039999971,13,150230.4062500000,150419.1406250000,175942.0000000000,169016.9531250000,159213.8281250000,162546.9375000000,63953.1523437500,175177.8593750000,,,
1.7079999973,13,150226.9531250000,150412.4843750000,175936.7343750000,169017.1250000000,159208.3125000000,162542.2656250000,63947.7617187500,175172.1718750000,,,
1.7119999973,13,150226.9843750000,150417.1250000000,175933.0312500000,169018.3593750000,159205.0312500000,162542.8750000000,63940.8671875000,175177.5937500000,,,
1.7159999972,13,150228.2968750000,150422.0000000000,175932.7343750000,169020.3437500000,159206.5937500000,162548.5625000000,63942.6640625000,175186.0312500000,,,
1.7199999972,13,150229.6875000000,150427.3125000000,175934.1562500000,169018.1875000000,159208.2031250000,162556.6718750000,63948.0546875000,175188.6718750000,,,
1.7239999971,13,150229.5000000000,150425.1406250000,175932.5000000000,169026.8281250000,159206.1562500000,162557.3437500000,63950.0937500000,175181.3125000000,,,
1.7279999971,13,150236.3125000000,150433.2656250000,175938.5312500000,169033.1250000000,159211.0937500000,162565.2187500000,63954.6289062500,175185.8750000000,,,
1.7319999973,13,150238.8125000000,150441.8593750000,175941.2187500000,169045.1406250000,159214.2812500000,162574.0156250000,63952.8828125000,175197.5937500000,,,
1.7359999972,13,150237.2031250000,150436.5156250000,175943.7968750000,169018.5625000000,159219.4062500000,162574.5625000000,63949.0742187500,175200.7968750000,,,
1.7399999972,13,150226.4687500000,150420.0781250000,175935.8750000000,168993.1093750000,159214.2656250000,162564.4531250000,63945.8046875000,175192.0937500000,,,
1.7439999972,13,150218.2031250000,150408.7500000000,175926.6250000000,169006.7968750000,159203.0000000000,162555.8593750000,63945.7226562500,175178.8750000000,,,
1.7479999971,13,150222.3125000000,150413.2031250000,175931.9843750000,169012.1875000000,159204.6250000000,162558.8906250000,63950.0664062500,175177.4062500000,,,
1.7519999973,13,150225.4843750000,150418.1093750000,175934.1875000000,169014.2812500000,159205.5468750000,162561.7031250000,63947.9218750000,175181.7187500000,,,
1.7559999973,13,150223.4687500000,150418.3281250000,175929.3906250000,169030.6093750000,159201.8125000000,162561.3125000000,63942.1015625000,175185.7968750000,,,
1.7599999972,13,150221.1093750000,150416.5312500000,175928.2812500000,169033.2656250000,159199.8750000000,162557.6406250000,63937.4882812500,175182.9062500000,,,
1.7639999972,13,150221.7968750000,150418.3906250000,175930.2187500000,169017.4687500000,159201.1093750000,162558.2968750000,63933.0078125000,175177.1406250000,,,
1.7679999971,13,150220.0000000000,150416.9375000000,175925.5312500000,169010.4687500000,159197.9218750000,162553.1250000000,63927.6718750000,175170.0781250000,,,
1.7719999971,13,150219.7187500000,150415.8593750000,175925.7968750000,169015.1093750000,159199.8281250000,162548.4375000000,63932.9023437500,175171.0937500000,,,
1.7759999973,13,150219.1718750000,150413.8437500000,175927.4062500000,169022.1093750000,159200.9531250000,162545.7187500000,63932.7656250000,175173.1875000000,,,
1.7799999972,13,150231.1875000000,150426.7031250000,175941.7031250000,169039.7031250000,159212.2968750000,162555.5937500000,63954.7070312500,175181.6093750000,,,
1.7839999972,13,150246.9375000000,150444.2187500000,175960.4218750000,169038.3906250000,159226.8906250000,162571.1250000000,63971.3906250000,175195.9062500000,,,
1.7879999971,13,150245.6562500000,150443.6250000000,175956.6406250000,169035.7031250000,159222.8125000000,162570.5625000000,63965.0351562500,175196.4531250000,,,
1.7919999971,14,150229.4531250000,150425.2187500000,175940.0000000000,169033.1875000000,159209.9687500000,162557.0156250000,63950.4960937500,175185.6562500000,,,
1.7959999971,14,150226.2031250000,150421.2187500000,175938.2968750000,169021.0000000000,159208.8125000000,162555.5937500000,63950.3085937500,175187.0625000000,,,
1.7999999970,14,150224.4375000000,150423.0468750000,175936.9218750000,169004.0781250000,159208.6250000000,162557.3437500000,63947.7890625000,175188.8281250000,,,
1.8039999970,14,150232.0781250000,150431.9531250000,175942.5781250000,169021.5468750000,159214.6093750000,162564.0468750000,63956.0507812500,175192.6562500000,,,
1.8079999969,14,150227.2187500000,150428.3125000000,175936.7812500000,169028.9687500000,159208.5000000000,162558.7031250000,63954.4140625000,175187.7812500000,,,
1.8119999969,14,150218.5781250000,150418.1093750000,175927.4843750000,169024.4375000000,159200.6406250000,162548.4843750000,63952.8046875000,175183.8125000000,,,
1.8159999971,14,150221.5312500000,150420.8750000000,175929.4375000000,169014.1093750000,159204.1250000000,162552.1406250000,63963.6679687500,175189.4218750000,,,
1.8199999970,14,150223.0625000000,150425.9687500000,175925.0625000000,169016.9531250000,159200.9531250000,162554.1718750000,63956.1835937500,175193.5781250000,,,
1.8239999970,14,150222.2656250000,150421.5000000000,175924.6406250000,169015.4843750000,159198.6718750000,162550.9531250000,63958.9179687500,175184.3281250000,,,
1.8279999970,14,150222.8437500000,150424.6250000000,175925.8125000000,169013.2812500000,159199.4218750000,162554.0156250000,63961.4140625000,175182.2031250000,,,
1.8319999969,14,150224.0781250000,150427.9843750000,175927.4843750000,169023.0156250000,159202.4531250000,162556.6875000000,63960.1796875000,175188.9687500000,,,
1.8359999971,14,150214.6718750000,150415.7343750000,175922.2187500000,169031.5468750000,159199.6875000000,162547.4687500000,63956.2382812500,175182.3593750000,,,
1.8399999971,14,150222.2812500000,150421.6093750000,175932.0625000000,169049.3906250000,159208.6875000000,162552.4375000000,63962.7812500000,175184.5312500000,,,
1.8439999970,14,150228.1562500000,150424.9843750000,175937.0781250000,169043.4375000000,159212.6718750000,162555.7343750000,63966.8046875000,175180.8125000000,,,
1.8479999970,14,150237.7031250000,150434.1562500000,175944.3281250000,169039.5156250000,159219.1875000000,162565.3281250000,63971.5234375000,175185.6562500000,,,
1.8519999969,14,150232.4531250000,150426.0312500000,175942.9062500000,169035.6250000000,159217.0000000000,162559.8906250000,63964.8984375000,175185.1250000000,,,
1.8559999969,14,150223.0937500000,150417.6562500000,175934.8906250000,169020.1718750000,159211.2812500000,162553.5312500000,63959.9101562500,175182.8125000000,,,
1.8599999971,14,150228.2187500000,150425.1093750000,175939.7343750000,169031.2500000000,159216.9218750000,162555.5156250000,63967.4492187500,175189.0156250000,,,
1.8639999970,14,150227.1718750000,150424.0156250000,175938.7500000000,169034.3593750000,159216.3750000000,162552.9062500000,63966.9921875000,175182.4375000000,,,
1.8679999970,14,150226.0937500000,150424.4375000000,175937.8125000000,169029.5625000000,159214.8437500000,162551.0625000000,63975.6289062500,175175.6093750000,,,
1.8719999969,14,150229.1250000000,150426.4531250000,175941.6406250000,169031.6250000000,159218.4375000000,162553.2031250000,63980.8320312500,175177.7968750000,,,
1.8759999969,14,150220.0625000000,150416.6093750000,175935.3906250000,169020.9531250000,159212.4062500000,162549.0781250000,63975.7382812500,175173.1093750000,,,
1.8799999971,14,150228.6406250000,150422.8281250000,175944.4531250000,169035.4687500000,159219.5156250000,162555.8437500000,63979.6250000000,175178.2812500000,,,
1.8839999971,14,150232.6406250000,150424.3593750000,175950.2500000000,169035.9218750000,159221.3437500000,162555.7343750000,63979.5468750000,175175.4687500000,,,
1.8879999970,14,150227.0312500000,150420.2656250000,175946.1250000000,169027.9218750000,159215.3593750000,162553.0937500000,63969.8085937500,175172.6250000000,,,
1.8919999970,14,150225.0781250000,150420.8750000000,175943.9218750000,169028.9687500000,159212.4062500000,162553.8750000000,63967.4218750000,175178.7968750000,,,
1.8959999969,14,150222.4531250000,150421.9843750000,175943.7656250000,169025.0312500000,159212.2968750000,162553.4218750000,63971.7656250000,175184.5156250000,,,
1.8999999969,14,150214.4843750000,150415.6406250000,175936.5000000000,169014.1093750000,159207.0781250000,162554.7031250000,63970.0781250000,175179.0937500000,,,
1.9039999971,14,150204.2812500000,150401.8125000000,175925.2500000000,169013.6562500000,159197.6875000000,162548.2656250000,63957.1757812500,175162.6562500000,,,
1.9079999970,14,150209.1406250000,150408.2968750000,175926.0000000000,169022.9687500000,159199.5312500000,162549.7187500000,63956.7187500000,175162.4375000000,,,
1.9119999970,14,150221.2343750000,150423.1875000000,175935.6562500000,169043.5156250000,159208.9531250000,162563.0312500000,63969.4062500000,175179.7343750000,,,
1.9159999969,14,150216.5156250000,150415.5625000000,175929.6875000000,169036.1093750000,159203.0937500000,162559.7500000000,63965.8671875000,175181.3750000000,,,
1.9199999969,15,150210.3437500000,150408.8125000000,175921.8437500000,169031.9218750000,159195.2968750000,162553.8437500000,63961.9218750000,175177.0312500000,,,
1.9239999969,15,150217.0781250000,150418.5468750000,175927.0781250000,169039.5156250000,159200.2343750000,162559.7031250000,63966.8320312500,175177.8281250000,,,
1.9279999968,15,150221.2187500000,150424.0625000000,175932.7187500000,169041.4531250000,159204.6562500000,162565.2031250000,63968.0390625000,175178.1562500000,,,
1.9319999968,15,150213.4062500000,150415.9218750000,175920.6406250000,169034.0625000000,159193.7187500000,162558.1718750000,63955.2187500000,175173.7812500000,,,
1.9359999967,15,150209.2031250000,150411.5625000000,175915.2031250000,169029.9375000000,159190.0468750000,162550.6875000000,63949.5312500000,175172.9687500000,,,
1.9399999967,15,150214.7187500000,150419.0000000000,175920.3125000000,169037.5781250000,159194.9218750000,162554.6093750000,63948.1914062500,175178.7656250000,,,
1.9439999969,15,150208.2343750000,150413.7656250000,175912.4375000000,169032.2187500000,159188.5937500000,162553.9375000000,63940.6523437500,175171.1562500000,,,
1.9479999968,15,150215.1718750000,150421.2187500000,175921.8437500000,169028.9531250000,159197.7656250000,162561.6875000000,63950.9257812500,175173.2968750000,,,
1.9519999968,15,150223.7656250000,150428.0625000000,175935.6562500000,169020.2343750000,159210.5312500000,162566.1562500000,63957.1210937500,175182.8125000000,,,
1.9559999967,15,150218.6406250000,150416.8750000000,175929.2812500000,169032.1718750000,159205.7343750000,162556.4531250000,63952.6679687500,175176.6250000000,,,
1.9599999967,15,150223.2031250000,150419.9375000000,175931.2968750000,169041.5000000000,159206.7031250000,162557.1562500000,63961.1992187500,175176.6250000000,,,
1.9639999969,15,150231.0312500000,150424.5468750000,175938.6718750000,169052.3125000000,159210.3750000000,162554.3906250000,63969.3007812500,175174.6718750000,,,
1.9679999969,15,150238.0000000000,150426.6250000000,175946.2500000000,169045.6562500000,159216.5156250000,162553.9531250000,63973.5351562500,175171.0937500000,,,
1.9719999968,15,150237.8750000000,150427.6562500000,175945.8281250000,169023.2812500000,159217.7656250000,162557.3125000000,63971.9257812500,175175.0156250000,,,
1.9759999968,15,150233.5312500000,150426.2968750000,175938.9687500000,169017.0312500000,159212.3281250000,162552.9687500000,63964.7656250000,175180.9687500000,,,
1.9799999967,15,150230.3125000000,150423.5000000000,175936.8750000000,169019.5781250000,159209.3437500000,162549.9375000000,63961.2812500000,175179.5937500000,,,
1.9839999967,15,150230.7968750000,150426.8593750000,175938.7812500000,169023.7656250000,159209.4843750000,162553.9062500000,63960.1796875000,175173.9218750000,,,
1.9879999969,15,150231.7812500000,150429.7812500000,175941.8593750000,169029.4218750000,159209.8593750000,162558.7656250000,63962.4609375000,175173.5937500000,,,
1.9919999968,15,150222.4531250000,150422.4375000000,175933.2187500000,169029.2343750000,159201.0625000000,162552.1093750000,63954.6289062500,175171.7656250000,,,
1.9959999968,15,150217.1562500000,150417.2031250000,175931.3125000000,169029.1406250000,159200.0156250000,162549.6875000000,63954.9765625000,175172.6250000000,,,
1.9999999967,15,150219.3906250000,150421.7343750000,175936.1250000000,169031.5000000000,159204.0937500000,162555.5156250000,63958.1953125000,175175.3437500000,,,
2.0039999967,15,150214.7968750000,150419.7031250000,175928.3437500000,169034.0937500000,159195.7500000000,162555.2968750000,63954.7617187500,175168.2343750000,,,
2.0079999969,15,150203.3437500000,150406.2812500000,175915.4062500000,169025.9375000000,159183.5781250000,162546.1875000000,63952.7773437500,175151.7343750000,,,
2.0119999968,15,150207.8593750000,150410.0156250000,175918.9062500000,169027.9531250000,159186.8281250000,162552.5156250000,63963.6914062500,175155.7343750000,,,
2.0159999968,15,150205.2812500000,150403.7187500000,175915.9531250000,169037.0156250000,159185.7500000000,162547.6093750000,63967.3125000000,175156.6875000000,,,
2.0199999968,15,150202.5468750000,150398.2187500000,175912.9218750000,169037.5625000000,159185.3125000000,162541.5625000000,63963.3164062500,175149.5312500000,,,
2.0239999967,15,150205.8906250000,150398.1875000000,175920.1875000000,169032.8593750000,159194.2968750000,162539.5781250000,63966.6171875000,175146.9062500000,,,
2.0279999967,15,150211.2656250000,150400.2500000000,175927.9687500000,169031.7968750000,159201.6562500000,162538.5937500000,63969.2187500000,175148.7343750000,,,
2.0319999969,15,150216.4687500000,150405.1250000000,175933.1875000000,169033.0468750000,159206.8906250000,162539.9531250000,63969.4062500000,175157.0781250000,,,
2.0359999968,15,150210.1406250000,150401.7031250000,175923.6406250000,169016.4531250000,159198.2968750000,162536.1718750000,63961.2812500000,175160.5625000000,,,
2.0399999968,15,150208.4531250000,150399.4531250000,175921.7656250000,169021.9687500000,159194.6562500000,162531.2968750000,63959.9921875000,175158.8437500000,,,
2.0439999967,15,150209.8750000000,150401.4375000000,175925.0625000000,169010.3281250000,159194.8437500000,162529.3593750000,63957.6328125000,175153.6093750000,,,
2.0479999967,16,150214.6718750000,150405.1093750000,175929.0625000000,169008.3750000000,159197.2031250000,162533.1406250000,63956.4765625000,175149.3750000000,,,
2.0519999966,16,150221.0468750000,150416.5312500000,175937.1406250000,169016.7968750000,159203.7656250000,162544.7656250000,63961.4921875000,175160.2656250000,,,
2.0559999966,16,150221.5156250000,150418.3906250000,175937.3593750000,169014.7343750000,159203.5625000000,162546.1562500000,63962.0585937500,175167.3906250000,,,
2.0599999966,16,150219.3593750000,150411.1718750000,175936.2031250000,169028.0000000000,159202.5625000000,162540.1718750000,63964.6601562500,175160.7187500000,,,
2.0639999965,16,150220.3750000000,150407.1250000000,175934.5312500000,169038.4218750000,159201.5781250000,162537.8437500000,63965.9726562500,175150.0625000000,,,
2.0679999965,16,150221.9687500000,150409.2656250000,175933.9687500000,169031.9843750000,159200.4687500000,162541.2968750000,63971.5000000000,175149.1093750000,,,
2.0719999967,16,150222.3906250000,150413.1250000000,175933.7031250000,169022.3281250000,159200.9843750000,162543.1718750000,63975.7382812500,175157.3125000000,,,
2.0759999966,16,150216.2031250000,150405.9062500000,175930.7343750000,169011.8281250000,159198.6562500000,162537.7656250000,63965.4375000000,175158.3593750000,,,
2.0799999966,16,150196.4531250000,150387.8593750000,175911.3281250000,169002.2031250000,159182.0468750000,162524.2968750000,63944.4609375000,175142.7812500000,,,
2.0839999965,16,150192.6406250000,150389.1718750000,175906.5937500000,169012.2968750000,159176.7656250000,162523.4062500000,63941.2968750000,175138.8125000000,,,
2.0879999965,16,150189.5312500000,150389.9218750000,175903.3437500000,169011.3281250000,159173.5156250000,162522.7656250000,63938.2382812500,175136.0156250000,,,
2.0919999967,16,150192.0000000000,150397.7343750000,175910.2656250000,169009.9531250000,159180.8906250000,162531.3437500000,63946.0703125000,175145.0468750000,,,
2.0959999966,16,150199.1093750000,150406.1718750000,175921.2343750000,169028.0937500000,159194.0625000000,162539.0937500000,63949.6640625000,175159.8906250000,,,
2.0999999966,16,150203.3437500000,150410.2343750000,175922.5781250000,169032.3281250000,159197.3906250000,162544.4687500000,63957.8984375000,175164.5781250000,,,
2.1039999966,16,150203.0000000000,150406.2812500000,175918.2500000000,169026.4218750000,159195.1093750000,162542.6875000000,63964.1484375000,175155.0781250000,,,
2.1079999965,16,150209.3125000000,150406.1718750000,175926.6250000000,169027.2812500000,159200.3906250000,162542.9062500000,63971.7929687500,175149.2656250000,,,
2.1119999965,16,150211.0781250000,150404.1718750000,175931.8593750000,169042.2187500000,159203.5625000000,162541.0000000000,63975.5742187500,175150.5468750000,,,
2.1159999967,16,150211.7656250000,150404.1093750000,175935.3437500000,169039.5468750000,159206.5937500000,162543.2031250000,63977.8828125000,175158.5000000000,,,
2.1199999966,16,150210.2656250000,150406.0781250000,175931.9375000000,169036.0312500000,159202.9062500000,162543.2031250000,63971.5234375000,175160.5000000000,,,
2.1239999966,16,150207.2968750000,150403.0468750000,175925.8125000000,169031.2031250000,159195.8125000000,162537.8437500000,63962.0859375000,175153.8593750000,,,
2.1279999965,16,150206.8906250000,150401.1875000000,175928.3593750000,169017.0937500000,159197.4218750000,162534.5937500000,63962.7265625000,175150.0937500000,,,
2.1319999965,16,150210.1093750000,150406.2031250000,175934.0312500000,169024.9218750000,159202.3750000000,162536.6093750000,63966.9921875000,175157.6093750000,,,
2.1359999967,16,150217.5468750000,150415.2500000000,175943.5000000000,169024.0156250000,159210.0000000000,162543.7968750000,63970.8554687500,175170.4218750000,,,
2.1399999966,16,150218.3906250000,150416.8281250000,175944.0625000000,169025.9687500000,159209.0625000000,162548.6718750000,63970.6132812500,175173.4531250000,,,
2.1439999966,16,150213.8437500000,150411.0312500000,175939.7187500000,169020.3125000000,159205.1718750000,162547.4218750000,63971.4453125000,175164.3593750000,,,
2.1479999966,16,150208.1250000000,150403.0625000000,175933.7812500000,169036.5625000000,159199.4218750000,162538.9843750000,63967.7148437500,175152.1406250000,,,
2.1519999965,16,150214.4218750000,150409.2031250000,175936.9218750000,169050.2968750000,159204.4218750000,162544.6250000000,63971.9531250000,175157.2812500000,,,
2.1559999965,16,150214.9375000000,150409.2656250000,175935.1250000000,169028.3281250000,159206.1562500000,162547.3281250000,63970.5312500000,175162.1875000000,,,
2.1599999967,16,150208.4531250000,150400.3906250000,175927.2968750000,169020.0156250000,159198.7812500000,162539.4218750000,63970.9101562500,175154.9218750000,,,
2.1639999966,16,150210.4375000000,150405.7187500000,175927.7031250000,169026.4843750000,159199.1250000000,162545.0468750000,63973.8867187500,175155.0000000000,,,
2.1679999966,16,150213.7812500000,150409.7968750000,175931.0000000000,169031.8906250000,159201.0312500000,162547.7031250000,63979.4375000000,175156.1093750000,,,
2.1719999965,16,150206.1093750000,150401.7812500000,175925.9218750000,169016.6562500000,159194.5781250000,162540.6562500000,63977.3710937500,175154.0625000000,,,
2.1759999965,17,150203.6250000000,150400.1718750000,175925.8437500000,169015.4843750000,159195.4062500000,162540.9218750000,63974.8515625000,175159.3281250000,,,
2.1799999964,17,150194.3437500000,150390.4687500000,175919.4843750000,169009.2343750000,159189.7500000000,162530.4687500000,63967.8789062500,175152.1406250000,,,
2.1839999964,17,150199.6562500000,150398.7031250000,175927.4218750000,169007.5625000000,159195.7031250000,162535.3437500000,63973.0000000000,175152.6718750000,,,
2.1879999964,17,150209.4375000000,150409.6093750000,175937.4375000000,169016.5468750000,159202.8906250000,162544.6718750000,63973.2968750000,175159.1093750000,,,
2.1919999963,17,150201.5312500000,150398.0468750000,175925.6875000000,169019.0781250000,159192.3750000000,162535.3906250000,63963.9062500000,175154.4687500000,,,
2.1959999963,17,150198.0468750000,150392.3906250000,175919.5156250000,169029.0468750000,159188.2187500000,162532.6093750000,63966.0273437500,175156.7968750000,,,
2.1999999965,17,150195.7031250000,150387.7031250000,175915.0937500000,169031.6250000000,159184.3750000000,162530.4375000000,63962.8085937500,175152.2187500000,,,
2.2039999964,17,150206.9218750000,150395.6406250000,175928.2656250000,169037.6875000000,159195.5312500000,162534.0625000000,63972.9726562500,175150.8437500000,,,
2.2079999964,17,150209.7031250000,150394.7812500000,175932.4375000000,169030.8437500000,159199.9687500000,162531.0468750000,63976.4609375000,175144.9531250000,,,
2.2119999963,17,150212.8750000000,150397.5625000000,175939.0156250000,169031.0625000000,159206.2187500000,162532.4687500000,63979.3046875000,175145.4843750000,,,
2.2159999963,17,150212.6093750000,150400.0156250000,175942.1562500000,169021.9218750000,159209.3437500000,162531.5937500000,63979.1445312500,175150.7656250000,,,
2.2199999965,17,150211.2031250000,150403.3906250000,175937.4843750000,169019.2343750000,159205.4375000000,162532.3437500000,63972.0078125000,175154.9531250000,,,
2.2239999964,17,150213.0000000000,150409.1562500000,175935.5781250000,169029.2968750000,159203.0156250000,162534.0625000000,63970.1835937500,175157.9531250000,,,
2.2279999964,17,150217.6250000000,150416.5625000000,175936.4687500000,169025.3281250000,159203.2343750000,162540.1250000000,63972.3046875000,175162.2500000000,,,
2.2319999964,17,150212.6875000000,150409.0000000000,175929.4687500000,169018.9687500000,159197.0625000000,162535.6093750000,63961.7343750000,175160.3750000000,,,
2.2359999963,17,150206.2968750000,150401.6406250000,175923.7187500000,169022.0468750000,159193.6562500000,162533.5000000000,63959.1054687500,175161.8437500000,,,
2.2399999963,17,150208.3125000000,150405.4062500000,175924.7500000000,169034.2812500000,159195.9062500000,162536.2812500000,63963.6914062500,175163.5937500000,,,
2.2439999965,17,150213.8593750000,150411.4062500000,175925.2031250000,169041.9218750000,159197.9218750000,162540.0937500000,63977.1054687500,175162.7812500000,,,
2.2479999964,17,150210.3281250000,150410.0156250000,175918.5781250000,169032.8125000000,159193.4531250000,162538.6093750000,63975.3359375000,175158.5000000000,,,
2.2519999964,17,150209.8750000000,150410.0625000000,175920.0781250000,169027.6562500000,159196.2343750000,162539.4531250000,63976.2460937500,175161.3906250000,,,
2.2559999963,17,150212.2812500000,150414.0625000000,175925.1250000000,169023.4687500000,159201.0937500000,162543.7187500000,63978.5546875000,175170.6406250000,,,
2.2599999963,17,150204.7500000000,150405.9687500000,175920.4531250000,169013.0625000000,159195.4062500000,162539.0156250000,63972.4101562500,175166.4843750000,,,
2.2639999965,17,150207.2968750000,150408.2187500000,175924.0156250000,169020.8750000000,159196.2812500000,162540.2500000000,63973.7773437500,175161.1250000000,,,
2.2679999964,17,150208.5312500000,150410.0625000000,175924.8593750000,169017.5468750000,159194.9687500000,162542.8281250000,63973.5898437500,175159.3437500000,,,
2.2719999964,17,150201.4218750000,150402.7656250000,175921.7656250000,169024.5468750000,159191.9218750000,162536.5312500000,63966.8320312500,175156.5000000000,,,
2.2759999963,17,150200.8593750000,150402.5625000000,175925.8125000000,169021.8437500000,159195.7187500000,162538.0781250000,63967.2070312500,175159.7031250000,,,
2.2799999963,17,150202.8125000000,150402.0468750000,175929.6875000000,169013.0156250000,159198.5937500000,162538.0312500000,63971.6328125000,175159.5625000000,,,
2.2839999963,17,150199.1875000000,150397.2187500000,175923.0312500000,169015.7187500000,159192.7187500000,162534.0000000000,63967.0195312500,175152.1406250000,,,
2.2879999964,17,150192.3750000000,150389.5468750000,175913.8906250000,169019.7500000000,159184.3593750000,162528.7187500000,63957.4960937500,175142.6406250000,,,
2.2919999964,17,150190.1562500000,150384.0312500000,175914.9218750000,169019.4843750000,159185.6875000000,162524.7031250000,63957.1210937500,175138.5312500000,,,
2.2959999964,17,150181.5937500000,150377.8281250000,175910.0937500000,169004.2187500000,159182.1250000000,162519.2031250000,63953.2343750000,175137.2500000000,,,
2.2999999963,17,150180.1718750000,150378.1718750000,175908.2968750000,168999.9218750000,159180.0312500000,162515.8125000000,63952.0000000000,175138.2187500000,,,
2.3039999963,18,150191.5468750000,150385.8437500000,175919.5156250000,169007.3281250000,159189.0937500000,162519.2968750000,63957.5781250000,175140.8906250000,,,
2.3079999962,18,150201.2812500000,150395.0000000000,175928.5468750000,169010.5937500000,159197.3593750000,162525.5000000000,63962.4335937500,175144.4375000000,,,
2.3119999962,18,150207.7187500000,150406.8750000000,175932.6250000000,169015.2343750000,159200.8750000000,162531.4531250000,63961.8164062500,175155.6250000000,,,
2.3159999961,18,150200.1875000000,150399.2812500000,175923.0625000000,169022.4062500000,159194.4375000000,162524.6093750000,63955.0546875000,175155.8125000000,,,
2.3199999961,18,150202.1718750000,150398.9375000000,175923.1406250000,169032.7812500000,159196.9531250000,162527.8125000000,63974.0195312500,175158.2968750000,,,
2.3239999961,18,150201.3437500000,150399.6093750000,175917.9062500000,169018.4531250000,159194.0937500000,162526.6562500000,63972.2226562500,175156.5937500000,,,
2.3279999963,18,150203.7187500000,150400.6875000000,175920.2968750000,169017.2812500000,159197.2343750000,162522.7656250000,63977.6953125000,175151.0312500000,,,
2.3319999962,18,150208.6406250000,150404.1875000000,175927.1875000000,169019.2656250000,159205.7343750000,162526.5468750000,63989.1210937500,175157.4218750000,,,
2.3359999962,18,150210.6718750000,150409.6875000000,175929.0156250000,169028.5781250000,159206.6718750000,162535.1093750000,63988.1015625000,175167.0156250000,,,
2.3399999961,18,150213.7343750000,150414.5781250000,175929.4062500000,169033.7968750000,159204.7968750000,162536.7656250000,63980.9921875000,175171.8281250000,,,
2.3439999961,18,150216.7656250000,150415.3750000000,175935.4687500000,169028.4375000000,159208.9531250000,162534.4531250000,63983.4882812500,175170.4843750000,,,
2.3479999963,18,150217.8593750000,150412.3281250000,175943.3125000000,169012.2343750000,159216.5468750000,162537.1406250000,63998.2382812500,175167.5312500000,,,
2.3519999962,18,150218.0156250000,150409.6406250000,175948.4062500000,169019.1875000000,159219.1875000000,162535.4218750000,64003.7929687500,175167.9062500000,,,
2.3559999962,18,150223.1250000000,150415.9218750000,175949.7968750000,169043.2187500000,159220.5312500000,162538.3750000000,64000.0898437500,175177.4843750000,,,
2.3599999961,18,150212.6093750000,150404.0000000000,175939.8437500000,169032.2500000000,159211.4687500000,162532.4687500000,63986.7617187500,175171.4531250000,,,
2.3639999961,18,150203.9687500000,150394.7812500000,175932.6562500000,169020.8750000000,159205.4375000000,162535.9843750000,63985.9570312500,175160.9531250000,,,
2.3679999961,18,150208.7343750000,150396.4687500000,175939.5000000000,169022.0000000000,159211.4218750000,162538.2343750000,63997.1953125000,175154.0156250000,,,
2.3719999962,18,150207.6406250000,150393.9687500000,175941.7500000000,169024.2500000000,159211.6250000000,162531.1875000000,63995.9335937500,175150.3906250000,,,
2.3759999962,18,150206.8437500000,150392.3125000000,175943.8750000000,169028.1718750000,159213.1093750000,162529.7968750000,63995.8789062500,175153.0937500000,,,
2.3799999962,18,150215.6093750000,150401.4375000000,175954.7656250000,169044.6406250000,159221.6562500000,162535.3125000000,64003.4179687500,175160.7968750000,,,
2.3839999961,18,150220.1406250000,150407.9218750000,175957.3281250000,169041.6562500000,159223.1406250000,162538.1562500000,64004.6757812500,175160.8593750000,,,
2.3879999961,18,150200.1250000000,150390.5937500000,175937.4531250000,169017.7656250000,159203.1875000000,162524.1562500000,63987.6171875000,175142.9062500000,,,
2.3919999963,18,150198.1718750000,150396.4687500000,175934.9375000000,169013.1250000000,159201.7343750000,162531.0781250000,63988.3710937500,175149.1875000000,,,
2.3959999962,18,150201.2812500000,150395.6093750000,175937.8281250000,169025.4375000000,159203.9843750000,162529.1250000000,63988.6914062500,175153.6093750000,,,
2.3999999962,18,150197.6406250000,150395.6718750000,175926.8906250000,169030.3750000000,159194.5781250000,162529.9062500000,63982.1484375000,175155.4062500000,,,
2.4039999961,18,150189.6250000000,150388.8593750000,175914.1562500000,169038.0625000000,159183.6093750000,162525.5781250000,63975.0117187500,175146.2343750000,,,
2.4079999961,18,150186.5937500000,150388.5000000000,175907.6093750000,169027.7656250000,159181.3437500000,162526.7812500000,63975.8710937500,175141.4062500000,,,
2.4119999961,18,150193.8281250000,150396.4687500000,175916.4375000000,169019.9375000000,159189.7968750000,162531.9843750000,63982.6835937500,175149.2343750000,,,
2.4159999962,18,150196.2656250000,150398.3125000000,175919.4843750000,169017.3125000000,159195.0312500000,162534.0000000000,63987.4296875000,175157.9218750000,,,
2.4199999962,18,150177.2812500000,150380.1406250000,175895.1093750000,169026.2343750000,159175.6562500000,162520.5156250000,63969.8085937500,175145.3750000000,,,
2.4239999962,18,150182.3437500000,150385.2031250000,175900.1250000000,169034.0156250000,159179.3437500000,162527.0000000000,63977.2656250000,175146.5000000000,,,
2.4279999961,18,150184.4062500000,150387.2500000000,175905.5937500000,169008.3750000000,159181.7187500000,162527.9687500000,63983.9726562500,175145.8125000000,,,
2.4319999961,19,150188.0156250000,150390.7500000000,175911.3906250000,169007.7343750000,159184.5625000000,162530.0312500000,63983.9960937500,175151.3906250000,,,
2.4359999960,19,150190.0156250000,150390.3281250000,175917.3906250000,169008.7187500000,159187.7343750000,162527.6250000000,63983.3789062500,175157.2656250000,,,
2.4399999960,19,150190.8750000000,150391.3125000000,175916.8281250000,169013.5781250000,159186.7968750000,162527.1093750000,63979.3046875000,175160.7656250000,,,
2.4439999959,19,150196.9062500000,150395.9531250000,175922.7031250000,169020.4687500000,159191.3750000000,162529.7656250000,63983.8906250000,175161.9843750000,,,
2.4479999959,19,150202.5468750000,150395.2968750000,175931.5312500000,169030.6406250000,159198.1718750000,162526.8437500000,63988.6093750000,175154.6562500000,,,
2.4519999959,19,150195.8906250000,150386.6250000000,175926.8906250000,169028.6562500000,159194.8593750000,162519.4062500000,63981.2343750000,175145.2656250000,,,
2.4559999960,19,150201.7656250000,150389.2031250000,175938.1093750000,169025.8906250000,159207.7187500000,162524.5625000000,63990.7031250000,175151.1718750000,,,
2.4599999960,19,150208.8281250000,150393.4375000000,175946.7187500000,169026.6093750000,159215.7343750000,162530.5937500000,63998.1601562500,175155.2812500000,,,
2.4639999960,19,150214.6718750000,150397.0000000000,175952.5312500000,169031.8125000000,159219.8125000000,162534.4062500000,63997.6250000000,175152.1406250000,,,
2.4679999959,19,150217.4843750000,150399.7187500000,175953.5781250000,169032.4531250000,159220.3437500000,162534.1718750000,63995.3437500000,175149.4218750000,,,
2.4719999959,19,150215.7343750000,150398.7500000000,175950.2031250000,169048.4218750000,159217.3906250000,162532.9375000000,63999.2070312500,175151.9687500000,,,
2.4759999961,19,150213.6562500000,150398.2343750000,175947.0625000000,169061.8906250000,159213.7031250000,162531.1406250000,63993.7070312500,175155.7031250000,,,
2.4799999960,19,150216.3125000000,150403.6093750000,175948.5625000000,169058.9531250000,159215.5000000000,162531.5312500000,63993.5195312500,175161.8125000000,,,
2.4839999960,19,150214.8906250000,150403.5468750000,175948.5156250000,169034.8281250000,159214.0468750000,162528.1875000000,63995.9609375000,175159.1093750000,,,
2.4879999959,19,150214.4843750000,150405.9843750000,175945.5312500000,169030.7968750000,159209.7500000000,162529.3906250000,63994.2187500000,175157.0937500000,,,
2.4919999959,19,150215.0781250000,150414.7656250000,175941.1562500000,169028.4843750000,159208.4687500000,162535.1562500000,63994.7539062500,175165.3906250000,,,
2.4959999959,19,150208.9062500000,150408.5468750000,175932.0156250000,169031.7031250000,159203.3437500000,162533.4062500000,63991.3203125000,175169.9375000000,,,
2.4999999960,19,150209.3281250000,150405.6406250000,175930.1406250000,169032.7812500000,159204.2500000000,162536.5468750000,63990.1679687500,175170.4218750000,,,
2.5039999960,19,150214.0000000000,150408.5937500000,175931.6093750000,169034.7968750000,159206.0000000000,162541.9687500000,63990.9726562500,175169.0312500000,,,
2.5079999960,19,150217.9375000000,150408.4843750000,175938.1250000000,169031.4062500000,159211.3281250000,162540.2812500000,63995.4765625000,175164.3437500000,,,
2.5119999959,19,150221.7500000000,150409.6093750000,175944.7031250000,169033.0781250000,159217.8750000000,162538.4218750000,63998.8554687500,175165.5937500000,,,
2.5159999959,19,150213.0312500000,150401.3750000000,175937.4062500000,169024.9531250000,159212.7500000000,162535.6718750000,63995.2617187500,175165.1250000000,,,
2.5199999961,19,150203.0781250000,150390.1093750000,175929.3593750000,169029.5312500000,159203.7187500000,162533.9218750000,63988.7187500000,175158.2187500000,,,
2.5239999960,19,150200.2656250000,150387.5156250000,175926.5156250000,169036.7500000000,159197.8906250000,162529.1250000000,63979.7343750000,175151.1093750000,,,
2.5279999960,19,150202.4843750000,150395.0468750000,175928.0781250000,169024.8906250000,159197.4218750000,162531.1093750000,63979.5976562500,175152.2656250000,,,
2.5319999959,19,150199.3281250000,150392.7968750000,175926.6562500000,169021.1093750000,159194.4375000000,162528.6718750000,63981.5585937500,175152.7500000000,,,
2.5359999959,19,150188.9218750000,150383.9218750000,175917.9531250000,169013.2343750000,159187.2187500000,162520.0781250000,63977.7500000000,175149.9375000000,,,
2.5399999958,19,150188.4687500000,150383.6406250000,175918.3125000000,169018.3750000000,159188.0781250000,162518.4687500000,63975.7617187500,175150.3593750000,,,
2.5439999960,19,150195.7656250000,150391.0468750000,175926.0000000000,169028.4687500000,159194.7031250000,162525.2812500000,63981.1289062500,175155.8593750000,,,
2.5479999960,19,150199.1093750000,150393.2031250000,175929.4375000000,169032.6406250000,159196.0468750000,162527.0000000000,63981.7460937500,175152.5312500000,,,
2.5519999960,19,150197.0156250000,150391.2656250000,175925.7968750000,169026.0156250000,159193.1562500000,162526.3125000000,63976.5429687500,175149.3750000000,,,
2.5559999959,19,150199.3281250000,150392.1718750000,175928.0781250000,169024.8437500000,159196.5625000000,162525.2031250000,63976.3007812500,175152.3750000000,,,
2.5599999959,20,150200.7500000000,150390.9218750000,175929.8750000000,169032.1718750000,159197.7656250000,162517.8281250000,63971.6328125000,175151.4687500000,,,
2.5639999958,20,150208.2343750000,150396.1718750000,175938.1250000000,169025.1875000000,159203.7187500000,162516.1406250000,63974.7695312500,175150.8437500000,,,
2.5679999958,20,150213.3593750000,150399.2812500000,175944.5625000000,169024.5937500000,159208.2500000000,162517.8281250000,63979.1679687500,175151.4375000000,,,
2.5719999957,20,150217.7031250000,150404.0937500000,175950.2031250000,169036.6250000000,159213.7968750000,162526.0937500000,63990.1406250000,175158.2187500000,,,
2.5759999957,20,150203.5625000000,150393.5156250000,175933.7812500000,169033.0781250000,159199.3437500000,162520.1875000000,63983.6484375000,175156.2187500000,,,
2.5799999957,20,150197.7656250000,150392.8750000000,175926.0937500000,169028.9218750000,159192.9062500000,162519.7343750000,63979.3046875000,175156.8906250000,,,
2.5839999958,20,150204.0781250000,150402.5625000000,175931.0468750000,169030.5000000000,159196.7187500000,162528.5000000000,63979.4648437500,175159.1406250000,,,
2.5879999958,20,150196.7500000000,150397.0937500000,175921.2343750000,169014.6718750000,159185.4218750000,162526.0156250000,63975.9492187500,175150.7187500000,,,
2.5919999958,20,150197.7500000000,150398.1562500000,175920.0000000000,169022.2656250000,159184.5625000000,162527.6250000000,63974.3398437500,175150.7656250000,,,
2.5959999957,20,150200.1562500000,150398.5312500000,175921.9218750000,169032.0625000000,159186.8750000000,162528.1093750000,63971.0156250000,175155.5468750000,,,
2.5999999957,20,150202.4687500000,150400.8125000000,175922.2187500000,169026.4218750000,159187.5156250000,162531.7812500000,63970.2109375000,175160.5781250000,,,
2.6039999959,20,150205.9531250000,150399.0937500000,175925.7968750000,169039.5625000000,159191.7031250000,162529.6093750000,63973.6992187500,175156.6875000000,,,
2.6079999958,20,150210.2656250000,150400.0312500000,175931.5312500000,169038.1718750000,159197.7343750000,162531.8281250000,63982.0664062500,175153.6875000000,,,
2.6119999958,20,150208.2343750000,150397.4687500000,175931.7656250000,169027.2343750000,159200.3125000000,162532.4531250000,63983.8632812500,175152.8593750000,,,
2.6159999957,20,150201.6406250000,150392.5312500000,175929.2187500000,169019.4218750000,159199.3750000000,162528.6406250000,63981.3671875000,175153.9531250000,,,
2.6199999957,20,150203.4843750000,150396.5781250000,175934.6718750000,169022.5312500000,159204.2812500000,162532.5312500000,63987.4296875000,175160.9531250000,,,
2.6239999956,20,150206.4062500000,150398.4531250000,175938.9687500000,169028.3281250000,159205.3281250000,162534.4843750000,63987.0820312500,175160.6875000000,,,
2.6279999958,20,150203.4375000000,150389.7656250000,175937.1406250000,169020.7968750000,159202.5156250000,162526.6250000000,63977.9375000000,175149.1250000000,,,
2.6319999958,20,150197.5625000000,150380.3750000000,175930.4843750000,169019.4843750000,159194.9218750000,162515.3593750000,63975.0390625000,175139.5781250000,,,
2.6359999957,20,150199.3281250000,150385.2031250000,175931.5781250000,169019.3125000000,159196.5312500000,162517.7187500000,63981.3164062500,175145.0312500000,,,
2.6399999957,20,150199.5468750000,150388.9843750000,175929.5781250000,169021.1406250000,159196.3125000000,162524.8281250000,63981.3671875000,175149.1562500000,,,
2.6439999957,20,150198.5468750000,150389.6875000000,175928.8281250000,169020.4687500000,159194.8437500000,162526.6875000000,63979.8945312500,175146.2031250000,,,
2.6479999959,20,150204.9062500000,150395.3125000000,175937.5937500000,169030.2343750000,159203.0937500000,162530.3281250000,63989.0937500000,175148.1718750000,,,
2.6519999958,20,150209.7343750000,150400.3125000000,175943.9531250000,169046.2968750000,159209.5937500000,162529.8437500000,63993.8164062500,175151.6250000000,,,
2.6559999958,20,150209.0625000000,150400.7656250000,175942.5625000000,169063.4687500000,159209.3281250000,162528.7187500000,63990.3828125000,175155.8125000000,,,
2.6599999957,20,150203.9687500000,150402.9843750000,175936.0625000000,169033.7500000000,159203.6718750000,162530.8125000000,63984.7500000000,175161.4218750000,,,
2.6639999957,20,150206.5937500000,150408.9218750000,175935.7187500000,169026.0156250000,159202.1875000000,162534.5468750000,63985.2578125000,175165.3593750000,,,
2.6679999956,20,150208.6875000000,150407.5781250000,175935.5312500000,169028.5781250000,159202.6406250000,162535.9687500000,63986.0625000000,175162.6250000000,,,
2.6719999958,20,150207.1562500000,150406.1718750000,175933.1093750000,169028.8437500000,159201.2187500000,162533.1406250000,63984.6132812500,175163.5156250000,,,
2.6759999958,20,150198.6093750000,150396.2031250000,175923.6718750000,169043.7187500000,159192.3125000000,162524.3750000000,63978.7421875000,175161.7343750000,,,
2.6799999957,20,150199.7812500000,150392.7187500000,175923.3281250000,169055.8750000000,159190.0468750000,162521.3437500000,63972.6796875000,175161.2500000000,,,
2.6839999957,20,150202.5937500000,150397.2500000000,175923.9375000000,169043.4062500000,159188.8281250000,162528.8593750000,63970.6953125000,175160.7500000000,,,
2.6879999957,21,150196.0312500000,150392.0781250000,175918.8437500000,169007.5625000000,159183.4687500000,162528.3906250000,63962.9414062500,175149.8750000000,,,
2.6919999956,21,150195.7812500000,150392.6562500000,175919.3281250000,169006.6250000000,159184.6718750000,162529.5312500000,63976.1132812500,175147.9531250000,,,
2.6959999956,21,150197.2812500000,150391.5937500000,175924.0000000000,169015.2343750000,159189.8437500000,162531.9062500000,63989.4687500000,175152.8906250000,,,
2.6999999955,21,150190.7500000000,150382.8437500000,175918.9531250000,169021.7031250000,159186.7187500000,162523.8125000000,63981.7695312500,175148.1718750000,,,
2.7039999955,21,150200.0000000000,150393.2187500000,175929.4062500000,169020.2500000000,159197.7343750000,162531.6718750000,63987.6992187500,175149.9062500000,,,
2.7079999954,21,150203.8125000000,150393.1093750000,175936.0625000000,169023.4687500000,159203.6718750000,162533.5468750000,63991.9921875000,175146.7968750000,,,
2.7119999956,21,150190.2812500000,150377.6718750000,175922.6562500000,169027.6562500000,159190.3593750000,162521.1250000000,63977.9882812500,175133.5468750000,,,
2.7159999956,21,150187.1718750000,150375.8906250000,175920.5937500000,169024.0156250000,159188.8125000000,162522.7187500000,63975.0390625000,175138.2343750000,,,
2.7199999955,21,150192.5468750000,150379.7812500000,175928.2812500000,169030.0000000000,159194.2968750000,162524.7031250000,63981.6093750000,175143.4687500000,,,
2.7239999955,21,150207.4218750000,150398.5937500000,175942.6406250000,169024.2187500000,159205.8906250000,162536.7968750000,63993.0351562500,175152.1093750000,,,
2.7279999955,21,150207.7812500000,150398.3125000000,175943.5000000000,169020.7656250000,159205.9687500000,162536.1250000000,63991.8281250000,175149.5000000000,,,
2.7319999957,21,150200.2343750000,150387.9687500000,175934.2343750000,169028.1718750000,159200.4218750000,162527.1406250000,63987.1093750000,175141.3750000000,,,
2.7359999956,21,150201.4687500000,150390.9218750000,175931.2968750000,169039.5937500000,159201.2812500000,162525.4687500000,63988.5039062500,175148.1093750000,,,
2.7399999956,21,150202.2031250000,150393.2500000000,175929.3125000000,169044.3906250000,159200.9531250000,162525.5468750000,63986.3320312500,175152.4531250000,,,
2.7439999955,21,150206.0625000000,150401.2500000000,175931.0468750000,169045.0625000000,159202.2500000000,162531.1875000000,63987.6718750000,175156.9375000000,,,
2.7479999955,21,150207.9062500000,150405.0781250000,175931.3125000000,169033.9843750000,159201.8437500000,162530.5937500000,63986.9765625000,175158.7656250000,,,
2.7519999954,21,150205.3906250000,150399.7187500000,175927.2968750000,169027.3593750000,159197.6093750000,162525.4687500000,63978.5273437500,175156.8281250000,,,
2.7559999956,21,150204.0468750000,150397.7812500000,175922.0937500000,169031.3281250000,159192.5312500000,162524.0781250000,63976.4882812500,175158.5468750000,,,
2.7599999956,21,150209.5781250000,150403.5000000000,175929.3593750000,169031.6875000000,159199.0312500000,162528.1093750000,63986.5976562500,175165.2187500000,,,
2.7639999955,21,150208.3906250000,150397.2968750000,175929.5937500000,169040.2656250000,159197.9218750000,162523.8593750000,63984.5351562500,175159.0000000000,,,
2.7679999955,21,150209.7812500000,150400.0625000000,175929.9687500000,169031.1718750000,159199.3437500000,162526.9218750000,63987.2695312500,175155.7500000000,,,
2.7719999955,21,150207.8593750000,150398.5312500000,175929.4687500000,169029.8593750000,159200.2656250000,162524.1250000000,63988.0195312500,175154.3906250000,,,
2.7759999956,21,150202.4687500000,150393.5937500000,175925.8750000000,169022.4843750000,159198.0625000000,162524.0312500000,63987.7539062500,175155.7500000000,,,
2.7799999956,21,150208.4218750000,150400.5000000000,175931.5312500000,169029.2968750000,159203.3125000000,162530.3593750000,63992.6875000000,175164.0781250000,,,
2.7839999956,21,150213.6250000000,150400.0312500000,175939.0156250000,169042.4062500000,159207.4531250000,162527.6718750000,63994.2695312500,175162.9687500000,,,
2.7879999955,21,150214.7812500000,150397.8437500000,175943.8125000000,169022.6406250000,159211.3906250000,162528.2031250000,63999.0976562500,175157.7187500000,,,
2.7919999955,21,150211.9375000000,150402.5625000000,175936.9531250000,169014.4375000000,159208.0156250000,162534.6718750000,63996.5234375000,175161.5000000000,,,
2.7959999954,21,150200.4062500000,150392.1562500000,175928.0781250000,169019.9375000000,159199.9687500000,162532.1250000000,63989.6015625000,175159.2968750000,,,
2.7999999956,21,150195.5937500000,150385.0468750000,175927.7812500000,169026.4218750000,159197.9843750000,162526.6250000000,63990.5703125000,175156.3125000000,,,
2.8039999956,21,150198.0468750000,150388.4218750000,175928.6093750000,169031.4375000000,159198.9218750000,162525.3437500000,63994.1093750000,175154.1406250000,,,
2.8079999955,21,150211.2968750000,150403.3593750000,175940.7343750000,169032.2500000000,159210.2031250000,162533.4687500000,64004.5703125000,175158.0156250000,,,
2.8119999955,21,150212.3906250000,150404.9218750000,175943.3906250000,169028.3906250000,159214.1250000000,162531.2343750000,64006.8515625000,175161.6562500000,,,
2.8159999955,22,150203.4375000000,150396.7968750000,175932.0937500000,169033.9375000000,159207.6562500000,162524.3437500000,63996.7656250000,175161.9062500000,,,
2.8199999954,22,150204.8750000000,150399.3593750000,175931.4218750000,169035.2187500000,159208.3281250000,162523.2187500000,63987.5937500000,175165.5000000000,,,
2.8239999954,22,150213.7812500000,150411.6718750000,175935.5781250000,169038.3593750000,159212.8125000000,162531.4218750000,63990.2460937500,175173.5625000000,,,
2.8279999953,22,150214.3750000000,150414.8906250000,175934.5156250000,169039.4843750000,159210.1093750000,162531.4218750000,64002.6640625000,175172.4062500000,,,
2.8319999953,22,150213.4062500000,150411.1718750000,175935.4531250000,169046.1718750000,159208.8750000000,162528.3750000000,64006.9570312500,175169.5937500000,,,
2.8359999952,22,150220.2500000000,150414.4687500000,175945.4531250000,169056.5156250000,159216.3281250000,162531.7968750000,64009.2890625000,175177.2187500000,,,
2.8399999954,22,150220.2500000000,150412.0000000000,175948.5937500000,169052.5000000000,159216.3281250000,162532.6093750000,64006.7968750000,175180.8906250000,,,
2.8439999954,22,150218.0781250000,150411.4687500000,175945.9843750000,169040.3750000000,159213.7031250000,162532.9062500000,64005.7500000000,175178.1562500000,,,
2.8479999953,22,150216.8125000000,150410.2031250000,175942.9062500000,169025.7031250000,159211.7968750000,162535.1562500000,64004.1132812500,175172.4375000000,,,
2.8519999953,22,150218.4531250000,150413.5312500000,175944.4843750000,169031.2187500000,159213.3750000000,162536.0625000000,64006.9296875000,175176.0312500000,,,
2.8559999953,22,150210.2968750000,150400.9687500000,175934.4531250000,169058.1250000000,159204.7656250000,162524.3281250000,63995.7187500000,175170.8906250000,,,
2.8599999954,22,150215.5000000000,150404.2968750000,175940.3593750000,169071.5468750000,159209.9375000000,162527.6718750000,63996.0664062500,175172.5156250000,,,
2.8639999954,22,150219.4375000000,150409.0468750000,175943.9843750000,169049.7031250000,159214.9062500000,162531.8906250000,64000.1718750000,175172.5000000000,,,
2.8679999954,22,150224.2656250000,150411.4062500000,175949.4687500000,169036.5312500000,159221.5312500000,162533.0625000000,64008.8359375000,175169.1875000000,,,
2.8719999953,22,150219.0937500000,150403.5000000000,175945.2968750000,169036.7031250000,159217.9062500000,162524.6093750000,64007.4921875000,175159.7500000000,,,
2.8759999953,22,150217.4375000000,150401.5312500000,175945.0468750000,169028.4375000000,159218.0156250000,162525.0781250000,64007.8164062500,175162.1093750000,,,
2.8799999952,22,150212.0156250000,150394.6718750000,175943.6093750000,169018.4531250000,159215.7343750000,162522.5468750000,64005.0546875000,175159.8906250000,,,
2.8839999954,22,150201.7656250000,150384.6093750000,175932.7656250000,169019.5000000000,159203.3437500000,162517.8593750000,63993.5195312500,175148.5937500000,,,
2.8879999954,22,150194.6562500000,150382.7343750000,175922.3125000000,169022.7500000000,159191.2656250000,162518.4531250000,63988.1289062500,175139.4531250000,,,
2.8919999953,22,150195.0937500000,150387.4531250000,175924.3750000000,169030.6406250000,159191.7031250000,162521.1875000000,63994.0273437500,175141.6250000000,,,
2.8959999953,22,150194.5000000000,150392.3906250000,175925.0156250000,169028.7656250000,159191.7343750000,162519.3906250000,63987.1093750000,175149.3125000000,,,
2.8999999953,22,150194.1250000000,150392.9062500000,175922.6562500000,169025.5625000000,159191.6406250000,162517.1250000000,63987.6171875000,175153.4531250000,,,
2.9039999954,22,150192.5625000000,150391.7812500000,175917.0937500000,169034.4218750000,159187.5937500000,162512.6250000000,63984.3476562500,175150.9218750000,,,
2.9079999954,22,150188.9531250000,150380.7187500000,175913.9687500000,169040.3125000000,159186.2031250000,162499.5937500000,63981.8242187500,175135.8593750000,,,
2.9119999954,22,150200.1250000000,150392.2656250000,175924.4843750000,169043.0000000000,159199.2187500000,162508.7031250000,63993.4648437500,175146.8281250000,,,
2.9159999953,22,150206.0937500000,150400.0312500000,175932.1250000000,169048.7343750000,159207.9843750000,162520.0312500000,64001.5390625000,175162.5156250000,,,
2.9199999953,22,150206.9687500000,150400.9531250000,175934.7968750000,169046.8437500000,159209.2656250000,162523.4375000000,64002.1835937500,175167.3437500000,,,
2.9239999952,22,150215.5781250000,150410.7656250000,175945.9062500000,169046.9375000000,159217.7187500000,162530.7812500000,64009.8828125000,175173.2187500000,,,
2.9279999954,22,150218.0781250000,150412.6406250000,175950.0156250000,169049.2968750000,159219.2500000000,162532.1718750000,64010.6054687500,175170.1093750000,,,
2.9319999954,22,150211.2968750000,150403.1250000000,175945.0468750000,169051.2656250000,159210.9375000000,162523.1875000000,64005.4023437500,175159.2968750000,,,
2.9359999953,22,150209.9531250000,150403.2343750000,175942.9375000000,169055.1562500000,159207.3906250000,162518.6406250000,64002.0507812500,175165.0156250000,,,
2.9399999953,22,150208.3437500000,150401.9218750000,175938.1562500000,169049.7343750000,159203.9062500000,162520.5937500000,63998.2929687500,175168.4687500000,,,
2.9439999952,23,150206.0937500000,150400.1718750000,175934.2968750000,169040.1093750000,159201.7812500000,162524.6093750000,63995.5859375000,175163.9843750000,,,
2.9479999952,23,150202.6718750000,150395.9531250000,175927.5625000000,169036.9062500000,159196.6875000000,162522.6562500000,63990.3828125000,175157.2031250000,,,
2.9519999952,23,150213.5625000000,150406.1250000000,175939.4218750000,169040.5625000000,159209.6718750000,162529.3593750000,64000.2773437500,175164.9531250000,,,
2.9559999951,23,150219.3593750000,150408.8906250000,175948.4843750000,169045.2031250000,159220.3281250000,162531.4531250000,64008.5937500000,175172.1250000000,,,
2.9599999951,23,150213.9375000000,150396.5000000000,175944.9687500000,169054.7812500000,159220.9843750000,162527.1562500000,64008.2460937500,175165.1250000000,,,
