Time:250Hz,Epoch,Channel 1,Channel 2,Channel 3,Channel 4,Channel 5,Channel 6,Channel 7,Channel 8,Event Id,Event Date,Event Duration
0.0000000000,0,176218.0937500000,219500.3281250000,167268.4218750000,167835.6093750000,134453.0937500000,119860.1875000000,133032.8906250000,156290.6250000000,,,
0.0040000000,0,176843.6406250000,209296.6093750000,168092.2968750000,168856.9843750000,135396.5156250000,120829.6718750000,134134.1875000000,154069.1406250000,,,
0.0079999999,0,177212.9062500000,190747.2187500000,168497.4062500000,169368.8593750000,135825.3125000000,121303.6406250000,134677.9687500000,152240.7343750000,,,
0.0119999999,0,176745.0156250000,190741.1562500000,167791.6718750000,168501.2968750000,134963.2968750000,120469.3671875000,133742.1250000000,153588.2500000000,,,
0.0159999998,0,176161.3750000000,209783.1406250000,167070.6875000000,167584.8125000000,134160.9531250000,119627.9843750000,132768.3750000000,156242.9062500000,,,
0.0199999998,0,176254.4375000000,219517.8906250000,167299.1406250000,167853.4218750000,134483.1093750000,119899.1328125000,133075.2968750000,156340.5937500000,,,
0.0240000000,0,176863.5000000000,209294.2812500000,168111.3906250000,168857.0937500000,135417.7031250000,120853.6250000000,134150.5937500000,154106.5781250000,,,
0.0279999999,0,177181.6093750000,190732.4218750000,168463.5156250000,169334.6093750000,135794.6093750000,121273.6562500000,134636.3906250000,152220.8750000000,,,
0.0319999999,0,176756.3906250000,190604.4531250000,167804.4687500000,168508.0000000000,134978.8906250000,120476.3671875000,133746.6250000000,153578.2343750000,,,
0.0359999998,0,176171.3437500000,209687.8281250000,167080.6406250000,167580.9843750000,134172.2656250000,119623.1562500000,132773.5781250000,156249.7968750000,,,
0.0399999998,0,176244.5937500000,219539.0000000000,167284.8593750000,167825.3281250000,134470.8281250000,119884.8906250000,133062.4218750000,156348.2187500000,,,
0.0440000000,0,176868.2343750000,209355.1562500000,168117.9531250000,168863.4218750000,135421.8593750000,120852.6328125000,134159.0937500000,154112.2187500000,,,
0.0480000000,0,177235.3281250000,190818.4843750000,168525.7031250000,169362.9687500000,135850.5000000000,121327.7265625000,134698.2812500000,152253.7187500000,,,
0.0519999999,0,176799.4687500000,190552.0156250000,167857.2500000000,168549.0781250000,135027.1406250000,120526.5234375000,133795.3437500000,153586.8750000000,,,
0.0559999999,0,176156.1406250000,209583.7031250000,167070.8281250000,167598.2812500000,134162.7968750000,119598.6953125000,132761.0000000000,156214.0937500000,,,
0.0599999998,0,176196.1875000000,219592.1562500000,167236.9687500000,167802.1250000000,134427.1562500000,119832.0234375000,133014.7656250000,156311.3281250000,,,
0.0639999998,0,176835.8125000000,209769.1093750000,168081.7187500000,168824.0468750000,135391.1093750000,120824.0390625000,134129.4843750000,154115.9375000000,,,
0.0680000000,0,177227.2500000000,190997.1562500000,168515.6718750000,169374.7343750000,135849.6406250000,121331.0546875000,134697.3906250000,152210.5312500000,,,
0.0719999999,0,176810.8750000000,190439.3125000000,167866.3437500000,168560.9843750000,135039.2343750000,120546.4296875000,133803.5781250000,153539.4531250000,,,
0.0759999999,0,176179.9843750000,209426.5000000000,167102.1250000000,167601.9375000000,134188.4687500000,119624.7656250000,132781.5937500000,156215.8750000000,,,
0.0799999998,0,176235.3125000000,219587.9531250000,167282.9843750000,167831.1562500000,134465.9687500000,119862.1718750000,133051.4218750000,156367.0156250000,,,
0.0839999998,0,176846.8593750000,210041.6250000000,168090.0625000000,168847.1718750000,135395.3281250000,120814.4375000000,134128.6562500000,154166.3906250000,,,
0.0880000000,0,177223.3906250000,191212.1562500000,168510.3906250000,169387.9062500000,135844.2812500000,121309.5156250000,134689.9062500000,152212.0625000000,,,
0.0919999999,0,176812.8593750000,190418.8125000000,167868.9375000000,168571.1718750000,135045.4375000000,120542.8906250000,133814.4531250000,153520.2031250000,,,
0.0959999999,0,176197.1250000000,209315.7031250000,167113.2031250000,167622.0156250000,134207.0000000000,119647.6718750000,132800.1875000000,156227.2656250000,,,
0.0999999999,0,176254.6562500000,219567.5156250000,167299.7500000000,167833.6406250000,134485.0625000000,119873.9218750000,133064.8437500000,156400.1093750000,,,
0.1039999998,0,176879.0781250000,210111.0312500000,168122.5468750000,168852.4062500000,135423.8125000000,120833.3203125000,134151.7500000000,154213.4687500000,,,
0.1079999998,0,177252.3593750000,191325.0312500000,168543.4062500000,169400.4531250000,135874.6406250000,121336.7968750000,134720.5156250000,152246.1718750000,,,
0.1120000000,0,176858.9062500000,190365.4062500000,167920.6093750000,168620.2343750000,135099.2343750000,120594.6796875000,133867.3750000000,153540.9531250000,,,
0.1159999999,0,176244.0312500000,209193.3750000000,167155.9375000000,167662.5468750000,134252.5156250000,119705.8750000000,132854.8750000000,156268.7656250000,,,
0.1199999999,0,176269.9218750000,219540.4531250000,167308.2500000000,167856.4531250000,134496.5468750000,119891.5390625000,133086.8906250000,156440.7812500000,,,
0.1239999998,0,176847.8593750000,210203.7343750000,168084.2500000000,168828.0156250000,135393.5312500000,120814.5390625000,134126.4531250000,154234.3906250000,,,
0.1279999998,1,177211.7812500000,191569.6406250000,168500.3125000000,169372.9375000000,135836.6875000000,121305.2812500000,134685.8906250000,152259.5781250000,,,
0.1319999998,1,176820.9218750000,190374.4843750000,167884.9062500000,168606.9218750000,135067.7968750000,120567.3515625000,133843.0312500000,153483.5000000000,,,
0.1359999997,1,176224.2187500000,208971.9843750000,167139.8125000000,167659.0937500000,134240.5781250000,119690.2968750000,132844.2812500000,156194.2500000000,,,
0.1399999997,1,176264.7656250000,219345.3906250000,167307.3125000000,167856.7656250000,134501.2187500000,119897.9218750000,133083.6406250000,156417.0625000000,,,
0.1439999996,1,176874.9218750000,209916.0937500000,168117.2343750000,168853.5625000000,135428.6875000000,120851.3671875000,134152.2656250000,154238.5000000000,,,
0.1479999996,1,177254.1250000000,191500.8437500000,168541.9687500000,169392.4687500000,135875.4375000000,121350.6640625000,134717.5312500000,152311.1093750000,,,
0.1519999998,1,176838.0312500000,190250.0000000000,167904.8593750000,168624.5781250000,135089.9375000000,120588.8906250000,133864.7031250000,153492.3593750000,,,
0.1559999997,1,176211.7656250000,208810.8125000000,167131.0937500000,167661.3125000000,134234.5781250000,119684.2343750000,132840.9531250000,156183.8750000000,,,
0.1599999997,1,176228.0000000000,219286.5781250000,167270.8437500000,167834.5000000000,134468.0625000000,119874.1875000000,133052.9531250000,156404.6250000000,,,
0.1639999996,1,176827.4375000000,209925.1562500000,168072.6093750000,168824.5625000000,135386.6875000000,120812.2343750000,134116.4531250000,154215.2968750000,,,
0.1679999996,1,177202.3593750000,191524.7500000000,168492.7968750000,169350.2968750000,135828.6406250000,121306.7812500000,134677.5468750000,152268.2500000000,,,
0.1719999998,1,176818.3750000000,190126.2656250000,167890.1875000000,168588.6093750000,135077.0625000000,120587.4687500000,133859.7656250000,153452.7187500000,,,
0.1759999997,1,176221.3750000000,208671.5937500000,167142.6562500000,167644.7656250000,134244.5468750000,119705.2890625000,132854.1562500000,156187.9531250000,,,
0.1799999997,1,176233.3906250000,219317.3906250000,167273.2187500000,167826.5156250000,134471.6093750000,119886.0390625000,133047.2343750000,156445.2031250000,,,
0.1839999997,1,176824.1718750000,210215.9375000000,168068.6406250000,168820.1093750000,135387.8437500000,120809.1796875000,134102.3750000000,154260.7343750000,,,
0.1879999996,1,177212.8437500000,191693.9375000000,168504.4062500000,169371.2187500000,135849.9687500000,121318.7734375000,134704.2812500000,152278.1250000000,,,
0.1919999996,1,176833.0781250000,190049.6093750000,167905.7656250000,168619.1875000000,135101.5156250000,120593.6640625000,133894.5000000000,153438.9531250000,,,
0.1959999998,1,176219.3125000000,208558.1093750000,167136.5468750000,167648.7812500000,134245.3281250000,119687.3750000000,132858.9531250000,156177.5937500000,,,
0.1999999997,1,176238.2187500000,219342.8750000000,167275.6718750000,167817.0156250000,134473.6718750000,119872.0390625000,133056.8750000000,156460.0312500000,,,
0.2039999997,1,176843.0312500000,210461.8437500000,168081.2187500000,168804.3437500000,135396.4531250000,120821.4921875000,134118.6562500000,154316.1406250000,,,
0.2079999996,1,177240.6406250000,191854.3593750000,168535.9218750000,169367.2500000000,135879.2031250000,121347.0156250000,134726.3906250000,152312.1875000000,,,
0.2119999996,1,176859.3593750000,190005.9375000000,167931.5156250000,168619.5937500000,135128.1250000000,120629.0937500000,133911.3437500000,153449.7656250000,,,
0.2159999998,1,176230.1093750000,208477.6250000000,167140.1562500000,167653.0468750000,134250.9062500000,119715.5078125000,132861.5312500000,156189.6406250000,,,
0.2199999997,1,176209.4687500000,219367.3906250000,167242.6250000000,167805.0781250000,134441.0781250000,119857.8828125000,133031.3906250000,156453.1406250000,,,
0.2239999997,1,176809.9843750000,210573.3906250000,168048.9531250000,168798.1093750000,135363.0937500000,120801.4531250000,134095.7968750000,154300.3906250000,,,
0.2279999997,1,177206.8437500000,191955.0312500000,168504.2812500000,169368.0625000000,135846.7187500000,121324.1875000000,134702.1875000000,152280.8593750000,,,
0.2319999996,1,176833.7500000000,189947.4375000000,167910.4375000000,168630.9375000000,135108.6250000000,120621.5078125000,133897.9375000000,153402.9375000000,,,
0.2359999996,1,176214.2656250000,208371.0312500000,167131.0468750000,167654.0000000000,134239.8125000000,119706.6015625000,132852.7500000000,156155.9218750000,,,
0.2399999998,1,176203.7500000000,219379.3593750000,167238.7812500000,167791.7968750000,134436.0312500000,119849.4296875000,133022.3281250000,156453.0781250000,,,
0.2439999997,1,176800.8593750000,210693.9375000000,168039.5000000000,168776.9843750000,135351.6875000000,120775.7031250000,134076.2187500000,154297.8281250000,,,
0.2479999997,1,177219.2343750000,192094.1562500000,168516.1093750000,169363.6562500000,135855.7500000000,121323.0859375000,134702.1875000000,152283.5937500000,,,
0.2519999996,1,176842.8437500000,189910.3750000000,167914.1718750000,168626.3437500000,135111.5468750000,120628.7968750000,133895.9218750000,153388.8281250000,,,
0.2559999996,2,176189.6718750000,208269.1562500000,167103.6875000000,167632.6718750000,134211.8593750000,119690.0781250000,132827.8593750000,156128.3437500000,,,
0.2599999995,2,176197.9843750000,219398.9843750000,167240.0937500000,167782.6562500000,134431.9531250000,119849.1328125000,133016.0468750000,156461.4218750000,,,
0.2639999995,2,176795.5000000000,210835.7968750000,168038.5156250000,168771.3125000000,135351.3593750000,120785.2031250000,134075.2187500000,154326.7343750000,,,
0.2679999995,2,177196.7031250000,192202.4375000000,168495.0781250000,169360.3593750000,135841.4531250000,121314.4765625000,134687.3593750000,152275.7031250000,,,
0.2719999994,2,176837.2031250000,189825.4531250000,167916.6875000000,168639.2968750000,135119.4843750000,120612.6250000000,133896.7500000000,153352.3437500000,,,
0.2759999994,2,176226.9218750000,208125.1562500000,167139.0625000000,167672.3125000000,134248.9531250000,119698.0703125000,132854.4218750000,156127.8437500000,,,
0.2799999996,2,176213.4843750000,219368.1406250000,167239.4062500000,167770.6406250000,134433.2656250000,119847.0937500000,133011.6562500000,156476.4531250000,,,
0.2839999995,2,176801.9375000000,210937.7656250000,168035.8281250000,168755.4375000000,135342.4843750000,120766.1562500000,134063.9062500000,154334.1093750000,,,
0.2879999995,2,177229.4531250000,192283.5468750000,168525.3906250000,169365.9062500000,135864.2031250000,121329.8203125000,134715.2500000000,152289.1718750000,,,
0.2919999994,2,176857.2968750000,189705.4218750000,167932.7500000000,168645.2343750000,135131.6093750000,120642.9921875000,133925.8750000000,153343.6875000000,,,
0.2959999994,2,176214.6406250000,207963.8437500000,167128.8125000000,167641.9218750000,134233.8750000000,119701.3203125000,132847.6562500000,156112.7187500000,,,
0.2999999996,2,176226.7968750000,219352.8281250000,167260.0781250000,167783.3593750000,134447.4687500000,119862.6796875000,133022.6250000000,156502.9218750000,,,
0.3039999995,2,176810.0625000000,211094.3906250000,168055.9687500000,168765.0468750000,135356.7656250000,120765.0546875000,134071.6250000000,154364.2656250000,,,
0.3079999995,2,177178.6250000000,192379.0312500000,168481.0781250000,169346.7343750000,135825.1718750000,121291.7343750000,134674.8281250000,152248.0312500000,,,
0.3119999995,2,176826.5625000000,189608.3593750000,167907.4843750000,168639.5937500000,135114.2031250000,120624.4296875000,133904.6875000000,153290.6875000000,,,
0.3159999994,2,176213.9218750000,207823.8125000000,167126.5312500000,167652.7031250000,134237.9062500000,119701.3203125000,132846.5625000000,156092.0312500000,,,
0.3199999994,2,176196.2656250000,219325.7656250000,167216.0156250000,167775.9843750000,134412.8593750000,119832.0234375000,132983.2968750000,156481.2031250000,,,
0.3239999996,2,176788.5312500000,211224.5781250000,168012.3593750000,168747.8281250000,135324.8125000000,120761.1953125000,134038.0781250000,154373.0937500000,,,
0.3279999995,2,177198.7968750000,192506.0000000000,168491.5312500000,169344.4218750000,135837.1093750000,121316.0078125000,134683.7343750000,152274.7187500000,,,
0.3319999995,2,176853.0312500000,189566.1406250000,167935.0937500000,168636.8906250000,135138.4218750000,120656.9609375000,133929.4531250000,153296.0781250000,,,
0.3359999994,2,176204.0468750000,207725.1250000000,167123.7656250000,167635.1406250000,134232.9375000000,119700.7812500000,132854.0937500000,156070.5000000000,,,
0.3399999994,2,176172.6562500000,219349.9375000000,167207.4531250000,167735.2656250000,134399.9531250000,119801.8984375000,132983.9218750000,156463.5937500000,,,
0.3439999996,2,176770.9531250000,211420.6250000000,168003.4843750000,168708.3125000000,135311.0000000000,120738.3437500000,134028.8281250000,154376.1093750000,,,
0.3479999995,2,177225.3281250000,192662.4531250000,168518.9531250000,169349.6093750000,135862.3750000000,121350.5312500000,134706.1093750000,152299.4218750000,,,
0.3519999995,2,176877.6562500000,189509.8750000000,167959.0468750000,168658.7812500000,135162.0312500000,120677.1093750000,133950.0937500000,153289.8750000000,,,
0.3559999994,2,176203.0000000000,207604.0312500000,167113.4687500000,167617.4843750000,134222.2343750000,119688.4453125000,132833.8125000000,156046.4062500000,,,
0.3599999994,2,176164.7812500000,219328.0156250000,167188.6562500000,167705.1093750000,134381.6406250000,119800.4531250000,132961.5156250000,156464.1406250000,,,
0.3639999994,2,176780.0156250000,211516.2187500000,168008.6093750000,168704.7500000000,135312.8437500000,120755.3750000000,134036.9531250000,154410.0781250000,,,
0.3679999996,2,177214.4062500000,192726.5937500000,168509.6406250000,169347.4843750000,135847.8437500000,121340.1484375000,134712.7343750000,152300.5156250000,,,
0.3719999995,2,176859.7343750000,189410.6250000000,167940.9375000000,168661.1093750000,135143.8750000000,120663.7500000000,133955.6562500000,153257.2812500000,,,
0.3759999995,2,176217.1875000000,207487.7500000000,167123.0781250000,167656.3593750000,134236.4218750000,119720.7656250000,132871.9843750000,156052.4375000000,,,
0.3799999994,2,176200.4218750000,219332.6093750000,167220.7656250000,167757.9531250000,134416.9375000000,119846.2421875000,133012.9843750000,156510.7812500000,,,
0.3839999994,3,176788.6250000000,211538.0781250000,168025.1875000000,168734.2500000000,135330.5468750000,120744.0312500000,134066.9843750000,154417.1250000000,,,
0.3879999993,3,177224.6562500000,192771.5937500000,168528.5312500000,169355.5781250000,135867.3750000000,121343.7187500000,134735.7968750000,152312.4218750000,,,
0.3919999993,3,176863.9687500000,189324.9375000000,167951.0937500000,168674.7031250000,135155.2500000000,120678.3125000000,133969.8906250000,153250.9531250000,,,
0.3959999993,3,176211.1250000000,207349.2500000000,167122.4375000000,167652.3906250000,134231.4843750000,119711.1875000000,132866.3750000000,156038.0937500000,,,
0.3999999992,3,176156.2812500000,219287.8593750000,167175.3593750000,167719.5156250000,134368.8437500000,119794.6562500000,132962.7812500000,156475.3437500000,,,
0.4039999992,3,176763.5468750000,211557.0937500000,167989.8281250000,168699.3906250000,135294.7187500000,120747.0312500000,134032.6875000000,154414.4218750000,,,
0.4079999994,3,177250.9062500000,192828.0781250000,168551.7812500000,169370.5000000000,135884.6093750000,121381.3984375000,134760.6093750000,152350.1406250000,,,
0.4119999993,3,176972.2812500000,189277.6406250000,168066.2500000000,168738.7031250000,135257.7500000000,120780.0468750000,134071.8750000000,153340.2812500000,,,
0.4159999993,3,176208.0625000000,207226.3437500000,167106.8437500000,167662.5000000000,134219.6093750000,119714.0625000000,132856.4843750000,156028.3593750000,,,
0.4199999992,3,176150.0312500000,219259.7812500000,167163.7187500000,167737.0000000000,134358.2500000000,119787.4140625000,132954.9531250000,156459.7343750000,,,
0.4239999992,3,176772.1093750000,211654.0000000000,167996.2656250000,168726.0937500000,135296.6250000000,120742.7109375000,134029.2187500000,154425.3281250000,,,
0.4279999994,3,177232.7187500000,192903.0468750000,168528.6875000000,169368.9687500000,135859.0781250000,121358.6562500000,134724.4843750000,152337.7500000000,,,
0.4319999993,3,176901.0937500000,189167.8593750000,167986.1875000000,168711.0000000000,135184.9062500000,120719.7812500000,133995.6093750000,153253.6875000000,,,
0.4359999993,3,176226.9531250000,207113.8750000000,167141.0937500000,167667.5312500000,134242.9375000000,119707.5156250000,132876.9531250000,156006.0156250000,,,
0.4399999992,3,176174.4531250000,219331.8593750000,167199.7343750000,167727.5156250000,134382.2500000000,119789.3203125000,132974.5312500000,156485.5468750000,,,
0.4439999992,3,176766.6718750000,211856.2656250000,167993.1093750000,168711.8593750000,135291.2656250000,120738.7734375000,134025.6562500000,154444.0000000000,,,
0.4479999992,3,177208.9375000000,192999.4218750000,168508.1093750000,169352.8750000000,135846.2343750000,121345.0000000000,134726.4687500000,152315.3750000000,,,
0.4519999993,3,176889.5312500000,189093.6406250000,167978.9687500000,168702.3281250000,135185.7656250000,120711.6796875000,134014.0781250000,153221.9062500000,,,
0.4559999993,3,176257.2343750000,207055.9375000000,167167.2187500000,167675.8750000000,134275.7968750000,119753.9453125000,132916.5156250000,156022.4062500000,,,
0.4599999993,3,176197.9843750000,219349.8437500000,167218.9375000000,167739.5781250000,134409.4062500000,119833.7656250000,133006.0156250000,156510.0781250000,,,
0.4639999992,3,176764.7343750000,212003.2812500000,167992.2656250000,168711.2343750000,135298.3593750000,120743.3046875000,134040.0312500000,154459.8281250000,,,
0.4679999992,3,177200.1406250000,193106.2343750000,168501.0625000000,169366.3437500000,135847.2343750000,121343.2343750000,134727.8906250000,152309.6875000000,,,
0.4719999994,3,176867.4062500000,189022.6406250000,167959.0937500000,168699.0625000000,135176.0781250000,120709.0546875000,134005.5937500000,153177.0312500000,,,
0.4759999993,3,176227.2656250000,206944.4218750000,167136.7500000000,167658.7656250000,134254.0000000000,119739.5937500000,132898.3281250000,155972.0625000000,,,
0.4799999993,3,176190.7343750000,219371.0625000000,167211.1093750000,167729.7187500000,134403.5000000000,119828.5625000000,133002.3437500000,156493.9375000000,,,
0.4839999992,3,176795.5000000000,212195.2656250000,168027.5937500000,168715.2031250000,135329.1093750000,120776.3515625000,134068.7812500000,154495.0937500000,,,
0.4879999992,3,177235.5937500000,193337.1093750000,168538.0468750000,169389.2968750000,135882.2812500000,121387.5703125000,134764.3593750000,152344.2968750000,,,
0.4919999992,3,176896.6406250000,189116.9218750000,167988.3906250000,168728.8906250000,135202.5781250000,120741.2890625000,134036.4687500000,153176.3906250000,,,
0.4959999993,3,176225.8437500000,206918.3437500000,167133.4843750000,167661.0937500000,134247.7500000000,119734.7890625000,132892.5625000000,155943.3906250000,,,
0.4999999993,3,176154.8750000000,219362.0468750000,167167.0312500000,167702.9375000000,134360.2031250000,119792.8125000000,132958.3593750000,156459.1406250000,,,
0.5039999993,3,176757.1718750000,212237.4062500000,167981.0937500000,168695.1718750000,135283.6875000000,120734.1328125000,134026.2187500000,154462.1406250000,,,
0.5079999992,3,177227.0937500000,193405.9062500000,168532.9531250000,169389.5937500000,135872.9687500000,121370.2187500000,134756.3437500000,152324.0937500000,,,
0.5119999992,4,176921.1562500000,189024.2500000000,168017.8593750000,168746.9375000000,135229.5468750000,120761.1406250000,134059.2343750000,153162.6875000000,,,
0.5159999991,4,176251.1406250000,206760.9531250000,167154.5156250000,167692.7031250000,134265.8437500000,119764.4062500000,132910.3906250000,155946.9062500000,,,
0.5199999991,4,176157.0781250000,219319.8125000000,167162.0156250000,167724.6875000000,134349.7187500000,119799.7031250000,132946.1718750000,156477.3906250000,,,
0.5239999990,4,176730.4843750000,212381.0625000000,167951.1250000000,168678.5156250000,135249.7656250000,120711.5703125000,133985.5000000000,154478.3437500000,,,
0.5279999990,4,177222.2656250000,193532.9687500000,168527.5312500000,169387.7187500000,135867.2968750000,121372.8750000000,134748.5625000000,152331.7031250000,,,
0.5319999990,4,176910.2500000000,188966.9062500000,168007.5937500000,168749.9218750000,135222.8906250000,120758.0546875000,134059.0468750000,153135.5937500000,,,
0.5359999991,4,176233.9843750000,206628.8281250000,167143.9218750000,167678.6406250000,134258.6406250000,119747.5625000000,132911.4375000000,155918.7968750000,,,
0.5399999991,4,176152.6875000000,219274.7812500000,167165.1250000000,167704.6875000000,134357.3906250000,119791.9531250000,132960.9531250000,156479.0000000000,,,
0.5439999991,4,176753.0625000000,212463.9531250000,167974.7500000000,168663.8437500000,135275.4843750000,120733.8046875000,134016.3750000000,154517.0156250000,,,
0.5479999990,4,177233.9843750000,193623.3593750000,168543.5156250000,169369.1562500000,135880.0000000000,121384.2734375000,134749.3437500000,152354.4062500000,,,
0.5519999990,4,176879.2656250000,188875.5781250000,167974.0625000000,168731.9218750000,135191.0312500000,120736.2734375000,134017.0468750000,153088.9218750000,,,
0.5559999992,4,176212.9218750000,206463.3593750000,167113.3593750000,167666.0625000000,134229.2343750000,119733.5625000000,132884.8125000000,155875.4375000000,,,
0.5599999991,4,176145.0937500000,219224.8906250000,167150.1406250000,167693.8437500000,134341.4062500000,119789.4296875000,132948.4218750000,156476.5000000000,,,
0.5639999991,4,176732.9218750000,212502.4375000000,167951.6406250000,168658.7968750000,135253.1406250000,120715.6796875000,133996.7968750000,154509.6718750000,,,
0.5679999990,4,177222.6406250000,193682.5468750000,168525.3906250000,169358.9687500000,135869.2187500000,121386.1484375000,134758.6562500000,152346.1875000000,,,
0.5719999990,4,176929.4531250000,188819.6562500000,168027.2187500000,168744.6875000000,135247.2656250000,120787.0781250000,134086.9531250000,153114.1406250000,,,
0.5759999990,4,176253.7500000000,206345.3750000000,167162.3750000000,167666.7343750000,134278.3281250000,119761.5859375000,132930.0312500000,155899.6875000000,,,
0.5799999991,4,176152.2031250000,219196.6093750000,167156.4687500000,167681.7031250000,134351.2187500000,119785.8359375000,132948.4531250000,156495.4375000000,,,
0.5839999991,4,176725.5781250000,212556.7187500000,167941.8125000000,168648.6875000000,135248.0781250000,120700.4453125000,133982.7968750000,154520.4687500000,,,
0.5879999991,4,177208.1562500000,193746.4687500000,168510.6875000000,169363.8437500000,135856.9375000000,121358.7890625000,134734.9218750000,152333.2187500000,,,
0.5919999990,4,176917.4375000000,188716.2031250000,168016.5781250000,168763.8437500000,135234.8750000000,120770.0468750000,134067.2812500000,153071.1093750000,,,
0.5959999990,4,176254.9531250000,206183.3906250000,167157.5625000000,167677.9375000000,134271.7968750000,119773.2578125000,132922.3593750000,155880.4375000000,,,
0.5999999992,4,176166.0937500000,219162.9218750000,167169.7500000000,167698.5156250000,134358.3281250000,119801.2343750000,132957.4687500000,156512.5312500000,,,
0.6039999991,4,176724.2656250000,212688.3750000000,167944.0468750000,168636.3437500000,135243.5937500000,120687.4843750000,133980.0937500000,154539.8906250000,,,
0.6079999991,4,177211.2187500000,193861.0781250000,168521.8281250000,169341.3906250000,135866.8281250000,121368.6328125000,134749.0156250000,152345.3593750000,,,
0.6119999990,4,176912.5000000000,188626.9843750000,168017.3750000000,168753.7187500000,135243.8593750000,120779.8593750000,134083.1875000000,153054.0312500000,,,
0.6159999990,4,176239.0937500000,206017.1562500000,167140.9062500000,167669.4375000000,134264.6093750000,119761.8281250000,132913.4531250000,155855.0625000000,,,
0.6199999989,4,176147.6718750000,219124.5156250000,167151.7812500000,167670.5468750000,134350.2343750000,119777.4375000000,132945.6093750000,156504.6093750000,,,
0.6239999991,4,176716.5937500000,212881.0625000000,167938.6875000000,168631.7968750000,135246.4375000000,120677.0546875000,133980.4062500000,154568.2656250000,,,
0.6279999991,4,177206.8437500000,194025.5312500000,168517.8437500000,169356.7968750000,135869.7812500000,121363.6718750000,134745.7968750000,152355.0156250000,,,
0.6319999991,4,176930.0156250000,188593.4843750000,168038.4375000000,168776.1250000000,135263.5312500000,120795.2578125000,134095.6406250000,153043.5468750000,,,
0.6359999990,4,176268.1718750000,205908.5000000000,167176.0781250000,167695.5937500000,134291.4687500000,119788.8359375000,132943.2031250000,155849.8281250000,,,
0.6399999990,5,176171.0312500000,219106.4375000000,167176.9687500000,167679.9062500000,134363.6406250000,119804.0703125000,132960.3437500000,156525.6718750000,,,
0.6439999989,5,176732.4062500000,212892.2968750000,167944.8750000000,168630.0468750000,135242.1406250000,120707.1718750000,133973.8437500000,154600.6406250000,,,
0.6479999989,5,177209.3437500000,194094.1093750000,168515.7656250000,169353.6250000000,135856.1250000000,121367.5312500000,134738.8906250000,152373.6093750000,,,
0.6519999988,5,176928.1562500000,188556.2656250000,168039.2968750000,168782.5312500000,135257.7343750000,120794.0781250000,134103.4375000000,153025.3906250000,,,
0.6559999988,5,176274.4218750000,205797.3437500000,167184.7968750000,167705.6250000000,134296.0468750000,119791.9531250000,132955.1093750000,155837.5468750000,,,
0.6599999988,5,176171.2968750000,219092.5156250000,167178.8906250000,167684.1406250000,134363.7968750000,119801.4218750000,132961.0937500000,156529.3906250000,,,
0.6639999989,5,176746.8750000000,212945.7500000000,167969.1718750000,168650.7812500000,135262.1250000000,120709.1015625000,133990.4062500000,154607.8593750000,,,
0.6679999989,5,177213.5156250000,194181.9062500000,168521.1718750000,169375.3593750000,135861.0937500000,121366.8671875000,134744.2968750000,152371.8906250000,,,
0.6719999989,5,176922.5312500000,188516.3750000000,168030.3906250000,168795.9218750000,135253.3906250000,120797.1328125000,134105.3125000000,153002.1562500000,,,
0.6759999988,5,176264.0781250000,205695.2343750000,167169.8593750000,167721.8281250000,134283.2343750000,119783.6093750000,132948.4843750000,155817.4843750000,,,
0.6799999988,5,176160.3437500000,219089.9687500000,167158.0781250000,167696.9843750000,134346.0156250000,119796.0781250000,132952.4218750000,156535.4218750000,,,
0.6839999990,5,176722.1406250000,213073.3125000000,167930.6406250000,168638.2343750000,135229.7812500000,120688.2343750000,133969.1406250000,154614.0312500000,,,
0.6879999989,5,177204.7812500000,194298.2812500000,168507.5000000000,169371.4375000000,135854.3593750000,121363.5625000000,134743.7187500000,152363.6562500000,,,
0.6919999989,5,176943.2812500000,188453.6093750000,168049.2968750000,168809.8437500000,135277.3125000000,120829.1875000000,134126.2656250000,152989.9531250000,,,
0.6959999988,5,176261.7968750000,205538.5312500000,167163.0937500000,167714.4531250000,134281.2187500000,119799.7578125000,132944.7031250000,155797.8437500000,,,
0.6999999988,5,176143.4062500000,219024.7343750000,167138.4218750000,167666.0156250000,134328.5000000000,119787.2812500000,132934.7812500000,156525.1093750000,,,
0.7039999987,5,176717.0156250000,213159.9218750000,167922.0781250000,168614.5937500000,135222.2656250000,120689.1250000000,133958.7656250000,154628.0000000000,,,
0.7079999989,5,177228.1718750000,194413.2187500000,168532.8125000000,169354.9375000000,135874.7656250000,121381.1875000000,134757.0468750000,152385.5625000000,,,
0.7119999989,5,176951.6562500000,188414.1093750000,168061.4218750000,168790.6562500000,135286.2500000000,120827.3671875000,134132.3906250000,152971.6562500000,,,
0.7159999989,5,176276.9218750000,205417.5625000000,167180.7968750000,167707.8437500000,134294.6093750000,119794.5781250000,132954.0156250000,155779.3125000000,,,
0.7199999988,5,176159.9531250000,219006.6875000000,167155.1562500000,167667.4375000000,134340.0625000000,119782.9921875000,132934.7812500000,156532.8281250000,,,
0.7239999988,5,176723.5312500000,213311.8437500000,167931.3593750000,168608.2656250000,135227.3906250000,120674.4218750000,133955.6562500000,154645.1718750000,,,
0.7279999990,5,177235.1406250000,194549.5781250000,168540.0625000000,169360.6250000000,135885.6562500000,121391.8593750000,134765.1406250000,152385.6562500000,,,
0.7319999989,5,176997.2031250000,188368.0781250000,168116.6250000000,168830.6562500000,135343.5156250000,120887.6875000000,134196.4687500000,152980.4531250000,,,
0.7359999989,5,176302.2656250000,205279.6250000000,167216.2812500000,167748.8593750000,134329.4218750000,119832.2890625000,133002.3437500000,155781.0625000000,,,
0.7399999988,5,176153.7812500000,218955.4843750000,167153.0937500000,167676.8750000000,134338.4375000000,119786.2109375000,132949.8437500000,156538.7812500000,,,
0.7439999988,5,176708.6406250000,213380.8593750000,167915.1250000000,168602.9062500000,135213.6406250000,120669.7265625000,133953.3750000000,154655.3906250000,,,
0.7479999987,5,177221.0312500000,194620.0937500000,168525.6093750000,169356.9843750000,135875.7187500000,121384.7500000000,134767.1562500000,152378.8906250000,,,
0.7519999989,5,176976.0156250000,188267.7031250000,168092.0468750000,168824.2343750000,135325.1406250000,120873.5781250000,134188.9531250000,152934.1406250000,,,
0.7559999989,5,176303.8437500000,205119.6562500000,167214.1875000000,167741.7031250000,134331.8906250000,119842.0781250000,133015.4375000000,155764.8906250000,,,
0.7599999988,5,176155.3906250000,218910.8281250000,167153.7656250000,167680.9687500000,134343.6562500000,119791.6015625000,132967.6875000000,156547.7656250000,,,
0.7639999988,5,176703.8437500000,213472.2968750000,167908.2968750000,168602.8437500000,135215.1406250000,120677.7500000000,133973.3750000000,154672.8281250000,,,
0.7679999988,6,177219.0781250000,194728.8906250000,168518.2343750000,169364.6562500000,135879.6250000000,121398.2734375000,134785.9843750000,152388.1093750000,,,
0.7719999987,6,176972.0625000000,188206.6562500000,168086.0468750000,168834.0312500000,135329.8281250000,120878.5390625000,134201.6093750000,152912.9687500000,,,
0.7759999987,6,176300.3125000000,204987.2031250000,167206.5781250000,167731.2656250000,134331.4375000000,119832.6093750000,133017.2343750000,155751.2656250000,,,
0.7799999986,6,176137.1562500000,218864.0000000000,167126.4218750000,167654.6093750000,134323.5156250000,119762.4765625000,132941.7187500000,156550.0000000000,,,
0.7839999986,6,176678.6875000000,213543.0000000000,167878.5468750000,168579.3593750000,135191.0000000000,120648.8906250000,133939.5781250000,154682.5000000000,,,
0.7879999985,6,177205.9062500000,194810.1093750000,168508.0000000000,169361.4843750000,135872.2187500000,121388.9921875000,134772.1093750000,152394.6875000000,,,
0.7919999987,6,176959.5156250000,188146.2031250000,168078.4843750000,168838.9375000000,135323.0937500000,120872.9843750000,134193.6406250000,152893.8281250000,,,
0.7959999987,6,176265.7656250000,204829.0625000000,167175.5468750000,167717.0312500000,134299.3437500000,119819.3593750000,132987.1093750000,155713.0625000000,,,
0.7999999986,6,176103.7343750000,218798.6562500000,167095.6406250000,167621.3281250000,134290.0156250000,119755.6875000000,132908.2031250000,156534.2968750000,,,
0.8039999986,6,176662.9218750000,213587.9062500000,167862.7500000000,168559.8593750000,135172.5937500000,120646.4765625000,133918.7187500000,154688.1406250000,,,
0.8079999986,6,177200.1093750000,194891.0312500000,168503.2031250000,169354.1093750000,135866.6250000000,121384.8046875000,134769.0781250000,152391.1406250000,,,
0.8119999988,6,176960.5000000000,188071.3125000000,168081.6093750000,168841.4531250000,135331.5781250000,120875.4296875000,134208.7500000000,152857.8593750000,,,
0.8159999987,6,176313.2343750000,204692.8437500000,167222.5781250000,167757.7343750000,134351.3281250000,119857.6406250000,133039.5468750000,155718.8281250000,,,
0.8199999987,6,176166.8906250000,218785.0312500000,167154.8281250000,167680.7656250000,134354.7656250000,119817.0859375000,132978.2500000000,156591.8906250000,,,
0.8239999986,6,176699.6093750000,213694.8906250000,167901.6406250000,168595.4531250000,135216.4218750000,120675.9765625000,133969.5000000000,154734.8593750000,,,
0.8279999986,6,177217.0937500000,195004.6093750000,168521.6875000000,169362.6406250000,135892.0937500000,121403.8750000000,134795.0156250000,152410.3281250000,,,
0.8319999985,6,176996.3125000000,188041.7031250000,168122.0625000000,168866.7812500000,135379.2656250000,120919.6562500000,134263.7812500000,152872.1718750000,,,
0.8359999987,6,176325.7343750000,204570.7968750000,167236.7968750000,167760.5312500000,134373.7812500000,119891.9140625000,133083.7187500000,155722.8281250000,,,
0.8399999987,6,176158.1562500000,218758.0156250000,167150.4843750000,167654.8437500000,134354.5312500000,119827.5937500000,132995.5625000000,156605.1406250000,,,
0.8439999986,6,176705.1093750000,213809.3437500000,167910.0312500000,168569.7031250000,135230.1250000000,120712.4062500000,134007.5468750000,154780.5468750000,,,
0.8479999986,6,177248.5156250000,195126.0625000000,168562.0781250000,169377.4687500000,135936.4687500000,121470.1562500000,134876.3750000000,152461.4218750000,,,
0.8519999986,6,177002.5625000000,187990.5781250000,168134.5312500000,168872.9218750000,135396.7031250000,120959.0078125000,134313.1562500000,152870.7500000000,,,
0.8559999987,6,176333.1093750000,204438.5156250000,167245.4375000000,167756.8593750000,134387.4062500000,119914.6093750000,133123.5468750000,155722.2031250000,,,
0.8599999987,6,176153.2500000000,218698.7500000000,167139.7812500000,167653.7968750000,134352.3750000000,119829.2031250000,133018.1875000000,156609.2656250000,,,
0.8639999987,6,176705.5625000000,213866.7968750000,167909.2031250000,168555.4218750000,135236.1875000000,120716.2109375000,134023.4843750000,154795.7500000000,,,
0.8679999986,6,177237.6406250000,195194.1093750000,168549.0468750000,169345.0937500000,135932.5781250000,121455.1640625000,134878.3125000000,152453.6406250000,,,
0.8719999986,6,177009.6406250000,187900.2968750000,168139.5000000000,168873.0312500000,135413.6406250000,120978.0468750000,134335.8593750000,152855.8125000000,,,
0.8759999985,6,176351.1093750000,204266.3593750000,167273.7812500000,167769.3593750000,134421.2812500000,119943.2031250000,133159.9218750000,155715.6875000000,,,
0.8799999987,6,176180.4687500000,218640.0000000000,167184.5468750000,167653.2656250000,134393.6250000000,119851.1171875000,133059.7656250000,156635.6562500000,,,
0.8839999987,6,176702.6406250000,213954.9687500000,167908.4531250000,168567.6562500000,135231.7187500000,120703.3359375000,134017.6875000000,154821.7656250000,,,
0.8879999986,6,177221.5468750000,195289.2500000000,168535.7343750000,169357.4687500000,135917.5468750000,121438.1015625000,134861.5156250000,152454.6093750000,,,
0.8919999986,6,176988.4062500000,187840.3750000000,168126.3281250000,168880.5156250000,135394.4687500000,120953.2656250000,134317.3750000000,152821.2968750000,,,
0.8959999986,7,176321.7968750000,204130.2656250000,167244.7187500000,167767.2812500000,134381.9375000000,119897.8984375000,133125.1406250000,155671.8437500000,,,
0.8999999985,7,176156.4687500000,218606.5781250000,167156.0625000000,167662.0312500000,134357.0156250000,119808.3671875000,133029.4375000000,156614.5000000000,,,
0.9039999985,7,176689.3593750000,214029.8281250000,167898.0468750000,168579.8593750000,135213.6093750000,120676.8671875000,133996.0156250000,154822.4375000000,,,
0.9079999984,7,177210.6562500000,195404.1250000000,168531.9531250000,169372.5625000000,135904.9218750000,121412.0625000000,134814.5000000000,152450.6875000000,,,
0.9119999984,7,176987.1718750000,187821.2031250000,168124.7187500000,168882.3125000000,135390.3593750000,120943.5546875000,134274.1875000000,152803.4062500000,,,
0.9159999983,7,176322.7031250000,204016.1875000000,167235.3281250000,167762.5937500000,134374.2968750000,119897.7890625000,133096.5468750000,155657.1718750000,,,
0.9199999985,7,176159.5468750000,218584.1875000000,167144.8593750000,167642.4843750000,134347.8125000000,119804.5312500000,133003.1406250000,156621.6562500000,,,
0.9239999985,7,176695.4843750000,214185.6250000000,167887.0781250000,168543.4375000000,135206.7187500000,120657.0937500000,133978.2968750000,154840.4687500000,,,
0.9279999984,7,177222.6718750000,195571.9218750000,168524.7968750000,169344.4531250000,135905.8281250000,121408.8671875000,134819.4843750000,152458.2812500000,,,
0.9319999984,7,177019.5625000000,187808.7031250000,168150.0625000000,168879.8437500000,135421.1875000000,120956.7500000000,134306.1406250000,152797.1250000000,,,
0.9359999984,7,176352.4218750000,203905.4218750000,167268.5000000000,167772.0312500000,134408.2812500000,119899.9921875000,133108.2031250000,155653.4062500000,,,
0.9399999985,7,176169.4375000000,218580.4062500000,167164.9218750000,167642.2187500000,134365.5781250000,119784.3593750000,132985.5781250000,156637.8593750000,,,
0.9439999985,7,176691.1875000000,214311.5000000000,167893.4843750000,168543.5781250000,135210.1250000000,120646.6875000000,133950.0468750000,154875.6718750000,,,
0.9479999985,7,177198.8750000000,195707.7343750000,168513.7968750000,169334.2656250000,135893.1406250000,121384.6718750000,134790.3593750000,152466.6562500000,,,
0.9519999984,7,176988.6250000000,187773.6718750000,168129.5156250000,168878.0781250000,135400.5625000000,120939.5078125000,134276.7343750000,152765.9375000000,,,
0.9559999984,7,176333.4062500000,203775.0937500000,167253.3281250000,167786.2812500000,134390.7031250000,119910.7734375000,133087.0156250000,155632.6718750000,,,
0.9599999983,7,176149.9687500000,218534.9218750000,167140.8281250000,167655.0156250000,134337.3593750000,119798.6796875000,132961.6250000000,156637.3593750000,,,
0.9639999985,7,176651.2812500000,214351.8750000000,167846.0312500000,168527.8593750000,135157.3906250000,120622.4453125000,133898.7968750000,154852.1093750000,,,
0.9679999985,7,177183.5625000000,195775.9062500000,168488.5625000000,169337.2968750000,135864.2812500000,121376.2265625000,134750.5000000000,152446.1093750000,,,
0.9719999984,7,176993.8750000000,187701.6562500000,168129.8750000000,168900.1250000000,135397.2812500000,120942.6171875000,134264.8906250000,152732.2968750000,,,
0.9759999984,7,176316.3437500000,203603.5156250000,167229.7500000000,167782.0937500000,134362.2968750000,119877.8046875000,133057.3281250000,155571.1250000000,,,
0.9799999984,7,176137.0468750000,218482.7500000000,167119.1093750000,167643.8750000000,134308.0625000000,119766.3125000000,132926.8125000000,156609.1406250000,,,
0.9839999985,7,176666.7031250000,214515.1093750000,167852.5781250000,168544.5625000000,135152.1093750000,120611.9531250000,133881.4843750000,154880.8593750000,,,
0.9879999985,7,177195.0468750000,195959.3750000000,168496.7500000000,169347.6250000000,135862.2812500000,121359.0546875000,134744.7656250000,152457.0781250000,,,
0.9919999985,7,177006.4062500000,187690.1718750000,168141.8281250000,168916.4062500000,135401.6562500000,120934.4609375000,134268.9843750000,152716.7187500000,,,
0.9959999984,7,176336.7031250000,203507.6406250000,167251.3906250000,167793.2812500000,134376.8906250000,119883.6796875000,133064.0781250000,155572.8906250000,,,
0.9999999984,7,176141.2812500000,218482.2968750000,167123.6406250000,167633.2812500000,134311.3125000000,119766.5234375000,132917.6093750000,156627.6718750000,33029,1.0039575135,0.0000000000
1.0039999983,7,176649.6718750000,214808.8906250000,167838.2656250000,168508.9687500000,135142.0468750000,120605.3593750000,133865.4687500000,154923.3125000000,,,
1.0079999985,7,177197.3125000000,196256.0781250000,168507.6562500000,169337.7812500000,135878.8750000000,121379.8203125000,134749.0156250000,152490.1406250000,,,
1.0119999985,7,177011.5000000000,187704.7968750000,168153.4531250000,168913.0468750000,135417.5937500000,120945.3515625000,134265.2656250000,152702.7656250000,,,
1.0159999984,7,176347.5468750000,203375.2031250000,167269.0468750000,167803.2812500000,134396.5000000000,119886.7968750000,133083.1250000000,155549.6406250000,,,
1.0199999984,7,176143.6093750000,218430.5781250000,167126.0312500000,167643.3906250000,134315.0468750000,119764.4296875000,132931.3750000000,156630.5625000000,,,
1.0239999983,8,176650.9218750000,214710.1718750000,167838.3906250000,168513.6093750000,135142.5312500000,120598.1953125000,133874.2500000000,154915.8281250000,,,
1.0279999983,8,177181.3125000000,196199.2968750000,168483.2031250000,169336.3593750000,135853.0000000000,121364.1562500000,134731.4218750000,152477.3750000000,,,
1.0319999983,8,177000.8750000000,187629.1875000000,168137.1406250000,168917.4687500000,135401.5000000000,120950.1796875000,134263.8593750000,152682.7031250000,,,
1.0359999982,8,176324.0000000000,203235.2656250000,167236.4062500000,167795.6875000000,134366.2656250000,119885.5078125000,133059.4218750000,155522.7812500000,,,
1.0399999982,8,176121.0000000000,218376.7187500000,167103.8906250000,167637.2812500000,134290.7656250000,119741.7656250000,132903.4531250000,156618.3906250000,,,
1.0439999981,8,176636.6562500000,214642.5937500000,167825.4687500000,168521.0937500000,135130.0781250000,120596.8281250000,133853.5937500000,154914.4375000000,,,
1.0479999983,8,177184.1562500000,196193.5312500000,168487.2968750000,169347.5937500000,135855.8593750000,121378.8281250000,134734.0312500000,152496.2968750000,,,
1.0519999983,8,177011.9843750000,187591.5312500000,168153.9531250000,168940.9375000000,135417.0468750000,120977.3281250000,134280.4687500000,152691.6093750000,,,
1.0559999982,8,176316.3437500000,203108.0000000000,167229.6718750000,167806.9531250000,134355.9687500000,119893.9296875000,133037.6406250000,155508.7031250000,,,
1.0599999982,8,176107.2187500000,218321.0156250000,167087.6406250000,167631.6250000000,134273.2187500000,119729.0546875000,132876.4062500000,156604.2812500000,,,
1.0639999982,8,176640.7812500000,214716.8906250000,167834.6406250000,168517.4531250000,135139.0468750000,120581.8906250000,133867.9687500000,154916.7187500000,,,
1.0679999983,8,177207.2968750000,196327.6718750000,168519.7500000000,169356.1718750000,135886.8906250000,121376.9765625000,134770.4531250000,152511.5312500000,,,
1.0719999983,8,177026.5937500000,187584.2343750000,168177.2343750000,168945.3750000000,135441.5937500000,120985.3750000000,134310.1875000000,152684.7187500000,,,
1.0759999983,8,176340.8906250000,202987.6250000000,167263.5468750000,167815.2812500000,134390.7343750000,119906.5859375000,133077.7656250000,155502.5937500000,,,
1.0799999982,8,176143.2968750000,218300.4687500000,167128.6250000000,167661.2031250000,134310.6093750000,119756.1171875000,132910.2031250000,156639.4218750000,,,
1.0839999982,8,176661.9531250000,214911.5937500000,167852.3750000000,168546.9843750000,135151.1093750000,120593.4218750000,133868.7812500000,154968.1093750000,,,
1.0879999981,8,177212.5625000000,196528.7343750000,168519.1406250000,169371.1718750000,135886.1250000000,121376.6250000000,134758.2031250000,152530.6562500000,,,
1.0919999983,8,177051.3281250000,187572.5937500000,168198.3437500000,168954.5937500000,135463.2656250000,121002.2421875000,134322.8437500000,152681.1250000000,,,
1.0959999983,8,176378.8125000000,202874.8906250000,167296.2656250000,167826.5156250000,134421.2812500000,119930.3281250000,133106.1093750000,155513.4843750000,,,
1.0999999982,8,176149.0312500000,218272.4531250000,167121.9531250000,167636.8593750000,134305.2031250000,119751.2578125000,132906.5937500000,156654.4062500000,,,
1.1039999982,8,176624.2343750000,215037.9843750000,167802.0468750000,168485.8281250000,135102.7187500000,120549.5937500000,133822.2656250000,154969.1875000000,,,
1.1079999981,8,177183.6406250000,196679.7968750000,168490.4375000000,169337.6406250000,135857.7343750000,121342.7265625000,134736.5000000000,152520.9062500000,,,
1.1119999983,8,177033.4375000000,187550.4375000000,168182.6250000000,168958.0625000000,135450.7500000000,120981.7265625000,134323.0000000000,152653.2031250000,,,
1.1159999983,8,176372.2500000000,202747.3750000000,167293.9375000000,167829.2968750000,134421.1562500000,119930.2187500000,133110.5156250000,155495.1093750000,,,
1.1199999982,8,176149.2812500000,218234.8281250000,167131.0937500000,167619.8281250000,134312.9218750000,119760.8359375000,132916.0781250000,156667.9843750000,,,
1.1239999982,8,176639.0781250000,215114.3125000000,167826.4531250000,168478.2656250000,135126.1875000000,120580.4687500000,133844.4687500000,155012.2812500000,,,
1.1279999982,8,177192.4062500000,196783.4531250000,168504.7812500000,169319.7500000000,135873.8281250000,121366.5156250000,134749.3750000000,152549.5312500000,,,
1.1319999981,8,177042.0468750000,187519.1093750000,168197.6718750000,168955.8593750000,135468.4218750000,120995.8046875000,134339.6093750000,152638.0468750000,,,
1.1359999983,8,176366.8593750000,202611.3593750000,167288.8125000000,167833.5937500000,134418.7656250000,119923.8906250000,133119.7187500000,155451.6562500000,,,
1.1399999983,8,176139.1875000000,218176.1718750000,167118.7812500000,167629.0781250000,134302.0937500000,119731.4921875000,132919.6718750000,156633.0312500000,,,
1.1439999982,8,176650.0937500000,215162.7031250000,167832.8750000000,168495.9062500000,135130.8281250000,120571.1562500000,133854.6875000000,155005.3593750000,,,
1.1479999982,8,177193.2187500000,196866.2343750000,168505.1093750000,169340.8593750000,135871.8281250000,121369.3828125000,134755.5156250000,152540.0312500000,,,
1.1519999981,9,177037.6718750000,187484.9062500000,168197.5625000000,168968.5468750000,135467.0000000000,121007.1796875000,134345.4375000000,152613.3906250000,,,
1.1559999981,9,176337.6406250000,202460.8593750000,167263.2187500000,167825.5937500000,134393.9218750000,119910.2656250000,133092.6718750000,155409.3593750000,,,
1.1599999981,9,176106.7656250000,218108.3593750000,167087.1093750000,167608.8750000000,134272.8437500000,119723.7421875000,132888.1562500000,156618.2812500000,,,
1.1639999980,9,176615.5156250000,215210.1875000000,167802.4843750000,168471.2656250000,135104.6562500000,120550.2656250000,133832.9687500000,155010.4843750000,,,
1.1679999980,9,177184.9531250000,196968.2343750000,168498.7343750000,169331.6093750000,135868.0937500000,121356.7812500000,134750.5468750000,152559.0312500000,,,
1.1719999979,9,177043.0468750000,187474.0937500000,168204.0625000000,168969.3437500000,135474.1875000000,121008.2500000000,134347.8437500000,152614.9843750000,,,
1.1759999981,9,176348.4531250000,202346.1250000000,167268.9687500000,167822.4062500000,134402.7968750000,119915.0937500000,133104.9375000000,155410.0625000000,,,
1.1799999981,9,176112.6875000000,218072.3750000000,167081.2343750000,167598.0625000000,134271.6093750000,119725.1093750000,132883.5781250000,156634.7812500000,,,
1.1839999980,9,176613.4062500000,215327.7187500000,167788.9375000000,168457.4218750000,135094.7031250000,120542.6718750000,133814.9687500000,155035.5937500000,,,
1.1879999980,9,177175.4375000000,197131.4218750000,168479.0625000000,169311.3906250000,135853.2031250000,121347.6562500000,134732.3906250000,152572.8125000000,,,
1.1919999979,9,177026.0312500000,187464.9843750000,168179.9218750000,168969.8281250000,135458.0937500000,120990.1171875000,134333.1718750000,152590.8437500000,,,
1.1959999981,9,176346.4375000000,202217.9062500000,167266.5781250000,167829.0312500000,134403.7343750000,119916.1640625000,133102.3125000000,155389.8906250000,,,
1.1999999981,9,176101.5781250000,218014.0781250000,167079.5937500000,167595.1406250000,134269.0625000000,119724.4687500000,132876.3593750000,156623.8593750000,,,
1.2039999980,9,176610.0468750000,215421.5937500000,167793.3906250000,168443.3593750000,135097.6875000000,120569.4453125000,133812.8437500000,155050.7656250000,,,
1.2079999980,9,177184.2031250000,197261.3125000000,168495.3437500000,169315.4375000000,135867.6718750000,121386.7109375000,134748.3750000000,152590.1718750000,,,
1.2119999980,9,177029.1718750000,187436.5000000000,168194.2968750000,168976.8593750000,135472.2031250000,121014.2578125000,134359.0781250000,152569.6250000000,,,
1.2159999979,9,176345.2968750000,202072.5312500000,167270.8593750000,167841.5000000000,134408.4375000000,119906.9062500000,133117.9218750000,155350.0312500000,,,
1.2199999981,9,176108.8750000000,217960.7343750000,167083.4531250000,167605.0625000000,134272.8437500000,119704.5625000000,132884.8125000000,156619.8125000000,,,
1.2239999981,9,176614.4531250000,215496.1250000000,167786.0625000000,168462.8125000000,135093.0937500000,120535.0546875000,133810.5937500000,155067.3281250000,,,
1.2279999980,9,177170.2031250000,197376.7656250000,168473.8125000000,169324.5312500000,135850.3593750000,121345.6484375000,134731.5156250000,152585.9062500000,,,
1.2319999980,9,177028.2656250000,187414.6875000000,168186.9531250000,168982.3906250000,135469.6250000000,121015.8125000000,134354.6562500000,152555.1875000000,,,
1.2359999979,9,176339.5156250000,201938.6875000000,167262.5468750000,167828.7656250000,134402.8281250000,119927.8828125000,133116.1406250000,155334.9531250000,,,
1.2399999981,9,176083.7812500000,217897.4375000000,167057.8437500000,167587.3125000000,134247.6406250000,119709.3906250000,132864.6875000000,156610.4843750000,,,
1.2439999981,9,176570.8906250000,215536.2343750000,167752.7812500000,168420.5156250000,135057.3437500000,120523.3046875000,133782.2812500000,155053.9062500000,,,
1.2479999980,9,177160.4375000000,197464.7656250000,168477.1406250000,169313.2031250000,135853.1562500000,121369.8906250000,134743.9531250000,152593.9218750000,,,
1.2519999980,9,177047.3593750000,187377.8125000000,168223.6093750000,169028.1406250000,135506.2656250000,121053.6875000000,134400.1250000000,152555.7031250000,,,
1.2559999980,9,176375.0937500000,201796.3125000000,167312.0937500000,167898.0937500000,134450.3281250000,119962.6718750000,133165.5468750000,155341.7968750000,,,
1.2599999979,9,176115.5000000000,217856.6406250000,167091.4218750000,167615.6562500000,134281.6718750000,119736.8046875000,132893.0468750000,156645.8281250000,,,
1.2639999981,9,176587.7656250000,215642.3437500000,167762.3750000000,168420.7812500000,135070.0000000000,120521.2421875000,133779.9062500000,155085.9062500000,,,
1.2679999981,9,177161.8593750000,197588.9531250000,168471.0156250000,169302.3750000000,135850.9218750000,121337.2812500000,134726.7656250000,152589.1718750000,,,
1.2719999980,9,177049.4218750000,187371.5000000000,168211.1093750000,168988.5312500000,135501.0937500000,121038.7500000000,134385.0781250000,152534.3437500000,,,
1.2759999980,9,176397.5312500000,201693.1093750000,167318.9375000000,167854.2187500000,134460.2343750000,119982.3593750000,133163.7343750000,155337.8437500000,,,
1.2799999979,10,176140.7187500000,217828.3593750000,167103.8750000000,167599.6562500000,134293.9375000000,119753.5937500000,132897.2500000000,156665.5937500000,,,
1.2839999979,10,176600.9375000000,215740.7031250000,167765.5781250000,168431.8906250000,135072.5312500000,120529.5078125000,133786.1875000000,155121.3125000000,,,
1.2879999978,10,177176.3750000000,197745.2656250000,168480.5625000000,169315.4531250000,135857.0781250000,121368.0468750000,134732.7343750000,152640.3593750000,,,
1.2919999978,10,177042.7968750000,187390.6250000000,168209.3437500000,169008.1250000000,135497.7031250000,121048.1093750000,134381.9375000000,152535.1250000000,,,
1.2959999978,10,176367.6875000000,201589.3593750000,167294.2500000000,167868.2187500000,134439.4375000000,119979.4375000000,133154.1875000000,155309.3125000000,,,
1.2999999977,10,176109.7968750000,217801.0156250000,167079.8125000000,167605.1250000000,134273.2812500000,119754.8281250000,132893.5000000000,156661.9687500000,,,
1.3039999979,10,176581.7812500000,215842.4375000000,167757.7187500000,168431.8125000000,135062.8125000000,120529.3437500000,133785.3281250000,155136.1406250000,,,
1.3079999979,10,177160.4062500000,197885.4687500000,168469.4062500000,169313.6406250000,135846.0000000000,121356.2968750000,134728.1093750000,152635.3593750000,,,
1.3119999978,10,177044.8437500000,187365.2343750000,168214.8125000000,169019.6406250000,135505.0000000000,121042.8828125000,134394.8125000000,152507.4218750000,,,
1.3159999978,10,176370.7187500000,201426.3906250000,167298.9218750000,167871.5156250000,134446.4375000000,119956.5312500000,133162.5468750000,155274.3281250000,,,
1.3199999977,10,176103.4687500000,217708.3593750000,167073.1562500000,167587.5000000000,134267.3593750000,119711.7265625000,132881.1875000000,156633.5468750000,,,
1.3239999979,10,176567.6406250000,215886.7343750000,167739.0937500000,168400.1093750000,135046.1093750000,120496.5703125000,133763.1718750000,155121.2031250000,,,
1.3279999979,10,177168.5625000000,197984.7656250000,168479.4687500000,169306.0468750000,135857.0937500000,121358.0390625000,134741.2656250000,152639.4062500000,,,
1.3319999978,10,177086.7812500000,187346.6718750000,168260.0625000000,169047.6875000000,135551.6406250000,121090.9140625000,134444.5312500000,152526.2187500000,,,
1.3359999978,10,176399.6250000000,201291.3125000000,167326.4375000000,167876.7812500000,134477.9375000000,119997.0078125000,133200.0156250000,155283.6718750000,,,
1.3399999978,10,176114.2187500000,217656.9687500000,167080.9687500000,167583.3125000000,134277.0000000000,119732.0312500000,132898.1406250000,156655.1406250000,,,
1.3439999977,10,176560.1406250000,215944.1718750000,167729.5000000000,168389.7031250000,135040.2031250000,120495.5234375000,133766.9843750000,155145.8281250000,,,
1.3479999979,10,177147.8906250000,198070.2812500000,168456.0312500000,169295.4531250000,135838.5312500000,121345.1640625000,134726.7343750000,152646.3906250000,,,
1.3519999979,10,177059.7812500000,187308.7187500000,168231.6406250000,169024.3281250000,135525.9531250000,121073.9921875000,134419.9218750000,152498.9687500000,,,
1.3559999978,10,176398.1093750000,201158.4375000000,167323.6718750000,167895.0156250000,134471.0312500000,119996.7343750000,133194.4375000000,155263.8750000000,,,
1.3599999978,10,176114.5156250000,217607.4843750000,167074.6562500000,167599.9687500000,134269.3437500000,119726.5312500000,132890.8125000000,156654.9218750000,,,
1.3639999977,10,176579.1718750000,216038.3906250000,167742.8281250000,168409.7343750000,135048.7343750000,120495.9531250000,133767.0156250000,155173.4375000000,,,
1.3679999979,10,177171.8437500000,198220.5312500000,168472.5468750000,169306.9531250000,135849.4531250000,121354.5000000000,134732.9843750000,152677.1562500000,,,
1.3719999979,10,177069.3281250000,187307.6718750000,168232.8906250000,169017.3281250000,135524.5781250000,121076.2421875000,134421.3437500000,152486.1718750000,,,
1.3759999978,10,176385.0156250000,201014.1250000000,167306.4375000000,167879.1093750000,134452.6093750000,119979.1953125000,133177.9531250000,155221.0468750000,,,
1.3799999978,10,176089.0781250000,217541.7187500000,167050.8906250000,167571.2656250000,134240.0468750000,119695.2812500000,132861.9218750000,156629.9218750000,,,
1.3839999977,10,176561.0781250000,216145.7031250000,167728.6718750000,168387.4687500000,135031.2968750000,120482.7031250000,133754.0625000000,155184.1562500000,,,
1.3879999977,10,177170.7656250000,198374.0625000000,168476.8437500000,169308.9218750000,135856.0781250000,121365.4453125000,134740.2187500000,152696.6250000000,,,
1.3919999979,10,177089.0625000000,187328.7968750000,168261.6250000000,169050.4843750000,135559.6093750000,121117.5234375000,134454.8906250000,152506.4531250000,,,
1.3959999979,10,176403.0312500000,200911.8281250000,167335.7812500000,167903.9218750000,134486.7500000000,120012.8046875000,133213.0312500000,155235.0625000000,,,
1.3999999978,10,176090.9062500000,217494.5625000000,167056.5000000000,167583.5312500000,134252.8906250000,119710.7343750000,132870.7187500000,156645.4531250000,,,
1.4039999978,10,176551.0468750000,216224.5937500000,167715.7968750000,168381.0312500000,135024.4375000000,120480.1250000000,133740.3437500000,155203.1718750000,,,
1.4079999977,11,177153.7656250000,198502.9062500000,168459.8593750000,169296.0625000000,135841.8906250000,121346.0234375000,134724.1875000000,152696.7343750000,,,
1.4119999977,11,177078.6250000000,187297.0156250000,168255.5312500000,169050.8906250000,135552.4843750000,121089.5000000000,134448.5937500000,152468.4531250000,,,
1.4159999976,11,176418.6718750000,200762.4062500000,167346.1875000000,167917.3281250000,134493.5156250000,120014.5468750000,133215.2812500000,155213.7187500000,,,
1.4199999976,11,176123.5312500000,217451.9218750000,167073.3281250000,167593.6406250000,134263.7343750000,119748.5781250000,132873.1718750000,156681.7500000000,,,
1.4239999976,11,176547.4218750000,216272.2343750000,167706.1562500000,168381.7500000000,135008.9218750000,120479.0234375000,133721.9218750000,155214.3906250000,,,
1.4279999975,11,177137.4218750000,198585.6562500000,168448.2812500000,169282.9843750000,135823.4062500000,121318.0468750000,134707.5781250000,152680.6406250000,,,
1.4319999977,11,177074.0468750000,187285.7187500000,168248.6718750000,169056.6875000000,135545.5000000000,121100.3593750000,134446.1250000000,152451.0468750000,,,
1.4359999977,11,176397.1875000000,200626.9218750000,167331.4062500000,167910.7031250000,134478.5000000000,120016.9062500000,133209.8906250000,155174.3437500000,,,
1.4399999976,11,176073.3906250000,217366.2187500000,167037.1718750000,167566.2031250000,134227.2500000000,119703.0625000000,132846.6718750000,156624.4218750000,,,
1.4439999976,11,176524.2968750000,216319.5937500000,167682.0000000000,168355.9843750000,134989.1406250000,120468.0781250000,133705.2187500000,155205.1406250000,,,
1.4479999975,11,177145.3906250000,198701.3906250000,168448.9218750000,169285.6406250000,135829.3437500000,121347.0937500000,134711.1718750000,152703.6718750000,,,
1.4519999977,11,177083.6406250000,187277.8750000000,168259.0468750000,169059.8437500000,135558.1406250000,121111.1171875000,134454.0000000000,152440.0468750000,,,
1.4559999977,11,176419.7187500000,200499.5468750000,167348.0937500000,167924.5937500000,134498.1562500000,120030.6953125000,133225.4531250000,155162.8906250000,,,
1.4599999976,11,176092.4843750000,217298.0625000000,167051.9218750000,167566.6250000000,134242.0312500000,119704.8828125000,132871.0937500000,156629.7343750000,,,
1.4639999976,11,176521.7812500000,216385.9531250000,167680.9218750000,168351.2343750000,134981.9531250000,120444.1562500000,133710.9218750000,155213.8281250000,,,
1.4679999975,11,177129.6406250000,198812.5000000000,168435.7500000000,169290.4375000000,135811.2031250000,121332.6093750000,134704.7968750000,152702.0937500000,,,
1.4719999975,11,177073.1093750000,187261.7812500000,168252.3437500000,169095.7656250000,135550.2812500000,121133.8359375000,134459.8593750000,152428.4375000000,,,
1.4759999977,11,176396.9218750000,200358.7031250000,167331.0468750000,167922.0781250000,134481.5781250000,120036.4843750000,133219.5781250000,155139.9062500000,,,
1.4799999977,11,176071.1093750000,217246.2968750000,167031.3906250000,167552.7187500000,134223.9062500000,119712.4218750000,132848.9218750000,156641.5937500000,,,
1.4839999976,11,176502.3281250000,216476.7968750000,167661.5781250000,168316.6093750000,134970.5937500000,120453.2734375000,133698.2968750000,155243.0937500000,,,
1.4879999976,11,177117.5468750000,198970.3437500000,168422.5312500000,169254.5000000000,135807.9375000000,121331.4062500000,134705.3906250000,152726.0468750000,,,
1.4919999975,11,177066.9062500000,187286.5625000000,168246.5000000000,169046.5156250000,135548.7812500000,121114.4687500000,134459.9062500000,152413.2968750000,,,
1.4959999977,11,176403.9687500000,200237.1562500000,167332.6406250000,167904.0468750000,134479.7812500000,120033.2187500000,133218.9375000000,155110.3750000000,,,
1.4999999977,11,176092.5468750000,217164.5468750000,167042.5781250000,167550.6718750000,134226.0937500000,119719.6953125000,132852.4531250000,156634.2187500000,,,
1.5039999976,11,176548.7031250000,216554.3125000000,167698.3750000000,168345.2187500000,134992.1093750000,120471.0078125000,133708.7031250000,155282.7343750000,,,
1.5079999976,11,177148.6875000000,199131.7031250000,168443.7656250000,169284.3437500000,135817.3750000000,121332.9296875000,134696.3750000000,152758.5312500000,,,
1.5119999975,11,177089.4687500000,187320.5468750000,168264.7656250000,169081.4843750000,135566.0312500000,121118.6250000000,134471.5156250000,152407.6718750000,,,
1.5159999975,11,176425.9687500000,200084.8281250000,167356.5312500000,167949.8437500000,134507.7343750000,120044.4531250000,133249.9843750000,155085.3750000000,,,
1.5199999977,11,176088.0937500000,217068.9531250000,167039.5000000000,167564.2187500000,134229.4531250000,119718.6718750000,132857.9531250000,156627.8125000000,,,
1.5239999976,11,176504.2031250000,216610.9375000000,167653.2968750000,168326.1250000000,134955.9843750000,120440.8046875000,133677.6875000000,155277.4218750000,,,
1.5279999976,11,177095.5312500000,199264.3125000000,168394.1718750000,169248.9687500000,135773.9218750000,121302.1171875000,134660.0000000000,152740.0156250000,,,
1.5319999976,11,177047.3906250000,187308.0468750000,168227.9843750000,169054.1250000000,135530.4062500000,121111.5156250000,134436.9687500000,152362.7968750000,,,
1.5359999975,12,176390.7031250000,199930.0937500000,167321.2343750000,167920.3906250000,134471.0937500000,120036.9687500000,133214.2968750000,155031.3750000000,,,
1.5399999975,12,176072.8593750000,216986.3437500000,167024.4218750000,167557.2968750000,134208.3906250000,119700.1640625000,132839.0468750000,156602.5625000000,,,
1.5439999974,12,176508.5312500000,216660.1562500000,167658.5312500000,168324.4062500000,134955.3906250000,120435.6562500000,133674.1875000000,155283.3750000000,,,
1.5479999974,12,177126.0781250000,199387.6093750000,168427.0000000000,169273.1562500000,135803.5312500000,121323.3593750000,134683.5468750000,152770.8906250000,,,
1.5519999973,12,177088.9531250000,187330.2500000000,168274.6875000000,169101.7968750000,135577.3906250000,121129.4609375000,134481.5000000000,152380.0468750000,,,
1.5559999973,12,176422.0468750000,199829.3750000000,167356.2187500000,167947.0468750000,134506.3906250000,120046.6015625000,133244.0156250000,155028.9375000000,,,
1.5599999975,12,176095.2031250000,216950.6875000000,167049.6406250000,167544.4218750000,134234.7343750000,119714.6796875000,132857.6093750000,156620.4062500000,,,
1.5639999975,12,176509.1718750000,216769.4375000000,167658.9531250000,168304.9062500000,134959.8125000000,120432.0078125000,133674.1562500000,155312.0937500000,,,
1.5679999974,12,177115.8125000000,199553.4218750000,168419.5156250000,169254.1250000000,135801.2812500000,121308.8750000000,134682.2031250000,152784.0937500000,,,
1.5719999974,12,177080.7500000000,187358.3593750000,168271.3281250000,169084.6875000000,135579.2812500000,121134.0234375000,134485.5468750000,152368.4843750000,,,
1.5759999973,12,176411.6250000000,199727.5312500000,167349.2343750000,167930.6562500000,134504.4375000000,120050.7265625000,133242.7968750000,155011.9062500000,,,
1.5799999975,12,176090.5000000000,216899.0156250000,167045.8593750000,167554.7031250000,134233.0781250000,119719.9609375000,132852.6250000000,156624.6875000000,,,
1.5839999975,12,176513.9531250000,216841.8750000000,167663.7812500000,168303.7500000000,134963.1406250000,120446.0625000000,133677.7500000000,155339.7031250000,,,
1.5879999974,12,177129.4375000000,199696.7656250000,168430.2500000000,169250.9531250000,135809.4375000000,121330.5703125000,134688.7031250000,152815.9531250000,,,
1.5919999974,12,177109.9375000000,187387.7031250000,168303.1093750000,169094.4531250000,135608.8906250000,121162.2343750000,134516.0781250000,152380.6093750000,,,
1.5959999973,12,176451.4218750000,199608.8750000000,167396.9843750000,167966.0468750000,134550.7500000000,120074.8671875000,133299.0000000000,155008.4218750000,,,
1.5999999973,12,176108.1250000000,216834.8437500000,167066.9843750000,167563.0937500000,134257.1093750000,119712.6406250000,132885.6718750000,156623.7500000000,,,
1.6039999975,12,176508.2343750000,216896.2656250000,167662.6562500000,168304.5156250000,134966.9062500000,120419.7500000000,133687.3750000000,155337.0781250000,,,
1.6079999974,12,177106.2656250000,199799.7656250000,168415.5312500000,169230.6718750000,135801.2812500000,121308.5234375000,134691.5937500000,152803.6406250000,,,
1.6119999974,12,177075.8125000000,187388.6406250000,168276.2187500000,169075.2656250000,135590.6406250000,121142.8203125000,134510.5468750000,152339.5156250000,,,
1.6159999974,12,176434.3906250000,199485.6250000000,167384.3750000000,167957.7031250000,134543.7031250000,120085.4140625000,133301.1718750000,154977.0625000000,,,
1.6199999973,12,176107.1875000000,216782.5781250000,167067.4687500000,167564.8906250000,134257.8906250000,119733.7968750000,132894.2968750000,156630.4531250000,,,
1.6239999975,12,176525.0000000000,217101.5937500000,167678.2968750000,168308.0781250000,134980.3593750000,120445.5781250000,133695.5000000000,155398.1718750000,,,
1.6279999975,12,177140.0781250000,200111.7500000000,168448.4843750000,169256.5000000000,135834.4062500000,121341.7812500000,134712.5156250000,152867.0000000000,,,
1.6319999974,12,177107.3906250000,187447.2812500000,168302.0937500000,169101.1562500000,135620.2656250000,121186.0000000000,134529.4843750000,152360.7812500000,,,
1.6359999974,12,176458.7812500000,199376.8906250000,167403.6093750000,167968.2968750000,134565.5312500000,120111.5078125000,133321.1250000000,154977.2500000000,,,
1.6399999973,12,176108.4531250000,216733.0937500000,167062.9687500000,167553.7656250000,134255.8750000000,119732.6484375000,132894.3281250000,156630.5937500000,,,
1.6439999973,12,176500.1406250000,217108.5156250000,167649.4062500000,168274.5468750000,134958.8281250000,120428.0078125000,133680.0781250000,155385.3281250000,,,
1.6479999975,12,177115.6718750000,200167.2031250000,168425.6875000000,169232.4531250000,135821.1562500000,121336.9843750000,134712.1718750000,152864.2343750000,,,
1.6519999974,12,177105.7187500000,187453.6875000000,168310.3593750000,169093.6093750000,135637.4843750000,121205.5000000000,134570.7656250000,152360.9218750000,,,
1.6559999974,12,176465.7812500000,199305.6718750000,167419.8125000000,167965.2031250000,134587.2656250000,120145.8437500000,133364.7656250000,154982.6406250000,,,
1.6599999974,12,176114.0781250000,216737.7031250000,167078.5000000000,167550.3593750000,134276.6875000000,119773.4687500000,132943.7343750000,156657.8750000000,,,
1.6639999973,13,176496.4531250000,217132.2031250000,167651.2500000000,168270.5781250000,134965.3437500000,120462.2890625000,133723.1250000000,155399.3750000000,,,
1.6679999973,13,177110.3906250000,200155.0000000000,168421.3750000000,169220.3437500000,135818.5781250000,121358.8671875000,134750.1250000000,152855.2187500000,,,
1.6719999972,13,177099.4218750000,187410.3437500000,168303.1718750000,169094.4531250000,135634.0468750000,121215.7187500000,134597.9375000000,152341.3906250000,,,
1.6759999972,13,176468.9687500000,199169.5781250000,167421.7968750000,167978.7500000000,134595.9531250000,120166.7656250000,133398.0468750000,154970.0625000000,,,
1.6799999971,13,176142.5937500000,216670.1562500000,167107.6875000000,167577.3906250000,134304.9843750000,119819.5000000000,132985.5312500000,156680.0000000000,,,
1.6839999971,13,176524.8906250000,217210.6562500000,167684.6562500000,168294.2656250000,134994.9531250000,120492.8671875000,133766.5781250000,155443.9375000000,,,
1.6879999973,13,177117.4375000000,200310.5625000000,168437.0156250000,169230.0000000000,135836.6250000000,121364.4218750000,134783.4843750000,152873.2500000000,,,
1.6919999972,13,177105.8281250000,187417.0000000000,168317.3281250000,169110.0625000000,135655.4218750000,121224.8671875000,134638.8906250000,152325.0312500000,,,
1.6959999972,13,176476.9843750000,199020.3437500000,167432.7656250000,167988.0000000000,134612.9531250000,120175.4765625000,133435.4375000000,154942.2031250000,,,
1.6999999972,13,176150.6875000000,216575.5000000000,167112.0781250000,167574.9687500000,134314.9843750000,119825.8515625000,133006.6406250000,156680.4375000000,,,
1.7039999971,13,176530.4375000000,217309.7656250000,167684.1875000000,168284.7187500000,134999.3750000000,120484.7656250000,133771.5937500000,155467.0781250000,,,
1.7079999973,13,177147.0625000000,200533.5000000000,168460.4531250000,169238.9843750000,135859.0781250000,121379.9531250000,134796.6875000000,152926.9531250000,,,
1.7119999973,13,177130.0156250000,187479.8906250000,168330.2500000000,169113.2812500000,135667.5781250000,121244.1796875000,134640.6093750000,152342.9531250000,,,
1.7159999972,13,176495.6875000000,198896.8437500000,167441.5937500000,167985.1406250000,134617.2187500000,120181.7265625000,133423.1562500000,154923.2812500000,,,
1.7199999972,13,176131.8593750000,216441.2656250000,167087.5312500000,167549.9218750000,134283.1250000000,119776.1250000000,132956.4531250000,156633.1093750000,,,
1.7239999971,13,176514.4843750000,217347.1562500000,167658.1718750000,168265.1093750000,134960.7812500000,120443.2734375000,133722.5625000000,155460.3125000000,,,
1.7279999971,13,177122.0312500000,200706.6406250000,168425.6562500000,169222.9531250000,135814.5312500000,121334.3828125000,134742.2968750000,152927.3437500000,,,
1.7319999973,13,177134.7968750000,187525.4687500000,168339.1562500000,169122.5312500000,135667.1093750000,121240.3984375000,134633.9218750000,152335.9218750000,,,
1.7359999972,13,176490.4218750000,198770.6562500000,167440.8125000000,168015.2656250000,134608.7656250000,120177.6796875000,133425.0312500000,154893.2812500000,,,
1.7399999972,13,176116.9062500000,216360.6562500000,167072.2187500000,167557.3281250000,134260.2500000000,119758.5546875000,132950.1718750000,156615.7812500000,,,
1.7439999972,13,176493.7968750000,217339.9062500000,167639.7500000000,168258.6406250000,134940.0781250000,120417.3906250000,133703.4218750000,155457.0000000000,,,
1.7479999971,13,177117.1718750000,200752.3281250000,168418.7187500000,169196.3906250000,135808.9531250000,121332.7734375000,134730.1406250000,152950.0625000000,,,
1.7519999973,13,177098.5312500000,187528.7656250000,168302.4375000000,169095.3593750000,135632.6718750000,121193.9921875000,134585.5937500000,152307.5156250000,,,
1.7559999973,13,176456.2812500000,198624.9531250000,167407.5781250000,167990.5625000000,134574.6250000000,120129.2890625000,133369.1093750000,154831.9843750000,,,
1.7599999972,13,176121.7031250000,216263.4375000000,167073.2968750000,167575.9687500000,134257.6718750000,119744.6875000000,132918.6093750000,156605.4062500000,,,
1.7639999972,13,176503.1718750000,217331.4062500000,167652.2500000000,168268.2968750000,134945.4218750000,120411.9453125000,133675.8906250000,155469.7812500000,,,
1.7679999971,13,177058.2812500000,200786.3281250000,168362.1250000000,169181.1875000000,135749.7031250000,121278.8046875000,134647.2812500000,152910.2343750000,,,
1.7719999971,13,177059.8281250000,187507.8437500000,168273.6093750000,169089.9687500000,135599.9531250000,121168.3828125000,134543.4062500000,152260.5000000000,,,
1.7759999973,13,176445.7343750000,198465.2343750000,167406.2968750000,167997.4687500000,134567.4062500000,120118.1328125000,133358.4062500000,154791.3750000000,,,
1.7799999972,13,176082.2500000000,216142.0156250000,167040.1718750000,167548.6093750000,134218.4218750000,119708.6640625000,132882.7968750000,156559.6250000000,,,
1.7839999972,13,176453.8125000000,217356.0781250000,167599.6250000000,168238.9218750000,134889.4375000000,120376.0546875000,133626.0937500000,155442.5937500000,,,
1.7879999971,13,177053.8281250000,200927.4218750000,168357.1875000000,169189.6875000000,135736.9687500000,121263.5156250000,134634.7031250000,152921.5312500000,,,
1.7919999971,14,177072.7031250000,187537.1093750000,168280.5000000000,169115.6093750000,135601.4843750000,121169.5625000000,134532.7500000000,152264.0937500000,,,
1.7959999971,14,176477.4687500000,198354.7500000000,167426.1875000000,168022.3906250000,134585.4375000000,120151.3125000000,133362.4218750000,154805.2968750000,,,
1.7999999970,14,176129.6875000000,216080.3437500000,167075.7031250000,167572.3437500000,134251.7656250000,119736.8046875000,132903.3437500000,156599.7968750000,,,
1.8039999970,14,176491.5312500000,217455.0625000000,167617.1718750000,168250.2812500000,134908.9375000000,120373.9609375000,133631.3750000000,155491.0000000000,,,
1.8079999969,14,177098.7812500000,201103.8750000000,168388.0625000000,169210.3750000000,135769.4687500000,121268.1875000000,134646.2343750000,152965.2500000000,,,
1.8119999969,14,177130.4531250000,187581.0156250000,168334.9843750000,169140.5781250000,135656.2031250000,121202.2265625000,134565.9843750000,152293.6718750000,,,
1.8159999971,14,176491.0156250000,198233.6718750000,167444.8125000000,168030.0156250000,134601.6093750000,120143.6406250000,133361.4843750000,154783.6718750000,,,
1.8199999970,14,176105.9062500000,215992.1250000000,167056.6093750000,167552.8125000000,134229.4218750000,119712.7421875000,132870.6406250000,156569.0312500000,,,
1.8239999970,14,176466.5000000000,217499.3593750000,167606.1718750000,168232.5781250000,134890.4531250000,120357.7343750000,133603.8281250000,155479.9843750000,,,
1.8279999970,14,177080.8125000000,201242.7968750000,168382.2187500000,169190.8437500000,135758.4531250000,121269.0937500000,134630.4375000000,152971.2500000000,,,
1.8319999969,14,177098.9375000000,187608.3750000000,168313.9218750000,169129.8281250000,135632.7343750000,121188.7109375000,134547.7187500000,152263.5625000000,,,
1.8359999971,14,176491.3281250000,198124.2343750000,167450.2031250000,168048.6718750000,134603.4843750000,120163.0859375000,133371.8125000000,154768.0625000000,,,
1.8399999971,14,176099.1406250000,215923.8906250000,167047.9218750000,167577.3593750000,134218.1875000000,119718.0312500000,132866.8437500000,156567.1875000000,,,
1.8439999970,14,176449.2187500000,217538.1562500000,167582.5156250000,168237.9062500000,134864.4687500000,120338.4218750000,133578.6875000000,155485.6093750000,,,
1.8479999970,14,177065.2812500000,201350.6406250000,168362.4218750000,169190.7656250000,135736.9062500000,121245.1484375000,134607.2656250000,152978.6875000000,,,
1.8519999969,14,177103.7343750000,187637.5468750000,168315.3125000000,169135.0000000000,135634.9531250000,121186.1875000000,134546.6250000000,152268.6562500000,,,
1.8559999969,14,176487.2343750000,197995.4375000000,167442.4531250000,168036.6875000000,134595.8437500000,120146.8359375000,133357.2500000000,154738.7187500000,,,
1.8599999971,14,176110.6250000000,215834.6562500000,167056.0156250000,167566.0468750000,134221.2968750000,119707.7812500000,132852.9687500000,156558.7656250000,,,
1.8639999970,14,176468.0781250000,217569.8593750000,167606.5156250000,168235.6875000000,134885.7031250000,120342.0468750000,133581.4375000000,155506.0468750000,,,
1.8679999970,14,177090.3750000000,201463.0000000000,168394.2812500000,169192.7812500000,135770.7031250000,121269.6093750000,134628.0781250000,153019.1875000000,,,
1.8719999969,14,177117.0625000000,187670.7031250000,168337.2656250000,169153.7500000000,135662.2031250000,121203.3046875000,134563.7343750000,152282.3906250000,,,
1.8759999969,14,176484.5781250000,197869.2187500000,167448.0312500000,168071.6875000000,134609.1718750000,120145.2812500000,133366.3906250000,154708.7656250000,,,
1.8799999971,14,176116.1718750000,215746.0625000000,167064.2500000000,167585.0000000000,134236.7812500000,119719.2343750000,132868.1562500000,156554.3437500000,,,
1.8839999971,14,176450.2968750000,217596.5156250000,167582.4843750000,168225.6562500000,134867.5468750000,120326.4843750000,133564.5937500000,155505.0000000000,,,
1.8879999970,14,177052.7812500000,201568.4375000000,168353.8593750000,169165.9531250000,135731.4843750000,121216.0390625000,134584.3281250000,152995.1250000000,,,
1.8919999970,14,177093.4375000000,187688.3593750000,168312.5312500000,169136.1875000000,135638.4687500000,121171.4609375000,134533.2187500000,152244.5156250000,,,
1.8959999969,14,176494.7968750000,197764.0937500000,167456.5781250000,168056.4843750000,134617.0312500000,120156.3046875000,133365.8593750000,154695.7343750000,,,
1.8999999969,14,176138.0937500000,215687.4843750000,167087.7968750000,167577.1250000000,134253.3750000000,119738.2265625000,132876.9531250000,156568.2656250000,,,
1.9039999971,14,176466.2031250000,217666.5156250000,167599.6718750000,168222.7500000000,134876.8593750000,120343.2500000000,133574.1093750000,155539.0937500000,,,
1.9079999970,14,177049.8593750000,201730.4218750000,168345.3593750000,169180.9687500000,135720.1093750000,121225.3203125000,134579.3437500000,153024.1250000000,,,
1.9119999970,14,177101.3281250000,187757.6093750000,168313.9531250000,169152.3593750000,135636.5156250000,121184.7656250000,134534.7656250000,152252.1093750000,,,
1.9159999969,14,176506.3593750000,197664.9062500000,167462.9843750000,168078.7500000000,134617.7812500000,120169.7421875000,133376.1093750000,154684.5781250000,,,
1.9199999969,15,176122.1250000000,215611.4375000000,167066.6718750000,167576.6718750000,134227.7656250000,119715.1875000000,132858.9843750000,156544.6250000000,,,
1.9239999969,15,176462.6875000000,217698.3593750000,167587.9062500000,168221.9218750000,134864.1718750000,120331.4765625000,133554.7187500000,155541.2656250000,,,
1.9279999968,15,177049.5781250000,201837.5937500000,168345.7343750000,169174.7500000000,135722.8281250000,121222.0234375000,134568.0781250000,153039.1093750000,,,
1.9319999968,15,177093.4375000000,187787.6250000000,168315.4531250000,169158.8437500000,135645.9218750000,121195.5781250000,134539.9687500000,152251.6406250000,,,
1.9359999967,15,176493.9687500000,197546.4375000000,167463.8281250000,168076.7812500000,134626.5468750000,120175.0234375000,133380.7187500000,154663.8593750000,,,
1.9399999967,15,176114.6250000000,215513.9687500000,167068.1406250000,167571.7343750000,134234.9843750000,119717.4140625000,132862.5781250000,156533.3593750000,,,
1.9439999969,15,176473.1718750000,217743.6093750000,167608.5781250000,168221.1406250000,134885.6562500000,120351.2187500000,133573.5468750000,155569.4843750000,,,
1.9479999968,15,177062.1093750000,201975.0312500000,168357.7031250000,169172.7187500000,135735.2500000000,121232.6484375000,134573.5000000000,153070.4375000000,,,
1.9519999968,15,177107.0312500000,187823.8281250000,168324.5468750000,169151.3593750000,135655.1562500000,121193.4296875000,134535.2968750000,152246.8437500000,,,
1.9559999967,15,176515.6875000000,197426.7812500000,167472.2187500000,168079.2031250000,134635.8906250000,120182.2421875000,133380.5937500000,154642.9218750000,,,
1.9599999967,15,176137.3593750000,215429.0000000000,167072.6562500000,167575.2968750000,134239.2187500000,119724.7890625000,132857.3125000000,156534.7031250000,,,
1.9639999969,15,176470.9843750000,217762.9218750000,167589.7031250000,168211.2187500000,134868.0625000000,120331.7187500000,133534.2187500000,155571.5781250000,,,
1.9679999969,15,177072.4843750000,202078.2187500000,168359.5937500000,169173.4062500000,135735.3281250000,121237.9062500000,134564.1406250000,153094.8593750000,,,
1.9719999968,15,177105.0468750000,187858.4843750000,168316.5312500000,169146.3437500000,135645.1718750000,121196.1640625000,134540.0312500000,152250.3593750000,,,
1.9759999968,15,176510.7343750000,197302.0937500000,167467.5781250000,168086.9843750000,134625.1093750000,120180.7890625000,133379.2500000000,154621.3750000000,,,
1.9799999967,15,176135.0781250000,215331.6250000000,167074.9062500000,167582.5312500000,134233.0468750000,119729.2421875000,132851.7031250000,156529.1250000000,,,
1.9839999967,15,176453.9531250000,217802.2343750000,167575.9375000000,168197.5468750000,134845.5625000000,120319.2968750000,133523.7656250000,155574.7187500000,,,
1.9879999969,15,177068.7656250000,202231.0312500000,168361.5000000000,169169.7343750000,135730.4218750000,121236.2421875000,134571.6562500000,153116.8125000000,,,
1.9919999968,15,177107.1250000000,187916.8750000000,168327.0312500000,169174.2187500000,135654.8281250000,121212.2890625000,134547.2968750000,152253.1718750000,,,
1.9959999968,15,176507.7031250000,197190.9062500000,167473.0468750000,168101.5468750000,134634.3281250000,120195.6796875000,133386.1093750000,154594.4218750000,,,
1.9999999967,15,176129.0156250000,215259.9843750000,167071.1718750000,167581.2968750000,134232.8125000000,119735.9218750000,132851.4687500000,156513.9375000000,,,
2.0039999967,15,176448.0781250000,217853.7187500000,167572.0468750000,168207.0937500000,134845.0000000000,120320.0468750000,133520.0937500000,155576.2187500000,,,
2.0079999969,15,177036.4218750000,202348.9843750000,168331.1093750000,169155.1250000000,135705.3437500000,121212.5859375000,134535.3281250000,153090.7500000000,,,
2.0119999968,15,177091.5625000000,187944.6875000000,168316.8437500000,169147.8437500000,135650.0000000000,121203.6484375000,134529.5156250000,152220.7968750000,,,
2.0159999968,15,176494.5781250000,197067.7187500000,167464.6875000000,168077.3593750000,134630.8437500000,120192.4609375000,133374.5000000000,154559.0781250000,,,
2.0199999968,15,176103.4687500000,215167.0000000000,167050.5156250000,167553.6718750000,134214.5468750000,119724.4687500000,132834.1718750000,156495.2500000000,,,
2.0239999967,15,176421.5937500000,218008.4531250000,167547.1093750000,168158.6562500000,134818.9218750000,120306.7734375000,133497.6875000000,155601.1562500000,,,
2.0279999967,15,177033.6718750000,202703.5000000000,168331.3593750000,169135.7812500000,135704.4062500000,121215.3203125000,134534.5000000000,153146.0312500000,,,
2.0319999969,15,177115.8281250000,188056.3281250000,168345.9218750000,169176.8437500000,135677.9218750000,121230.8984375000,134555.8750000000,152248.2968750000,,,
2.0359999968,15,176528.8125000000,197007.2812500000,167497.9218750000,168108.7656250000,134661.2812500000,120219.1718750000,133404.1406250000,154571.0625000000,,,
2.0399999968,15,176139.5312500000,215131.3750000000,167079.1406250000,167576.7187500000,134240.0000000000,119748.8750000000,132856.3281250000,156518.6718750000,,,
2.0439999967,15,176443.4843750000,218040.1875000000,167555.9062500000,168175.2812500000,134828.3125000000,120321.2812500000,133501.7343750000,155627.1875000000,,,
2.0479999967,16,177029.9218750000,202768.3750000000,168314.2656250000,169143.8593750000,135688.7031250000,121205.6875000000,134515.7187500000,153151.2343750000,,,
2.0519999966,16,177104.8125000000,188073.3281250000,168325.3750000000,169172.6562500000,135660.5156250000,121224.5468750000,134540.9687500000,152234.6718750000,,,
2.0559999966,16,176527.8125000000,196883.6093750000,167495.6406250000,168120.0312500000,134660.4062500000,120226.1718750000,133404.4062500000,154549.6250000000,,,
2.0599999966,16,176140.0937500000,215041.8125000000,167081.4531250000,167585.9375000000,134241.1718750000,119753.9687500000,132846.2656250000,156512.0625000000,,,
2.0639999965,16,176458.6406250000,218036.3437500000,167583.4531250000,168180.8593750000,134852.7968750000,120342.0703125000,133513.8125000000,155647.8906250000,,,
2.0679999965,16,177045.4218750000,202813.5000000000,168344.0781250000,169129.4218750000,135714.9062500000,121231.7343750000,134529.5312500000,153175.7812500000,,,
2.0719999967,16,177109.2343750000,188092.0312500000,168345.6875000000,169166.0937500000,135676.0468750000,121230.7421875000,134542.3125000000,152230.5625000000,,,
2.0759999966,16,176527.3281250000,196748.2343750000,167511.2500000000,168097.1718750000,134672.0156250000,120222.8437500000,133404.5937500000,154518.2968750000,,,
2.0799999966,16,176134.0625000000,214934.9843750000,167084.3437500000,167568.0312500000,134242.8906250000,119737.5546875000,132840.0625000000,156493.4843750000,,,
2.0839999965,16,176436.7500000000,218016.3125000000,167560.3906250000,168181.0468750000,134830.6718750000,120297.6562500000,133474.3593750000,155629.2968750000,,,
2.0879999965,16,177039.8750000000,202844.4375000000,168335.3281250000,169146.3437500000,135707.9687500000,121211.8828125000,134511.8125000000,153178.4531250000,,,
2.0919999967,16,177121.6875000000,188093.3437500000,168352.9218750000,169169.8437500000,135685.4687500000,121248.5000000000,134550.8281250000,152246.1718750000,,,
2.0959999966,16,176547.8281250000,196626.6875000000,167517.5781250000,168114.5000000000,134679.4687500000,120261.8437500000,133414.1406250000,154533.5937500000,,,
2.0999999966,16,176140.1250000000,214852.2343750000,167076.9375000000,167571.0781250000,134230.3125000000,119757.8593750000,132838.0625000000,156506.1093750000,,,
2.1039999966,16,176436.7031250000,218052.7812500000,167548.3125000000,168160.8750000000,134810.2500000000,120315.8359375000,133472.6875000000,155653.3281250000,,,
2.1079999965,16,177031.8593750000,202960.8281250000,168320.8125000000,169131.1718750000,135681.2031250000,121213.7890625000,134495.3906250000,153195.6250000000,,,
2.1119999965,16,177107.1718750000,188134.4531250000,168337.7656250000,169184.0312500000,135659.8281250000,121236.6171875000,134527.3437500000,152233.9687500000,,,
2.1159999967,16,176523.9531250000,196505.7968750000,167504.0000000000,168123.1406250000,134659.8593750000,120236.6875000000,133395.3437500000,154485.0937500000,,,
2.1199999966,16,176130.6875000000,214760.7812500000,167078.5312500000,167571.9375000000,134229.9375000000,119743.1093750000,132827.1093750000,156477.3906250000,,,
2.1239999966,16,176444.7187500000,218132.1250000000,167566.7187500000,168166.5156250000,134830.5312500000,120317.7734375000,133476.0156250000,155667.6875000000,,,
2.1279999965,16,177049.3750000000,203180.7968750000,168348.5000000000,169142.3750000000,135715.7968750000,121223.6328125000,134510.1250000000,153228.0000000000,,,
2.1319999965,16,177138.7187500000,188204.9218750000,168382.3125000000,169197.9062500000,135715.2656250000,121268.0000000000,134562.7500000000,152247.2187500000,,,
2.1359999967,16,176548.1406250000,196404.2656250000,167529.2656250000,168131.5625000000,134695.2656250000,120269.1171875000,133413.1250000000,154480.8906250000,,,
2.1399999966,16,176127.9531250000,214682.3750000000,167070.9062500000,167556.4375000000,134227.6562500000,119741.2812500000,132809.6718750000,156468.0312500000,,,
2.1439999966,16,176419.2968750000,218157.6093750000,167536.5156250000,168132.9843750000,134803.5468750000,120288.4531250000,133436.6406250000,155652.6562500000,,,
2.1479999966,16,177016.4531250000,203285.2187500000,168310.4062500000,169103.8125000000,135679.9375000000,121198.3906250000,134467.2812500000,153217.9375000000,,,
2.1519999965,16,177123.7500000000,188247.0625000000,168362.9843750000,169187.0625000000,135698.1562500000,121269.8203125000,134548.4218750000,152241.0312500000,,,
2.1559999965,16,176554.3125000000,196306.6093750000,167544.8593750000,168148.2500000000,134709.2656250000,120279.1718750000,133431.7656250000,154467.2343750000,,,
2.1599999967,16,176152.2812500000,214615.7187500000,167105.4218750000,167594.6093750000,134256.6718750000,119767.1640625000,132842.0312500000,156480.2343750000,,,
2.1639999966,16,176423.2343750000,218208.3281250000,167544.5625000000,168152.7031250000,134806.1250000000,120297.6562500000,133439.2500000000,155675.0000000000,,,
2.1679999966,16,177017.0781250000,203427.9062500000,168309.8750000000,169104.1250000000,135676.4531250000,121203.1718750000,134461.6718750000,153243.1250000000,,,
2.1719999965,16,177120.6562500000,188303.9218750000,168360.1718750000,169182.5000000000,135695.3281250000,121260.5937500000,134537.9843750000,152229.5468750000,,,
2.1759999965,17,176564.9062500000,196208.2500000000,167549.8906250000,168164.5312500000,134715.4218750000,120282.3125000000,133432.0625000000,154445.6093750000,,,
2.1799999964,17,176155.0625000000,214530.5625000000,167099.8750000000,167592.6250000000,134250.6093750000,119757.2734375000,132832.5000000000,156462.0468750000,,,
2.1839999964,17,176438.4375000000,218253.5000000000,167552.7968750000,168140.5781250000,134812.3437500000,120300.7109375000,133437.3437500000,155694.9843750000,,,
2.1879999964,17,177020.1562500000,203561.4843750000,168313.0156250000,169100.4531250000,135680.9843750000,121198.7656250000,134453.7343750000,153263.0312500000,,,
2.1919999963,17,177137.2968750000,188372.9375000000,168382.3750000000,169193.7968750000,135720.5937500000,121286.9062500000,134551.7187500000,152248.4531250000,,,
2.1959999963,17,176568.5781250000,196122.8593750000,167554.9687500000,168151.9375000000,134728.5625000000,120310.6640625000,133438.7031250000,154440.7656250000,,,
2.1999999965,17,176151.3437500000,214463.2656250000,167098.8593750000,167587.9062500000,134256.2812500000,119770.5703125000,132837.7031250000,156460.4062500000,,,
2.2039999964,17,176431.6093750000,218259.3750000000,167552.7343750000,168158.5937500000,134815.7343750000,120299.9609375000,133445.9843750000,155689.5625000000,,,
2.2079999964,17,177007.8750000000,203632.2968750000,168303.5625000000,169099.2968750000,135674.2187500000,121191.2578125000,134453.9843750000,153255.9687500000,,,
2.2119999963,17,177107.9531250000,188388.1718750000,168351.5000000000,169170.0000000000,135694.5000000000,121260.8359375000,134532.1093750000,152211.3593750000,,,
2.2159999963,17,176561.3750000000,195983.9687500000,167547.0000000000,168155.1093750000,134716.3593750000,120295.1093750000,133423.3750000000,154397.3906250000,,,
2.2199999965,17,176168.6093750000,214357.6718750000,167111.4062500000,167591.6562500000,134258.4687500000,119782.0781250000,132827.1875000000,156456.8906250000,,,
2.2239999964,17,176456.5468750000,218308.3281250000,167571.2187500000,168142.5312500000,134825.6250000000,120329.8125000000,133437.5312500000,155729.6875000000,,,
2.2279999964,17,177029.8125000000,203793.5156250000,168320.5468750000,169108.0468750000,135686.0781250000,121222.0000000000,134459.2656250000,153307.2500000000,,,
2.2319999964,17,177129.2968750000,188456.3437500000,168376.1250000000,169201.0156250000,135713.6562500000,121283.0468750000,134553.7656250000,152235.7968750000,,,
2.2359999963,17,176562.8125000000,195891.7812500000,167555.8437500000,168168.2812500000,134724.7968750000,120306.1875000000,133441.8750000000,154389.5625000000,,,
2.2399999963,17,176129.8593750000,214273.0156250000,167077.6093750000,167571.9375000000,134230.2500000000,119757.7812500000,132811.8281250000,156425.5468750000,,,
2.2439999965,17,176402.4687500000,218322.8281250000,167522.7187500000,168110.6718750000,134784.7500000000,120286.3906250000,133407.8437500000,155695.1406250000,,,
2.2479999964,17,176996.7187500000,203895.2812500000,168295.5781250000,169075.4062500000,135665.1093750000,121187.3984375000,134431.6406250000,153289.1718750000,,,
2.2519999964,17,177110.7968750000,188494.3281250000,168361.6718750000,169175.8281250000,135704.4531250000,121268.9609375000,134527.2812500000,152214.2500000000,,,
2.2559999963,17,176566.3906250000,195787.1718750000,167562.5625000000,168163.9531250000,134734.4531250000,120306.1875000000,133432.2187500000,154363.6406250000,,,
2.2599999963,17,176165.4218750000,214200.4687500000,167112.0000000000,167595.9687500000,134262.9062500000,119780.8984375000,132821.1250000000,156443.3750000000,,,
2.2639999965,17,176458.6406250000,218371.5625000000,167572.2187500000,168170.6718750000,134830.2968750000,120317.2890625000,133430.7187500000,155755.8437500000,,,
2.2679999964,17,177037.0312500000,204020.8125000000,168324.2968750000,169130.3593750000,135692.7656250000,121204.1093750000,134444.5625000000,153343.9687500000,,,
2.2719999964,17,177127.1875000000,188556.7187500000,168368.2968750000,169212.7812500000,135711.9687500000,121270.4140625000,134525.4531250000,152232.0625000000,,,
2.2759999963,17,176559.5468750000,195689.7812500000,167546.2812500000,168178.1562500000,134717.1250000000,120296.2890625000,133419.1875000000,154345.5625000000,,,
2.2799999963,17,176147.8281250000,214102.9062500000,167087.1875000000,167586.4218750000,134234.2187500000,119775.0781250000,132810.6093750000,156428.1718750000,,,
2.2839999963,17,176420.6875000000,218371.1718750000,167531.5156250000,168125.2812500000,134784.2656250000,120302.5390625000,133400.0312500000,155742.6562500000,,,
2.2879999964,17,177014.8437500000,204110.1250000000,168304.7187500000,169096.1093750000,135666.7187500000,121199.2265625000,134419.2968750000,153348.9062500000,,,
2.2919999964,17,177136.5468750000,188612.2343750000,168386.0468750000,169204.5781250000,135728.1875000000,121291.4140625000,134544.5625000000,152247.4062500000,,,
2.2959999964,17,176605.0937500000,195606.8593750000,167606.4062500000,168189.0468750000,134778.6562500000,120351.5703125000,133476.8281250000,154365.3281250000,,,
2.2999999963,17,176200.0468750000,214050.9375000000,167153.5156250000,167621.0000000000,134300.6875000000,119824.0000000000,132860.7968750000,156464.2187500000,,,
2.3039999963,18,176428.6718750000,218413.5468750000,167544.9062500000,168165.8906250000,134805.5312500000,120306.1015625000,133399.7656250000,155756.4062500000,,,
2.3079999962,18,176997.2031250000,204233.9062500000,168286.6250000000,169082.7812500000,135661.0781250000,121195.2031250000,134396.3593750000,153349.7187500000,,,
2.3119999962,18,177108.9375000000,188674.8437500000,168352.9531250000,169170.3593750000,135703.3750000000,121287.2578125000,134512.5000000000,152222.4843750000,,,
2.3159999961,18,176563.9687500000,195503.0312500000,167555.4531250000,168171.7968750000,134730.4687500000,120323.2656250000,133433.8750000000,154305.5468750000,,,
2.3199999961,18,176153.8593750000,213954.9843750000,167094.7031250000,167585.9375000000,134240.7968750000,119785.8906250000,132813.7031250000,156408.7812500000,,,
2.3239999961,18,176421.4843750000,218451.9531250000,167531.7656250000,168123.3750000000,134783.3593750000,120304.6250000000,133392.2343750000,155757.6093750000,,,
2.3279999963,18,176998.2187500000,204371.2656250000,168290.0000000000,169075.1875000000,135649.2187500000,121189.6796875000,134399.1875000000,153366.9843750000,,,
2.3319999962,18,177130.5312500000,188731.6562500000,168384.2968750000,169210.5000000000,135721.7812500000,121302.3593750000,134537.1562500000,152238.6718750000,,,
2.3359999962,18,176599.1562500000,195407.7031250000,167603.3750000000,168213.6562500000,134771.7343750000,120371.3046875000,133478.4531250000,154325.5781250000,,,
2.3399999961,18,176187.1250000000,213873.1250000000,167136.6250000000,167620.8125000000,134276.6562500000,119824.4296875000,132848.1406250000,156436.0000000000,,,
2.3439999961,18,176417.2031250000,218471.8281250000,167525.8593750000,168132.5781250000,134775.8125000000,120301.2187500000,133381.6875000000,155767.5468750000,,,
2.3479999963,18,176986.3593750000,204482.4218750000,168274.5156250000,169071.6718750000,135638.4218750000,121182.5390625000,134388.2968750000,153376.2187500000,,,
2.3519999962,18,177109.1250000000,188771.4218750000,168359.9531250000,169199.0000000000,135705.8750000000,121288.7812500000,134517.4218750000,152217.6562500000,,,
2.3559999962,18,176578.1093750000,195294.5937500000,167575.1406250000,168198.3437500000,134751.2968750000,120346.4453125000,133442.1406250000,154276.8281250000,,,
2.3599999961,18,176169.0156250000,213769.9375000000,167109.1250000000,167598.1718750000,134256.3593750000,119801.1484375000,132810.4062500000,156403.4687500000,,,
2.3639999961,18,176422.1875000000,218489.2656250000,167528.2812500000,168110.0000000000,134780.1406250000,120300.5234375000,133369.6093750000,155781.2187500000,,,
2.3679999961,18,176994.8125000000,204604.0000000000,168282.0625000000,169056.5156250000,135645.7968750000,121191.8750000000,134387.0781250000,153407.8906250000,,,
2.3719999962,18,177141.0156250000,188835.6406250000,168395.9687500000,169215.1250000000,135738.5937500000,121319.7109375000,134550.3593750000,152254.3281250000,,,
2.3759999962,18,176616.5468750000,195201.8437500000,167624.0312500000,168238.6093750000,134793.6562500000,120386.1640625000,133493.7187500000,154298.3906250000,,,
2.3799999962,18,176180.2031250000,213678.9375000000,167127.1562500000,167633.5468750000,134268.6875000000,119812.2578125000,132833.6875000000,156408.9062500000,,,
2.3839999961,18,176406.0937500000,218516.8593750000,167510.6250000000,168107.9843750000,134762.8906250000,120292.8828125000,133359.5625000000,155785.4843750000,,,
2.3879999961,18,176968.3125000000,204734.0156250000,168252.2812500000,169043.5937500000,135619.9843750000,121171.0859375000,134359.0625000000,153400.7812500000,,,
2.3919999963,18,177110.4218750000,188880.8906250000,168364.7968750000,169189.5000000000,135716.3125000000,121301.0156250000,134518.7500000000,152214.4375000000,,,
2.3959999962,18,176592.5312500000,195062.2500000000,167598.8750000000,168216.0468750000,134777.7500000000,120367.2578125000,133469.6562500000,154236.5156250000,,,
2.3999999962,18,176170.0625000000,213551.8750000000,167117.0468750000,167601.4218750000,134259.9531250000,119791.4687500000,132815.7968750000,156365.6718750000,,,
2.4039999961,18,176431.0156250000,218513.1562500000,167539.0000000000,168110.0000000000,134784.1875000000,120286.4687500000,133372.9687500000,155786.3906250000,,,
2.4079999961,18,177008.2812500000,204822.6875000000,168297.5156250000,169072.5000000000,135654.5937500000,121180.3671875000,134390.2812500000,153430.4218750000,,,
2.4119999961,18,177133.4062500000,188921.8750000000,168391.8906250000,169245.8593750000,135734.6562500000,121312.4687500000,134540.9843750000,152226.7500000000,,,
2.4159999962,18,176590.1250000000,194942.5781250000,167595.2187500000,168246.0312500000,134767.4531250000,120372.1640625000,133460.9531250000,154221.0000000000,,,
2.4199999962,18,176134.8125000000,213443.1406250000,167074.9062500000,167586.5937500000,134211.5312500000,119781.8125000000,132770.1406250000,156344.7500000000,,,
2.4239999962,18,176367.3125000000,218520.1093750000,167469.8125000000,168071.8593750000,134713.2500000000,120253.7187500000,133312.8906250000,155760.2968750000,,,
2.4279999961,18,176959.1406250000,204924.5468750000,168244.3125000000,169035.5937500000,135605.9062500000,121155.3750000000,134355.4062500000,153418.4531250000,,,
2.4319999961,19,177104.9687500000,188940.1875000000,168361.0156250000,169200.0156250000,135712.8281250000,121295.4921875000,134528.2187500000,152207.5781250000,,,
2.4359999960,19,176585.8281250000,194802.5156250000,167591.5781250000,168226.5937500000,134777.1562500000,120370.2578125000,133473.7968750000,154199.9531250000,,,
2.4399999960,19,176166.2187500000,213344.8906250000,167107.7343750000,167601.7968750000,134258.7187500000,119796.0312500000,132815.0468750000,156366.6718750000,,,
2.4439999959,19,176404.5468750000,218544.5937500000,167507.4062500000,168082.5000000000,134761.5781250000,120276.8671875000,133343.5781250000,155809.8906250000,,,
2.4479999959,19,176986.0468750000,205054.8750000000,168271.4375000000,169034.8750000000,135636.0000000000,121176.7500000000,134352.4843750000,153468.4062500000,,,
2.4519999959,19,177133.5937500000,189010.3906250000,168394.9062500000,169215.4375000000,135743.5000000000,121321.3750000000,134528.4062500000,152230.2343750000,,,
2.4559999960,19,176609.0000000000,194691.1718750000,167619.5312500000,168246.4375000000,134798.7500000000,120389.9765625000,133477.1718750000,154185.8437500000,,,
2.4599999960,19,176156.8437500000,213225.0468750000,167098.4843750000,167602.5156250000,134238.3281250000,119779.7187500000,132788.7343750000,156333.8593750000,,,
2.4639999960,19,176388.0781250000,218548.4062500000,167487.7968750000,168075.5781250000,134728.3125000000,120245.2734375000,133313.7968750000,155788.6718750000,,,
2.4679999959,19,176979.7656250000,205153.2343750000,168261.5625000000,169033.6406250000,135616.8281250000,121154.1640625000,134340.9843750000,153463.1718750000,,,
2.4719999959,19,177138.5312500000,189040.5312500000,168396.9062500000,169219.2187500000,135742.6718750000,121319.2578125000,134532.3281250000,152223.1562500000,,,
2.4759999961,19,176621.0156250000,194573.3437500000,167632.0312500000,168255.6093750000,134810.1562500000,120399.7656250000,133491.6562500000,154173.2812500000,,,
2.4799999960,19,176187.2812500000,213130.9062500000,167134.3906250000,167616.4687500000,134273.3593750000,119804.6093750000,132819.5468750000,156356.5468750000,,,
2.4839999960,19,176428.3281250000,218594.0000000000,167540.8906250000,168105.5625000000,134782.0156250000,120280.2968750000,133354.9218750000,155848.5468750000,,,
2.4879999959,19,177005.9687500000,205307.7343750000,168305.0781250000,169073.7343750000,135660.7343750000,121177.7109375000,134375.6093750000,153515.8750000000,,,
2.4919999959,19,177141.0781250000,189114.7031250000,168405.2812500000,169281.6718750000,135755.5468750000,121325.3125000000,134544.5625000000,152232.5156250000,,,
2.4959999959,19,176598.5781250000,194460.4218750000,167612.7968750000,168241.9375000000,134796.9843750000,120387.0546875000,133485.2187500000,154135.0156250000,,,
2.4999999960,19,176156.0937500000,213037.9375000000,167102.3906250000,167567.2500000000,134242.6562500000,119779.9062500000,132795.1875000000,156319.7187500000,,,
2.5039999960,19,176392.9531250000,218616.5000000000,167496.5781250000,168048.2812500000,134734.8281250000,120250.2890625000,133314.3906250000,155824.2343750000,,,
2.5079999960,19,176967.7031250000,205417.0937500000,168254.6718750000,169015.9687500000,135605.5625000000,121146.5468750000,134328.7968750000,153494.9375000000,,,
2.5119999959,19,177118.2187500000,189150.6406250000,168385.8593750000,169217.9843750000,135728.5625000000,121304.4453125000,134527.7656250000,152195.5937500000,,,
2.5159999959,19,176603.5937500000,194339.2656250000,167621.6250000000,168254.2968750000,134796.7187500000,120393.2734375000,133492.5156250000,154106.5000000000,,,
2.5199999961,19,176171.6093750000,212926.1718750000,167116.7968750000,167605.2031250000,134249.7343750000,119803.9140625000,132806.3750000000,156325.3593750000,,,
2.5239999960,19,176398.5625000000,218635.7656250000,167503.3281250000,168071.0156250000,134737.4687500000,120259.2734375000,133320.4218750000,155845.9375000000,,,
2.5279999960,19,176975.5781250000,205555.5625000000,168263.1718750000,169026.1562500000,135614.7031250000,121154.2734375000,134334.9218750000,153526.1718750000,,,
2.5319999959,19,177140.4062500000,189222.5000000000,168401.8750000000,169234.0312500000,135750.8281250000,121330.1953125000,134540.8593750000,152226.5468750000,,,
2.5359999959,19,176624.9062500000,194234.9218750000,167633.8437500000,168284.6093750000,134815.5468750000,120412.7500000000,133499.0312500000,154112.2968750000,,,
2.5399999958,19,176185.5156250000,212837.7656250000,167123.9531250000,167622.5781250000,134257.2187500000,119808.2031250000,132800.9843750000,156331.3906250000,,,
2.5439999960,19,176400.8593750000,218662.2343750000,167500.4843750000,168079.2812500000,134734.3281250000,120258.8984375000,133307.0468750000,155859.5937500000,,,
2.5479999960,19,176969.0156250000,205658.0625000000,168254.2968750000,169025.3281250000,135605.1562500000,121148.7968750000,134321.4843750000,153534.3125000000,,,
2.5519999960,19,177141.0000000000,189269.4687500000,168407.7812500000,169245.7968750000,135751.7656250000,121334.9453125000,134543.0000000000,152219.2656250000,,,
2.5559999959,19,176643.5000000000,194146.5781250000,167663.8125000000,168294.7656250000,134838.0937500000,120435.2265625000,133525.6406250000,154101.7031250000,,,
2.5599999959,20,176206.5937500000,212765.2343750000,167149.5781250000,167625.4843750000,134279.7656250000,119830.6796875000,132828.0781250000,156339.8906250000,,,
2.5639999958,20,176406.1718750000,218703.5937500000,167498.9843750000,168078.5937500000,134734.5156250000,120264.9843750000,133304.8437500000,155881.8593750000,,,
2.5679999958,20,176968.0468750000,205797.7187500000,168242.5468750000,169022.7187500000,135594.6093750000,121144.5312500000,134311.0468750000,153558.8750000000,,,
2.5719999957,20,177135.0625000000,189337.9375000000,168387.9218750000,169229.8750000000,135733.6562500000,121336.8750000000,134529.0000000000,152224.1250000000,,,
2.5759999957,20,176638.8281250000,194046.0000000000,167640.7968750000,168289.5625000000,134816.9843750000,120450.3515625000,133508.3437500000,154091.4218750000,,,
2.5799999957,20,176210.5156250000,212670.5625000000,167135.7343750000,167641.7343750000,134265.7656250000,119851.6015625000,132820.4843750000,156352.6406250000,,,
2.5839999958,20,176407.4687500000,218727.0937500000,167496.7343750000,168083.7031250000,134729.0468750000,120269.2500000000,133313.4843750000,155903.8281250000,,,
2.5879999958,20,176970.3281250000,205916.7343750000,168250.1093750000,169026.4843750000,135602.5625000000,121151.0000000000,134329.3593750000,153580.8906250000,,,
2.5919999958,20,177142.3281250000,189394.6718750000,168407.4843750000,169252.4531250000,135756.8906250000,121341.5156250000,134547.0312500000,152222.1718750000,,,
2.5959999957,20,176641.3593750000,193928.3593750000,167663.1718750000,168298.2031250000,134845.0781250000,120449.4140625000,133531.3281250000,154059.4218750000,,,
2.5999999957,20,176199.1562500000,212568.3906250000,167143.0312500000,167616.3906250000,134275.8593750000,119834.1718750000,132826.5468750000,156323.5156250000,,,
2.6039999959,20,176389.2500000000,218731.6562500000,167489.8750000000,168051.7031250000,134722.3906250000,120247.5781250000,133298.2656250000,155887.4062500000,,,
2.6079999958,20,176960.2656250000,205990.8125000000,168246.4062500000,169005.8750000000,135596.9843750000,121144.4843750000,134312.0625000000,153579.9843750000,,,
2.6119999958,20,177141.9062500000,189444.9062500000,168412.8437500000,169240.7343750000,135760.1093750000,121355.1171875000,134550.1562500000,152226.6718750000,,,
2.6159999957,20,176633.3593750000,193830.1093750000,167651.7968750000,168301.9062500000,134833.8906250000,120450.1953125000,133520.8125000000,154038.8281250000,,,
2.6199999957,20,176173.7031250000,212465.0937500000,167108.0625000000,167608.3437500000,134241.7343750000,119813.7031250000,132788.0312500000,156297.2968750000,,,
2.6239999956,20,176377.1562500000,218802.5156250000,167468.1093750000,168042.2187500000,134700.3906250000,120237.9765625000,133271.8281250000,155900.3906250000,,,
2.6279999958,20,176957.7968750000,206299.9062500000,168230.1562500000,169000.2187500000,135578.2500000000,121140.6171875000,134287.0625000000,153620.6406250000,,,
2.6319999958,20,177154.0625000000,189566.0000000000,168417.6718750000,169254.0937500000,135763.6562500000,121364.2343750000,134547.1406250000,152229.8125000000,,,
2.6359999957,20,176664.6406250000,193738.2343750000,167682.5312500000,168318.2343750000,134861.1875000000,120484.0937500000,133547.1562500000,154032.2812500000,,,
2.6399999957,20,176186.8281250000,212365.7031250000,167117.3906250000,167620.9531250000,134247.9843750000,119830.2265625000,132792.5937500000,156291.8906250000,,,
2.6439999957,20,176368.2187500000,218796.7812500000,167455.8593750000,168042.9062500000,134684.5937500000,120228.2109375000,133250.4531250000,155888.2187500000,,,
2.6479999959,20,176953.5625000000,206339.2500000000,168231.8281250000,169004.4531250000,135576.1093750000,121131.3125000000,134275.2968750000,153607.8750000000,,,
2.6519999958,20,177164.4843750000,189594.7812500000,168436.6406250000,169263.5312500000,135781.9687500000,121373.1640625000,134551.9375000000,152227.5937500000,,,
2.6559999958,20,176655.3281250000,193618.2656250000,167675.2343750000,168322.8281250000,134860.4687500000,120474.7890625000,133537.6093750000,154005.9687500000,,,
2.6599999957,20,176193.0937500000,212260.3750000000,167126.6718750000,167618.7500000000,134260.5156250000,119825.7500000000,132797.2812500000,156289.0937500000,,,
2.6639999957,20,176402.8437500000,218784.7031250000,167490.9375000000,168052.3281250000,134721.2656250000,120257.4453125000,133278.3437500000,155934.5625000000,,,
2.6679999956,20,176968.9062500000,206359.2656250000,168244.1562500000,168996.4062500000,135590.3750000000,121150.1953125000,134288.9687500000,153647.8125000000,,,
2.6719999958,20,177136.0312500000,189619.1093750000,168403.1562500000,169241.8906250000,135751.2031250000,121351.4921875000,134526.3750000000,152219.2500000000,,,
2.6759999958,20,176645.6093750000,193495.5468750000,167665.3437500000,168317.7031250000,134850.0156250000,120473.0703125000,133527.9218750000,153978.7500000000,,,
2.6799999957,20,176188.0625000000,212137.4375000000,167120.8750000000,167614.4218750000,134251.0937500000,119824.5937500000,132792.8906250000,156271.9843750000,,,
2.6839999957,20,176371.1250000000,218768.5937500000,167457.6562500000,168028.8281250000,134684.8125000000,120225.9843750000,133250.4218750000,155907.7343750000,,,
2.6879999957,21,176937.8750000000,206403.3593750000,168207.7031250000,168972.5625000000,135549.9843750000,121119.2656250000,134259.0937500000,153615.1406250000,,,
2.6919999956,21,177130.9687500000,189626.8593750000,168390.2656250000,169249.6406250000,135733.6406250000,121346.9375000000,134522.3750000000,152188.7812500000,,,
2.6959999956,21,176661.9531250000,193364.9218750000,167675.9062500000,168357.0000000000,134853.7031250000,120486.6718750000,133541.4687500000,153952.6250000000,,,
2.6999999955,21,176204.2031250000,212025.5937500000,167131.3125000000,167655.5000000000,134254.4531250000,119831.4843750000,132797.8281250000,156268.0468750000,,,
2.7039999955,21,176378.0468750000,218774.3750000000,167458.9687500000,168042.6406250000,134680.7031250000,120217.1875000000,133241.9687500000,155921.3437500000,,,
2.7079999954,21,176948.2187500000,206508.4218750000,168221.0156250000,168984.7656250000,135560.4218750000,121119.3750000000,134259.5000000000,153642.7500000000,,,
2.7119999956,21,177150.2187500000,189677.1250000000,168416.9687500000,169250.0625000000,135759.3281250000,121365.5234375000,134538.8750000000,152213.8593750000,,,
2.7159999956,21,176665.5468750000,193256.8281250000,167686.9531250000,168326.8281250000,134865.4531250000,120495.8984375000,133546.6406250000,153946.4218750000,,,
2.7199999955,21,176204.4218750000,211938.1562500000,167135.2031250000,167621.3750000000,134257.2968750000,119842.0781250000,132792.3750000000,156273.1875000000,,,
2.7239999955,21,176376.8281250000,218825.8281250000,167456.9843750000,168025.2968750000,134677.2812500000,120226.0156250000,133231.9375000000,155942.3125000000,,,
2.7279999955,21,176940.3437500000,206710.2031250000,168212.2343750000,168983.8593750000,135552.0000000000,121117.5546875000,134247.8750000000,153666.0000000000,,,
2.7319999957,21,177130.5625000000,189765.9687500000,168405.8906250000,169249.3906250000,135751.4687500000,121354.4140625000,134529.2968750000,152190.0156250000,,,
2.7359999956,21,176646.1562500000,193165.2343750000,167678.8281250000,168325.8593750000,134861.4687500000,120486.4296875000,133544.2812500000,153898.0625000000,,,
2.7399999956,21,176175.1875000000,211832.2656250000,167114.5937500000,167597.2031250000,134240.7187500000,119817.4843750000,132778.3437500000,156229.7968750000,,,
2.7439999955,21,176360.7968750000,218886.0625000000,167446.3281250000,168005.6562500000,134668.3125000000,120201.9765625000,133214.3437500000,155941.6093750000,,,
2.7479999955,21,176941.8593750000,206981.4375000000,168216.7187500000,168966.2968750000,135555.2187500000,121104.0625000000,134234.1718750000,153691.9062500000,,,
2.7519999954,21,177150.4843750000,189871.8281250000,168427.5937500000,169250.4687500000,135775.3906250000,121369.5468750000,134541.8750000000,152196.0156250000,,,
2.7559999956,21,176672.1406250000,193072.4843750000,167703.7187500000,168345.1718750000,134888.3906250000,120513.8125000000,133561.9375000000,153898.2812500000,,,
2.7599999956,21,176195.3750000000,211741.8750000000,167129.2187500000,167623.5781250000,134252.3593750000,119836.9609375000,132780.3125000000,156245.1093750000,,,
2.7639999955,21,176349.5781250000,218878.0000000000,167435.5312500000,168012.3281250000,134653.3281250000,120198.3359375000,133202.5937500000,155943.0156250000,,,
2.7679999955,21,176917.7812500000,206983.7187500000,168192.1562500000,168959.3437500000,135529.6250000000,121101.4843750000,134224.1406250000,153680.3750000000,,,
2.7719999955,21,177134.8750000000,189898.8125000000,168406.2187500000,169255.4062500000,135749.2656250000,121371.1250000000,134533.2968750000,152185.1875000000,,,
2.7759999956,21,176654.1250000000,192965.4375000000,167683.5156250000,168345.0625000000,134861.5156250000,120502.3046875000,133554.2031250000,153858.3437500000,,,
2.7799999956,21,176192.1562500000,211634.9375000000,167126.7187500000,167620.8125000000,134243.9375000000,119829.6328125000,132784.6562500000,156222.6250000000,,,
2.7839999956,21,176354.4843750000,218857.9062500000,167434.1562500000,168010.9375000000,134649.9375000000,120201.0156250000,133206.4531250000,155948.0781250000,,,
2.7879999955,21,176920.1093750000,206996.1875000000,168185.5000000000,168967.3437500000,135525.2343750000,121094.4062500000,134224.6562500000,153683.0937500000,,,
2.7919999955,21,177145.8750000000,189931.4375000000,168410.8281250000,169274.0781250000,135761.6718750000,121372.5781250000,134540.2343750000,152190.0156250000,,,
2.7959999954,21,176669.8593750000,192840.5312500000,167693.5000000000,168355.4687500000,134883.7031250000,120513.3281250000,133563.8281250000,153848.2031250000,,,
2.7999999956,21,176183.2031250000,211512.5937500000,167108.0625000000,167591.4375000000,134234.6093750000,119824.4296875000,132766.1718750000,156212.0156250000,,,
2.8039999956,21,176336.6250000000,218845.0781250000,167411.7031250000,167960.4375000000,134632.1875000000,120186.7734375000,133176.6250000000,155946.8750000000,,,
2.8079999955,21,176915.5312500000,207062.9687500000,168184.7968750000,168929.3750000000,135522.4062500000,121089.8437500000,134206.2500000000,153692.3125000000,,,
2.8119999955,21,177140.9687500000,189955.5937500000,168414.5937500000,169250.3125000000,135758.7656250000,121370.2187500000,134532.1406250000,152178.7968750000,,,
2.8159999955,22,176672.8125000000,192715.3437500000,167706.7031250000,168367.3750000000,134886.7812500000,120523.7656250000,133574.0468750000,153825.4062500000,,,
2.8199999954,22,176188.9687500000,211391.6562500000,167120.5312500000,167625.3437500000,134235.5156250000,119831.4296875000,132778.0625000000,156208.6093750000,,,
2.8239999954,22,176351.5312500000,218872.7343750000,167428.9843750000,167997.1562500000,134636.3437500000,120191.0390625000,133191.0937500000,155974.7343750000,,,
2.8279999953,22,176923.7656250000,207233.8750000000,168192.2812500000,168941.5312500000,135516.0312500000,121085.1484375000,134209.1250000000,153720.3437500000,,,
2.8319999953,22,177156.8125000000,190052.1562500000,168428.9062500000,169266.8906250000,135764.1093750000,121383.4140625000,134546.6250000000,152187.1718750000,,,
2.8359999952,22,176690.7656250000,192634.9062500000,167718.7968750000,168382.8750000000,134896.8906250000,120540.7968750000,133588.2968750000,153813.4218750000,,,
2.8399999954,22,176195.1875000000,211298.7968750000,167117.1718750000,167621.5312500000,134234.1406250000,119822.4453125000,132773.3593750000,156192.5937500000,,,
2.8439999954,22,176342.4531250000,218901.7656250000,167411.4375000000,167983.9062500000,134625.6093750000,120170.3828125000,133169.9843750000,155967.1250000000,,,
2.8479999953,22,176920.8437500000,207388.9062500000,168184.8750000000,168951.7812500000,135518.6250000000,121073.4843750000,134199.4062500000,153730.7812500000,,,
2.8519999953,22,177158.9843750000,190125.7031250000,168433.3906250000,169274.8437500000,135780.5000000000,121376.3046875000,134551.5781250000,152180.7500000000,,,
2.8559999953,22,176695.2343750000,192528.2343750000,167730.6250000000,168388.1875000000,134917.3125000000,120539.7500000000,133598.7343750000,153790.2656250000,,,
2.8599999954,22,176203.6718750000,211210.4375000000,167136.0625000000,167627.6875000000,134256.3750000000,119840.6562500000,132792.5937500000,156200.5625000000,,,
2.8639999954,22,176371.3906250000,218939.8281250000,167459.3437500000,168007.9375000000,134666.1093750000,120198.7343750000,133207.9531250000,156012.4218750000,,,
2.8679999954,22,176913.0937500000,207508.4062500000,168185.9218750000,168965.5156250000,135514.0156250000,121073.0546875000,134193.9062500000,153746.0468750000,,,
2.8719999953,22,177136.1406250000,190201.4531250000,168410.9843750000,169272.1718750000,135755.3593750000,121373.8906250000,134535.8750000000,152164.1562500000,,,
2.8759999953,22,176674.5625000000,192450.4843750000,167707.1250000000,168386.5781250000,134890.5312500000,120529.2343750000,133587.0625000000,153748.2968750000,,,
2.8799999952,22,176186.6406250000,211102.9687500000,167106.4687500000,167612.3593750000,134222.0000000000,119818.0781250000,132771.4062500000,156167.8906250000,,,
2.8839999954,22,176335.5781250000,218949.5625000000,167395.7500000000,167964.5625000000,134603.1093750000,120166.5468750000,133159.5781250000,155992.6250000000,,,
2.8879999954,22,176921.2343750000,207640.7656250000,168174.7500000000,168935.9062500000,135498.5468750000,121080.4296875000,134187.1562500000,153774.1250000000,,,
2.8919999953,22,177180.1250000000,190289.2031250000,168449.0000000000,169287.3437500000,135781.5156250000,121401.1953125000,134556.4687500000,152201.4062500000,,,
2.8959999953,22,176693.1250000000,192352.1562500000,167727.0312500000,168393.8750000000,134901.3750000000,120539.6718750000,133591.9687500000,153743.5937500000,,,
2.8999999953,22,176188.1718750000,211005.8125000000,167116.6875000000,167620.0625000000,134223.5781250000,119815.2890625000,132767.2500000000,156157.2968750000,,,
2.9039999954,22,176332.2343750000,218952.1250000000,167408.1875000000,167968.6718750000,134608.3125000000,120157.4296875000,133156.1093750000,155991.0468750000,,,
2.9079999954,22,176915.0781250000,207722.6875000000,168188.3750000000,168927.1250000000,135509.8125000000,121065.1171875000,134192.8125000000,153771.5781250000,,,
2.9119999954,22,177176.3125000000,190343.1718750000,168462.1406250000,169284.5937500000,135798.3281250000,121394.1718750000,134567.9687500000,152186.6562500000,,,
2.9159999953,22,176730.0000000000,192254.7812500000,167773.9062500000,168430.7343750000,134950.8281250000,120575.1796875000,133630.9218750000,153744.5937500000,,,
2.9199999953,22,176226.0937500000,210899.4218750000,167156.9531250000,167636.3750000000,134262.6250000000,119840.6875000000,132791.3281250000,156177.8906250000,,,
2.9239999952,22,176349.6093750000,218958.0937500000,167421.9531250000,167955.5468750000,134619.9218750000,120152.8671875000,133148.6093750000,156012.8750000000,,,
2.9279999954,22,176922.2656250000,207802.3750000000,168185.2031250000,168914.5468750000,135507.4687500000,121059.4843750000,134174.2031250000,153791.4218750000,,,
2.9319999954,22,177180.5312500000,190379.5468750000,168454.7187500000,169276.9218750000,135794.8750000000,121387.8359375000,134555.5312500000,152189.8281250000,,,
2.9359999953,22,176724.9531250000,192125.0156250000,167760.4218750000,168416.6718750000,134942.9687500000,120559.9218750000,133621.3906250000,153718.1250000000,,,
2.9399999953,22,176211.4531250000,210764.5468750000,167135.1250000000,167625.3125000000,134246.5312500000,119826.6015625000,132778.1875000000,156159.0312500000,,,
2.9439999952,23,176330.0312500000,218955.2968750000,167398.2968750000,167954.2968750000,134602.6250000000,120149.0625000000,133139.7187500000,156016.9531250000,,,
