Time:250Hz,Epoch,Channel 1,Channel 2,Channel 3,Channel 4,Channel 5,Channel 6,Channel 7,Channel 8,Event Id,Event Date,Event Duration
0.0000000000,0,151913.6406250000,151988.5781250000,177802.1250000000,170776.8125000000,160914.6718750000,161839.1250000000,64031.8203125000,176990.3593750000,,,
0.0040000000,0,151929.8906250000,152008.5000000000,177820.0781250000,170799.2031250000,160929.5312500000,161849.5625000000,64042.8984375000,177009.4843750000,,,
0.0079999999,0,151930.9843750000,152007.8906250000,177821.2343750000,170809.9375000000,160928.6406250000,161850.6562500000,64042.2812500000,177014.0468750000,,,
0.0119999999,0,151923.3125000000,151999.7031250000,177807.5781250000,170806.0781250000,160916.0156250000,161842.5312500000,64029.9960937500,177009.6250000000,,,
0.0159999998,0,151912.1875000000,151991.7343750000,177794.6406250000,170798.9062500000,160903.7812500000,161831.5937500000,64017.5234375000,177005.3750000000,,,
0.0199999998,0,151910.6250000000,151991.3593750000,177794.7500000000,170814.6562500000,160904.1250000000,161831.3125000000,64017.4726562500,177014.3437500000,,,
0.0240000000,0,151903.9531250000,151985.0625000000,177787.2500000000,170815.7031250000,160896.8906250000,161820.6093750000,64010.9804687500,177012.1093750000,,,
0.0279999999,0,151911.1093750000,151994.0000000000,177796.1250000000,170818.8437500000,160903.8906250000,161823.0625000000,64016.3984375000,177023.2500000000,,,
0.0319999999,0,151915.7812500000,152001.7187500000,177802.3437500000,170806.6406250000,160909.4375000000,161827.9687500000,64023.8007812500,177026.2812500000,,,
0.0359999998,0,151910.6093750000,151992.1406250000,177793.6250000000,170814.0156250000,160903.3593750000,161823.1875000000,64020.8789062500,177020.7968750000,,,
0.0399999998,0,151911.2812500000,151983.4062500000,177796.1250000000,170822.5937500000,160906.2187500000,161815.0937500000,64024.4453125000,177016.3437500000,,,
0.0440000000,0,151914.3281250000,151990.2968750000,177799.7187500000,170821.5781250000,160910.2812500000,161820.8593750000,64027.4492187500,177014.1250000000,,,
0.0480000000,0,151913.1718750000,151992.8125000000,177798.8125000000,170807.3281250000,160908.5000000000,161825.8125000000,64026.3242187500,177008.4375000000,,,
0.0519999999,0,151926.4062500000,152008.3750000000,177815.5937500000,170810.9062500000,160922.9375000000,161841.1875000000,64041.0742187500,177012.0937500000,,,
0.0559999999,0,151928.0312500000,152005.3125000000,177821.7343750000,170807.7343750000,160927.8437500000,161839.3906250000,64045.3671875000,177000.0156250000,,,
0.0599999998,0,151921.0312500000,152001.4531250000,177805.8281250000,170811.2187500000,160916.4687500000,161839.2031250000,64035.4414062500,176989.7656250000,,,
0.0639999998,0,151922.4531250000,152004.3125000000,177806.9531250000,170810.2812500000,160916.9062500000,161845.1250000000,64036.1406250000,176990.0937500000,,,
0.0680000000,0,151923.4218750000,152009.9062500000,177807.7656250000,170819.3437500000,160917.5625000000,161848.6406250000,64037.6406250000,176987.4843750000,,,
0.0719999999,0,151927.5312500000,152014.4062500000,177813.1562500000,170827.3125000000,160920.7812500000,161852.8593750000,64043.1953125000,176977.8125000000,,,
0.0759999999,0,151927.6093750000,152011.9062500000,177813.6718750000,170818.1406250000,160919.5781250000,161853.7187500000,64046.2500000000,176963.1406250000,,,
0.0799999998,0,151940.0781250000,152022.9687500000,177824.9062500000,170819.3437500000,160931.2031250000,161864.7968750000,64058.9648437500,176968.2812500000,,,
0.0839999998,0,151948.0000000000,152030.1562500000,177832.6562500000,170819.9062500000,160939.0468750000,161872.9687500000,64064.7304687500,176982.3906250000,,,
0.0880000000,0,151953.6250000000,152035.9687500000,177840.1875000000,170831.2500000000,160945.5937500000,161878.6562500000,64070.2304687500,176988.2343750000,,,
0.0919999999,0,151962.1562500000,152040.3125000000,177851.4062500000,170854.5312500000,160955.8437500000,161882.0937500000,64081.7656250000,176983.5156250000,,,
0.0959999999,0,151970.0625000000,152046.2187500000,177859.3125000000,170857.7812500000,160962.9531250000,161887.3750000000,64091.6601562500,176978.4218750000,,,
0.0999999999,0,151970.3437500000,152049.1875000000,177857.3906250000,170844.7187500000,160963.6562500000,161890.8906250000,64092.0625000000,176978.7500000000,,,
0.1039999998,0,151959.3437500000,152041.8750000000,177848.2187500000,170823.1093750000,160956.6718750000,161887.1093750000,64085.5468750000,176973.3750000000,,,
0.1079999998,0,151958.2343750000,152041.1250000000,177847.2187500000,170821.4062500000,160954.9062500000,161882.2812500000,64081.4414062500,176966.9687500000,,,
0.1120000000,0,151953.2187500000,152037.1250000000,177836.2968750000,170830.8750000000,160945.7812500000,161884.5625000000,64076.5078125000,176956.9687500000,,,
0.1159999999,0,151961.1093750000,152046.9062500000,177842.3125000000,170833.2343750000,160950.6093750000,161896.4375000000,64083.8007812500,176958.1250000000,,,
0.1199999999,0,151955.1562500000,152037.0937500000,177839.6250000000,170829.2187500000,160947.0156250000,161890.6562500000,64082.1406250000,176951.7031250000,,,
0.1239999998,0,151961.7500000000,152045.2187500000,177846.8750000000,170840.0468750000,160953.2968750000,161899.3125000000,64088.1210937500,176959.7343750000,,,
0.1279999998,1,151956.6875000000,152046.2187500000,177838.8750000000,170843.0312500000,160947.6406250000,161900.8437500000,64084.3125000000,176962.7031250000,,,
0.1319999998,1,151943.2500000000,152034.0156250000,177825.2812500000,170828.1718750000,160935.2500000000,161886.2500000000,64075.8632812500,176947.2031250000,,,
0.1359999997,1,151941.0468750000,152030.8750000000,177825.7343750000,170820.2812500000,160934.0156250000,161878.7187500000,64076.9375000000,176933.1718750000,,,
0.1399999997,1,151944.9062500000,152035.8125000000,177827.1875000000,170850.7812500000,160937.9531250000,161882.0312500000,64080.7734375000,176929.1250000000,,,
0.1439999996,1,151950.4531250000,152040.0781250000,177833.0625000000,170857.4375000000,160945.3593750000,161887.9062500000,64086.4062500000,176930.8906250000,,,
0.1479999996,1,151942.2187500000,152033.6093750000,177830.1093750000,170809.9375000000,160942.1875000000,161889.8750000000,64087.4492187500,176924.3750000000,,,
0.1519999998,1,151943.8125000000,152035.7812500000,177831.3750000000,170814.9687500000,160940.5312500000,161891.9687500000,64087.6132812500,176916.9218750000,,,
0.1559999997,1,151949.2812500000,152043.1093750000,177831.0937500000,170827.8281250000,160940.7656250000,161899.1250000000,64089.1406250000,176915.4218750000,,,
0.1599999997,1,151944.9687500000,152034.3593750000,177829.4843750000,170831.0156250000,160939.9375000000,161891.6875000000,64086.4062500000,176910.1093750000,,,
0.1639999996,1,151937.5937500000,152029.5937500000,177822.3281250000,170819.5156250000,160933.7187500000,161885.0156250000,64076.1835937500,176904.2656250000,,,
0.1679999996,1,151949.6093750000,152040.1250000000,177838.7500000000,170828.2812500000,160947.3125000000,161893.2031250000,64089.6250000000,176907.0000000000,,,
0.1719999998,1,151947.5937500000,152034.4375000000,177833.3281250000,170815.5468750000,160941.6250000000,161892.5000000000,64087.0468750000,176893.1562500000,,,
0.1759999997,1,151951.0000000000,152037.3125000000,177832.5937500000,170817.9218750000,160941.3125000000,161895.7500000000,64086.9140625000,176885.5625000000,,,
0.1799999997,1,151944.2343750000,152029.9375000000,177828.9843750000,170812.4218750000,160938.7656250000,161892.2500000000,64083.4257812500,176877.5156250000,,,
0.1839999997,1,151946.2187500000,152032.9687500000,177833.0625000000,170814.9687500000,160943.3125000000,161896.6562500000,64089.1953125000,176881.4062500000,,,
0.1879999996,1,151962.3906250000,152049.1875000000,177848.9062500000,170822.3281250000,160956.5937500000,161909.9062500000,64101.3710937500,176891.8437500000,,,
0.1919999996,1,151965.9843750000,152051.5781250000,177854.0000000000,170812.8281250000,160960.2968750000,161911.8125000000,64105.0976562500,176885.1718750000,,,
0.1959999998,1,151947.9062500000,152034.6875000000,177831.8437500000,170818.1718750000,160942.2968750000,161897.6562500000,64089.4101562500,176860.8593750000,,,
0.1999999997,1,151948.0468750000,152033.6562500000,177831.2656250000,170830.9375000000,160943.9062500000,161897.2187500000,64091.0195312500,176851.0937500000,,,
0.2039999997,1,151944.0468750000,152023.7656250000,177828.1718750000,170826.2656250000,160943.3750000000,161895.1875000000,64091.6328125000,176838.0937500000,,,
0.2079999996,1,151948.9843750000,152028.6406250000,177831.9531250000,170830.5312500000,160945.1718750000,161898.8906250000,64092.6015625000,176830.1718750000,,,
0.2119999996,1,151952.5000000000,152035.1093750000,177835.6562500000,170828.2500000000,160947.2656250000,161906.6562500000,64096.1406250000,176821.2968750000,,,
0.2159999998,1,151954.1562500000,152036.3750000000,177838.9062500000,170837.0312500000,160947.7968750000,161911.0000000000,64098.7695312500,176808.2656250000,,,
0.2199999997,1,151956.1718750000,152038.0937500000,177839.6875000000,170844.1875000000,160948.8750000000,161914.9531250000,64099.5195312500,176804.3750000000,,,
0.2239999997,1,151954.2968750000,152035.1718750000,177834.9062500000,170871.0937500000,160947.1562500000,161911.8906250000,64100.7812500000,176800.5937500000,,,
0.2279999997,1,151967.3906250000,152048.0937500000,177844.8281250000,170888.2031250000,160957.8906250000,161918.9687500000,64110.2500000000,176809.6562500000,,,
0.2319999996,1,151964.0000000000,152045.8593750000,177840.6406250000,170845.2812500000,160953.9687500000,161916.7500000000,64108.3710937500,176803.2968750000,,,
0.2359999996,1,151963.6093750000,152047.6406250000,177842.5781250000,170820.3750000000,160956.5937500000,161918.7031250000,64113.4140625000,176801.3125000000,,,
0.2399999998,1,151961.7187500000,152049.4687500000,177839.1250000000,170818.8906250000,160955.4687500000,161920.1250000000,64111.0000000000,176810.3906250000,,,
0.2439999997,1,151952.0625000000,152034.2812500000,177833.2656250000,170816.7187500000,160949.4687500000,161906.7187500000,64105.2890625000,176806.8906250000,,,
0.2479999997,1,151955.0468750000,152038.8437500000,177837.3437500000,170820.0937500000,160951.5468750000,161909.3906250000,64108.8007812500,176815.4843750000,,,
0.2519999996,1,151959.6875000000,152038.0312500000,177845.1562500000,170837.3125000000,160954.9843750000,161910.6250000000,64112.2890625000,176817.9218750000,,,
0.2559999996,2,151965.7812500000,152039.0312500000,177857.3281250000,170845.1718750000,160963.1875000000,161911.4062500000,64118.9140625000,176816.7343750000,,,
0.2599999995,2,151971.7031250000,152046.4531250000,177869.8281250000,170826.7500000000,160974.7031250000,161917.7187500000,64130.9843750000,176830.0468750000,,,
0.2639999995,2,151973.1250000000,152050.9843750000,177866.9843750000,170824.2343750000,160974.3593750000,161922.4062500000,64129.4531250000,176849.0312500000,,,
0.2679999995,2,151967.7656250000,152041.8750000000,177860.1718750000,170829.4531250000,160969.0625000000,161916.3750000000,64124.0078125000,176854.6406250000,,,
0.2719999994,2,151971.6718750000,152048.4218750000,177861.7812500000,170841.3437500000,160970.4062500000,161922.8593750000,64125.2421875000,176860.8125000000,,,
0.2759999994,2,151966.0468750000,152043.0468750000,177857.8906250000,170834.4531250000,160966.9531250000,161928.4375000000,64125.2695312500,176859.8125000000,,,
0.2799999996,2,151954.2187500000,152030.9218750000,177848.1562500000,170809.1093750000,160959.2500000000,161925.0625000000,64122.6953125000,176856.1718750000,,,
0.2839999995,2,151950.1093750000,152024.7812500000,177845.0000000000,170808.1093750000,160957.2187500000,161921.2031250000,64119.5039062500,176861.6875000000,,,
0.2879999995,2,151952.8750000000,152027.4375000000,177847.1875000000,170812.0312500000,160958.2656250000,161923.8750000000,64121.5937500000,176871.6718750000,,,
0.2919999994,2,151966.1250000000,152045.2031250000,177858.5156250000,170835.9843750000,160968.6718750000,161938.9218750000,64133.4765625000,176884.8125000000,,,
0.2959999994,2,151982.1406250000,152060.8281250000,177872.8906250000,170850.7343750000,160982.2656250000,161948.3437500000,64144.6367187500,176897.7500000000,,,
0.2999999996,2,151968.7343750000,152042.0625000000,177856.9218750000,170841.4687500000,160970.0937500000,161940.1093750000,64135.4335937500,176889.8593750000,,,
0.3039999995,2,151956.9843750000,152033.2031250000,177843.0312500000,170823.9687500000,160960.3281250000,161942.3906250000,64131.1171875000,176888.5468750000,,,
0.3079999995,2,151963.0156250000,152038.4843750000,177850.5156250000,170833.1406250000,160967.1875000000,161951.3750000000,64139.5390625000,176897.3750000000,,,
0.3119999995,2,151967.2500000000,152043.1562500000,177853.8437500000,170842.8125000000,160968.8750000000,161961.0000000000,64145.0898437500,176905.6875000000,,,
0.3159999994,2,151971.5468750000,152045.0156250000,177856.3906250000,170844.9843750000,160969.6093750000,161962.3750000000,64147.8281250000,176905.5000000000,,,
0.3199999994,2,151976.7500000000,152044.7656250000,177861.1875000000,170852.4531250000,160973.9687500000,161965.2968750000,64155.4453125000,176906.2500000000,,,
0.3239999996,2,151974.4062500000,152044.1250000000,177860.0937500000,170852.9531250000,160973.7656250000,161965.7812500000,64155.8203125000,176912.6562500000,,,
0.3279999995,2,151971.1093750000,152044.2500000000,177856.3906250000,170855.2968750000,160971.1562500000,161963.9062500000,64152.9492187500,176922.5312500000,,,
0.3319999995,2,151984.4687500000,152058.7187500000,177868.8593750000,170860.0156250000,160981.5937500000,161972.3437500000,64159.1445312500,176937.7031250000,,,
0.3359999994,2,151997.8593750000,152074.1875000000,177882.5781250000,170849.3593750000,160992.7812500000,161976.6406250000,64161.9609375000,176956.8593750000,,,
0.3399999994,2,151986.8906250000,152057.9687500000,177875.5781250000,170848.6406250000,160986.2812500000,161967.3593750000,64163.6250000000,176955.3593750000,,,
0.3439999996,2,151983.1562500000,152052.6250000000,177874.9531250000,170841.7968750000,160987.7031250000,161971.3593750000,64177.7890625000,176962.5000000000,,,
0.3479999995,2,151987.0156250000,152058.1562500000,177874.7968750000,170854.4531250000,160988.7500000000,161972.8281250000,64175.4804687500,176965.0468750000,,,
0.3519999995,2,151999.4062500000,152072.9375000000,177883.8906250000,170860.8750000000,160994.3593750000,161981.3281250000,64176.8476562500,176973.8437500000,,,
0.3559999994,2,151990.9843750000,152060.8125000000,177875.1718750000,170860.9531250000,160984.4375000000,161975.2500000000,64173.4960937500,176967.1093750000,,,
0.3599999994,2,151986.5312500000,152057.1093750000,177873.2968750000,170862.5312500000,160982.1562500000,161974.7968750000,64174.1406250000,176970.0781250000,,,
0.3639999994,2,151984.2812500000,152055.5000000000,177871.0625000000,170860.4375000000,160982.0156250000,161977.3437500000,64172.8789062500,176977.7812500000,,,
0.3679999996,2,151984.1718750000,152054.0000000000,177872.8125000000,170862.3906250000,160984.0625000000,161975.9687500000,64175.6953125000,176981.6718750000,,,
0.3719999995,2,151983.8281250000,152053.0781250000,177874.7343750000,170860.1250000000,160983.9531250000,161974.8906250000,64176.3906250000,176983.0625000000,,,
0.3759999995,2,151982.7812500000,152055.0937500000,177868.1875000000,170875.7500000000,160978.3281250000,161976.0468750000,64171.8593750000,176980.4687500000,,,
0.3799999994,2,151985.3906250000,152056.9687500000,177870.6875000000,170887.3906250000,160980.1250000000,161978.8125000000,64176.2578125000,176988.5312500000,,,
0.3839999994,3,151981.5781250000,152054.9531250000,177869.0781250000,170880.1562500000,160978.5312500000,161978.1093750000,64175.8554687500,177001.5781250000,,,
0.3879999993,3,151977.5468750000,152049.9375000000,177867.0468750000,170862.5312500000,160975.7812500000,161974.9843750000,64177.3867187500,177007.1718750000,,,
0.3919999993,3,151972.7031250000,152041.1406250000,177866.0000000000,170851.0000000000,160972.8750000000,161973.5000000000,64180.9804687500,177002.1406250000,,,
0.3959999993,3,151976.6875000000,152049.4375000000,177870.6406250000,170856.5781250000,160977.0625000000,161982.7500000000,64189.2148437500,177011.0625000000,,,
0.3999999992,3,151968.7343750000,152045.0937500000,177859.9531250000,170872.7812500000,160967.7031250000,161979.5156250000,64178.4023437500,177018.7968750000,,,
0.4039999992,3,151953.1718750000,152027.5937500000,177848.7812500000,170858.9375000000,160956.0625000000,161966.0468750000,64165.9335937500,177016.9218750000,,,
0.4079999994,3,151943.2500000000,152018.7968750000,177837.1562500000,170836.7812500000,160945.2031250000,161957.2968750000,64154.7734375000,177015.9687500000,,,
0.4119999993,3,151941.0781250000,152017.8593750000,177830.7812500000,170833.3437500000,160938.5937500000,161956.4687500000,64149.4648437500,177016.1406250000,,,
0.4159999993,3,151933.4531250000,152009.8750000000,177823.1093750000,170820.4687500000,160930.9843750000,161949.6250000000,64144.9843750000,177008.0625000000,,,
0.4199999992,3,151926.8593750000,152004.4062500000,177818.9218750000,170810.9843750000,160927.5781250000,161946.1406250000,64145.0625000000,177005.8125000000,,,
0.4239999992,3,151935.3281250000,152011.7031250000,177825.2500000000,170820.9843750000,160936.4062500000,161954.6718750000,64154.0507812500,177022.5156250000,,,
0.4279999994,3,151935.7343750000,152012.0156250000,177824.9375000000,170824.6562500000,160936.3437500000,161957.1093750000,64154.6132812500,177029.3906250000,,,
0.4319999993,3,151938.2031250000,152016.3125000000,177828.8750000000,170822.5937500000,160939.2343750000,161959.9375000000,64160.5390625000,177032.1718750000,,,
0.4359999993,3,151938.5312500000,152015.2656250000,177832.8750000000,170820.2656250000,160941.2343750000,161959.6562500000,64165.7968750000,177027.1093750000,,,
0.4399999992,3,151941.6562500000,152016.7187500000,177837.2187500000,170836.2187500000,160945.3593750000,161964.3750000000,64169.7929687500,177021.9375000000,,,
0.4439999992,3,151942.5781250000,152016.8437500000,177839.0312500000,170854.8906250000,160947.0468750000,161964.8593750000,64170.5703125000,177023.7031250000,,,
0.4479999992,3,151941.0781250000,152014.0312500000,177837.6718750000,170848.9843750000,160945.4375000000,161963.8437500000,64169.1523437500,177024.5000000000,,,
0.4519999993,3,151939.2968750000,152012.1718750000,177835.0156250000,170820.4218750000,160942.3750000000,161962.1093750000,64170.4921875000,177019.2812500000,,,
0.4559999993,3,151944.3437500000,152016.2031250000,177836.4062500000,170828.4687500000,160942.3281250000,161961.7812500000,64169.1757812500,177015.5000000000,,,
0.4599999993,3,151955.1562500000,152024.9687500000,177848.9843750000,170820.2343750000,160952.9531250000,161964.5625000000,64176.6875000000,177021.6406250000,,,
0.4639999992,3,151962.5625000000,152032.6093750000,177855.7968750000,170816.5000000000,160961.0781250000,161968.8281250000,64183.9570312500,177028.6562500000,,,
0.4679999992,3,151972.6406250000,152039.9687500000,177863.9531250000,170830.4218750000,160968.8593750000,161975.5625000000,64191.1171875000,177032.9843750000,,,
0.4719999994,3,151970.9843750000,152035.0781250000,177860.6250000000,170846.5781250000,160962.3593750000,161966.9375000000,64181.2460937500,177023.7500000000,,,
0.4759999993,3,151964.7500000000,152031.1406250000,177848.5312500000,170846.3281250000,160951.1718750000,161963.8125000000,64173.2265625000,177014.5468750000,,,
0.4799999993,3,151980.3125000000,152048.8906250000,177866.7968750000,170866.4687500000,160968.8281250000,161979.7187500000,64186.2617187500,177032.0937500000,,,
0.4839999992,3,151993.2343750000,152065.8750000000,177886.1718750000,170843.9687500000,160988.9687500000,162000.4531250000,64203.7773437500,177055.1562500000,,,
0.4879999992,3,151972.3281250000,152038.9531250000,177862.2968750000,170838.2500000000,160969.6875000000,161987.0937500000,64203.8867187500,177041.1093750000,,,
0.4919999992,3,151962.8593750000,152029.1875000000,177851.5625000000,170842.0625000000,160961.1875000000,161982.2500000000,64200.2656250000,177024.6875000000,,,
0.4959999993,3,151976.2968750000,152045.0625000000,177865.6406250000,170854.4062500000,160974.0000000000,161994.1562500000,64211.5820312500,177032.4218750000,,,
0.4999999993,3,151979.3281250000,152050.3125000000,177865.7343750000,170864.8125000000,160974.4375000000,161996.4843750000,64214.1328125000,177035.9843750000,,,
0.5039999993,3,151965.0312500000,152034.8437500000,177854.7343750000,170838.3437500000,160962.7968750000,161986.4843750000,64203.5078125000,177026.5937500000,,,
0.5079999992,3,151958.0000000000,152028.4375000000,177851.0312500000,170829.9218750000,160957.4843750000,161981.3281250000,64199.4609375000,177019.6718750000,,,
0.5119999992,4,151975.4531250000,152046.7031250000,177869.4843750000,170846.9687500000,160973.1406250000,161998.3593750000,64216.6796875000,177025.7187500000,,,
0.5159999991,4,151998.0937500000,152064.9375000000,177892.5468750000,170872.8593750000,160994.5468750000,162011.6093750000,64238.0546875000,177034.6718750000,,,
0.5199999991,4,151996.7500000000,152055.7656250000,177892.9218750000,170894.5312500000,160998.3906250000,162005.0468750000,64241.5156250000,177028.1562500000,,,
0.5239999990,4,151994.8750000000,152060.2500000000,177885.3125000000,170914.1093750000,160995.8906250000,162011.3437500000,64236.0976562500,177039.4218750000,,,
0.5279999990,4,152002.3593750000,152072.0156250000,177898.5312500000,170921.1718750000,161007.4218750000,162022.8593750000,64242.6718750000,177055.1875000000,,,
0.5319999990,4,152000.0781250000,152073.9843750000,177897.8281250000,170889.1718750000,161006.1562500000,162025.8125000000,64241.6757812500,177054.5937500000,,,
0.5359999991,4,151988.7968750000,152073.2031250000,177879.5156250000,170827.7187500000,160989.9062500000,162030.7343750000,64230.2500000000,177048.4843750000,,,
0.5399999991,4,151980.8750000000,152063.0312500000,177873.6718750000,170823.5312500000,160984.2500000000,162026.1250000000,64228.1328125000,177042.2031250000,,,
0.5439999991,4,151974.5937500000,152049.1093750000,177874.1562500000,170828.2812500000,160982.4062500000,162008.8750000000,64223.5976562500,177030.6718750000,,,
0.5479999990,4,151981.5781250000,152054.9375000000,177884.2031250000,170842.3281250000,160990.0625000000,162009.0156250000,64223.5195312500,177038.9843750000,,,
0.5519999990,4,151962.3906250000,152034.0937500000,177856.3437500000,170848.3125000000,160964.5312500000,161989.5156250000,64206.0312500000,177017.7968750000,,,
0.5559999992,4,151964.3750000000,152040.2812500000,177850.8125000000,170842.8906250000,160958.3593750000,161993.4062500000,64211.3164062500,177013.9375000000,,,
0.5599999991,4,151972.5937500000,152048.6875000000,177858.7187500000,170844.6875000000,160965.6562500000,161998.8281250000,64225.2617187500,177014.2343750000,,,
0.5639999991,4,151994.5000000000,152069.6875000000,177887.8281250000,170847.9687500000,160993.5000000000,162018.8593750000,64247.3359375000,177033.0156250000,,,
0.5679999990,4,151999.4375000000,152071.5625000000,177888.2343750000,170850.8125000000,160997.9218750000,162021.0000000000,64244.0390625000,177043.3125000000,,,
0.5719999990,4,151989.9687500000,152062.2500000000,177872.8906250000,170857.7343750000,160986.3437500000,162014.3281250000,64233.8710937500,177031.3437500000,,,
0.5759999990,4,152000.1562500000,152074.8125000000,177886.8906250000,170855.3437500000,160999.7812500000,162026.1250000000,64248.0625000000,177035.5781250000,,,
0.5799999991,4,152000.4531250000,152073.4375000000,177891.3750000000,170850.4375000000,161005.3281250000,162026.7968750000,64253.1562500000,177036.0156250000,,,
0.5839999991,4,151990.1093750000,152063.9375000000,177880.9843750000,170839.7812500000,160995.1406250000,162021.2500000000,64242.4804687500,177033.8593750000,,,
0.5879999991,4,151986.2968750000,152059.9218750000,177877.0156250000,170848.1250000000,160990.4687500000,162016.8125000000,64240.8476562500,177035.2343750000,,,
0.5919999990,4,151985.6718750000,152061.3125000000,177879.4062500000,170842.0937500000,160990.4531250000,162015.0000000000,64244.7070312500,177031.4843750000,,,
0.5959999990,4,151991.8437500000,152059.6562500000,177890.0000000000,170853.4687500000,160995.5625000000,162008.1093750000,64252.1093750000,177021.0781250000,,,
0.5999999992,4,151998.8437500000,152067.9375000000,177894.2656250000,170852.2343750000,160998.8750000000,162014.2656250000,64255.3828125000,177028.1562500000,,,
0.6039999991,4,151995.8906250000,152077.7812500000,177884.5781250000,170831.2812500000,160993.3125000000,162021.0312500000,64249.4296875000,177037.6250000000,,,
0.6079999991,4,152001.3750000000,152078.2656250000,177897.4062500000,170837.6093750000,161004.9843750000,162022.1562500000,64258.4687500000,177043.0625000000,,,
0.6119999990,4,151986.1093750000,152054.1562500000,177889.0312500000,170840.7031250000,160997.6406250000,162009.4218750000,64253.3984375000,177023.4375000000,,,
0.6159999990,4,151988.0625000000,152060.5312500000,177886.7500000000,170829.9375000000,160995.7031250000,162013.8437500000,64240.8984375000,177021.6406250000,,,
0.6199999989,4,151987.9375000000,152061.7656250000,177881.0625000000,170851.1562500000,160992.1406250000,162022.2968750000,64239.0234375000,177022.6250000000,,,
0.6239999991,4,151994.1250000000,152074.4375000000,177887.1875000000,170864.2812500000,160999.6718750000,162036.2187500000,64237.2773437500,177037.9375000000,,,
0.6279999991,4,151988.5781250000,152074.2187500000,177879.8125000000,170857.9687500000,160993.0156250000,162032.0468750000,64240.7656250000,177039.4687500000,,,
0.6319999991,4,151983.5312500000,152066.2812500000,177874.6875000000,170846.7031250000,160986.7968750000,162024.6562500000,64246.1289062500,177029.9531250000,,,
0.6359999990,4,151980.6093750000,152060.6718750000,177876.2343750000,170850.5937500000,160986.2343750000,162021.2968750000,64256.5625000000,177022.9687500000,,,
0.6399999990,5,151983.1562500000,152067.1562500000,177879.2500000000,170846.2187500000,160989.4843750000,162023.6562500000,64264.0195312500,177027.7968750000,,,
0.6439999989,5,151986.2968750000,152068.8281250000,177885.0937500000,170834.7968750000,160992.5312500000,162022.9375000000,64262.2773437500,177033.7656250000,,,
0.6479999989,5,151976.1875000000,152056.4843750000,177867.5781250000,170825.0625000000,160978.5937500000,162013.5000000000,64249.0000000000,177025.7656250000,,,
0.6519999988,5,151968.6406250000,152048.2343750000,177856.5312500000,170828.2187500000,160969.1250000000,162008.1250000000,64241.0859375000,177013.1562500000,,,
0.6559999988,5,151979.1875000000,152062.8750000000,177864.7343750000,170828.4062500000,160976.5312500000,162022.0000000000,64249.8046875000,177019.4375000000,,,
0.6599999988,5,151992.6562500000,152074.2656250000,177881.5468750000,170834.9062500000,160990.8437500000,162030.4687500000,64263.5625000000,177029.5937500000,,,
0.6639999989,5,151981.0312500000,152056.6250000000,177873.2656250000,170846.6250000000,160985.1875000000,162018.3281250000,64260.7460937500,177022.5781250000,,,
0.6679999989,5,151978.1718750000,152055.6250000000,177868.7031250000,170847.9687500000,160981.7500000000,162016.7343750000,64255.0351562500,177020.9062500000,,,
0.6719999989,5,151965.1875000000,152044.0937500000,177845.7500000000,170848.1562500000,160962.1718750000,162008.6718750000,64235.9375000000,177005.5937500000,,,
0.6759999988,5,151968.2968750000,152047.6406250000,177852.2343750000,170834.2031250000,160967.2656250000,162014.8593750000,64244.0664062500,177004.9218750000,,,
0.6799999988,5,151975.1875000000,152055.8125000000,177863.6562500000,170817.1562500000,160975.5625000000,162020.5781250000,64250.9296875000,177011.6250000000,,,
0.6839999990,5,151964.2812500000,152041.3906250000,177857.8750000000,170819.6718750000,160970.0312500000,162007.3750000000,64247.2031250000,177004.3906250000,,,
0.6879999989,5,151953.8437500000,152033.7187500000,177844.2343750000,170831.7343750000,160958.2656250000,162000.9687500000,64237.1718750000,176996.8750000000,,,
0.6919999989,5,151954.7812500000,152034.6250000000,177847.8906250000,170835.9218750000,160958.9531250000,161998.7343750000,64240.6835937500,176992.9375000000,,,
0.6959999988,5,151964.7500000000,152044.7656250000,177860.9062500000,170834.9062500000,160968.2031250000,162004.8593750000,64253.9101562500,176997.4687500000,,,
0.6999999988,5,151976.6093750000,152055.9062500000,177876.8593750000,170829.8125000000,160982.0468750000,162017.5468750000,64268.0703125000,177009.4375000000,,,
0.7039999987,5,151968.9218750000,152050.4218750000,177862.4218750000,170827.6093750000,160971.2343750000,162017.9687500000,64255.6523437500,177012.1718750000,,,
0.7079999989,5,151958.5000000000,152039.9062500000,177846.8437500000,170834.8437500000,160956.7343750000,162013.9218750000,64241.1406250000,177003.1562500000,,,
0.7119999989,5,151954.7500000000,152037.8437500000,177844.0312500000,170827.9062500000,160953.0781250000,162013.3125000000,64236.5820312500,176995.0468750000,,,
0.7159999989,5,151951.0781250000,152036.2968750000,177840.0625000000,170826.5156250000,160949.4375000000,162010.8593750000,64232.0468750000,176987.0937500000,,,
0.7199999988,5,151951.9375000000,152037.9218750000,177843.4843750000,170836.5937500000,160952.2812500000,162012.7968750000,64236.8476562500,176989.5781250000,,,
0.7239999988,5,151945.5468750000,152030.4687500000,177840.5156250000,170828.4062500000,160951.0937500000,162008.6875000000,64239.3437500000,176991.1093750000,,,
0.7279999990,5,151952.8281250000,152035.5937500000,177854.3281250000,170821.9531250000,160961.5625000000,162011.5937500000,64252.7031250000,176999.1093750000,,,
0.7319999989,5,151952.7343750000,152029.3437500000,177859.5625000000,170820.6093750000,160963.2500000000,162006.1718750000,64258.5468750000,176993.4218750000,,,
0.7359999989,5,151936.5937500000,152016.7968750000,177829.6250000000,170836.0625000000,160938.1718750000,161990.9375000000,64236.8476562500,176977.0625000000,,,
0.7399999988,5,151942.4375000000,152024.6250000000,177830.9062500000,170836.3593750000,160938.8906250000,161992.5781250000,64235.9101562500,176982.9062500000,,,
0.7439999988,5,151948.8750000000,152028.3750000000,177839.1406250000,170837.5937500000,160946.9375000000,161996.3593750000,64245.6992187500,176995.2187500000,,,
0.7479999987,5,151955.2031250000,152034.4375000000,177846.6875000000,170833.9062500000,160955.1718750000,162004.3281250000,64254.0156250000,177009.0000000000,,,
0.7519999989,5,151948.7500000000,152029.5937500000,177834.8750000000,170839.1718750000,160945.7656250000,162002.6250000000,64243.9023437500,177004.8750000000,,,
0.7559999989,5,151951.9375000000,152031.3906250000,177839.2812500000,170859.0781250000,160949.1875000000,162004.5312500000,64249.6718750000,177001.4843750000,,,
0.7599999988,5,151958.0468750000,152035.7343750000,177848.6406250000,170852.7968750000,160957.2343750000,162012.0468750000,64259.9960937500,177005.8437500000,,,
0.7639999988,5,151952.0937500000,152027.8437500000,177845.2031250000,170810.9531250000,160955.2812500000,162014.0781250000,64258.9492187500,177005.1093750000,,,
0.7679999988,6,151949.7656250000,152022.3750000000,177844.6718750000,170807.7343750000,160956.2968750000,162015.5312500000,64261.6875000000,177002.9062500000,,,
0.7719999987,6,151958.7500000000,152030.6250000000,177855.4062500000,170819.7812500000,160965.4218750000,162018.7500000000,64271.4765625000,177007.5312500000,,,
0.7759999987,6,151968.7343750000,152043.5000000000,177864.2812500000,170836.3281250000,160971.3437500000,162023.1562500000,64277.5937500000,177012.5468750000,,,
0.7799999986,6,151957.4375000000,152035.8593750000,177851.4531250000,170818.1406250000,160957.8281250000,162011.5625000000,64264.8789062500,177009.1406250000,,,
0.7839999986,6,151946.4062500000,152024.9687500000,177841.1875000000,170803.9062500000,160947.3437500000,161997.2968750000,64255.0078125000,177004.3906250000,,,
0.7879999985,6,151955.1562500000,152036.3125000000,177852.2343750000,170817.6093750000,160956.0312500000,162004.3750000000,64261.8750000000,177016.1406250000,,,
0.7919999987,6,151958.0781250000,152044.9843750000,177849.9531250000,170819.3437500000,160954.9375000000,162018.8906250000,64263.5390625000,177022.0625000000,,,
0.7959999987,6,151956.7656250000,152044.6875000000,177844.5312500000,170825.8125000000,160952.3593750000,162023.7968750000,64264.6914062500,177017.1093750000,,,
0.7999999986,6,151951.0781250000,152034.5000000000,177842.7656250000,170838.9531250000,160950.4218750000,162021.4375000000,64265.7382812500,177011.2031250000,,,
0.8039999986,6,151947.6718750000,152032.2656250000,177844.1093750000,170828.9531250000,160951.6875000000,162020.8125000000,64264.3671875000,177012.8906250000,,,
0.8079999986,6,151951.5625000000,152036.2968750000,177849.6093750000,170820.2343750000,160957.4843750000,162023.5312500000,64268.1757812500,177017.5312500000,,,
0.8119999988,6,151954.4531250000,152041.6875000000,177847.1406250000,170841.1562500000,160956.7812500000,162027.3281250000,64268.5273437500,177019.1406250000,,,
0.8159999987,6,151955.2031250000,152043.5312500000,177844.1875000000,170844.9062500000,160953.5625000000,162029.7500000000,64270.2421875000,177014.0468750000,,,
0.8199999987,6,151950.5468750000,152038.0625000000,177838.8437500000,170844.9062500000,160949.4843750000,162027.1718750000,64267.7773437500,177009.6718750000,,,
0.8239999986,6,151948.7187500000,152033.2343750000,177840.5937500000,170846.9687500000,160951.7656250000,162024.1406250000,64268.7929687500,177013.8906250000,,,
0.8279999986,6,151950.2187500000,152030.6875000000,177849.7968750000,170830.5937500000,160958.7968750000,162021.9687500000,64275.5273437500,177015.9218750000,,,
0.8319999985,6,151941.6406250000,152021.8281250000,177843.5468750000,170814.7343750000,160950.3750000000,162013.1718750000,64267.6953125000,177006.2968750000,,,
0.8359999987,6,151926.8906250000,152010.1406250000,177814.5468750000,170828.5156250000,160927.1718750000,162004.0000000000,64247.1484375000,176989.8750000000,,,
0.8399999987,6,151933.9375000000,152014.2968750000,177823.1875000000,170839.5468750000,160935.2500000000,162006.7656250000,64251.1992187500,176993.3906250000,,,
0.8439999986,6,151929.5625000000,152008.4218750000,177820.9062500000,170848.1250000000,160933.7187500000,161995.7968750000,64245.3789062500,176993.7187500000,,,
0.8479999986,6,151923.3906250000,151998.3125000000,177817.5000000000,170841.3125000000,160931.7343750000,161989.2968750000,64243.2343750000,176988.8593750000,,,
0.8519999986,6,151926.5937500000,151999.8437500000,177820.6406250000,170827.4218750000,160935.6718750000,161991.7343750000,64249.8046875000,176985.8750000000,,,
0.8559999987,6,151940.4843750000,152014.2500000000,177836.0625000000,170837.0000000000,160948.3125000000,162003.8906250000,64265.0937500000,176993.2500000000,,,
0.8599999987,6,151956.3906250000,152032.5312500000,177852.0156250000,170848.1875000000,160963.2968750000,162017.2812500000,64279.9804687500,177009.6718750000,,,
0.8639999987,6,151964.1718750000,152037.1250000000,177860.2812500000,170847.7031250000,160972.4687500000,162019.5625000000,64288.3476562500,177019.2812500000,,,
0.8679999986,6,151958.4218750000,152033.5625000000,177853.6250000000,170836.1093750000,160968.3906250000,162018.2656250000,64285.5859375000,177021.6406250000,,,
0.8719999986,6,151956.2343750000,152031.7656250000,177849.3593750000,170833.4218750000,160965.4218750000,162015.7187500000,64285.1015625000,177017.1250000000,,,
0.8759999985,6,151961.7500000000,152036.6718750000,177852.0468750000,170843.9218750000,160966.7812500000,162019.7187500000,64287.7851562500,177013.8906250000,,,
0.8799999987,6,151962.0156250000,152034.3281250000,177856.7343750000,170839.6718750000,160968.9843750000,162015.5781250000,64291.0312500000,177011.8750000000,,,
0.8839999987,6,151958.1093750000,152028.1093750000,177854.5937500000,170810.0937500000,160966.8750000000,162009.0468750000,64290.1171875000,177011.3906250000,,,
0.8879999986,6,151956.2812500000,152029.8281250000,177848.8593750000,170823.4531250000,160963.2968750000,162010.2968750000,64287.5429687500,177010.3906250000,,,
0.8919999986,6,151963.8437500000,152038.6250000000,177855.6718750000,170837.4062500000,160968.5312500000,162018.1406250000,64292.6132812500,177013.0468750000,,,
0.8959999986,7,151961.6406250000,152039.6718750000,177851.4375000000,170823.5781250000,160964.0312500000,162022.5937500000,64289.0976562500,177008.0312500000,,,
0.8999999985,7,151959.6406250000,152040.0156250000,177850.0937500000,170817.6875000000,160961.8750000000,162024.8437500000,64288.6445312500,177004.2812500000,,,
0.9039999985,7,151948.1875000000,152031.0312500000,177837.6093750000,170808.3750000000,160949.7500000000,162018.7812500000,64274.6679687500,176999.8593750000,,,
0.9079999984,7,151934.2343750000,152019.3593750000,177825.5468750000,170802.1875000000,160938.0937500000,162011.9062500000,64265.0390625000,176995.6718750000,,,
0.9119999984,7,151932.2812500000,152017.8437500000,177824.7968750000,170799.0937500000,160936.9687500000,162014.0000000000,64266.8359375000,176991.7500000000,,,
0.9159999983,7,151933.0468750000,152014.7031250000,177824.1250000000,170797.7031250000,160936.1562500000,162014.7500000000,64266.4882812500,176985.6406250000,,,
0.9199999985,7,151936.2656250000,152016.5781250000,177824.8750000000,170803.5156250000,160937.9218750000,162020.2187500000,64268.1757812500,176985.9375000000,,,
0.9239999985,7,151938.7343750000,152014.2968750000,177831.3906250000,170817.2500000000,160943.7812500000,162020.2500000000,64272.5507812500,176990.7968750000,,,
0.9279999984,7,151937.8750000000,152014.2656250000,177828.9843750000,170836.0312500000,160942.1875000000,162021.4375000000,64268.7929687500,176995.2968750000,,,
0.9319999984,7,151949.4687500000,152028.7812500000,177840.9218750000,170817.5000000000,160952.5937500000,162036.2343750000,64279.6054687500,177007.2656250000,,,
0.9359999984,7,151940.5937500000,152015.6093750000,177835.6250000000,170790.8593750000,160945.5156250000,162024.5937500000,64276.2226562500,176996.2812500000,,,
0.9399999985,7,151926.6718750000,152002.7968750000,177813.0781250000,170797.7500000000,160925.2656250000,162010.2968750000,64254.8476562500,176987.1093750000,,,
0.9439999985,7,151927.6093750000,152005.7187500000,177811.1718750000,170817.0625000000,160925.1093750000,162009.9062500000,64253.1054687500,176998.2968750000,,,
0.9479999985,7,151934.7500000000,152016.7343750000,177819.3281250000,170821.6875000000,160933.0000000000,162016.2500000000,64260.3437500000,177012.4843750000,,,
0.9519999984,7,151927.8750000000,152010.9687500000,177816.4218750000,170806.4687500000,160927.5781250000,162010.2187500000,64260.0234375000,177008.3281250000,,,
0.9559999984,7,151926.1875000000,152005.0468750000,177818.9687500000,170792.8750000000,160926.4218750000,161999.3906250000,64262.4648437500,176995.4375000000,,,
0.9599999983,7,151933.7812500000,152010.0312500000,177825.6875000000,170798.5000000000,160934.0625000000,161998.4218750000,64271.8789062500,176997.7343750000,,,
0.9639999985,7,151936.2500000000,152012.6093750000,177830.0468750000,170810.5312500000,160938.8906250000,161998.9218750000,64276.7890625000,177004.9531250000,,,
0.9679999985,7,151930.3750000000,152011.3750000000,177821.9531250000,170816.8281250000,160933.0937500000,161996.5625000000,64272.1210937500,177007.2656250000,,,
0.9719999984,7,151926.6718750000,152009.8750000000,177817.3593750000,170801.2968750000,160928.7812500000,161998.3437500000,64270.2695312500,177000.9843750000,,,
0.9759999984,7,151930.7812500000,152016.6250000000,177820.6406250000,170804.7343750000,160931.2187500000,162005.9062500000,64276.4375000000,177000.0937500000,,,
0.9799999984,7,151936.2187500000,152023.9062500000,177826.4062500000,170809.0781250000,160935.6250000000,162013.0625000000,64279.2539062500,177004.4375000000,,,
0.9839999985,7,151942.7031250000,152029.2343750000,177834.3125000000,170806.4218750000,160943.0000000000,162017.8125000000,64286.1484375000,177012.1718750000,,,
0.9879999985,7,151940.8125000000,152022.5625000000,177833.4531250000,170804.6718750000,160942.1093750000,162014.1406250000,64286.0664062500,177005.9375000000,,,
0.9919999985,7,151929.3593750000,152012.3125000000,177816.0000000000,170797.8906250000,160927.1718750000,162007.0312500000,64270.7812500000,176989.5312500000,,,
0.9959999984,7,151930.2031250000,152013.4062500000,177818.1406250000,170790.3750000000,160928.7031250000,162011.0468750000,64275.2851562500,176982.1875000000,,,
0.9999999984,7,151936.4375000000,152017.1406250000,177829.2500000000,170799.6406250000,160937.6250000000,162017.0000000000,64286.1484375000,176985.9843750000,,,
1.0039999983,7,151926.7187500000,152009.2343750000,177816.2656250000,170804.6562500000,160927.2031250000,162012.0937500000,64276.0898437500,176986.5000000000,33029,1.0054243933,0.0000000000
1.0079999985,7,151926.2968750000,152006.0312500000,177819.3750000000,170806.0156250000,160930.3437500000,162015.4531250000,64281.7226562500,176988.9687500000,,,
1.0119999985,7,151934.1250000000,152013.8906250000,177828.3437500000,170808.3437500000,160937.9531250000,162024.1718750000,64289.2343750000,176993.8437500000,,,
1.0159999984,7,151931.8750000000,152014.5156250000,177820.8593750000,170811.3750000000,160930.9843750000,162024.4843750000,64281.9101562500,176990.7031250000,,,
1.0199999984,7,151930.2031250000,152014.1562500000,177818.5000000000,170808.2656250000,160929.5000000000,162022.8593750000,64279.5781250000,176990.6562500000,,,
1.0239999983,8,151921.9218750000,152006.2031250000,177811.5468750000,170809.3750000000,160925.4218750000,162015.8750000000,64274.6679687500,176990.7968750000,,,
1.0279999983,8,151923.1093750000,152008.6406250000,177816.3750000000,170799.7968750000,160931.0937500000,162017.0312500000,64279.5234375000,176995.7500000000,,,
1.0319999983,8,151931.5468750000,152019.6406250000,177824.2343750000,170801.1875000000,160939.4375000000,162026.8750000000,64289.3398437500,177003.3906250000,,,
1.0359999982,8,151933.1562500000,152023.3125000000,177822.5156250000,170806.6562500000,160936.0000000000,162029.7187500000,64289.4218750000,177003.0937500000,,,
1.0399999982,8,151927.3437500000,152013.3125000000,177815.2500000000,170816.8281250000,160928.4843750000,162022.9843750000,64284.5117187500,176993.1250000000,,,
1.0439999981,8,151921.2187500000,152008.6093750000,177809.9843750000,170813.0937500000,160923.0625000000,162016.1562500000,64278.9335937500,176993.4375000000,,,
1.0479999983,8,151915.5312500000,152002.5781250000,177805.2500000000,170798.0781250000,160919.5312500000,162011.2343750000,64277.1093750000,176993.2500000000,,,
1.0519999983,8,151915.7500000000,152000.7031250000,177805.5156250000,170796.3593750000,160920.2500000000,162016.6562500000,64277.0820312500,176989.7187500000,,,
1.0559999982,8,151922.7031250000,152007.8906250000,177813.1562500000,170805.1875000000,160926.4218750000,162022.5937500000,64282.4218750000,176987.0625000000,,,
1.0599999982,8,151927.8750000000,152011.6093750000,177821.7187500000,170815.6406250000,160933.4687500000,162023.7656250000,64287.3281250000,176987.1718750000,,,
1.0639999982,8,151922.9687500000,152003.0625000000,177822.1406250000,170808.2656250000,160933.4687500000,162022.0468750000,64287.4882812500,176987.2187500000,,,
1.0679999983,8,151921.6250000000,152003.3750000000,177818.0937500000,170786.4687500000,160931.3593750000,162028.0000000000,64287.2226562500,176991.4843750000,,,
1.0719999983,8,151921.9687500000,152003.6562500000,177814.5156250000,170794.6250000000,160927.5000000000,162030.0156250000,64285.8789062500,176988.4218750000,,,
1.0759999983,8,151925.2968750000,152006.2968750000,177818.3125000000,170794.1406250000,160930.0468750000,162033.9843750000,64291.1093750000,176986.2343750000,,,
1.0799999982,8,151933.1093750000,152013.2500000000,177826.2500000000,170800.8750000000,160936.9687500000,162037.3906250000,64298.4882812500,176990.6093750000,,,
1.0839999982,8,151934.5000000000,152013.3906250000,177826.1093750000,170810.0468750000,160937.8750000000,162036.8750000000,64298.4882812500,176995.8281250000,,,
1.0879999981,8,151914.1718750000,151997.7187500000,177801.4531250000,170804.0625000000,160915.7656250000,162030.1562500000,64277.8085937500,176988.1406250000,,,
1.0919999983,8,151907.1406250000,151993.8593750000,177795.8281250000,170778.9843750000,160911.8906250000,162030.7968750000,64273.8359375000,176984.0625000000,,,
1.0959999983,8,151912.1093750000,152000.3437500000,177798.0781250000,170779.9218750000,160913.8906250000,162038.0156250000,64274.3750000000,176985.0781250000,,,
1.0999999982,8,151921.1250000000,152009.1250000000,177806.0937500000,170790.9218750000,160920.8437500000,162045.7812500000,64281.1328125000,176991.8906250000,,,
1.1039999982,8,151913.9062500000,152000.3437500000,177801.6718750000,170794.4531250000,160915.9375000000,162034.5000000000,64276.3046875000,176990.2812500000,,,
1.1079999981,8,151910.4375000000,151993.2187500000,177798.8593750000,170801.2187500000,160913.3281250000,162028.7031250000,64274.3203125000,176989.5625000000,,,
1.1119999983,8,151912.6406250000,151992.2968750000,177798.2187500000,170803.0937500000,160912.5468750000,162031.0156250000,64281.2382812500,176987.8125000000,,,
1.1159999983,8,151918.0000000000,151997.2343750000,177802.8281250000,170801.5937500000,160916.5000000000,162033.3125000000,64286.8710937500,176986.0937500000,,,
1.1199999982,8,151926.8906250000,152005.7343750000,177814.3906250000,170793.8593750000,160925.5312500000,162038.8750000000,64293.2578125000,176991.9218750000,,,
1.1239999982,8,151926.1875000000,152007.0625000000,177811.3906250000,170797.4843750000,160925.2656250000,162041.2812500000,64292.9062500000,176999.4843750000,,,
1.1279999982,8,151924.2500000000,152006.0625000000,177807.4375000000,170799.2343750000,160925.3437500000,162042.0312500000,64291.9960937500,177005.1093750000,,,
1.1319999981,8,151929.2968750000,152009.9531250000,177812.4843750000,170802.7968750000,160930.8437500000,162045.9218750000,64295.4023437500,177010.3125000000,,,
1.1359999983,8,151932.7343750000,152013.6562500000,177818.5937500000,170793.3593750000,160935.3281250000,162050.6718750000,64300.8750000000,177011.3125000000,,,
1.1399999983,8,151938.8750000000,152019.0468750000,177830.4531250000,170794.6250000000,160945.2500000000,162056.4062500000,64310.4218750000,177014.6406250000,,,
1.1439999982,8,151938.7968750000,152018.1562500000,177834.8593750000,170791.0468750000,160949.2656250000,162055.5000000000,64314.0703125000,177020.3437500000,,,
1.1479999982,8,151928.2500000000,152007.4843750000,177816.9687500000,170793.3281250000,160936.4843750000,162048.1718750000,64303.3164062500,177015.5937500000,,,
1.1519999981,9,151935.2500000000,152013.9218750000,177821.3906250000,170795.0781250000,160940.8437500000,162050.1875000000,64308.0898437500,177017.5781250000,,,
1.1559999981,9,151942.5781250000,152020.2812500000,177828.5000000000,170806.3125000000,160943.3125000000,162052.0312500000,64307.7421875000,177016.8281250000,,,
1.1599999981,9,151930.7187500000,152010.9375000000,177818.2500000000,170794.0625000000,160932.7031250000,162054.8281250000,64300.3632812500,177008.1406250000,,,
1.1639999980,9,151921.5781250000,152008.3906250000,177810.5312500000,170785.5468750000,160927.3593750000,162060.1406250000,64297.9218750000,177011.7187500000,,,
1.1679999980,9,151915.4062500000,152002.7343750000,177806.2812500000,170780.1875000000,160925.2968750000,162052.2812500000,64293.1210937500,177011.7968750000,,,
1.1719999979,9,151911.7812500000,151998.5000000000,177803.7656250000,170778.4687500000,160922.3750000000,162048.5156250000,64293.4960937500,177008.2500000000,,,
1.1759999981,9,151917.2343750000,152002.9531250000,177811.5156250000,170780.4062500000,160927.7031250000,162051.2031250000,64302.3750000000,177007.5312500000,,,
1.1799999981,9,151920.4218750000,152000.8906250000,177818.3906250000,170788.2812500000,160933.0781250000,162049.7500000000,64305.6484375000,177008.3125000000,,,
1.1839999980,9,151914.0156250000,151992.1718750000,177816.1093750000,170783.9375000000,160930.9843750000,162045.3593750000,64304.7343750000,177005.7812500000,,,
1.1879999980,9,151900.8593750000,151980.5781250000,177800.3593750000,170776.5156250000,160916.9531250000,162034.1406250000,64293.3359375000,176997.6875000000,,,
1.1919999979,9,151902.3437500000,151982.9218750000,177798.3281250000,170779.1875000000,160913.7343750000,162032.9375000000,64290.2265625000,176994.2500000000,,,
1.1959999981,9,151915.0781250000,151995.5156250000,177811.5468750000,170799.9218750000,160924.0937500000,162041.8125000000,64301.6250000000,176998.6718750000,,,
1.1999999981,9,151934.4531250000,152017.5625000000,177832.7968750000,170800.5781250000,160943.7812500000,162057.1875000000,64314.9570312500,177017.0468750000,,,
1.2039999980,9,151919.2187500000,151999.0156250000,177814.6250000000,170785.0937500000,160930.0468750000,162042.6250000000,64296.3945312500,177009.6406250000,,,
1.2079999980,9,151910.6250000000,151993.4375000000,177803.7656250000,170785.4687500000,160922.3750000000,162039.1406250000,64287.8632812500,177008.2031250000,,,
1.2119999980,9,151905.8281250000,151986.5625000000,177798.4531250000,170767.8750000000,160918.9062500000,162038.9218750000,64285.3710937500,177000.3906250000,,,
1.2159999979,9,151907.6250000000,151986.5625000000,177802.5937500000,170756.5781250000,160921.4375000000,162043.4218750000,64291.5117187500,176994.9531250000,,,
1.2199999981,9,151915.8125000000,151994.6562500000,177811.0156250000,170770.0781250000,160926.4687500000,162051.7656250000,64295.0546875000,177001.4843750000,,,
1.2239999981,9,151909.5000000000,151988.5468750000,177803.9531250000,170766.1406250000,160919.9375000000,162044.2812500000,64290.0898437500,177000.1718750000,,,
1.2279999980,9,151913.4531250000,151992.5156250000,177811.0625000000,170768.8437500000,160925.4843750000,162048.3906250000,64297.8710937500,177007.2343750000,,,
1.2319999980,9,151916.9375000000,151998.0625000000,177811.8125000000,170771.9531250000,160925.5625000000,162054.0781250000,64297.7343750000,177012.9218750000,,,
1.2359999979,9,151913.6562500000,152000.7031250000,177802.5937500000,170756.6718750000,160918.3750000000,162055.5468750000,64295.0820312500,177011.6875000000,,,
1.2399999981,9,151907.4062500000,151996.2656250000,177794.4062500000,170767.0468750000,160910.8125000000,162051.5781250000,64290.7617187500,177004.2812500000,,,
1.2439999981,9,151912.7187500000,152001.4531250000,177800.8437500000,170779.7343750000,160917.9218750000,162054.0781250000,64296.1250000000,177014.7187500000,,,
1.2479999980,9,151915.1406250000,151999.8906250000,177805.3750000000,170774.3437500000,160923.5312500000,162054.6406250000,64305.3281250000,177018.6875000000,,,
1.2519999980,9,151906.2656250000,151988.7031250000,177797.8437500000,170767.4687500000,160917.0312500000,162048.8437500000,64302.3476562500,177008.9218750000,,,
1.2559999980,9,151905.2656250000,151987.1250000000,177799.5625000000,170775.7031250000,160916.9218750000,162047.3437500000,64302.7773437500,176999.6093750000,,,
1.2599999979,9,151910.1250000000,151991.5000000000,177806.2656250000,170780.0312500000,160922.7968750000,162052.1406250000,64308.8671875000,177001.9687500000,,,
1.2639999981,9,151903.8125000000,151988.6250000000,177796.8281250000,170778.8125000000,160916.1250000000,162054.6875000000,64302.6445312500,177004.4218750000,,,
1.2679999981,9,151903.3906250000,151989.7500000000,177794.9687500000,170779.4843750000,160914.4375000000,162055.3906250000,64298.3242187500,177008.2031250000,,,
1.2719999980,9,151897.3750000000,151980.5312500000,177791.2968750000,170772.8593750000,160910.1093750000,162046.2968750000,64294.2773437500,176997.0468750000,,,
1.2759999980,9,151898.5000000000,151980.6093750000,177793.7656250000,170769.8906250000,160910.9687500000,162047.3437500000,64296.3398437500,176993.4218750000,,,
1.2799999979,10,151904.6562500000,151982.9218750000,177798.3437500000,170768.3906250000,160916.0156250000,162049.5468750000,64300.2851562500,176995.0468750000,,,
1.2839999979,10,151903.8125000000,151982.7812500000,177795.7812500000,170761.2812500000,160916.0468750000,162047.6875000000,64301.2226562500,176998.9375000000,,,
1.2879999978,10,151907.2968750000,151988.3281250000,177797.7812500000,170766.0468750000,160919.2656250000,162052.5000000000,64305.4609375000,177008.0625000000,,,
1.2919999978,10,151918.5468750000,151998.0937500000,177807.4375000000,170775.7812500000,160927.0312500000,162059.5156250000,64312.0312500000,177016.1406250000,,,
1.2959999978,10,151927.5625000000,152004.4843750000,177817.7656250000,170790.0000000000,160932.7187500000,162060.1406250000,64316.9921875000,177016.2500000000,,,
1.2999999977,10,151926.2343750000,152007.1562500000,177814.7343750000,170783.3281250000,160928.8281250000,162061.6718750000,64313.7734375000,177016.4843750000,,,
1.3039999979,10,151926.6406250000,152010.2187500000,177811.9687500000,170781.0156250000,160927.2812500000,162069.5781250000,64313.3203125000,177023.1718750000,,,
1.3079999979,10,151922.6406250000,152004.5937500000,177811.5937500000,170784.2187500000,160926.8750000000,162068.1562500000,64315.1171875000,177022.9687500000,,,
1.3119999978,10,151916.5312500000,151997.2187500000,177807.4218750000,170777.4218750000,160922.8750000000,162060.6718750000,64315.5195312500,177015.8437500000,,,
1.3159999978,10,151920.3125000000,152000.8281250000,177812.8125000000,170784.2343750000,160926.3437500000,162065.7656250000,64322.3046875000,177014.2343750000,,,
1.3199999977,10,151930.7500000000,152010.6718750000,177825.9687500000,170795.1562500000,160938.2187500000,162076.0156250000,64335.9570312500,177021.0156250000,,,
1.3239999979,10,151924.3593750000,152005.3906250000,177817.5000000000,170795.6093750000,160934.0156250000,162073.5781250000,64330.9687500000,177021.2343750000,,,
1.3279999979,10,151906.3437500000,151983.6406250000,177800.1406250000,170772.4687500000,160918.3750000000,162059.5468750000,64317.9609375000,177007.2031250000,,,
1.3319999978,10,151902.1250000000,151978.2187500000,177797.7031250000,170757.3906250000,160914.0312500000,162058.3125000000,64321.1523437500,177000.3125000000,,,
1.3359999978,10,151905.3125000000,151987.5312500000,177799.4531250000,170750.7343750000,160913.7812500000,162068.0468750000,64326.7031250000,177003.0468750000,,,
1.3399999978,10,151897.2968750000,151983.8750000000,177788.5000000000,170752.8593750000,160904.0312500000,162064.7031250000,64322.1171875000,176996.9375000000,,,
1.3439999977,10,151903.3125000000,151993.5625000000,177794.2968750000,170768.1718750000,160909.6093750000,162076.5781250000,64327.7773437500,177009.5156250000,,,
1.3479999979,10,151906.6093750000,151995.8906250000,177803.0937500000,170771.4687500000,160917.0937500000,162083.6562500000,64336.2265625000,177017.3437500000,,,
1.3519999979,10,151907.8906250000,151997.9843750000,177804.2812500000,170773.2656250000,160920.2187500000,162086.6875000000,64345.1562500000,177019.2187500000,,,
1.3559999978,10,151909.4531250000,151997.4531250000,177805.0625000000,170772.0312500000,160922.3437500000,162090.1562500000,64352.2109375000,177018.7656250000,,,
1.3599999978,10,151914.6875000000,152001.2343750000,177809.0781250000,170768.3125000000,160926.6406250000,162093.7500000000,64353.3359375000,177023.4062500000,,,
1.3639999977,10,151913.9062500000,151998.9843750000,177809.6718750000,170771.0156250000,160929.5937500000,162093.9375000000,64359.7226562500,177029.4687500000,,,
1.3679999979,10,151912.5000000000,151997.4843750000,177809.0000000000,170781.7187500000,160931.7031250000,162102.2812500000,64372.0312500000,177034.1406250000,,,
1.3719999979,10,151919.5156250000,152002.9218750000,177814.7656250000,170791.0000000000,160936.5312500000,162108.2031250000,64380.9921875000,177037.6250000000,,,
1.3759999978,10,151925.6250000000,152008.2343750000,177817.3125000000,170774.0781250000,160938.1093750000,162108.5000000000,64383.0312500000,177035.7656250000,,,
1.3799999978,10,151941.8281250000,152021.9687500000,177837.9687500000,170761.2812500000,160956.3593750000,162125.3750000000,64404.5156250000,177046.6562500000,,,
1.3839999977,10,151944.6875000000,152029.2968750000,177839.2500000000,170759.7187500000,160959.7656250000,162142.1250000000,64416.6914062500,177064.2812500000,,,
1.3879999977,10,151939.7656250000,152028.8125000000,177822.4843750000,170785.0156250000,160948.8906250000,162137.6562500000,64406.5273437500,177069.2500000000,,,
1.3919999979,10,151936.5937500000,152023.4218750000,177819.9218750000,170766.1406250000,160948.0937500000,162133.5781250000,64402.9570312500,177064.6250000000,,,
1.3959999979,10,151937.6093750000,152023.4218750000,177824.7187500000,170759.6093750000,160952.0156250000,162139.8281250000,64412.6406250000,177062.5156250000,,,
1.3999999978,10,151944.0000000000,152029.9375000000,177835.7968750000,170766.4218750000,160962.1406250000,162148.0312500000,64428.2539062500,177066.5625000000,,,
1.4039999978,10,151941.3437500000,152028.5468750000,177834.2656250000,170785.2812500000,160961.4843750000,162148.5937500000,64423.5859375000,177068.4375000000,,,
1.4079999977,11,151932.4375000000,152021.4062500000,177827.2031250000,170767.4531250000,160956.5937500000,162149.4062500000,64413.3671875000,177067.3593750000,,,
1.4119999977,11,151923.2656250000,152012.4218750000,177821.7968750000,170747.0156250000,160951.6875000000,162151.0312500000,64415.2148437500,177059.8593750000,,,
1.4159999976,11,151926.0468750000,152013.6875000000,177823.6093750000,170751.6718750000,160949.7500000000,162147.6250000000,64418.4335937500,177052.7968750000,,,
1.4199999976,11,151930.7968750000,152017.1093750000,177827.2031250000,170753.9531250000,160949.6718750000,162141.7812500000,64416.7187500000,177051.3281250000,,,
1.4239999976,11,151936.4843750000,152024.6562500000,177831.9375000000,170761.7656250000,160953.3750000000,162143.5312500000,64421.3320312500,177061.0937500000,,,
1.4279999975,11,151919.1562500000,152010.9687500000,177809.6406250000,170748.5625000000,160934.9218750000,162135.5937500000,64404.1406250000,177053.6093750000,,,
1.4319999977,11,151915.1406250000,152004.3750000000,177805.6718750000,170753.2343750000,160931.0937500000,162130.3281250000,64398.5585937500,177045.9375000000,,,
1.4359999977,11,151923.9375000000,152012.1562500000,177818.7656250000,170755.7187500000,160942.1875000000,162130.1406250000,64408.2695312500,177048.2656250000,,,
1.4399999976,11,151918.7500000000,152005.8437500000,177810.3125000000,170755.2500000000,160934.1250000000,162118.4687500000,64396.3867187500,177041.6250000000,,,
1.4439999976,11,151910.7031250000,152001.1875000000,177800.7031250000,170749.7187500000,160924.8906250000,162118.0000000000,64387.1875000000,177039.3437500000,,,
1.4479999975,11,151907.1718750000,151998.0937500000,177799.6406250000,170748.0000000000,160923.6562500000,162122.4218750000,64382.2773437500,177041.4375000000,,,
1.4519999977,11,151902.7968750000,151990.7187500000,177794.5625000000,170747.2031250000,160917.7500000000,162112.4062500000,64373.3203125000,177034.4843750000,,,
1.4559999977,11,151900.0625000000,151984.8437500000,177793.5000000000,170739.7187500000,160915.2968750000,162102.8906250000,64375.0898437500,177024.5625000000,,,
1.4599999976,11,151902.3906250000,151986.5312500000,177798.1093750000,170738.4843750000,160920.8906250000,162104.9843750000,64382.8945312500,177024.8593750000,,,
1.4639999976,11,151906.2031250000,151989.7812500000,177801.4375000000,170751.4375000000,160926.0781250000,162108.2343750000,64383.9960937500,177032.1562500000,,,
1.4679999975,11,151910.2812500000,151992.5781250000,177804.4843750000,170769.6250000000,160927.7656250000,162108.8125000000,64386.4648437500,177037.8281250000,,,
1.4719999975,11,151915.8906250000,151996.7500000000,177808.4843750000,170768.1718750000,160928.9218750000,162107.6093750000,64389.7343750000,177041.3437500000,,,
1.4759999977,11,151918.6562500000,151996.6562500000,177810.4531250000,170763.9062500000,160928.3593750000,162100.9062500000,64391.6406250000,177038.2968750000,,,
1.4799999977,11,151910.8125000000,151990.5937500000,177800.6875000000,170750.3906250000,160920.5781250000,162093.3906250000,64386.1132812500,177030.5937500000,,,
1.4839999976,11,151893.3593750000,151975.1718750000,177786.2187500000,170739.4218750000,160909.9218750000,162083.3125000000,64377.6406250000,177019.5156250000,,,
1.4879999976,11,151890.8593750000,151973.5312500000,177786.2031250000,170756.3750000000,160909.7343750000,162084.2500000000,64377.2382812500,177019.6250000000,,,
1.4919999975,11,151889.7031250000,151975.1718750000,177787.1875000000,170743.3906250000,160911.2968750000,162092.6718750000,64382.2265625000,177022.7031250000,,,
1.4959999977,11,151884.4843750000,151970.5468750000,177781.3750000000,170711.5156250000,160906.8125000000,162092.1562500000,64382.2265625000,177014.1250000000,,,
1.4999999977,11,151885.4218750000,151971.2500000000,177782.0625000000,170719.7500000000,160906.4375000000,162089.2343750000,64383.6992187500,177011.8750000000,,,
1.5039999976,11,151884.6406250000,151973.0937500000,177780.4375000000,170715.9218750000,160906.4687500000,162094.0937500000,64387.0781250000,177017.7500000000,,,
1.5079999976,11,151882.5000000000,151972.0781250000,177777.3750000000,170715.4062500000,160904.9062500000,162096.2343750000,64388.0742187500,177020.8593750000,,,
1.5119999975,11,151884.7500000000,151972.7187500000,177779.3593750000,170720.7812500000,160905.9062500000,162096.9375000000,64389.4140625000,177019.4687500000,,,
1.5159999975,11,151891.5937500000,151977.5468750000,177784.3437500000,170726.1406250000,160908.9062500000,162103.7031250000,64396.1171875000,177019.0625000000,,,
1.5199999977,11,151900.8593750000,151986.4218750000,177792.4687500000,170730.2187500000,160914.6250000000,162112.0312500000,64405.1835937500,177022.5781250000,,,
1.5239999976,11,151905.6093750000,151991.2812500000,177796.4375000000,170723.8906250000,160918.8281250000,162114.8281250000,64409.7187500000,177028.7500000000,,,
1.5279999976,11,151907.1406250000,151991.2500000000,177797.6250000000,170718.1718750000,160923.3437500000,162110.7031250000,64414.6796875000,177034.2968750000,,,
1.5319999976,11,151909.1875000000,151987.5000000000,177803.5468750000,170724.9843750000,160931.1718750000,162109.5781250000,64420.6093750000,177031.5937500000,,,
1.5359999975,12,151916.6406250000,151995.9218750000,177810.3906250000,170742.5625000000,160938.6718750000,162120.8125000000,64430.4531250000,177029.7343750000,,,
1.5399999975,12,151912.4531250000,151991.7968750000,177803.5468750000,170739.2031250000,160932.9062500000,162122.2812500000,64425.3828125000,177027.1406250000,,,
1.5439999974,12,151910.4375000000,151990.0781250000,177803.3437500000,170731.7187500000,160933.6875000000,162124.9687500000,64429.6992187500,177031.6093750000,,,
1.5479999974,12,151905.5312500000,151986.8906250000,177800.8750000000,170723.5937500000,160931.3906250000,162124.1093750000,64428.0898437500,177034.8906250000,,,
1.5519999973,12,151914.6562500000,151993.0000000000,177806.5781250000,170752.8906250000,160938.0156250000,162130.9218750000,64428.5195312500,177041.3750000000,,,
1.5559999973,12,151917.9062500000,151993.0000000000,177811.3906250000,170747.7031250000,160941.0625000000,162130.8437500000,64430.2109375000,177035.0937500000,,,
1.5599999975,12,151917.2031250000,151990.5937500000,177814.1250000000,170738.2656250000,160941.6875000000,162124.6718750000,64432.4648437500,177029.1718750000,,,
1.5639999975,12,151909.7187500000,151981.5468750000,177807.4687500000,170736.8906250000,160934.5156250000,162112.7343750000,64423.4492187500,177021.6093750000,,,
1.5679999974,12,151907.5468750000,151981.5937500000,177804.6250000000,170727.7968750000,160932.2343750000,162114.1093750000,64421.3867187500,177023.1093750000,,,
1.5719999974,12,151908.0781250000,151982.5937500000,177804.2187500000,170733.9218750000,160931.5937500000,162113.6718750000,64421.6796875000,177022.3125000000,,,
1.5759999973,12,151910.1718750000,151986.9687500000,177804.2031250000,170749.8593750000,160932.0781250000,162111.8281250000,64422.1367187500,177019.9531250000,,,
1.5799999975,12,151908.9687500000,151989.6250000000,177804.6250000000,170751.7031250000,160932.6718750000,162110.1562500000,64422.9414062500,177019.8437500000,,,
1.5839999975,12,151901.0000000000,151983.8750000000,177799.2656250000,170745.7187500000,160928.9218750000,162108.7343750000,64419.0507812500,177021.0937500000,,,
1.5879999974,12,151877.6875000000,151958.9375000000,177774.9843750000,170727.1562500000,160907.5625000000,162089.1250000000,64396.5195312500,177004.4687500000,,,
1.5919999974,12,151865.4843750000,151947.0781250000,177765.0625000000,170708.0937500000,160896.0000000000,162075.4843750000,64386.8125000000,176990.8125000000,,,
1.5959999973,12,151862.0781250000,151944.1562500000,177760.1875000000,170711.8750000000,160889.1875000000,162068.9375000000,64381.9843750000,176981.7968750000,,,
1.5999999973,12,151867.5781250000,151948.9843750000,177762.6562500000,170723.0312500000,160891.0468750000,162070.5781250000,64382.1718750000,176982.9062500000,,,
1.6039999975,12,151873.2343750000,151955.7187500000,177767.3906250000,170724.0468750000,160895.6093750000,162074.8593750000,64387.5625000000,176994.0625000000,,,
1.6079999974,12,151884.3437500000,151963.7187500000,177779.0625000000,170734.6718750000,160904.7500000000,162078.8125000000,64396.0664062500,177007.4218750000,,,
1.6119999974,12,151887.6718750000,151969.0000000000,177779.6875000000,170723.0781250000,160903.3750000000,162082.9375000000,64393.5976562500,177015.5468750000,,,
1.6159999974,12,151890.1875000000,151972.7500000000,177780.5468750000,170719.3750000000,160903.9687500000,162089.0468750000,64394.4296875000,177016.1406250000,,,
1.6199999973,12,151895.3437500000,151978.4375000000,177786.0312500000,170723.9687500000,160911.0468750000,162094.8437500000,64402.5546875000,177020.4218750000,,,
1.6239999975,12,151896.6250000000,151981.6562500000,177790.8906250000,170718.5781250000,160917.1406250000,162099.2500000000,64410.7656250000,177028.7656250000,,,
1.6279999975,12,151885.9531250000,151968.5312500000,177782.9843750000,170720.0468750000,160911.6718750000,162092.4531250000,64407.7851562500,177025.2031250000,,,
1.6319999974,12,151878.2500000000,151959.6562500000,177774.7968750000,170715.8750000000,160905.8437500000,162088.4062500000,64403.1484375000,177018.4218750000,,,
1.6359999974,12,151878.9531250000,151959.5468750000,177776.3750000000,170712.4843750000,160906.4375000000,162091.0156250000,64410.2812500000,177013.8593750000,,,
1.6399999973,12,151888.3906250000,151967.8437500000,177786.7968750000,170733.4687500000,160915.8593750000,162101.7968750000,64423.9335937500,177019.6250000000,,,
1.6439999973,12,151882.7656250000,151963.2812500000,177783.5156250000,170723.8593750000,160914.9218750000,162102.7812500000,64425.9179687500,177022.7812500000,,,
1.6479999975,12,151885.4218750000,151968.3750000000,177788.3125000000,170716.1406250000,160920.1718750000,162112.6562500000,64433.2695312500,177031.8281250000,,,
1.6519999974,12,151888.6406250000,151969.4218750000,177789.0156250000,170724.6875000000,160921.0312500000,162114.8750000000,64437.6132812500,177030.3593750000,,,
1.6559999974,12,151890.5468750000,151965.9687500000,177787.3281250000,170719.7500000000,160918.1875000000,162112.8125000000,64437.4257812500,177019.2812500000,,,
1.6599999974,12,151901.1406250000,151972.7031250000,177798.1093750000,170726.8593750000,160927.8906250000,162118.7968750000,64446.8671875000,177019.4843750000,,,
1.6639999973,13,151907.6718750000,151978.7031250000,177805.6250000000,170722.5937500000,160937.6562500000,162125.0156250000,64452.9296875000,177028.7656250000,,,
1.6679999973,13,151909.0937500000,151976.6875000000,177811.3906250000,170706.6093750000,160946.5156250000,162128.5625000000,64460.6250000000,177035.0937500000,,,
1.6719999972,13,151910.0625000000,151974.4062500000,177816.8593750000,170702.4843750000,160951.7187500000,162128.2656250000,64470.6054687500,177032.0937500000,,,
1.6759999972,13,151913.3593750000,151985.8593750000,177812.9687500000,170694.3593750000,160950.1875000000,162135.6093750000,64474.3593750000,177033.7656250000,,,
1.6799999971,13,151921.1250000000,151997.7187500000,177814.6093750000,170707.4218750000,160951.6562500000,162143.5312500000,64475.2968750000,177039.6875000000,,,
1.6839999971,13,151909.2812500000,151990.6875000000,177800.0625000000,170697.3593750000,160938.2031250000,162148.1718750000,64464.6757812500,177041.1406250000,,,
1.6879999973,13,151890.7812500000,151973.1250000000,177783.4843750000,170691.8906250000,160920.7812500000,162138.6406250000,64451.6953125000,177035.5000000000,,,
1.6919999972,13,151893.3281250000,151974.1250000000,177789.0468750000,170705.2968750000,160924.0312500000,162136.9062500000,64458.0781250000,177037.2500000000,,,
1.6959999972,13,151893.2031250000,151973.5781250000,177790.8906250000,170706.8906250000,160924.5468750000,162135.0000000000,64463.6289062500,177036.0625000000,,,
1.6999999972,13,151891.5937500000,151970.3437500000,177790.7656250000,170709.3281250000,160923.0468750000,162127.7812500000,64460.8398437500,177033.8125000000,,,
1.7039999971,13,151885.6250000000,151963.0625000000,177786.5781250000,170709.0312500000,160919.7656250000,162120.4062500000,64455.0195312500,177035.2812500000,,,
1.7079999973,13,151885.6093750000,151967.5000000000,177786.6562500000,170710.3125000000,160919.5312500000,162116.7812500000,64447.5351562500,177043.8125000000,,,
1.7119999973,13,151878.6562500000,151962.9375000000,177782.2812500000,170701.3281250000,160912.7343750000,162108.4218750000,64434.7148437500,177039.6093750000,,,
1.7159999972,13,151868.7343750000,151952.5781250000,177774.1250000000,170705.8437500000,160903.0000000000,162100.3750000000,64423.1015625000,177025.3125000000,,,
1.7199999972,13,151867.4531250000,151952.0625000000,177771.2031250000,170715.0156250000,160899.0156250000,162094.6250000000,64417.3085937500,177018.3437500000,,,
1.7239999971,13,151855.5156250000,151940.9062500000,177756.6093750000,170708.3593750000,160884.8750000000,162080.3125000000,64403.0390625000,177008.1406250000,,,
1.7279999971,13,151851.8125000000,151937.6406250000,177752.6250000000,170705.5625000000,160880.1875000000,162081.7812500000,64396.9218750000,177004.9218750000,,,
1.7319999973,13,151850.7656250000,151936.7500000000,177753.7656250000,170695.3437500000,160880.5000000000,162087.6562500000,64396.8164062500,177002.0000000000,,,
1.7359999972,13,151852.9062500000,151937.1093750000,177753.2031250000,170699.1875000000,160881.0156250000,162087.8750000000,64398.3437500000,176996.2656250000,,,
1.7399999972,13,151863.6406250000,151945.1250000000,177760.9062500000,170709.3750000000,160890.3750000000,162090.6406250000,64405.0234375000,176996.1562500000,,,
1.7439999972,13,151862.3437500000,151938.0937500000,177759.2656250000,170713.9062500000,160889.0000000000,162082.5937500000,64399.9296875000,176990.8125000000,,,
1.7479999971,13,151859.8750000000,151932.1093750000,177759.1406250000,170709.5156250000,160888.7968750000,162076.9531250000,64397.1914062500,176986.4687500000,,,
1.7519999973,13,151855.7500000000,151927.5625000000,177754.7656250000,170693.7343750000,160885.0312500000,162071.6718750000,64391.0234375000,176982.1562500000,,,
1.7559999973,13,151855.7031250000,151928.2187500000,177753.0156250000,170696.6406250000,160880.1875000000,162069.1718750000,64382.5195312500,176977.6250000000,,,
1.7599999972,13,151864.6250000000,151939.2500000000,177761.1718750000,170716.4843750000,160884.9531250000,162069.7343750000,64384.4531250000,176983.7031250000,,,
1.7639999972,13,151872.8125000000,151947.6406250000,177770.1093750000,170730.2187500000,160891.8281250000,162071.3750000000,64388.5273437500,176996.2656250000,,,
1.7679999971,13,151858.1718750000,151936.1875000000,177751.6718750000,170704.4218750000,160878.0000000000,162061.6093750000,64375.6796875000,176992.4531250000,,,
1.7719999971,13,151847.9531250000,151931.2812500000,177739.9062500000,170683.0312500000,160867.5468750000,162052.9531250000,64366.3476562500,176988.7031250000,,,
1.7759999973,13,151845.9843750000,151933.7031250000,177736.2500000000,170680.3281250000,160862.2031250000,162050.8906250000,64364.5234375000,176988.4218750000,,,
1.7799999972,13,151850.4375000000,151944.0468750000,177741.1093750000,170686.9062500000,160863.0468750000,162060.0000000000,64367.1796875000,176994.2812500000,,,
1.7839999972,13,151844.1406250000,151933.8281250000,177738.1562500000,170695.4375000000,160856.0156250000,162053.0312500000,64358.1640625000,176992.9375000000,,,
1.7879999971,13,151826.3281250000,151911.3593750000,177722.4218750000,170695.3437500000,160839.6562500000,162035.7343750000,64339.2031250000,176981.0312500000,,,
1.7919999971,14,151833.0000000000,151917.2500000000,177729.5468750000,170704.2343750000,160847.8906250000,162040.5000000000,64344.7539062500,176986.4687500000,,,
1.7959999971,14,151836.5468750000,151918.1406250000,177733.9531250000,170705.3281250000,160851.4218750000,162038.9218750000,64344.1367187500,176982.2656250000,,,
1.7999999970,14,151838.5625000000,151918.2968750000,177735.6875000000,170711.8750000000,160853.3906250000,162039.2187500000,64342.8789062500,176978.4531250000,,,
1.8039999970,14,151838.9843750000,151918.9687500000,177736.5781250000,170704.7656250000,160855.4218750000,162039.0000000000,64344.1640625000,176982.9843750000,,,
1.8079999969,14,151832.2500000000,151909.9062500000,177733.1250000000,170686.9062500000,160852.7968750000,162029.4843750000,64342.7968750000,176982.3906250000,,,
1.8119999969,14,151824.1562500000,151906.0156250000,177719.8437500000,170674.7187500000,160839.7656250000,162027.5781250000,64333.0351562500,176978.3750000000,,,
1.8159999971,14,151816.6718750000,151904.2187500000,177705.4062500000,170666.6718750000,160825.1406250000,162025.7812500000,64322.5195312500,176972.2812500000,,,
1.8199999970,14,151817.2968750000,151902.6093750000,177707.1562500000,170669.5468750000,160826.2656250000,162024.2500000000,64321.7421875000,176966.4062500000,,,
1.8239999970,14,151824.4531250000,151907.1406250000,177716.4843750000,170682.6875000000,160837.1250000000,162031.7812500000,64328.6601562500,176972.1562500000,,,
1.8279999970,14,151820.6406250000,151901.6718750000,177714.9375000000,170674.7187500000,160835.1718750000,162029.9062500000,64325.3906250000,176973.3281250000,,,
1.8319999969,14,151828.6875000000,151909.4218750000,177724.9062500000,170683.5000000000,160843.6250000000,162043.0468750000,64332.6835937500,176978.6093750000,,,
1.8359999971,14,151839.3125000000,151918.7500000000,177737.0312500000,170697.4687500000,160853.8750000000,162054.1093750000,64341.5078125000,176982.7187500000,,,
1.8399999971,14,151831.7968750000,151907.6718750000,177735.9687500000,170686.5000000000,160851.9843750000,162045.3281250000,64341.4843750000,176970.3281250000,,,
1.8439999970,14,151815.3593750000,151889.3125000000,177722.7968750000,170656.1406250000,160839.9687500000,162029.5937500000,64330.6718750000,176955.5937500000,,,
1.8479999970,14,151808.6562500000,151886.8125000000,177711.0156250000,170656.2656250000,160831.9531250000,162028.3593750000,64323.9687500000,176953.2187500000,,,
1.8519999969,14,151806.6406250000,151883.7500000000,177707.7187500000,170671.6093750000,160828.7343750000,162022.7187500000,64323.2968750000,176949.5625000000,,,
1.8559999969,14,151807.2812500000,151880.7187500000,177707.8281250000,170683.3906250000,160825.6562500000,162013.7343750000,64321.7968750000,176941.4687500000,,,
1.8599999971,14,151810.3125000000,151884.5000000000,177707.4687500000,170701.0156250000,160823.2031250000,162015.7500000000,64319.5937500000,176940.5781250000,,,
1.8639999970,14,151817.6875000000,151894.4531250000,177712.2187500000,170723.3281250000,160826.3750000000,162023.9062500000,64321.8750000000,176953.5625000000,,,
1.8679999970,14,151814.8750000000,151896.1718750000,177708.3281250000,170727.6093750000,160824.5312500000,162023.6250000000,64318.6835937500,176963.0312500000,,,
1.8719999969,14,151811.5156250000,151895.8437500000,177705.4375000000,170719.8906250000,160823.7656250000,162022.9687500000,64318.2812500000,176968.4531250000,,,
1.8759999969,14,151815.7656250000,151898.8281250000,177715.0625000000,170714.7968750000,160831.1250000000,162027.2812500000,64328.0429687500,176968.7656250000,,,
1.8799999971,14,151817.3750000000,151901.1093750000,177720.1875000000,170698.7031250000,160834.6093750000,162028.7500000000,64332.4960937500,176968.3593750000,,,
1.8839999971,14,151812.3750000000,151899.3125000000,177713.2968750000,170699.3750000000,160828.9218750000,162025.3281250000,64327.4023437500,176972.1718750000,,,
1.8879999970,14,151811.0156250000,151900.3281250000,177708.2812500000,170707.1250000000,160827.0156250000,162026.6406250000,64326.1679687500,176978.2343750000,,,
1.8919999970,14,151818.4375000000,151907.8437500000,177712.6875000000,170715.8125000000,160831.5781250000,162031.6250000000,64328.4218750000,176987.0312500000,,,
1.8959999969,14,151823.2500000000,151905.4062500000,177720.7500000000,170717.0468750000,160838.2343750000,162029.7187500000,64335.1523437500,176982.4687500000,,,
1.8999999969,14,151823.0312500000,151903.4687500000,177721.5781250000,170717.2031250000,160837.8750000000,162023.4687500000,64333.9453125000,176974.8593750000,,,
1.9039999971,14,151828.4218750000,151905.7812500000,177726.6562500000,170717.9062500000,160842.6250000000,162027.2031250000,64337.4335937500,176978.3750000000,,,
1.9079999970,14,151826.4843750000,151903.6093750000,177723.4843750000,170707.7656250000,160841.4531250000,162030.9062500000,64334.8828125000,176982.1875000000,,,
1.9119999970,14,151826.1718750000,151903.9843750000,177722.6875000000,170698.8437500000,160842.6093750000,162032.8281250000,64338.1835937500,176983.4062500000,,,
1.9159999969,14,151824.5312500000,151904.4687500000,177721.7187500000,170687.6562500000,160840.7031250000,162034.0468750000,64338.5859375000,176980.9218750000,,,
1.9199999969,15,151819.0625000000,151899.3593750000,177715.2500000000,170682.3437500000,160833.4062500000,162031.4843750000,64334.9101562500,176975.4687500000,,,
1.9239999969,15,151817.9531250000,151897.2187500000,177713.9687500000,170684.7031250000,160832.3281250000,162029.9375000000,64336.7890625000,176977.4843750000,,,
1.9279999968,15,151811.6093750000,151888.7968750000,177711.4531250000,170685.3125000000,160828.7812500000,162026.5000000000,64334.4804687500,176976.4062500000,,,
1.9319999968,15,151814.7343750000,151891.1562500000,177715.5468750000,170699.6718750000,160831.3593750000,162034.3125000000,64334.5625000000,176977.1875000000,,,
1.9359999967,15,151814.6093750000,151892.0937500000,177714.9843750000,170687.4375000000,160830.7968750000,162042.5625000000,64333.1679687500,176976.0156250000,,,
1.9399999967,15,151803.0781250000,151880.1875000000,177700.2031250000,170667.5156250000,160817.9218750000,162032.5625000000,64321.2578125000,176963.8593750000,,,
1.9439999969,15,151801.5468750000,151876.5937500000,177696.0156250000,170673.0312500000,160816.5781250000,162028.3281250000,64319.7304687500,176959.1875000000,,,
1.9479999968,15,151812.0625000000,151889.9843750000,177706.9687500000,170684.0312500000,160827.3593750000,162035.9218750000,64330.1367187500,176971.4531250000,,,
1.9519999968,15,151820.1875000000,151900.8593750000,177713.4375000000,170688.9375000000,160833.4218750000,162043.6093750000,64334.3476562500,176980.5156250000,,,
1.9559999967,15,151818.0937500000,151893.7656250000,177711.0781250000,170696.2343750000,160829.7343750000,162035.9218750000,64328.9843750000,176969.6875000000,,,
1.9599999967,15,151816.2187500000,151890.5937500000,177706.5937500000,170703.2812500000,160823.5312500000,162029.6093750000,64322.4921875000,176960.4843750000,,,
1.9639999969,15,151816.6718750000,151894.1093750000,177706.1406250000,170703.7968750000,160821.6250000000,162033.0937500000,64319.5703125000,176967.5937500000,,,
1.9679999969,15,151808.7812500000,151890.1875000000,177699.0000000000,170693.1562500000,160814.7031250000,162032.6406250000,64316.4570312500,176969.3906250000,,,
1.9719999968,15,151811.5468750000,151897.5156250000,177702.8437500000,170690.6562500000,160819.5156250000,162039.0000000000,64320.2656250000,176975.6093750000,,,
1.9759999968,15,151817.3750000000,151907.1406250000,177707.3906250000,170694.5156250000,160823.6875000000,162044.0468750000,64323.2968750000,176977.1718750000,,,
1.9799999967,15,151814.9218750000,151903.7343750000,177705.3906250000,170695.5156250000,160821.3593750000,162040.8593750000,64323.0273437500,176971.0468750000,,,
1.9839999967,15,151814.2343750000,151898.0000000000,177705.2500000000,170701.4687500000,160821.2812500000,162039.2656250000,64323.1640625000,176968.7343750000,,,
1.9879999969,15,151807.8750000000,151891.6718750000,177698.8906250000,170689.1562500000,160817.0156250000,162037.6093750000,64318.5234375000,176968.0937500000,,,
1.9919999968,15,151804.9218750000,151891.2031250000,177697.7187500000,170679.9843750000,160817.3906250000,162039.5156250000,64319.4882812500,176968.5781250000,,,
1.9959999968,15,151806.9843750000,151892.8750000000,177700.0000000000,170681.4218750000,160819.7968750000,162040.0156250000,64323.7539062500,176967.5156250000,,,
1.9999999967,15,151803.2031250000,151885.6875000000,177695.3750000000,170682.0781250000,160816.1875000000,162034.2812500000,64322.6250000000,176960.4843750000,,,
2.0039999967,15,151805.4062500000,151886.1718750000,177698.5937500000,170687.5937500000,160820.1562500000,162034.8437500000,64326.5156250000,176964.9531250000,,,
2.0079999969,15,151806.9062500000,151887.1562500000,177702.1718750000,170695.0312500000,160822.9218750000,162032.8593750000,64326.1132812500,176970.5468750000,,,
2.0119999968,15,151804.3906250000,151884.1875000000,177702.7031250000,170684.5156250000,160822.2656250000,162032.8125000000,64325.1210937500,176969.3593750000,,,
2.0159999968,15,151791.3281250000,151872.5937500000,177687.5156250000,170660.0468750000,160806.8437500000,162023.9218750000,64312.0039062500,176954.3593750000,,,
2.0199999968,15,151789.3906250000,151869.4531250000,177686.2656250000,170664.4531250000,160803.4375000000,162019.7968750000,64311.5234375000,176946.3437500000,,,
2.0239999967,15,151796.6406250000,151879.8125000000,177693.5781250000,170673.6250000000,160812.6718750000,162032.0000000000,64322.6250000000,176958.4687500000,,,
2.0279999967,15,151788.6093750000,151870.2031250000,177687.0625000000,170667.0000000000,160808.2187500000,162025.9375000000,64320.3476562500,176956.9687500000,,,
2.0319999969,15,151786.2500000000,151868.3125000000,177683.2500000000,170662.6562500000,160806.1250000000,162024.7343750000,64320.4257812500,176955.0312500000,,,
2.0359999968,15,151795.5625000000,151880.7968750000,177690.6250000000,170669.2500000000,160812.5937500000,162033.4218750000,64326.3281250000,176961.7343750000,,,
2.0399999968,15,151798.8906250000,151880.3281250000,177694.4062500000,170677.8906250000,160815.9062500000,162033.2031250000,64330.9414062500,176957.6406250000,,,
2.0439999967,15,151797.4375000000,151874.9062500000,177693.7187500000,170686.7656250000,160817.3125000000,162033.9062500000,64332.1484375000,176954.7656250000,,,
2.0479999967,16,151793.9062500000,151871.1406250000,177692.0312500000,170678.8593750000,160815.9062500000,162029.0468750000,64327.6679687500,176957.4843750000,,,
2.0519999966,16,151789.9531250000,151867.7187500000,177688.2187500000,170682.6406250000,160810.6250000000,162024.4843750000,64321.6328125000,176958.4375000000,,,
2.0559999966,16,151797.6250000000,151879.2500000000,177693.2343750000,170687.0937500000,160813.0781250000,162030.6406250000,64323.0273437500,176964.7500000000,,,
2.0599999966,16,151801.3906250000,151885.4218750000,177692.1562500000,170682.2343750000,160812.6718750000,162037.6406250000,64324.1835937500,176970.6718750000,,,
2.0639999965,16,151797.5000000000,151882.0625000000,177687.9531250000,170668.6562500000,160809.3125000000,162040.5625000000,64321.6875000000,176973.5937500000,,,
2.0679999965,16,151790.7656250000,151877.7968750000,177683.1250000000,170665.3125000000,160805.1562500000,162039.4531250000,64313.9882812500,176975.7500000000,,,
2.0719999967,16,151791.9375000000,151880.5312500000,177683.8437500000,170670.2656250000,160806.1250000000,162043.9062500000,64317.7187500000,176977.8281250000,,,
2.0759999966,16,151793.0156250000,151876.5468750000,177684.1406250000,170676.9218750000,160807.4687500000,162043.0000000000,64322.4375000000,176969.1250000000,,,
2.0799999966,16,151791.3281250000,151873.2968750000,177682.5312500000,170679.1250000000,160805.0000000000,162039.8593750000,64320.8828125000,176961.6406250000,,,
2.0839999965,16,151790.5468750000,151872.7500000000,177681.2187500000,170675.6562500000,160805.0000000000,162038.0156250000,64322.0898437500,176961.4218750000,,,
2.0879999965,16,151789.2031250000,151871.9531250000,177680.5781250000,170671.6875000000,160804.8125000000,162032.6406250000,64319.5703125000,176965.1406250000,,,
2.0919999967,16,151793.8437500000,151874.7656250000,177684.6562500000,170675.5000000000,160807.0937500000,162033.5000000000,64319.1914062500,176968.7187500000,,,
2.0959999966,16,151798.8906250000,151880.1875000000,177687.5468750000,170693.0156250000,160806.3437500000,162037.2031250000,64321.1250000000,176968.8437500000,,,
2.0999999966,16,151793.7656250000,151875.8906250000,177680.7343750000,170686.6250000000,160797.0625000000,162039.1562500000,64314.5000000000,176963.4062500000,,,
2.1039999966,16,151789.2656250000,151874.1562500000,177677.4375000000,170652.2500000000,160794.0468750000,162042.4375000000,64311.9531250000,176961.2656250000,,,
2.1079999965,16,151786.3125000000,151870.0156250000,177678.2656250000,170644.0156250000,160796.0156250000,162041.0625000000,64315.8398437500,176961.7343750000,,,
2.1119999965,16,151780.7500000000,151857.3281250000,177673.9687500000,170639.7187500000,160793.4687500000,162031.7656250000,64312.0859375000,176952.2500000000,,,
2.1159999967,16,151782.8281250000,151856.5781250000,177675.9531250000,170640.8437500000,160797.2187500000,162032.2968750000,64316.3789062500,176946.6093750000,,,
2.1199999966,16,151790.4375000000,151864.5781250000,177685.7031250000,170648.0625000000,160806.4687500000,162042.2187500000,64324.4492187500,176951.0937500000,,,
2.1239999966,16,151791.6718750000,151869.2656250000,177686.6562500000,170652.8906250000,160807.5468750000,162046.1875000000,64324.4765625000,176958.3281250000,,,
2.1279999965,16,151792.5625000000,151873.5625000000,177688.4062500000,170660.6406250000,160808.8906250000,162047.1562500000,64324.3437500000,176966.9218750000,,,
2.1319999965,16,151794.1406250000,151876.4843750000,177686.7968750000,170666.5625000000,160808.1406250000,162047.3750000000,64321.9843750000,176971.0000000000,,,
2.1359999967,16,151793.9218750000,151874.8750000000,177687.9218750000,170664.9843750000,160808.4062500000,162041.5000000000,64323.0546875000,176966.4375000000,,,
2.1399999966,16,151795.3437500000,151877.6093750000,177691.0937500000,170669.1406250000,160810.4218750000,162040.0781250000,64328.4726562500,176965.1250000000,,,
2.1439999966,16,151802.6406250000,151885.5468750000,177697.7343750000,170675.9062500000,160815.5625000000,162045.9687500000,64333.6250000000,176976.8750000000,,,
2.1479999966,16,151794.7343750000,151879.7343750000,177687.2500000000,170682.2343750000,160805.9687500000,162040.5312500000,64326.5429687500,176978.9062500000,,,
2.1519999965,16,151791.8125000000,151879.3281250000,177682.6093750000,170685.6093750000,160801.2968750000,162041.5781250000,64323.2968750000,176979.7968750000,,,
2.1559999965,16,151788.1093750000,151872.6250000000,177677.4375000000,170672.0468750000,160797.6250000000,162037.9218750000,64321.0976562500,176971.8750000000,,,
2.1599999967,16,151790.3281250000,151873.9687500000,177680.2812500000,170657.3125000000,160800.8437500000,162038.9531250000,64326.5976562500,176970.0625000000,,,
2.1639999966,16,151791.0312500000,151877.1562500000,177682.4843750000,170665.3906250000,160804.5937500000,162044.8437500000,64328.9570312500,176975.9843750000,,,
2.1679999966,16,151782.1562500000,151866.2343750000,177677.5468750000,170668.0156250000,160800.4062500000,162037.2031250000,64325.2539062500,176972.6562500000,,,
2.1719999965,16,151783.4375000000,151868.7031250000,177679.4531250000,170680.0937500000,160801.8281250000,162036.9843750000,64327.1875000000,176976.8437500000,,,
2.1759999965,17,151784.2500000000,151870.2968750000,177680.5156250000,170672.6250000000,160802.5781250000,162037.3906250000,64329.8164062500,176977.8281250000,,,
2.1799999964,17,151781.3437500000,151870.1562500000,177680.8750000000,170645.4531250000,160802.4218750000,162036.6718750000,64332.3359375000,176975.2812500000,,,
2.1839999964,17,151768.1562500000,151855.3281250000,177664.2187500000,170641.4375000000,160789.8750000000,162025.7187500000,64321.1523437500,176965.9843750000,,,
2.1879999964,17,151772.9843750000,151854.8593750000,177668.9531250000,170654.7187500000,160794.1875000000,162025.0000000000,64319.5156250000,176967.9687500000,,,
2.1919999963,17,151777.0000000000,151858.0781250000,177672.0468750000,170664.7656250000,160794.2656250000,162024.6562500000,64318.1210937500,176968.7968750000,,,
2.1959999963,17,151780.3281250000,151860.0156250000,177676.6093750000,170681.4843750000,160794.5156250000,162027.0625000000,64327.1875000000,176962.2812500000,,,
2.1999999965,17,151786.7968750000,151863.8281250000,177682.9062500000,170693.8437500000,160798.2343750000,162031.6718750000,64328.2578125000,176960.2656250000,,,
2.2039999964,17,151773.1875000000,151851.7343750000,177668.6718750000,170657.3906250000,160786.2500000000,162023.4375000000,64318.3359375000,176952.9687500000,,,
2.2079999964,17,151762.6250000000,151843.7343750000,177659.3906250000,170640.1718750000,160778.7343750000,162016.9062500000,64311.7890625000,176948.6562500000,,,
2.2119999963,17,151763.5156250000,151844.8593750000,177662.4687500000,170638.6406250000,160781.2656250000,162013.5156250000,64312.7812500000,176951.4375000000,,,
2.2159999963,17,151767.2656250000,151850.0937500000,177666.3593750000,170644.2812500000,160783.5468750000,162012.2343750000,64316.4023437500,176952.6718750000,,,
2.2199999965,17,151777.4531250000,151864.1250000000,177673.2500000000,170669.2031250000,160790.4843750000,162025.8125000000,64323.5117187500,176958.4375000000,,,
2.2239999964,17,151779.2031250000,151866.6406250000,177678.1875000000,170666.1718750000,160794.1875000000,162031.3281250000,64326.5703125000,176960.4843750000,,,
2.2279999964,17,151775.5781250000,151859.6875000000,177680.0156250000,170648.2968750000,160795.7500000000,162030.3437500000,64327.9648437500,176959.5156250000,,,
2.2319999964,17,151768.5781250000,151851.3593750000,177667.1562500000,170654.7343750000,160786.8906250000,162028.4843750000,64322.3320312500,176952.7343750000,,,
2.2359999963,17,151769.8750000000,151857.3281250000,177664.2187500000,170640.1718750000,160785.2500000000,162034.7343750000,64322.0898437500,176951.7343750000,,,
2.2399999963,17,151772.7656250000,151855.2968750000,177668.5000000000,170645.1406250000,160788.2343750000,162027.5156250000,64327.2148437500,176946.8593750000,,,
2.2439999965,17,151775.2656250000,151853.5000000000,177668.9843750000,170661.3437500000,160788.0781250000,162024.3593750000,64327.1328125000,176947.4687500000,,,
2.2479999964,17,151767.2968750000,151845.2656250000,177658.9843750000,170648.8906250000,160778.3125000000,162016.1718750000,64316.2148437500,176947.6093750000,,,
2.2519999964,17,151764.2812500000,151844.3281250000,177654.7656250000,170640.3906250000,160775.2812500000,162016.4687500000,64312.0039062500,176948.2812500000,,,
2.2559999963,17,151767.7500000000,151848.0312500000,177658.2500000000,170643.2812500000,160778.2500000000,162019.0781250000,64318.0117187500,176948.1093750000,,,
2.2599999963,17,151765.5000000000,151846.5312500000,177657.6718750000,170638.7500000000,160777.0156250000,162019.6093750000,64319.9960937500,176945.5625000000,,,
2.2639999965,17,151766.9375000000,151847.7031250000,177661.6718750000,170644.8125000000,160781.5781250000,162023.5000000000,64322.8398437500,176947.9531250000,,,
2.2679999964,17,151772.4375000000,151854.4062500000,177667.5156250000,170658.3281250000,160788.5000000000,162031.6562500000,64327.6171875000,176958.0156250000,,,
2.2719999964,17,151776.2500000000,151856.0781250000,177673.3593750000,170662.6250000000,160793.2031250000,162034.6875000000,64331.6406250000,176962.0625000000,,,
2.2759999963,17,151777.2656250000,151855.2500000000,177673.8125000000,170660.3437500000,160791.7812500000,162031.8593750000,64332.3632812500,176956.3750000000,,,
2.2799999963,17,151779.6250000000,151856.3906250000,177672.0468750000,170663.7031250000,160791.5937500000,162033.7187500000,64333.5703125000,176952.8125000000,,,
2.2839999963,17,151786.8437500000,151860.7656250000,177676.6875000000,170684.4062500000,160797.2187500000,162037.7968750000,64334.3476562500,176955.4062500000,,,
2.2879999964,17,151781.8281250000,151857.3125000000,177672.2656250000,170668.9062500000,160795.3906250000,162040.1562500000,64329.4648437500,176959.1093750000,,,
2.2919999964,17,151776.4375000000,151858.1093750000,177667.2187500000,170647.5000000000,160792.0468750000,162041.2031250000,64327.9101562500,176961.3906250000,,,
2.2959999964,17,151772.5000000000,151852.6406250000,177664.9375000000,170643.5781250000,160788.8750000000,162034.1718750000,64327.6679687500,176951.5000000000,,,
2.2999999963,17,151778.4531250000,151859.7187500000,177671.0312500000,170658.2812500000,160792.7656250000,162038.9218750000,64334.1054687500,176950.5781250000,,,
2.3039999963,18,151774.1093750000,151861.1718750000,177663.7343750000,170648.8593750000,160786.0312500000,162039.2968750000,64328.4218750000,176954.4218750000,,,
2.3079999962,18,151768.8281250000,151858.3750000000,177658.5781250000,170650.2812500000,160781.9843750000,162038.7812500000,64325.9804687500,176960.3437500000,,,
2.3119999962,18,151766.7812500000,151855.6250000000,177656.5468750000,170656.6406250000,160778.7968750000,162036.1093750000,64325.3359375000,176961.0468750000,,,
2.3159999961,18,151762.5156250000,151852.1875000000,177650.9687500000,170648.6718750000,160773.2656250000,162034.2812500000,64321.2031250000,176957.3125000000,,,
2.3199999961,18,151760.1250000000,151849.5312500000,177651.3437500000,170624.9218750000,160773.5937500000,162033.8281250000,64324.2343750000,176952.9375000000,,,
2.3239999961,18,151756.7031250000,151840.6250000000,177649.6718750000,170624.9218750000,160772.5937500000,162027.5156250000,64322.0898437500,176945.2500000000,,,
2.3279999963,18,151757.6093750000,151839.0937500000,177650.1562500000,170638.1718750000,160774.6875000000,162025.5937500000,64321.8750000000,176945.2968750000,,,
2.3319999962,18,151758.6875000000,151840.0312500000,177652.4843750000,170639.0156250000,160777.2968750000,162023.5468750000,64324.9062500000,176945.4375000000,,,
2.3359999962,18,151759.7031250000,151841.4531250000,177655.5156250000,170631.8125000000,160777.4843750000,162022.9062500000,64326.5703125000,176944.1718750000,,,
2.3399999961,18,151774.0000000000,151856.6406250000,177674.2656250000,170634.5937500000,160791.7812500000,162036.2656250000,64338.5312500000,176957.6406250000,,,
2.3439999961,18,151776.8750000000,151856.4531250000,177674.3437500000,170652.5625000000,160793.8437500000,162037.9843750000,64339.0429687500,176965.7968750000,,,
2.3479999963,18,151763.9375000000,151845.9687500000,177656.1093750000,170652.1406250000,160780.8593750000,162029.2968750000,64328.0429687500,176964.5625000000,,,
2.3519999962,18,151768.8750000000,151854.9531250000,177658.3593750000,170657.8281250000,160782.5156250000,162035.5937500000,64331.2109375000,176974.1406250000,,,
2.3559999962,18,151765.5468750000,151851.9687500000,177653.5156250000,170637.9531250000,160775.0937500000,162033.9375000000,64328.1523437500,176970.9218750000,,,
2.3599999961,18,151754.2343750000,151837.8281250000,177642.0000000000,170623.3281250000,160761.0312500000,162024.2500000000,64316.3242187500,176953.9687500000,,,
2.3639999961,18,151754.9531250000,151835.7500000000,177642.1718750000,170633.5781250000,160762.2187500000,162021.7812500000,64315.3828125000,176949.5937500000,,,
2.3679999961,18,151754.0156250000,151832.7968750000,177642.6718750000,170640.3125000000,160766.0000000000,162019.1562500000,64314.7929687500,176949.4843750000,,,
2.3719999962,18,151754.9218750000,151834.5312500000,177644.5781250000,170638.8593750000,160770.3750000000,162022.9687500000,64317.5859375000,176949.8906250000,,,
2.3759999962,18,151756.6250000000,151831.8281250000,177649.2968750000,170633.3437500000,160774.4218750000,162017.5781250000,64322.8125000000,176941.0937500000,,,
2.3799999962,18,151759.5156250000,151833.8906250000,177650.2656250000,170628.5156250000,160774.2031250000,162016.3906250000,64323.7812500000,176934.9218750000,,,
2.3839999961,18,151770.3750000000,151848.1093750000,177659.8906250000,170652.1093750000,160780.7500000000,162024.8437500000,64330.4335937500,176944.0625000000,,,
2.3879999961,18,151780.2187500000,151861.8125000000,177671.3125000000,170672.7656250000,160791.6875000000,162033.2343750000,64339.9531250000,176958.9843750000,,,
2.3919999963,18,151773.5937500000,151858.5937500000,177670.9218750000,170648.8906250000,160792.2343750000,162034.6562500000,64342.5000000000,176960.5312500000,,,
2.3959999962,18,151770.3750000000,151856.6875000000,177669.7031250000,170641.8593750000,160790.2500000000,162035.8906250000,64342.5273437500,176954.7187500000,,,
2.3999999962,18,151768.2812500000,151854.8593750000,177663.8437500000,170647.1718750000,160783.2187500000,162033.5781250000,64338.8554687500,176950.8281250000,,,
2.4039999961,18,151760.3750000000,151848.1875000000,177653.2968750000,170635.0781250000,160771.0625000000,162031.6718750000,64329.7890625000,176948.8125000000,,,
2.4079999961,18,151760.7187500000,151849.2343750000,177652.4375000000,170638.9687500000,160770.7968750000,162035.2968750000,64331.9335937500,176955.1406250000,,,
2.4119999961,18,151763.9062500000,151852.5625000000,177656.9218750000,170644.2812500000,160776.1093750000,162041.4687500000,64339.6054687500,176963.9218750000,,,
2.4159999962,18,151758.4375000000,151846.6250000000,177649.5468750000,170641.0625000000,160770.9062500000,162038.1093750000,64336.9765625000,176961.5468750000,,,
2.4199999962,18,151761.0468750000,151846.8281250000,177651.1250000000,170641.1093750000,160775.2031250000,162040.0937500000,64338.6132812500,176959.6718750000,,,
2.4239999962,18,151752.8281250000,151836.6250000000,177643.1875000000,170621.2656250000,160769.9375000000,162034.5781250000,64331.6914062500,176955.6562500000,,,
2.4279999961,18,151746.6406250000,151832.2031250000,177637.5312500000,170618.1562500000,160767.3906250000,162034.2343750000,64331.6406250000,176955.6875000000,,,
2.4319999961,19,151746.2968750000,151831.5781250000,177641.7656250000,170622.4687500000,160771.4375000000,162036.1250000000,64337.2968750000,176953.2343750000,,,
2.4359999960,19,151742.4843750000,151831.3906250000,177638.5937500000,170616.0156250000,160768.2500000000,162036.4062500000,64337.7812500000,176948.5937500000,,,
2.4399999960,19,151743.6562500000,151833.2500000000,177640.4687500000,170616.4375000000,160767.5000000000,162037.8437500000,64339.1484375000,176945.5468750000,,,
2.4439999959,19,151745.0000000000,151833.6562500000,177642.5625000000,170619.2343750000,160769.4843750000,162039.9375000000,64341.1328125000,176949.4531250000,,,
2.4479999959,19,151746.5625000000,151835.7187500000,177643.0781250000,170618.7656250000,160771.7343750000,162041.2343750000,64343.1171875000,176957.4218750000,,,
2.4519999959,19,151738.0000000000,151825.6875000000,177635.4531250000,170607.3437500000,160764.1718750000,162034.1250000000,64335.2617187500,176954.2031250000,,,
2.4559999960,19,151742.5625000000,151828.1562500000,177639.9843750000,170611.6093750000,160768.3125000000,162035.5937500000,64338.9882812500,176951.1406250000,,,
2.4599999960,19,151756.6406250000,151837.4375000000,177655.5781250000,170619.6093750000,160781.0937500000,162040.6875000000,64351.0039062500,176954.1250000000,,,
2.4639999960,19,151751.7031250000,151831.2656250000,177647.9375000000,170626.6875000000,160775.9531250000,162034.5156250000,64346.2851562500,176952.0000000000,,,
2.4679999959,19,151745.3750000000,151826.3281250000,177642.5468750000,170634.7343750000,160772.1875000000,162028.1718750000,64341.5625000000,176954.6406250000,,,
2.4719999959,19,151746.5000000000,151828.5781250000,177648.4375000000,170632.1093750000,160776.3437500000,162034.1406250000,64348.4023437500,176961.2031250000,,,
2.4759999961,19,151745.4375000000,151829.1718750000,177647.4531250000,170633.0468750000,160772.0937500000,162038.0312500000,64346.5000000000,176961.5312500000,,,
2.4799999960,19,151748.0312500000,151835.1562500000,177647.8750000000,170634.0312500000,160768.3125000000,162039.3281250000,64341.4023437500,176963.5625000000,,,
2.4839999960,19,151742.7968750000,151835.5781250000,177638.1718750000,170628.8281250000,160758.5468750000,162036.3125000000,64331.9609375000,176966.6250000000,,,
2.4879999959,19,151735.1562500000,151828.8281250000,177630.7968750000,170619.5781250000,160753.1562500000,162030.2031250000,64325.9804687500,176968.2031250000,,,
2.4919999959,19,151741.3750000000,151833.6250000000,177637.3593750000,170618.2031250000,160761.6250000000,162032.3750000000,64332.2812500000,176973.2500000000,,,
2.4959999959,19,151743.2812500000,151836.6562500000,177639.0312500000,170618.5781250000,160764.7968750000,162030.2812500000,64337.4843750000,176969.3125000000,,,
2.4999999960,19,151740.7656250000,151836.8750000000,177636.1875000000,170610.5937500000,160761.9218750000,162028.3593750000,64336.6796875000,176962.2812500000,,,
2.5039999960,19,151738.9687500000,151835.2656250000,177636.9843750000,170613.8593750000,160764.2812500000,162025.9062500000,64338.9062500000,176960.4062500000,,,
2.5079999960,19,151737.4375000000,151834.5937500000,177635.0312500000,170613.6718750000,160763.4218750000,162020.0156250000,64336.3867187500,176960.6093750000,,,
2.5119999959,19,151734.8593750000,151832.0625000000,177630.6250000000,170609.7343750000,160759.2656250000,162021.9218750000,64329.8164062500,176957.9375000000,,,
2.5159999959,19,151729.3125000000,151828.2812500000,177621.1093750000,170599.9687500000,160749.1875000000,162022.7500000000,64322.5468750000,176948.6718750000,,,
2.5199999961,19,151731.8593750000,151831.6718750000,177624.9218750000,170607.6875000000,160750.2812500000,162026.1250000000,64327.8281250000,176942.9375000000,,,
2.5239999960,19,151738.0312500000,151837.9218750000,177635.4531250000,170610.9062500000,160757.9843750000,162032.1875000000,64338.6132812500,176948.2031250000,,,
2.5279999960,19,151737.6875000000,151834.3437500000,177637.8750000000,170612.4687500000,160760.0468750000,162029.1562500000,64341.9648437500,176950.6093750000,,,
2.5319999959,19,151730.0156250000,151823.8125000000,177628.2187500000,170622.5468750000,160753.8281250000,162024.1718750000,64334.5625000000,176945.1093750000,,,
2.5359999959,19,151728.1562500000,151822.4687500000,177623.1250000000,170610.3281250000,160751.8593750000,162024.9218750000,64333.8125000000,176939.8281250000,,,
2.5399999958,19,151731.0000000000,151822.8437500000,177624.3281250000,170609.5937500000,160754.1406250000,162025.8593750000,64337.8632812500,176936.5625000000,,,
2.5439999960,19,151736.7187500000,151828.5781250000,177630.3906250000,170618.1250000000,160762.1093750000,162031.6250000000,64346.6875000000,176943.2343750000,,,
2.5479999960,19,151743.4218750000,151834.0781250000,177640.0937500000,170616.7343750000,160772.6718750000,162037.3125000000,64354.5195312500,176953.1250000000,,,
2.5519999960,19,151747.6562500000,151832.0468750000,177650.9687500000,170616.0937500000,160782.1250000000,162036.0468750000,64360.6054687500,176957.6718750000,,,
2.5559999959,19,151748.2500000000,151837.7031250000,177644.7187500000,170632.1250000000,160776.5468750000,162042.7031250000,64353.7656250000,176962.3281250000,,,
2.5599999959,20,151745.1406250000,151837.1718750000,177637.4687500000,170650.0468750000,160764.9843750000,162038.6562500000,64340.0625000000,176960.5625000000,,,
2.5639999958,20,151739.5625000000,151832.4375000000,177631.5937500000,170632.9843750000,160757.7031250000,162035.0312500000,64332.0937500000,176957.2343750000,,,
2.5679999958,20,151729.1718750000,151825.4687500000,177621.5625000000,170597.5312500000,160749.5781250000,162031.2187500000,64325.4960937500,176953.9062500000,,,
2.5719999957,20,151727.1718750000,151823.4062500000,177623.6562500000,170597.4687500000,160750.9531250000,162028.3750000000,64328.7421875000,176952.8125000000,,,
2.5759999957,20,151729.6875000000,151824.2343750000,177623.6250000000,170619.3593750000,160750.5000000000,162026.9062500000,64328.1523437500,176947.4531250000,,,
2.5799999957,20,151725.7656250000,151820.6718750000,177618.7187500000,170613.3593750000,160745.8281250000,162024.8437500000,64325.1210937500,176939.4062500000,,,
2.5839999958,20,151720.3750000000,151813.7968750000,177616.3281250000,170601.9218750000,160744.1093750000,162021.4062500000,64323.1640625000,176935.0781250000,,,
2.5879999958,20,151719.0625000000,151813.0468750000,177618.4843750000,170612.8750000000,160746.7343750000,162022.6406250000,64322.9765625000,176938.5156250000,,,
2.5919999958,20,151710.0000000000,151808.1093750000,177608.9062500000,170573.6562500000,160739.8125000000,162021.4843750000,64319.7304687500,176939.0156250000,,,
2.5959999957,20,151703.7187500000,151804.3906250000,177598.2343750000,170570.1718750000,160729.3281250000,162018.0312500000,64312.5156250000,176930.3593750000,,,
2.5999999957,20,151710.0781250000,151809.3750000000,177603.8593750000,170592.0312500000,160730.0312500000,162019.8437500000,64313.9882812500,176927.5937500000,,,
2.6039999959,20,151717.3750000000,151818.3906250000,177609.5781250000,170603.2187500000,160733.5937500000,162027.0625000000,64316.5898437500,176934.7031250000,,,
2.6079999958,20,151726.5000000000,151828.1718750000,177618.3437500000,170608.7343750000,160743.0312500000,162035.0312500000,64324.9882812500,176948.8593750000,,,
2.6119999958,20,151716.3906250000,151812.4375000000,177612.0937500000,170594.8125000000,160739.3125000000,162026.3906250000,64322.7617187500,176942.1093750000,,,
2.6159999957,20,151717.9062500000,151812.4687500000,177612.4218750000,170605.9218750000,160741.2968750000,162028.4531250000,64323.2968750000,176939.4843750000,,,
2.6199999957,20,151722.5312500000,151814.5468750000,177617.4687500000,170610.3437500000,160745.6406250000,162030.7968750000,64324.9062500000,176936.7500000000,,,
2.6239999956,20,151727.7343750000,151820.4062500000,177622.0781250000,170611.6875000000,160751.8437500000,162036.8593750000,64330.1914062500,176944.2812500000,,,
2.6279999958,20,151730.0937500000,151823.2968750000,177625.7031250000,170603.2500000000,160756.6406250000,162041.8750000000,64333.7578125000,176955.1093750000,,,
2.6319999958,20,151732.3125000000,151825.2500000000,177627.9531250000,170600.0000000000,160758.7343750000,162045.7343750000,64337.5390625000,176959.3593750000,,,
2.6359999957,20,151736.4218750000,151829.6562500000,177631.6562500000,170607.3750000000,160760.7343750000,162050.2656250000,64342.2890625000,176958.9218750000,,,
2.6399999957,20,151739.4218750000,151828.3906250000,177636.0000000000,170619.4375000000,160762.7500000000,162052.2187500000,64345.2382812500,176953.3125000000,,,
2.6439999957,20,151738.2968750000,151823.6718750000,177637.2500000000,170626.3906250000,160762.4843750000,162047.5000000000,64342.6093750000,176949.7031250000,,,
2.6479999959,20,151729.6562500000,151818.9843750000,177626.5468750000,170609.5156250000,160754.8125000000,162039.5937500000,64333.2226562500,176951.6875000000,,,
2.6519999958,20,151724.8281250000,151817.8281250000,177621.6250000000,170593.9687500000,160751.8437500000,162036.9062500000,64329.0898437500,176954.0156250000,,,
2.6559999958,20,151728.2343750000,151820.9375000000,177624.5937500000,170595.8906250000,160754.9218750000,162038.4062500000,64332.9531250000,176956.0625000000,,,
2.6599999957,20,151738.8593750000,151832.7656250000,177634.8125000000,170611.4843750000,160763.3750000000,162046.2187500000,64343.4687500000,176961.9843750000,,,
2.6639999957,20,151742.8281250000,151835.9375000000,177637.4375000000,170625.0156250000,160766.3125000000,162047.9375000000,64347.4375000000,176964.1562500000,,,
2.6679999956,20,151743.5625000000,151833.7812500000,177634.2812500000,170630.7031250000,160764.3281250000,162049.8437500000,64345.3437500000,176969.2031250000,,,
2.6719999958,20,151735.9687500000,151823.5625000000,177626.4687500000,170608.8750000000,160756.2812500000,162043.4218750000,64338.0507812500,176964.9531250000,,,
2.6759999958,20,151728.3437500000,151815.9531250000,177620.1406250000,170596.1875000000,160749.0937500000,162041.3593750000,64334.5078125000,176954.4687500000,,,
2.6799999957,20,151730.7343750000,151819.5156250000,177624.5937500000,170592.4531250000,160751.7500000000,162043.5000000000,64337.5664062500,176953.6718750000,,,
2.6839999957,20,151734.4375000000,151823.5937500000,177628.5312500000,170598.1406250000,160756.4531250000,162046.7031250000,64341.8046875000,176959.4062500000,,,
2.6879999957,21,151729.7187500000,151819.2812500000,177622.3750000000,170594.4218750000,160752.4531250000,162043.7500000000,64336.4648437500,176961.4687500000,,,
2.6919999956,21,151723.2187500000,151813.2187500000,177615.2031250000,170589.3437500000,160746.0937500000,162039.4843750000,64329.8671875000,176959.7343750000,,,
2.6959999956,21,151724.6406250000,151814.5468750000,177616.0625000000,170601.1562500000,160744.7031250000,162038.7343750000,64328.6875000000,176957.7968750000,,,
2.6999999955,21,151731.4843750000,151821.8281250000,177622.9062500000,170600.7187500000,160749.5781250000,162044.4218750000,64333.5429687500,176959.6250000000,,,
2.7039999955,21,151728.4843750000,151818.6562500000,177621.2968750000,170589.2187500000,160748.1875000000,162041.8906250000,64333.6757812500,176958.0937500000,,,
2.7079999954,21,151730.9218750000,151821.6562500000,177624.3750000000,170597.9375000000,160751.9687500000,162041.9531250000,64338.9335937500,176965.8125000000,,,
2.7119999956,21,151732.1093750000,151822.0625000000,177628.5625000000,170599.7343750000,160753.9218750000,162039.0781250000,64341.3203125000,176970.8281250000,,,
2.7159999956,21,151730.6562500000,151820.9375000000,177624.5468750000,170609.4375000000,160749.6875000000,162041.0468750000,64338.1835937500,176968.2031250000,,,
2.7199999955,21,151733.1406250000,151824.8281250000,177623.3906250000,170612.9843750000,160748.2343750000,162044.5781250000,64337.6210937500,176965.1718750000,,,
2.7239999955,21,151726.6093750000,151815.5781250000,177616.7343750000,170605.3125000000,160741.3750000000,162034.7343750000,64331.9882812500,176956.5625000000,,,
2.7279999955,21,151721.0000000000,151810.3125000000,177611.1093750000,170603.7500000000,160737.1875000000,162031.9218750000,64328.0976562500,176954.8437500000,,,
2.7319999957,21,151727.5625000000,151816.0781250000,177619.1562500000,170601.3593750000,160746.3906250000,162040.4218750000,64336.5468750000,176960.9375000000,,,
2.7359999956,21,151729.0468750000,151815.5781250000,177623.0468750000,170614.5937500000,160747.9218750000,162040.0937500000,64339.5781250000,176956.7031250000,,,
2.7399999956,21,151726.8437500000,151815.7656250000,177618.3750000000,170611.1562500000,160743.7343750000,162038.2968750000,64338.3164062500,176950.8281250000,,,
2.7439999955,21,151733.7656250000,151822.1250000000,177624.3593750000,170599.9375000000,160750.6562500000,162043.1093750000,64343.8984375000,176954.0937500000,,,
2.7479999955,21,151735.4843750000,151824.6875000000,177625.5312500000,170600.4218750000,160754.1718750000,162045.6250000000,64347.8125000000,176962.6875000000,,,
2.7519999954,21,151730.7656250000,151820.3750000000,177621.0312500000,170596.7812500000,160750.4687500000,162041.9531250000,64345.5039062500,176963.2968750000,,,
2.7559999956,21,151742.1093750000,151830.5156250000,177632.5156250000,170612.6250000000,160760.8750000000,162051.6562500000,64356.6367187500,176968.6406250000,,,
2.7599999956,21,151746.8750000000,151835.5781250000,177638.3750000000,170617.2968750000,160764.2812500000,162055.9218750000,64360.5000000000,176967.2187500000,,,
2.7639999955,21,151730.6875000000,151816.9687500000,177622.2343750000,170580.8437500000,160750.6250000000,162044.5468750000,64348.3203125000,176952.8437500000,,,
2.7679999955,21,151719.9531250000,151804.6875000000,177609.5156250000,170562.8281250000,160739.6093750000,162035.4531250000,64337.6484375000,176947.7656250000,,,
2.7719999955,21,151723.8906250000,151808.1718750000,177612.0937500000,170577.6875000000,160743.4062500000,162038.9531250000,64342.3671875000,176952.3593750000,,,
2.7759999956,21,151734.8125000000,151817.2968750000,177623.5156250000,170591.6875000000,160755.3281250000,162045.3593750000,64354.9453125000,176957.5000000000,,,
2.7799999956,21,151730.8125000000,151814.3437500000,177623.1250000000,170584.3281250000,160753.5468750000,162043.9687500000,64355.0820312500,176951.6562500000,,,
2.7839999956,21,151725.2968750000,151807.8437500000,177621.8125000000,170579.1093750000,160750.5156250000,162040.6718750000,64354.7851562500,176947.2500000000,,,
2.7879999955,21,151724.3750000000,151812.6718750000,177621.0625000000,170588.1093750000,160749.2656250000,162042.2812500000,64354.5195312500,176956.2968750000,,,
2.7919999955,21,151718.1875000000,151805.3281250000,177614.0000000000,170599.4062500000,160743.0312500000,162039.7031250000,64350.3085937500,176955.1718750000,,,
2.7959999954,21,151722.7968750000,151806.4218750000,177619.7343750000,170614.3750000000,160747.0625000000,162042.6718750000,64355.5625000000,176957.1250000000,,,
2.7999999956,21,151728.5156250000,151809.6406250000,177628.5625000000,170605.1250000000,160752.9687500000,162044.7968750000,64361.3320312500,176958.8125000000,,,
2.8039999956,21,151733.5468750000,151813.8281250000,177638.3750000000,170600.4218750000,160760.0937500000,162052.8437500000,64367.2578125000,176962.2187500000,,,
2.8079999955,21,151732.9375000000,151814.7656250000,177636.0000000000,170611.7968750000,160760.1562500000,162058.5781250000,64366.2656250000,176966.8906250000,,,
2.8119999955,21,151719.7031250000,151802.0468750000,177619.3593750000,170610.0312500000,160746.7968750000,162049.7500000000,64353.0703125000,176960.7968750000,,,
2.8159999955,22,151715.1250000000,151799.9843750000,177612.2656250000,170609.8125000000,160740.3281250000,162045.9218750000,64349.5546875000,176955.5781250000,,,
2.8199999954,22,151721.8906250000,151807.9843750000,177618.0000000000,170600.6406250000,160744.7500000000,162051.7656250000,64356.8242187500,176957.3906250000,,,
2.8239999954,22,151723.7031250000,151810.9375000000,177619.6093750000,170591.2031250000,160747.0312500000,162054.4218750000,64358.9179687500,176961.3906250000,,,
2.8279999953,22,151724.3437500000,151812.0781250000,177620.0156250000,170593.5000000000,160749.0937500000,162054.5625000000,64360.4726562500,176967.4531250000,,,
2.8319999953,22,151729.4687500000,151817.9843750000,177625.1562500000,170599.4375000000,160754.5468750000,162058.5000000000,64364.5781250000,176976.7656250000,,,
2.8359999952,22,151728.9062500000,151816.9062500000,177625.6093750000,170590.9375000000,160754.0312500000,162055.9843750000,64364.6835937500,176979.5312500000,,,
2.8399999954,22,151724.8125000000,151811.5781250000,177620.0156250000,170594.4687500000,160747.7343750000,162051.1718750000,64360.2304687500,176971.8750000000,,,
2.8439999954,22,151724.5625000000,151811.1406250000,177620.4375000000,170598.4687500000,160748.8281250000,162052.2031250000,64360.5273437500,176972.2500000000,,,
2.8479999953,22,151726.3281250000,151815.1718750000,177620.9218750000,170609.0625000000,160748.7812500000,162052.7343750000,64357.3085937500,176979.7656250000,,,
2.8519999953,22,151730.7812500000,151822.7343750000,177625.0468750000,170606.9687500000,160751.5468750000,162057.7812500000,64361.8125000000,176988.0312500000,,,
2.8559999953,22,151733.6093750000,151827.6093750000,177625.8593750000,170594.2343750000,160751.3281250000,162057.9375000000,64363.2890625000,176988.6406250000,,,
2.8599999954,22,151720.3593750000,151815.1406250000,177611.6875000000,170582.9843750000,160737.0625000000,162045.6562500000,64351.2460937500,176968.7343750000,,,
2.8639999954,22,151713.7812500000,151809.4531250000,177606.9218750000,170578.8281250000,160732.4375000000,162040.7500000000,64347.6250000000,176958.6250000000,,,
2.8679999954,22,151713.2656250000,151806.5000000000,177606.4687500000,170587.4687500000,160734.1875000000,162038.6562500000,64347.5703125000,176958.7343750000,,,
2.8719999953,22,151713.8593750000,151805.1718750000,177606.5937500000,170599.5468750000,160736.0312500000,162038.5468750000,64347.8125000000,176961.5312500000,,,
2.8759999953,22,151723.0937500000,151812.7500000000,177616.9218750000,170611.4843750000,160744.1875000000,162044.9062500000,64356.8789062500,176964.9375000000,,,
2.8799999952,22,151734.2500000000,151825.0625000000,177629.1562500000,170609.2031250000,160754.0156250000,162056.9531250000,64367.7421875000,176970.4531250000,,,
2.8839999954,22,151735.1093750000,151827.3750000000,177629.2968750000,170605.7968750000,160755.9375000000,162061.8593750000,64369.8085937500,176973.2187500000,,,
2.8879999954,22,151724.6406250000,151819.3281250000,177616.9843750000,170601.1562500000,160745.2656250000,162056.9531250000,64358.1914062500,176970.7031250000,,,
2.8919999953,22,151716.7031250000,151809.0000000000,177608.6093750000,170585.4375000000,160736.8437500000,162047.5000000000,64348.1601562500,176963.5625000000,,,
2.8959999953,22,151719.5468750000,151807.3593750000,177610.8593750000,170590.5312500000,160738.6093750000,162047.0468750000,64352.1835937500,176959.8593750000,,,
2.8999999953,22,151725.1093750000,151816.2656250000,177615.2031250000,170591.1406250000,160741.3437500000,162058.1718750000,64356.0195312500,176963.6250000000,,,
2.9039999954,22,151730.4687500000,151827.0312500000,177620.3281250000,170591.1406250000,160745.9687500000,162066.9531250000,64359.3203125000,176972.5781250000,,,
2.9079999954,22,151726.8125000000,151818.4687500000,177619.0937500000,170597.2031250000,160746.4375000000,162058.5312500000,64359.0234375000,176973.7343750000,,,
2.9119999954,22,151722.1250000000,151808.9218750000,177616.7343750000,170594.2812500000,160745.5625000000,162052.3281250000,64359.1835937500,176971.8750000000,,,
2.9159999953,22,151727.5625000000,151812.0312500000,177625.6718750000,170592.8125000000,160751.0312500000,162053.4062500000,64363.5585937500,176971.4843750000,,,
2.9199999953,22,151730.3593750000,151815.2500000000,177625.7031250000,170597.3125000000,160750.7968750000,162056.2968750000,64364.9804687500,176971.7656250000,,,
2.9239999952,22,151738.0312500000,151822.2500000000,177631.7343750000,170612.3281250000,160756.8281250000,162060.1875000000,64373.0507812500,176978.1875000000,,,
2.9279999954,22,151733.0625000000,151818.3281250000,177626.7656250000,170602.2187500000,160754.2187500000,162057.5625000000,64370.3164062500,176984.3750000000,,,
2.9319999954,22,151727.0312500000,151812.7031250000,177618.7812500000,170610.4843750000,160747.8906250000,162056.4843750000,64362.5898437500,176985.1562500000,,,
2.9359999953,22,151713.8125000000,151802.6406250000,177602.8437500000,170585.4062500000,160732.5000000000,162048.0937500000,64350.5742187500,176973.6562500000,,,
2.9399999953,22,151713.0312500000,151806.6875000000,177603.6718750000,170572.1875000000,160731.2656250000,162051.0937500000,64353.3906250000,176972.2500000000,,,
2.9439999952,23,151712.4218750000,151808.4687500000,177604.7968750000,170574.1875000000,160732.3593750000,162055.4687500000,64355.9921875000,176972.5468750000,,,
2.9479999952,23,151712.4375000000,151805.5468750000,177607.4531250000,170577.2031250000,160736.3906250000,162055.0937500000,64356.8242187500,176973.6718750000,,,
2.9519999952,23,151717.9375000000,151808.2500000000,177614.6406250000,170589.9687500000,160742.9062500000,162059.1250000000,64360.9296875000,176979.4687500000,,,
2.9559999951,23,151718.2656250000,151810.3906250000,177610.6562500000,170594.3593750000,160739.4687500000,162059.6562500000,64358.6757812500,176977.4062500000,,,
2.9599999951,23,151719.3281250000,151813.8281250000,177612.5781250000,170591.5781250000,160739.2500000000,162057.5625000000,64360.7929687500,176973.0625000000,,,
