Time:250Hz,Epoch,Channel 1,Channel 2,Channel 3,Channel 4,Channel 5,Channel 6,Channel 7,Channel 8,Event Id,Event Date,Event Duration
0.0000000000,0,203384.6718750000,192598.3593750000,204955.6875000000,189939.7968750000,188964.5468750000,164046.9843750000,172991.5312500000,-45839.9257812500,,,
0.0040000000,0,203427.2656250000,192656.4531250000,204993.9375000000,189977.8593750000,189004.2656250000,164089.1718750000,173035.2500000000,-45790.4101562500,,,
0.0079999999,0,203465.5625000000,192716.0468750000,205024.5937500000,190032.2343750000,189036.8281250000,164122.0312500000,173067.3906250000,-45752.6445312500,,,
0.0119999999,0,203521.8593750000,192761.0468750000,205081.5937500000,190106.2500000000,189092.3750000000,164173.9062500000,173111.8281250000,-45712.5468750000,,,
0.0159999998,0,203584.5000000000,192802.9843750000,205144.9218750000,190184.0468750000,189154.5625000000,164237.8437500000,173173.5156250000,-45656.0859375000,,,
0.0199999998,0,203614.2343750000,192822.3125000000,205175.7968750000,190247.3125000000,189186.3593750000,164265.4218750000,173214.3750000000,-45617.1132812500,,,
0.0240000000,0,203644.4218750000,192871.1093750000,205204.3281250000,190238.4843750000,189215.2343750000,164301.8437500000,173246.1250000000,-45571.8085937500,,,
0.0279999999,0,203634.0937500000,192884.7656250000,205191.1093750000,190174.8437500000,189201.2812500000,164310.5156250000,173237.1718750000,-45572.5898437500,,,
0.0319999999,0,203678.6875000000,192923.9218750000,205236.7656250000,190220.0937500000,189244.4843750000,164349.6406250000,173278.6718750000,-45535.3320312500,,,
0.0359999998,0,203730.3281250000,192947.3593750000,205295.4531250000,190300.2812500000,189301.3281250000,164391.8125000000,173340.3593750000,-45495.2070312500,,,
0.0399999998,0,203745.7500000000,192949.9062500000,205312.4843750000,190337.7343750000,189322.3750000000,164415.1718750000,173364.1406250000,-45479.0859375000,,,
0.0440000000,0,203770.8750000000,192993.4375000000,205338.6093750000,190385.3125000000,189348.2968750000,164442.0000000000,173386.6250000000,-45448.0546875000,,,
0.0480000000,0,203809.4531250000,193055.4843750000,205375.4531250000,190447.2500000000,189381.3593750000,164480.5625000000,173419.2656250000,-45405.8359375000,,,
0.0519999999,0,203843.1093750000,193084.8281250000,205411.5937500000,190412.2656250000,189415.7968750000,164522.7031250000,173460.8437500000,-45372.9531250000,,,
0.0559999999,0,203878.5937500000,193096.6250000000,205458.4687500000,190416.6406250000,189455.0937500000,164549.5781250000,173503.7343750000,-45347.8203125000,,,
0.0599999998,0,203884.6875000000,193103.9218750000,205461.2656250000,190442.1250000000,189461.3750000000,164569.0781250000,173508.0156250000,-45332.6640625000,,,
0.0639999998,0,203898.0468750000,193136.4062500000,205471.7968750000,190462.5625000000,189473.8437500000,164590.2968750000,173520.5156250000,-45301.0156250000,,,
0.0680000000,0,203930.3593750000,193184.6875000000,205502.8437500000,190464.7812500000,189500.4531250000,164615.7500000000,173547.9062500000,-45262.5507812500,,,
0.0719999999,0,203962.9218750000,193203.5156250000,205532.9531250000,190523.5000000000,189528.4218750000,164633.2812500000,173576.8750000000,-45242.4609375000,,,
0.0759999999,0,203991.5937500000,193199.9375000000,205566.0781250000,190606.1875000000,189561.6093750000,164648.0937500000,173612.7343750000,-45233.5039062500,,,
0.0799999998,0,204001.6875000000,193205.4375000000,205577.0781250000,190635.4375000000,189574.6406250000,164665.5312500000,173622.6250000000,-45221.8085937500,,,
0.0839999998,0,203995.1406250000,193217.5156250000,205569.2187500000,190548.8281250000,189572.3437500000,164671.1562500000,173624.9375000000,-45213.3867187500,,,
0.0880000000,0,204000.4531250000,193244.2343750000,205574.8281250000,190539.4062500000,189575.3125000000,164678.2187500000,173629.9843750000,-45198.2070312500,,,
0.0919999999,0,204036.6406250000,193276.5000000000,205610.2031250000,190593.8906250000,189607.9843750000,164706.1562500000,173655.0312500000,-45165.6445312500,,,
0.0959999999,0,204050.4218750000,193276.7031250000,205616.7812500000,190618.3125000000,189618.0156250000,164727.9687500000,173664.3125000000,-45152.4726562500,,,
0.0999999999,0,204011.2031250000,193226.3593750000,205579.5156250000,190592.7812500000,189583.7343750000,164689.5625000000,173627.1718750000,-45190.3203125000,,,
0.1039999998,0,203991.6562500000,193217.0000000000,205561.9062500000,190567.1875000000,189566.5937500000,164668.3125000000,173613.8593750000,-45200.8867187500,,,
0.1079999998,0,203958.6875000000,193196.0781250000,205519.4687500000,190571.6718750000,189523.5937500000,164626.1875000000,173572.9375000000,-45233.8242187500,,,
0.1120000000,0,203992.5625000000,193216.5937500000,205553.3437500000,190658.9062500000,189551.8906250000,164640.2031250000,173601.5468750000,-45215.5859375000,,,
0.1159999999,0,204033.0468750000,193240.9843750000,205598.9062500000,190640.6562500000,189597.9843750000,164685.3281250000,173661.2812500000,-45181.7617187500,,,
0.1199999999,0,204030.5937500000,193218.9687500000,205603.6562500000,190608.4218750000,189606.5625000000,164700.0156250000,173682.4687500000,-45182.7812500000,,,
0.1239999998,0,204030.5781250000,193231.3593750000,205598.2968750000,190606.7500000000,189605.5468750000,164705.3593750000,173686.3125000000,-45172.2695312500,,,
0.1279999998,1,204037.6562500000,193259.0312500000,205600.1406250000,190605.5468750000,189604.6250000000,164710.5312500000,173686.1250000000,-45160.7617187500,,,
0.1319999998,1,204085.9843750000,193302.5937500000,205651.5937500000,190659.1718750000,189651.4062500000,164744.8437500000,173731.3437500000,-45126.2421875000,,,
0.1359999997,1,204105.3593750000,193320.6406250000,205662.5156250000,190703.3125000000,189667.9843750000,164774.6406250000,173743.5781250000,-45107.3046875000,,,
0.1399999997,1,204103.2343750000,193306.4062500000,205669.6406250000,190716.2968750000,189676.1718750000,164781.5937500000,173752.7968750000,-45108.0039062500,,,
0.1439999996,1,204082.4218750000,193295.5156250000,205650.5781250000,190678.1093750000,189659.1093750000,164771.4531250000,173743.3125000000,-45120.0195312500,,,
0.1479999996,1,204060.9062500000,193289.9375000000,205622.0312500000,190653.6093750000,189632.5000000000,164751.3281250000,173717.0156250000,-45139.9218750000,,,
0.1519999998,1,204102.5625000000,193327.3281250000,205661.1875000000,190717.8593750000,189668.3125000000,164786.4687500000,173751.6250000000,-45107.7617187500,,,
0.1559999997,1,204148.6406250000,193356.4531250000,205713.3437500000,190753.6093750000,189716.2031250000,164833.6718750000,173791.4843750000,-45066.6679687500,,,
0.1599999997,1,204133.9687500000,193328.6406250000,205704.9687500000,190741.5937500000,189710.4218750000,164824.3437500000,173785.3906250000,-45076.6757812500,,,
0.1639999996,1,204137.5937500000,193343.6875000000,205709.9531250000,190722.7656250000,189716.5937500000,164830.1093750000,173796.2187500000,-45063.1835937500,,,
0.1679999996,1,204135.3906250000,193361.3125000000,205694.6718750000,190733.6250000000,189703.2343750000,164833.5937500000,173782.4375000000,-45061.7070312500,,,
0.1719999998,1,204153.3593750000,193370.7500000000,205711.4531250000,190772.2968750000,189717.0468750000,164834.6093750000,173797.5625000000,-45057.2539062500,,,
0.1759999997,1,204213.9843750000,193408.3281250000,205778.7500000000,190816.3437500000,189781.8437500000,164879.6718750000,173861.8125000000,-45007.3671875000,,,
0.1799999997,1,204222.7187500000,193402.4218750000,205794.3437500000,190797.6562500000,189796.6562500000,164883.4843750000,173875.7500000000,-45001.7343750000,,,
0.1839999997,1,204221.4375000000,193417.7187500000,205787.0937500000,190775.4375000000,189793.6406250000,164891.9062500000,173877.0156250000,-44993.3906250000,,,
0.1879999996,1,204225.7343750000,193440.3750000000,205781.0312500000,190797.2187500000,189790.4218750000,164900.4375000000,173868.0312500000,-44984.8632812500,,,
0.1919999996,1,204260.6718750000,193475.9375000000,205815.8437500000,190850.7656250000,189821.4531250000,164917.8906250000,173893.6406250000,-44953.9101562500,,,
0.1959999998,1,204274.2031250000,193467.2812500000,205839.7812500000,190880.0156250000,189842.8437500000,164933.2187500000,173918.5937500000,-44950.1289062500,,,
0.1999999997,1,204282.9218750000,193463.5000000000,205852.6250000000,190858.7187500000,189859.3593750000,164959.4375000000,173941.7812500000,-44937.0390625000,,,
0.2039999997,1,204281.5156250000,193481.3281250000,205843.0781250000,190880.9531250000,189855.4687500000,164963.6562500000,173942.7031250000,-44926.5781250000,,,
0.2079999996,1,204301.2656250000,193513.6093750000,205858.1718750000,190897.8906250000,189868.0781250000,164970.5781250000,173959.2812500000,-44911.2109375000,,,
0.2119999996,1,204330.6562500000,193547.2656250000,205881.4843750000,190925.4062500000,189889.6718750000,164997.3906250000,173980.0937500000,-44888.7070312500,,,
0.2159999998,1,204361.2031250000,193561.1093750000,205915.4687500000,190972.0781250000,189923.7343750000,165026.7968750000,174016.0625000000,-44865.4218750000,,,
0.2199999997,1,204380.9531250000,193572.4218750000,205942.9531250000,190986.5000000000,189953.3750000000,165051.0625000000,174052.0468750000,-44840.5312500000,,,
0.2239999997,1,204364.6718750000,193572.1875000000,205924.8281250000,190934.8437500000,189941.3281250000,165044.2031250000,174048.5468750000,-44847.8554687500,,,
0.2279999997,1,204367.0781250000,193593.8281250000,205925.3593750000,190923.5312500000,189940.2031250000,165044.8125000000,174046.5312500000,-44845.1210937500,,,
0.2319999996,1,204406.7500000000,193637.9531250000,205960.7968750000,190995.7031250000,189968.5781250000,165068.7656250000,174066.2968750000,-44811.8593750000,,,
0.2359999996,1,204455.6718750000,193664.0156250000,206008.8125000000,191101.2812500000,190015.0312500000,165105.0937500000,174110.0625000000,-44772.0546875000,,,
0.2399999998,1,204425.1562500000,193621.9687500000,205981.5625000000,191028.6718750000,189993.2812500000,165091.8437500000,174095.4843750000,-44797.3476562500,,,
0.2439999997,1,204399.0000000000,193615.7187500000,205957.7968750000,190964.7187500000,189970.0000000000,165079.6875000000,174081.9062500000,-44805.3164062500,,,
0.2479999997,1,204416.1875000000,193649.9687500000,205974.3906250000,190987.7968750000,189982.8750000000,165094.9843750000,174088.4218750000,-44784.4765625000,,,
0.2519999996,1,204435.0781250000,193673.0312500000,205998.7500000000,190920.0937500000,190009.4062500000,165120.1875000000,174121.4687500000,-44762.1054687500,,,
0.2559999996,2,204457.6875000000,193683.5781250000,206026.1875000000,190940.0156250000,190036.3593750000,165120.4531250000,174152.3906250000,-44740.0585937500,,,
0.2599999995,2,204450.1250000000,193652.0312500000,206025.5468750000,190966.0937500000,190038.0156250000,165131.7500000000,174171.0156250000,-44748.2109375000,,,
0.2639999995,2,204444.2968750000,193635.8906250000,206017.3593750000,190993.7968750000,190031.1250000000,165150.9062500000,174160.4375000000,-44738.3398437500,,,
0.2679999995,2,204446.8281250000,193608.6250000000,206013.5781250000,191013.5937500000,190022.7656250000,165111.0625000000,174148.8750000000,-44728.3906250000,,,
0.2719999994,2,204468.5781250000,193612.2812500000,206032.2812500000,191043.3125000000,190038.4843750000,165121.3437500000,174159.9375000000,-44718.7070312500,,,
0.2759999994,2,204510.9531250000,193655.1718750000,206071.5468750000,191116.8906250000,190080.3750000000,165191.8906250000,174208.2343750000,-44681.1015625000,,,
0.2799999996,2,204522.9218750000,193660.4531250000,206085.7656250000,191155.2656250000,190103.0156250000,165228.3593750000,174242.3906250000,-44669.2734375000,,,
0.2839999995,2,204499.0000000000,193650.7500000000,206067.0625000000,191073.0000000000,190088.3437500000,165223.2343750000,174232.0625000000,-44684.0273437500,,,
0.2879999995,2,204489.7187500000,193663.8593750000,206051.2968750000,191025.0468750000,190076.1875000000,165229.7031250000,174230.5781250000,-44688.1562500000,,,
0.2919999994,2,204517.2031250000,193698.8593750000,206073.7187500000,191042.4218750000,190097.2968750000,165255.6875000000,174259.1250000000,-44670.6679687500,,,
0.2959999994,2,204529.2187500000,193694.8125000000,206091.0156250000,191074.2968750000,190118.1718750000,165268.4687500000,174287.2343750000,-44666.0546875000,,,
0.2999999996,2,204532.4062500000,193695.7031250000,206099.7968750000,191078.2656250000,190130.5781250000,165282.9218750000,174301.9218750000,-44661.8164062500,,,
0.3039999995,2,204535.0625000000,193711.2031250000,206104.1875000000,191091.2656250000,190140.2968750000,165312.2656250000,174310.0781250000,-44651.7070312500,,,
0.3079999995,2,204560.2500000000,193756.5781250000,206125.1406250000,191087.9531250000,190164.2187500000,165337.0468750000,174345.8125000000,-44620.7265625000,,,
0.3119999995,2,204593.4531250000,193790.5937500000,206152.0625000000,191098.9218750000,190192.9531250000,165371.6406250000,174385.9687500000,-44589.4257812500,,,
0.3159999994,2,204620.7968750000,193802.8281250000,206178.9687500000,191162.6406250000,190220.0312500000,165399.2656250000,174406.0312500000,-44566.3320312500,,,
0.3199999994,2,204623.3906250000,193803.2812500000,206184.5937500000,191173.2187500000,190227.9218750000,165416.6250000000,174411.9843750000,-44559.4101562500,,,
0.3239999996,2,204598.6406250000,193798.3125000000,206164.0312500000,191088.4531250000,190209.5000000000,165413.4062500000,174391.8125000000,-44574.1367187500,,,
0.3279999995,2,204609.0937500000,193833.8593750000,206175.6406250000,191070.2656250000,190220.8906250000,165420.9531250000,174404.0625000000,-44563.2187500000,,,
0.3319999995,2,204619.6875000000,193847.2187500000,206182.4062500000,191098.2187500000,190226.1250000000,165436.3437500000,174412.7031250000,-44556.5664062500,,,
0.3359999994,2,204631.6875000000,193847.1875000000,206190.6875000000,191163.2031250000,190235.5156250000,165443.7968750000,174421.1562500000,-44550.7460937500,,,
0.3399999994,2,204632.1093750000,193847.1875000000,206196.4531250000,191169.5312500000,190241.3125000000,165463.9218750000,174417.5625000000,-44542.8085937500,,,
0.3439999996,2,204615.9687500000,193834.6562500000,206179.6875000000,191143.7968750000,190227.3125000000,165454.6093750000,174403.6875000000,-44558.7929687500,,,
0.3479999995,2,204619.7500000000,193859.0468750000,206177.3906250000,191120.5312500000,190220.0156250000,165429.5312500000,174398.6250000000,-44553.5625000000,,,
0.3519999995,2,204645.8437500000,193885.8125000000,206194.9218750000,191181.3125000000,190234.3281250000,165449.7812500000,174408.0937500000,-44540.5000000000,,,
0.3559999994,2,204655.4687500000,193877.9843750000,206205.2812500000,191220.5468750000,190245.1406250000,165482.3750000000,174416.0781250000,-44534.8398437500,,,
0.3599999994,2,204668.1562500000,193904.5312500000,206235.9687500000,191175.6250000000,190275.5000000000,165496.9375000000,174430.9218750000,-44494.2070312500,,,
0.3639999994,2,204638.3593750000,193866.8281250000,206216.8750000000,191132.3437500000,190259.9218750000,165457.2968750000,174409.2187500000,-44539.3476562500,,,
0.3679999996,2,204612.3750000000,193850.7500000000,206152.6875000000,191154.4843750000,190196.1093750000,165438.4375000000,174341.6562500000,-44574.2695312500,,,
0.3719999995,2,204637.5312500000,193881.2031250000,206183.2656250000,191186.5937500000,190223.4687500000,165451.7031250000,174366.0937500000,-44547.6640625000,,,
0.3759999995,2,204669.8281250000,193897.1250000000,206222.6562500000,191189.9218750000,190262.9218750000,165459.7343750000,174398.3750000000,-44521.4296875000,,,
0.3799999994,2,204642.7343750000,193864.7500000000,206197.8750000000,191165.4062500000,190242.0000000000,165458.2500000000,174386.0625000000,-44542.0820312500,,,
0.3839999994,3,204644.1250000000,193883.1875000000,206199.0781250000,191150.2343750000,190245.3593750000,165484.3593750000,174387.9687500000,-44530.3085937500,,,
0.3879999993,3,204636.4843750000,193887.8281250000,206186.5781250000,191153.9062500000,190232.9843750000,165458.3593750000,174375.2812500000,-44536.1835937500,,,
0.3919999993,3,204649.6718750000,193909.0937500000,206200.5312500000,191184.4843750000,190243.2656250000,165442.7031250000,174359.2812500000,-44522.9609375000,,,
0.3959999993,3,204669.5000000000,193905.7187500000,206222.0937500000,191223.5312500000,190257.5937500000,165456.1875000000,174326.3437500000,-44528.9140625000,,,
0.3999999992,3,204681.7031250000,193894.3906250000,206234.9687500000,191249.7031250000,190272.6562500000,165472.0937500000,174378.3437500000,-44525.5625000000,,,
0.4039999992,3,204671.3750000000,193884.0937500000,206232.3750000000,191214.9531250000,190271.1875000000,165456.6718750000,174383.3281250000,-44531.3281250000,,,
0.4079999994,3,204659.9062500000,193901.8281250000,206205.0937500000,191226.0781250000,190239.5312500000,165442.7031250000,174341.2968750000,-44537.6328125000,,,
0.4119999993,3,204678.5468750000,193926.5781250000,206217.9375000000,191240.4843750000,190247.7656250000,165477.6718750000,174356.1093750000,-44525.4257812500,,,
0.4159999993,3,204680.6250000000,193906.4375000000,206223.4687500000,191245.8281250000,190253.5156250000,165430.2812500000,174347.8437500000,-44538.1406250000,,,
0.4199999992,3,204659.3906250000,193879.7031250000,206204.6093750000,191237.6093750000,190242.5625000000,165428.1093750000,174336.0781250000,-44551.6875000000,,,
0.4239999992,3,204638.8750000000,193870.2031250000,206195.3593750000,191181.2812500000,190233.3906250000,165405.1718750000,174340.9062500000,-44563.7304687500,,,
0.4279999994,3,204644.0156250000,193898.2343750000,206193.7500000000,191186.8906250000,190224.3750000000,165399.5468750000,174308.5468750000,-44558.7656250000,,,
0.4319999993,3,204658.7187500000,193895.7343750000,206192.8125000000,191231.6250000000,190220.3906250000,165418.9375000000,174290.9062500000,-44567.1367187500,,,
0.4359999993,3,204675.8906250000,193903.3281250000,206214.6406250000,191254.6406250000,190241.9843750000,165427.6250000000,174313.4687500000,-44546.5898437500,,,
0.4399999992,3,204651.9843750000,193864.5156250000,206199.7031250000,191219.1562500000,190228.7343750000,165420.1406250000,174304.3750000000,-44573.6523437500,,,
0.4439999992,3,204638.3125000000,193860.0156250000,206190.7968750000,191164.9531250000,190217.6562500000,165412.3281250000,174296.9062500000,-44580.7070312500,,,
0.4479999992,3,204647.9375000000,193880.6562500000,206200.7968750000,191189.1250000000,190224.8593750000,165415.6562500000,174297.9531250000,-44570.4609375000,,,
0.4519999993,3,204663.1406250000,193900.6250000000,206204.0781250000,191218.3750000000,190228.2500000000,165426.6250000000,174306.5468750000,-44560.1328125000,,,
0.4559999993,3,204698.0156250000,193907.7031250000,206243.6875000000,191269.4531250000,190265.6093750000,165448.0156250000,174342.5937500000,-44538.8906250000,,,
0.4599999993,3,204715.0468750000,193922.0000000000,206266.5468750000,191280.0468750000,190288.0312500000,165473.8906250000,174364.2656250000,-44510.4335937500,,,
0.4639999992,3,204695.4843750000,193918.0468750000,206243.2656250000,191244.5937500000,190268.0468750000,165445.2656250000,174343.7187500000,-44522.1015625000,,,
0.4679999992,3,204671.1875000000,193899.6718750000,206211.9375000000,191221.3906250000,190236.7968750000,165432.3437500000,174302.4687500000,-44552.9179687500,,,
0.4719999994,3,204682.7812500000,193912.7187500000,206220.4843750000,191236.0625000000,190241.5781250000,165426.5000000000,174301.4531250000,-44542.8867187500,,,
0.4759999993,3,204683.8437500000,193904.4062500000,206219.1406250000,191256.7968750000,190240.0000000000,165410.0781250000,174305.1406250000,-44545.5156250000,,,
0.4799999993,3,204676.1875000000,193868.7500000000,206222.8281250000,191268.4375000000,190245.2968750000,165421.6406250000,174306.8593750000,-44572.2031250000,,,
0.4839999992,3,204666.4687500000,193874.7656250000,206212.3125000000,191244.9843750000,190236.8593750000,165411.6718750000,174304.1562500000,-44564.7734375000,,,
0.4879999992,3,204671.1406250000,193899.2031250000,206211.1250000000,191237.5937500000,190234.7812500000,165410.8125000000,174306.6250000000,-44556.0859375000,,,
0.4919999992,3,204707.4843750000,193935.7812500000,206245.4531250000,191281.3906250000,190262.4687500000,165438.4843750000,174329.3437500000,-44529.7187500000,,,
0.4959999993,3,204738.4375000000,193950.0312500000,206274.6718750000,191323.3437500000,190290.2031250000,165466.9531250000,174351.6875000000,-44507.0273437500,,,
0.4999999993,3,204716.3593750000,193919.2812500000,206260.1250000000,191300.7500000000,190279.6875000000,165448.8750000000,174347.6875000000,-44521.8593750000,,,
0.5039999993,3,204680.0937500000,193895.5468750000,206226.7187500000,191226.2656250000,190252.0625000000,165424.2500000000,174326.4218750000,-44545.6523437500,,,
0.5079999992,3,204677.5156250000,193909.9062500000,206221.1093750000,191233.1562500000,190245.8437500000,165424.8906250000,174318.1562500000,-44543.5039062500,,,
0.5119999992,4,204701.1250000000,193934.3593750000,206237.2031250000,191259.5000000000,190257.5312500000,165438.3750000000,174329.6093750000,-44527.8945312500,,,
0.5159999991,4,204711.0000000000,193932.7031250000,206245.0781250000,191271.1406250000,190268.5312500000,165435.9375000000,174341.4375000000,-44519.0156250000,,,
0.5199999991,4,204689.4843750000,193904.7812500000,206230.7656250000,191251.4218750000,190260.7500000000,165432.6406250000,174340.2812500000,-44533.5273437500,,,
0.5239999990,4,204674.0000000000,193891.6562500000,206221.7968750000,191252.1562500000,190251.6093750000,165445.4687500000,174338.4531250000,-44548.8710937500,,,
0.5279999990,4,204688.9687500000,193924.5937500000,206233.6093750000,191247.6718750000,190260.2500000000,165450.5625000000,174343.5625000000,-44530.8164062500,,,
0.5319999990,4,204720.1093750000,193966.6875000000,206255.8906250000,191267.7031250000,190276.0937500000,165467.2656250000,174347.5781250000,-44503.7812500000,,,
0.5359999991,4,204715.5000000000,193941.4218750000,206253.6875000000,191302.4218750000,190270.6718750000,165461.0156250000,174351.4375000000,-44520.0898437500,,,
0.5399999991,4,204701.8281250000,193913.8437500000,206244.0312500000,191311.4062500000,190266.9218750000,165466.0625000000,174353.1250000000,-44528.8867187500,,,
0.5439999991,4,204689.8906250000,193905.4531250000,206238.7812500000,191296.0312500000,190263.9375000000,165443.0781250000,174348.5156250000,-44537.1757812500,,,
0.5479999990,4,204693.2656250000,193924.1093750000,206238.3281250000,191292.2187500000,190260.8593750000,165440.5312500000,174346.2656250000,-44534.0898437500,,,
0.5519999990,4,204717.8281250000,193953.4843750000,206254.6875000000,191316.5781250000,190273.2812500000,165463.8906250000,174352.5937500000,-44518.5585937500,,,
0.5559999992,4,204723.4687500000,193947.3125000000,206264.3906250000,191296.9218750000,190284.0937500000,165470.2500000000,174362.8750000000,-44514.6445312500,,,
0.5599999991,4,204717.3593750000,193930.6875000000,206265.2812500000,191281.6562500000,190290.4375000000,165477.0781250000,174373.4062500000,-44515.7695312500,,,
0.5639999991,4,204696.4062500000,193911.9062500000,206242.0781250000,191272.4062500000,190271.9843750000,165463.5156250000,174357.8750000000,-44535.9960937500,,,
0.5679999990,4,204699.5468750000,193929.8593750000,206236.3125000000,191278.2500000000,190266.3906250000,165447.2812500000,174346.4218750000,-44535.7539062500,,,
0.5719999990,4,204730.6562500000,193958.3593750000,206262.6875000000,191292.0312500000,190292.3437500000,165459.9375000000,174362.1406250000,-44518.4804687500,,,
0.5759999990,4,204748.2187500000,193963.1093750000,206284.3593750000,191287.4687500000,190314.4531250000,165480.3281250000,174384.2968750000,-44502.7890625000,,,
0.5799999991,4,204715.7968750000,193926.3906250000,206258.1718750000,191275.5156250000,190290.0468750000,165484.1875000000,174383.2031250000,-44520.0625000000,,,
0.5839999991,4,204701.8281250000,193920.0312500000,206248.2187500000,191264.2968750000,190279.0937500000,165486.9531250000,174373.4687500000,-44521.9687500000,,,
0.5879999991,4,204695.0625000000,193931.8593750000,206240.5312500000,191248.2656250000,190264.6718750000,165463.7031250000,174352.9375000000,-44532.3476562500,,,
0.5919999990,4,204705.2812500000,193946.1875000000,206249.1093750000,191267.4062500000,190268.2656250000,165462.9687500000,174358.9531250000,-44530.6835937500,,,
0.5959999990,4,204711.9531250000,193939.4062500000,206252.3281250000,191284.7968750000,190274.1562500000,165473.9687500000,174367.7812500000,-44528.7265625000,,,
0.5999999992,4,204690.0000000000,193909.3281250000,206233.4375000000,191253.0625000000,190257.6406250000,165460.0312500000,174354.6406250000,-44544.4960937500,,,
0.6039999991,4,204671.1406250000,193892.0625000000,206218.9375000000,191241.9375000000,190241.7656250000,165445.0781250000,174339.1875000000,-44561.7968750000,,,
0.6079999991,4,204674.4062500000,193910.2500000000,206216.6562500000,191244.0468750000,190237.0625000000,165443.7500000000,174334.2031250000,-44561.2070312500,,,
0.6119999990,4,204706.2812500000,193944.7656250000,206245.5625000000,191267.2812500000,190259.6250000000,165469.9531250000,174356.0312500000,-44537.0390625000,,,
0.6159999990,4,204724.2968750000,193953.9687500000,206264.2343750000,191281.7343750000,190275.9843750000,165484.8281250000,174375.8437500000,-44522.4765625000,,,
0.6199999989,4,204675.8906250000,193887.4218750000,206224.2500000000,191250.1718750000,190240.4218750000,165442.7031250000,174349.2187500000,-44567.2695312500,,,
0.6239999991,4,204665.2031250000,193882.5156250000,206217.4062500000,191240.3750000000,190234.7031250000,165435.6250000000,174348.6718750000,-44568.2890625000,,,
0.6279999991,4,204663.2031250000,193895.0156250000,206207.6875000000,191254.7812500000,190224.0000000000,165425.3750000000,174333.9062500000,-44571.8554687500,,,
0.6319999991,4,204670.8906250000,193906.3906250000,206210.8906250000,191259.7968750000,190223.4687500000,165418.5781250000,174329.3750000000,-44571.9375000000,,,
0.6359999990,4,204671.0000000000,193893.3750000000,206211.0468750000,191249.2812500000,190223.2500000000,165421.6093750000,174324.3281250000,-44576.2265625000,,,
0.6399999990,5,204664.2968750000,193868.1406250000,206215.1562500000,191237.7500000000,190229.9531250000,165423.7812500000,174336.9062500000,-44584.7578125000,,,
0.6439999989,5,204649.7343750000,193863.6562500000,206202.0312500000,191225.2500000000,190218.6718750000,165416.4687500000,174338.2187500000,-44589.6914062500,,,
0.6479999989,5,204636.0312500000,193863.1406250000,206187.2031250000,191211.6562500000,190201.0781250000,165399.1406250000,174319.3125000000,-44603.2929687500,,,
0.6519999988,5,204662.3906250000,193886.4531250000,206211.1875000000,191237.4531250000,190220.2187500000,165411.3906250000,174334.8593750000,-44587.8945312500,,,
0.6559999988,5,204698.0156250000,193907.9375000000,206240.5312500000,191277.6250000000,190252.0156250000,165443.4531250000,174370.2500000000,-44558.3632812500,,,
0.6599999988,5,204696.0000000000,193890.6875000000,206238.4062500000,191296.9375000000,190258.2656250000,165448.9531250000,174381.9062500000,-44555.6835937500,,,
0.6639999989,5,204689.9375000000,193891.6875000000,206229.3906250000,191275.9375000000,190260.6718750000,165456.2500000000,174385.0781250000,-44550.6132812500,,,
0.6679999989,5,204684.4687500000,193899.7812500000,206214.4062500000,191250.2656250000,190253.2968750000,165451.4375000000,174372.6093750000,-44556.1367187500,,,
0.6719999989,5,204702.0937500000,193921.1562500000,206225.6875000000,191293.8281250000,190262.8906250000,165452.3750000000,174377.8906250000,-44550.8554687500,,,
0.6759999988,5,204723.9531250000,193919.7968750000,206258.9843750000,191327.1250000000,190290.9062500000,165459.9375000000,174408.5937500000,-44541.0898437500,,,
0.6799999988,5,204717.4375000000,193897.5937500000,206261.4531250000,191315.3906250000,190294.5468750000,165459.1406250000,174416.0781250000,-44542.7265625000,,,
0.6839999990,5,204683.7187500000,193874.3593750000,206226.7656250000,191236.9218750000,190264.4218750000,165442.2968750000,174394.3281250000,-44561.9335937500,,,
0.6879999989,5,204665.2968750000,193869.5781250000,206205.3906250000,191201.1875000000,190241.3593750000,165417.0000000000,174373.1406250000,-44581.2968750000,,,
0.6919999989,5,204685.5625000000,193896.4843750000,206220.9687500000,191227.4218750000,190249.0781250000,165421.4531250000,174378.3125000000,-44572.8476562500,,,
0.6959999988,5,204720.8593750000,193919.4531250000,206256.8125000000,191273.4218750000,190279.6562500000,165450.3125000000,174416.8593750000,-44545.6523437500,,,
0.6999999988,5,204734.7812500000,193924.5937500000,206274.0468750000,191292.9218750000,190296.3437500000,165469.3906250000,174444.9375000000,-44526.8476562500,,,
0.7039999987,5,204718.0468750000,193918.1406250000,206258.4375000000,191263.5312500000,190280.0156250000,165455.8125000000,174430.7812500000,-44537.6328125000,,,
0.7079999989,5,204714.9375000000,193930.6093750000,206253.3437500000,191260.9218750000,190271.4531250000,165448.8750000000,174424.8281250000,-44541.7343750000,,,
0.7119999989,5,204740.1250000000,193959.8125000000,206275.3593750000,191288.2343750000,190290.7656250000,165469.7343750000,174449.0156250000,-44522.9843750000,,,
0.7159999989,5,204764.7968750000,193971.2656250000,206303.6093750000,191309.6093750000,190317.7968750000,165497.5781250000,174482.9843750000,-44502.1992187500,,,
0.7199999988,5,204753.6718750000,193955.1406250000,206292.8281250000,191300.7812500000,190311.0468750000,165505.7031250000,174481.4531250000,-44505.8750000000,,,
0.7239999988,5,204746.3437500000,193949.2187500000,206288.4218750000,191290.2343750000,190309.3281250000,165503.5312500000,174483.7031250000,-44509.0117187500,,,
0.7279999990,5,204731.5468750000,193942.7500000000,206269.5000000000,191261.6250000000,190289.8593750000,165478.5312500000,174465.4687500000,-44527.1445312500,,,
0.7319999989,5,204750.8593750000,193959.9218750000,206286.2812500000,191284.5312500000,190301.8906250000,165487.5937500000,174474.2031250000,-44519.1757812500,,,
0.7359999989,5,204781.2656250000,193970.0937500000,206320.1250000000,191319.0156250000,190335.2968750000,165512.2500000000,174507.8125000000,-44498.1757812500,,,
0.7399999988,5,204755.2500000000,193934.2031250000,206297.1250000000,191295.5468750000,190317.8593750000,165499.5937500000,174495.0000000000,-44515.1796875000,,,
0.7439999988,5,204742.1875000000,193927.7343750000,206287.3593750000,191277.3437500000,190310.2656250000,165499.0468750000,174492.7656250000,-44516.0664062500,,,
0.7479999987,5,204752.1875000000,193960.8593750000,206290.7031250000,191265.6406250000,190312.8906250000,165503.9375000000,174495.5781250000,-44503.2187500000,,,
0.7519999989,5,204763.5468750000,193975.7968750000,206300.2031250000,191279.4843750000,190317.3437500000,165494.2968750000,174492.9062500000,-44504.7187500000,,,
0.7559999989,5,204798.4687500000,194000.4531250000,206330.6718750000,191329.6718750000,190352.5312500000,165528.9375000000,174525.7031250000,-44472.6132812500,,,
0.7599999988,5,204783.1250000000,193967.7500000000,206323.2656250000,191328.1093750000,190346.8281250000,165522.2812500000,174526.4843750000,-44484.5234375000,,,
0.7639999988,5,204746.6093750000,193937.3906250000,206286.6875000000,191293.9375000000,190310.9062500000,165500.1718750000,174497.5468750000,-44514.3242187500,,,
0.7679999988,6,204744.7343750000,193954.3125000000,206276.5000000000,191292.2812500000,190298.2968750000,165493.5468750000,174477.5312500000,-44516.6835937500,,,
0.7719999987,6,204779.2031250000,193990.4218750000,206308.0156250000,191318.2187500000,190323.2968750000,165518.2031250000,174497.5156250000,-44491.3085937500,,,
0.7759999987,6,204802.2656250000,193998.7343750000,206333.2812500000,191344.0468750000,190346.7187500000,165543.7343750000,174521.6093750000,-44472.6406250000,,,
0.7799999986,6,204797.1406250000,193986.2656250000,206330.9375000000,191351.2031250000,190347.0937500000,165554.0937500000,174523.8281250000,-44468.6718750000,,,
0.7839999986,6,204790.4375000000,193989.4062500000,206328.1718750000,191340.3750000000,190345.0781250000,165565.9687500000,174528.0937500000,-44464.7031250000,,,
0.7879999985,6,204785.0781250000,194001.3281250000,206319.9218750000,191328.7812500000,190332.2343750000,165559.0000000000,174516.7812500000,-44470.8164062500,,,
0.7919999987,6,204794.8125000000,194009.5937500000,206326.2500000000,191354.0156250000,190336.0468750000,165562.1875000000,174520.2656250000,-44470.0117187500,,,
0.7959999987,6,204827.2968750000,194031.0781250000,206360.2656250000,191411.1718750000,190372.2031250000,165592.9218750000,174553.5156250000,-44443.9960937500,,,
0.7999999986,6,204812.6718750000,194005.5468750000,206354.3906250000,191372.1875000000,190372.1718750000,165590.4687500000,174554.2187500000,-44454.6445312500,,,
0.8039999986,6,204784.0625000000,193978.6718750000,206329.6562500000,191327.6875000000,190353.8750000000,165574.9062500000,174539.2187500000,-44475.3515625000,,,
0.8079999986,6,204770.9375000000,193981.6406250000,206306.8593750000,191321.8281250000,190338.3750000000,165563.1562500000,174515.6250000000,-44485.4101562500,,,
0.8119999988,6,204807.5468750000,194016.4375000000,206337.0781250000,191366.0625000000,190373.1093750000,165581.1875000000,174539.6875000000,-44458.4531250000,,,
0.8159999987,6,204838.6093750000,194032.2656250000,206368.4687500000,191395.5156250000,190408.0625000000,165611.5625000000,174572.7031250000,-44432.1406250000,,,
0.8199999987,6,204826.3906250000,194005.6250000000,206365.9687500000,191384.9687500000,190409.2656250000,165613.1250000000,174579.1875000000,-44435.7343750000,,,
0.8239999986,6,204817.1250000000,194001.0468750000,206362.0312500000,191363.8125000000,190407.2500000000,165614.8125000000,174579.1875000000,-44433.3750000000,,,
0.8279999986,6,204816.4375000000,194020.5156250000,206356.5625000000,191360.0312500000,190399.6406250000,165607.9218750000,174568.1875000000,-44433.8281250000,,,
0.8319999985,6,204844.8437500000,194060.1562500000,206381.9375000000,191382.2187500000,190415.7031250000,165629.0625000000,174586.0312500000,-44415.5351562500,,,
0.8359999987,6,204875.4218750000,194074.1093750000,206416.1875000000,191427.3593750000,190441.2187500000,165646.9531250000,174615.6718750000,-44397.4335937500,,,
0.8399999987,6,204848.1406250000,194030.7343750000,206388.7187500000,191412.5781250000,190421.6093750000,165638.8750000000,174602.7343750000,-44416.6367187500,,,
0.8439999986,6,204817.3437500000,194005.4062500000,206364.7343750000,191355.1406250000,190399.4531250000,165625.6250000000,174586.3281250000,-44435.9492187500,,,
0.8479999986,6,204816.7812500000,194027.1406250000,206359.1093750000,191370.1718750000,190390.6250000000,165624.3437500000,174573.3750000000,-44432.7578125000,,,
0.8519999986,6,204841.3750000000,194056.6406250000,206375.0937500000,191431.5625000000,190399.6718750000,165639.8125000000,174574.5468750000,-44417.9257812500,,,
0.8559999987,6,204866.7031250000,194066.4375000000,206400.3906250000,191461.5781250000,190419.2500000000,165657.5468750000,174596.9687500000,-44400.4101562500,,,
0.8599999987,6,204857.9062500000,194044.1093750000,206399.8281250000,191406.6718750000,190422.5937500000,165662.2343750000,174613.9531250000,-44401.3476562500,,,
0.8639999987,6,204833.7343750000,194031.0781250000,206377.6718750000,191313.8906250000,190405.2968750000,165661.5468750000,174610.1718750000,-44411.5937500000,,,
0.8679999986,6,204827.0781250000,194034.2187500000,206367.7656250000,191325.1093750000,190391.1093750000,165654.2968750000,174601.5781250000,-44422.8593750000,,,
0.8719999986,6,204825.7656250000,194037.5781250000,206359.9375000000,191336.9687500000,190379.0156250000,165653.2500000000,174593.0781250000,-44432.2187500000,,,
0.8759999985,6,204824.9843750000,194026.4062500000,206360.2812500000,191335.7812500000,190379.6875000000,165662.7812500000,174600.2656250000,-44436.6171875000,,,
0.8799999987,6,204803.1562500000,193989.1875000000,206345.9687500000,191319.9843750000,190370.6406250000,165655.2031250000,174601.3125000000,-44454.4570312500,,,
0.8839999987,6,204798.6562500000,193984.8593750000,206342.9062500000,191333.4218750000,190371.1562500000,165660.5468750000,174603.8437500000,-44451.8281250000,,,
0.8879999986,6,204797.1406250000,193999.8125000000,206337.4375000000,191309.3281250000,190364.5312500000,165667.7656250000,174599.5781250000,-44449.6015625000,,,
0.8919999986,6,204809.4843750000,194015.7187500000,206349.2031250000,191320.1406250000,190372.2031250000,165686.6718750000,174622.2656250000,-44442.0625000000,,,
0.8959999986,7,204846.5468750000,194039.8437500000,206387.7812500000,191360.2968750000,190407.7343750000,165725.0781250000,174658.1562500000,-44411.9140625000,,,
0.8999999985,7,204856.0468750000,194036.3593750000,206398.8593750000,191377.7343750000,190422.1718750000,165734.4218750000,174678.8593750000,-44400.4375000000,,,
0.9039999985,7,204830.1093750000,194011.6406250000,206376.4062500000,191327.5156250000,190407.9062500000,165721.7343750000,174679.9375000000,-44415.8046875000,,,
0.9079999984,7,204811.4375000000,194010.8593750000,206356.2656250000,191296.8593750000,190389.9218750000,165708.1250000000,174669.8437500000,-44428.8125000000,,,
0.9119999984,7,204833.2968750000,194041.4375000000,206373.1875000000,191326.1562500000,190403.1562500000,165721.4531250000,174680.2343750000,-44413.4726562500,,,
0.9159999983,7,204865.9687500000,194062.1875000000,206408.5156250000,191377.8125000000,190435.4687500000,165753.2656250000,174709.4687500000,-44390.8867187500,,,
0.9199999985,7,204851.8906250000,194034.4531250000,206402.0156250000,191381.8281250000,190433.8125000000,165755.8125000000,174715.3593750000,-44398.9882812500,,,
0.9239999985,7,204820.6406250000,194006.4375000000,206372.4375000000,191342.2656250000,190411.7656250000,165751.6093750000,174696.5312500000,-44417.5742187500,,,
0.9279999984,7,204805.2187500000,194007.7187500000,206349.0937500000,191316.1250000000,190392.0468750000,165740.7187500000,174670.7812500000,-44432.1914062500,,,
0.9319999984,7,204828.0781250000,194030.6250000000,206363.2031250000,191330.7343750000,190406.0156250000,165744.8750000000,174675.2187500000,-44420.7656250000,,,
0.9359999984,7,204863.9062500000,194050.3593750000,206398.2968750000,191369.2812500000,190440.6718750000,165762.9843750000,174707.0156250000,-44394.8828125000,,,
0.9399999985,7,204854.5156250000,194027.7500000000,206393.7031250000,191361.1093750000,190438.7500000000,165750.8906250000,174714.5625000000,-44400.3007812500,,,
0.9439999985,7,204844.5156250000,194026.5937500000,206385.7968750000,191353.2187500000,190428.1250000000,165741.9843750000,174710.8906250000,-44399.6054687500,,,
0.9479999985,7,204836.0156250000,194029.8125000000,206374.9062500000,191375.5312500000,190410.8750000000,165720.1250000000,174684.8125000000,-44409.9570312500,,,
0.9519999984,7,204849.0156250000,194054.9218750000,206378.8750000000,191399.4375000000,190411.8906250000,165725.7031250000,174673.6562500000,-44403.6289062500,,,
0.9559999984,7,204849.2656250000,194053.9531250000,206379.2812500000,191368.9062500000,190410.5312500000,165726.4218750000,174672.4218750000,-44404.7812500000,,,
0.9599999983,7,204824.5625000000,194003.7500000000,206368.3281250000,191322.9375000000,190401.1406250000,165704.0468750000,174676.6875000000,-44428.8945312500,,,
0.9639999985,7,204811.9218750000,193979.8750000000,206363.9843750000,191312.4218750000,190397.2187500000,165686.4843750000,174675.3437500000,-44441.0703125000,,,
0.9679999985,7,204792.3125000000,193977.7031250000,206339.5468750000,191297.5312500000,190370.3437500000,165661.2500000000,174638.8750000000,-44459.9531250000,,,
0.9719999984,7,204813.2656250000,194007.3906250000,206353.9218750000,191331.2031250000,190378.3750000000,165664.4843750000,174637.0156250000,-44448.3945312500,,,
0.9759999984,7,204844.0312500000,194033.9843750000,206381.9062500000,191360.4375000000,190403.1562500000,165685.4843750000,174658.5781250000,-44424.8164062500,,,
0.9799999984,7,204836.9531250000,194021.0781250000,206382.0312500000,191349.8593750000,190405.1875000000,165686.6250000000,174662.6093750000,-44424.6562500000,,,
0.9839999985,7,204801.6875000000,193984.7812500000,206359.9062500000,191322.1250000000,190382.3125000000,165660.4687500000,174641.9843750000,-44454.0273437500,,,
0.9879999985,7,204790.8437500000,193986.6093750000,206341.3750000000,191330.9062500000,190363.4062500000,165646.9687500000,174617.2187500000,-44467.1171875000,,,
0.9919999985,7,204808.9531250000,194010.5937500000,206347.0312500000,191367.4375000000,190365.5000000000,165648.4218750000,174612.3437500000,-44461.8593750000,,,
0.9959999984,7,204829.5468750000,194019.6562500000,206369.3750000000,191383.6562500000,190384.0000000000,165656.8125000000,174629.2968750000,-44451.6132812500,,,
0.9999999984,7,204824.6718750000,194003.5312500000,206373.2343750000,191376.0937500000,190389.2812500000,165653.2187500000,174636.7187500000,-44451.4765625000,,,
1.0039999983,7,204819.3281250000,194007.3125000000,206368.8437500000,191360.3281250000,190385.8750000000,165651.3750000000,174632.2968750000,-44445.7656250000,,,
1.0079999985,7,204811.2343750000,194016.9531250000,206353.0468750000,191345.8125000000,190368.2500000000,165639.6250000000,174612.3750000000,-44455.5273437500,,,
1.0119999985,7,204817.5000000000,194026.9218750000,206351.1093750000,191383.4687500000,190360.0156250000,165634.2031250000,174599.7031250000,-44460.2226562500,,,
1.0159999984,7,204827.4531250000,194028.4843750000,206359.9062500000,191400.0156250000,190366.1093750000,165636.9375000000,174602.8437500000,-44454.0000000000,,,
1.0199999984,7,204811.7968750000,193999.4531250000,206352.1875000000,191353.6406250000,190361.1406250000,165630.0468750000,174599.6562500000,-44463.5742187500,,,
1.0239999983,8,204798.5156250000,193988.6406250000,206340.2031250000,191342.5468750000,190351.8906250000,165622.5625000000,174590.8281250000,-44469.7695312500,,,
1.0279999983,8,204793.5468750000,193998.5468750000,206330.2656250000,191333.4687500000,190340.7343750000,165612.5156250000,174576.8593750000,-44474.7851562500,,,
1.0319999983,8,204798.0312500000,194009.9375000000,206325.9531250000,191363.2187500000,190334.8906250000,165608.6250000000,174569.1562500000,-44478.7031250000,,,
1.0359999982,8,204822.0937500000,194021.5000000000,206348.8281250000,191403.0312500000,190360.1562500000,165634.9062500000,174596.4062500000,-44462.9062500000,,,
1.0399999982,8,204796.2656250000,193980.0937500000,206334.7031250000,191348.3906250000,190348.0312500000,165613.7656250000,174584.5468750000,-44485.0312500000,,,
1.0439999981,8,204764.7187500000,193945.8593750000,206308.0937500000,191322.9062500000,190322.7187500000,165587.1875000000,174563.4218750000,-44513.1953125000,,,
1.0479999983,8,204761.3593750000,193958.2656250000,206296.9843750000,191326.5000000000,190311.3593750000,165579.7812500000,174551.1562500000,-44516.7890625000,,,
1.0519999983,8,204786.0468750000,193985.3750000000,206315.3281250000,191366.2812500000,190325.7656250000,165588.4531250000,174556.4375000000,-44502.2539062500,,,
1.0559999982,8,204803.2968750000,193993.9062500000,206333.3281250000,191357.5312500000,190344.0156250000,165604.1093750000,174578.0625000000,-44488.5742187500,,,
1.0599999982,8,204797.6250000000,193978.1875000000,206336.2500000000,191321.4062500000,190349.9062500000,165608.7812500000,174587.9531250000,-44486.4257812500,,,
1.0639999982,8,204788.4531250000,193974.6406250000,206333.5468750000,191290.6718750000,190346.7656250000,165603.7968750000,174583.4843750000,-44487.9023437500,,,
1.0679999983,8,204778.8593750000,193977.6562500000,206319.7812500000,191281.1406250000,190329.5468750000,165581.3125000000,174568.6250000000,-44499.7851562500,,,
1.0719999983,8,204790.4687500000,193996.2187500000,206322.3125000000,191316.3125000000,190330.3593750000,165580.3281250000,174568.7812500000,-44496.0585937500,,,
1.0759999983,8,204811.9218750000,194000.9375000000,206344.8593750000,191361.9375000000,190350.8750000000,165590.8125000000,174588.2812500000,-44485.3281250000,,,
1.0799999982,8,204796.3750000000,193974.4843750000,206335.3437500000,191344.2812500000,190343.6875000000,165580.9375000000,174585.9687500000,-44494.9296875000,,,
1.0839999982,8,204770.7031250000,193950.5312500000,206315.0312500000,191318.5937500000,190326.4687500000,165562.0312500000,174569.1250000000,-44512.9531250000,,,
1.0879999981,8,204764.0468750000,193957.5312500000,206306.2343750000,191317.2187500000,190316.5625000000,165551.4375000000,174557.9218750000,-44519.8203125000,,,
1.0919999983,8,204790.2812500000,193992.8593750000,206326.6718750000,191339.7500000000,190331.8593750000,165565.7031250000,174570.9218750000,-44500.7226562500,,,
1.0959999983,8,204810.9375000000,194003.5937500000,206348.1406250000,191361.3750000000,190353.0000000000,165584.9375000000,174594.8593750000,-44484.3085937500,,,
1.0999999982,8,204790.2343750000,193979.0156250000,206327.4218750000,191363.3281250000,190338.4218750000,165581.8437500000,174582.0312500000,-44494.7148437500,,,
1.1039999982,8,204759.4375000000,193946.2656250000,206304.1250000000,191368.7500000000,190318.7343750000,165558.0625000000,174565.0000000000,-44517.7539062500,,,
1.1079999981,8,204769.0625000000,193971.5625000000,206310.6093750000,191354.7968750000,190323.1875000000,165562.2968750000,174563.9843750000,-44506.0898437500,,,
1.1119999983,8,204791.4375000000,193999.5937500000,206328.4531250000,191372.6562500000,190338.2343750000,165574.2031250000,174575.1718750000,-44489.6445312500,,,
1.1159999983,8,204789.7500000000,193978.0781250000,206326.8593750000,191362.5468750000,190338.2968750000,165572.7031250000,174581.9531250000,-44499.5703125000,,,
1.1199999982,8,204802.8281250000,193972.1250000000,206348.8125000000,191383.3593750000,190363.2343750000,165589.9843750000,174610.8437500000,-44484.5507812500,,,
1.1239999982,8,204797.3593750000,193972.7968750000,206345.9687500000,191357.7968750000,190362.5625000000,165592.6562500000,174609.4375000000,-44481.5468750000,,,
1.1279999982,8,204755.1406250000,193952.4687500000,206294.0937500000,191294.3125000000,190311.8437500000,165558.9375000000,174559.4218750000,-44517.8085937500,,,
1.1319999981,8,204773.8593750000,193980.1406250000,206306.1562500000,191303.4062500000,190317.8593750000,165564.6562500000,174561.2968750000,-44509.1718750000,,,
1.1359999983,8,204784.5156250000,193975.5000000000,206317.6875000000,191350.1250000000,190329.6562500000,165566.7187500000,174573.8437500000,-44508.2890625000,,,
1.1399999983,8,204776.4375000000,193956.9375000000,206317.1093750000,191340.6093750000,190331.4843750000,165563.6406250000,174579.8593750000,-44511.2656250000,,,
1.1439999982,8,204743.7656250000,193927.0625000000,206289.8437500000,191311.7031250000,190305.9531250000,165539.8750000000,174560.4062500000,-44536.2109375000,,,
1.1479999982,8,204745.1718750000,193944.5000000000,206289.2812500000,191309.2343750000,190303.4531250000,165533.7656250000,174556.6875000000,-44534.4921875000,,,
1.1519999981,9,204749.8125000000,193957.5937500000,206287.6718750000,191321.2187500000,190296.7968750000,165523.6718750000,174547.0625000000,-44539.3203125000,33029,1.1530692510,0.0000000000
1.1559999981,9,204786.7968750000,193983.9062500000,206320.4062500000,191359.5000000000,190328.1875000000,165554.3125000000,174576.3125000000,-44509.6835937500,,,
1.1599999981,9,204792.1093750000,193975.4843750000,206333.0000000000,191349.6562500000,190343.5312500000,165566.4218750000,174594.2343750000,-44500.7500000000,,,
1.1639999980,9,204770.2187500000,193958.4687500000,206315.8750000000,191314.5468750000,190330.0000000000,165555.0625000000,174581.1406250000,-44511.9609375000,,,
1.1679999980,9,204782.0156250000,193982.2031250000,206328.0937500000,191320.4687500000,190338.9375000000,165558.0000000000,174587.8281250000,-44500.6171875000,,,
1.1719999979,9,204795.5625000000,194004.3125000000,206333.7343750000,191338.4375000000,190341.2656250000,165559.1875000000,174585.9531250000,-44495.9492187500,,,
1.1759999981,9,204810.9062500000,194003.8906250000,206349.6562500000,191366.6875000000,190356.1250000000,165569.1093750000,174599.7812500000,-44489.6445312500,,,
1.1799999981,9,204816.4375000000,193987.8437500000,206366.3437500000,191378.0000000000,190373.9218750000,165579.7031250000,174623.1562500000,-44482.0546875000,,,
1.1839999980,9,204800.8437500000,193971.5937500000,206351.8906250000,191378.2968750000,190362.2187500000,165571.7656250000,174614.9375000000,-44491.4687500000,,,
1.1879999980,9,204794.5468750000,193984.7343750000,206336.0312500000,191355.6093750000,190345.1562500000,165560.0156250000,174595.9531250000,-44495.3320312500,,,
1.1919999979,9,204818.6250000000,194021.4531250000,206349.8750000000,191376.2031250000,190354.5000000000,165572.4375000000,174601.2968750000,-44477.5234375000,,,
1.1959999981,9,204837.1093750000,194033.8750000000,206366.5937500000,191402.2500000000,190370.5156250000,165591.4531250000,174620.5468750000,-44464.8906250000,,,
1.1999999981,9,204828.6562500000,194016.8906250000,206364.5156250000,191385.4531250000,190371.2656250000,165594.7812500000,174626.1562500000,-44465.8554687500,,,
1.2039999980,9,204785.2656250000,193976.6250000000,206327.3750000000,191316.5781250000,190338.6718750000,165565.2812500000,174596.3750000000,-44497.7187500000,,,
1.2079999980,9,204753.9687500000,193960.5312500000,206294.2031250000,191284.4218750000,190303.9687500000,165537.9375000000,174559.3593750000,-44528.5937500000,,,
1.2119999980,9,204775.9843750000,193991.4843750000,206308.5937500000,191334.2812500000,190314.0000000000,165553.1250000000,174565.2187500000,-44515.5039062500,,,
1.2159999979,9,204824.3125000000,194031.2343750000,206355.8281250000,191406.4531250000,190357.1562500000,165593.5937500000,174607.4375000000,-44476.1289062500,,,
1.2199999981,9,204811.6875000000,194008.2031250000,206351.1718750000,191354.1093750000,190356.2187500000,165594.8125000000,174617.0625000000,-44482.0820312500,,,
1.2239999981,9,204772.5312500000,193968.6406250000,206315.6250000000,191309.6250000000,190326.7656250000,165571.5000000000,174597.5625000000,-44509.6289062500,,,
1.2279999980,9,204764.3125000000,193974.8906250000,206298.8593750000,191311.7812500000,190309.1093750000,165560.9843750000,174576.6875000000,-44516.5468750000,,,
1.2319999980,9,204780.8125000000,194003.2968750000,206306.5000000000,191333.9531250000,190310.0000000000,165566.6406250000,174571.3593750000,-44508.2890625000,,,
1.2359999979,9,204803.0000000000,194016.6562500000,206331.0468750000,191358.6406250000,190332.6093750000,165584.7968750000,174596.2968750000,-44492.9179687500,,,
1.2399999981,9,204789.1875000000,193989.3750000000,206325.5000000000,191334.4218750000,190331.4218750000,165583.5937500000,174599.0937500000,-44502.5468750000,,,
1.2439999981,9,204773.4375000000,193975.8593750000,206314.0937500000,191315.1093750000,190324.1875000000,165577.4218750000,174594.0000000000,-44508.6367187500,,,
1.2479999980,9,204771.3437500000,193987.1718750000,206310.7656250000,191305.6562500000,190319.2187500000,165574.3750000000,174588.0468750000,-44508.7148437500,,,
1.2519999980,9,204796.9062500000,194018.3125000000,206333.8437500000,191332.1093750000,190336.5312500000,165589.2031250000,174603.0000000000,-44493.0781250000,,,
1.2559999980,9,204823.0781250000,194034.0625000000,206364.2812500000,191354.3750000000,190363.4218750000,165605.2968750000,174632.7031250000,-44475.7773437500,,,
1.2599999979,9,204809.5156250000,194002.0937500000,206360.5781250000,191354.9375000000,190363.0468750000,165598.0312500000,174640.8750000000,-44487.5546875000,,,
1.2639999981,9,204781.9062500000,193980.8437500000,206332.6875000000,191324.4375000000,190341.2187500000,165588.7187500000,174623.2812500000,-44503.8359375000,,,
1.2679999981,9,204762.3906250000,193973.5781250000,206300.0937500000,191323.7187500000,190309.4062500000,165572.0625000000,174591.8281250000,-44522.5820312500,,,
1.2719999980,9,204788.1562500000,194003.6406250000,206315.8437500000,191349.9687500000,190319.0625000000,165582.8437500000,174597.9687500000,-44507.4296875000,,,
1.2759999980,9,204831.7812500000,194036.3593750000,206358.2187500000,191412.2812500000,190359.1093750000,165616.8750000000,174634.8125000000,-44471.5429687500,,,
1.2799999979,10,204832.7656250000,194025.8750000000,206366.5625000000,191398.5156250000,190372.9218750000,165625.4062500000,174652.2187500000,-44464.3515625000,,,
1.2839999979,10,204810.8750000000,194005.6250000000,206350.2500000000,191349.6718750000,190360.7187500000,165618.6250000000,174645.7343750000,-44473.5546875000,,,
1.2879999978,10,204790.6093750000,193997.6093750000,206326.5625000000,191329.9687500000,190335.5625000000,165599.1718750000,174619.4531250000,-44494.5273437500,,,
1.2919999978,10,204814.3593750000,194025.7500000000,206347.9687500000,191361.0000000000,190352.3281250000,165609.3437500000,174630.3125000000,-44481.6523437500,,,
1.2959999978,10,204849.8593750000,194051.5781250000,206385.1718750000,191411.1250000000,190386.4687500000,165637.4531250000,174661.8593750000,-44454.5625000000,,,
1.2999999977,10,204831.3750000000,194022.2812500000,206370.6406250000,191390.9062500000,190374.7656250000,165631.2500000000,174657.4062500000,-44468.6718750000,,,
1.3039999979,10,204796.7656250000,193983.7187500000,206344.7812500000,191344.6562500000,190352.6406250000,165608.4843750000,174643.4218750000,-44494.0468750000,,,
1.3079999979,10,204789.2031250000,193994.4687500000,206330.6250000000,191343.8593750000,190338.6718750000,165596.5000000000,174627.5781250000,-44499.3828125000,,,
1.3119999978,10,204808.7812500000,194020.7343750000,206343.4687500000,191360.4531250000,190346.8281250000,165603.2500000000,174632.3281250000,-44488.2500000000,,,
1.3159999978,10,204830.1093750000,194035.5312500000,206365.5468750000,191373.3906250000,190365.5468750000,165621.3281250000,174651.5468750000,-44474.7851562500,,,
1.3199999977,10,204839.1562500000,194027.9687500000,206383.9218750000,191395.7500000000,190385.7968750000,165638.7187500000,174675.8593750000,-44464.3789062500,,,
1.3239999979,10,204823.6250000000,194012.5781250000,206371.7343750000,191422.5468750000,190378.4687500000,165630.2656250000,174668.1093750000,-44472.0781250000,,,
1.3279999979,10,204816.5625000000,194025.6093750000,206359.4218750000,191403.8593750000,190365.8750000000,165623.9375000000,174653.0781250000,-44474.4375000000,,,
1.3319999978,10,204814.9375000000,194032.3125000000,206356.0781250000,191342.7812500000,190360.3906250000,165619.0781250000,174651.9062500000,-44481.8671875000,,,
1.3359999978,10,204827.8281250000,194034.4531250000,206368.1406250000,191339.6718750000,190373.1093750000,165628.5468750000,174666.6562500000,-44476.2343750000,,,
1.3399999978,10,204832.7187500000,194027.6406250000,206374.4218750000,191349.7812500000,190381.4531250000,165632.2031250000,174676.4218750000,-44470.0664062500,,,
1.3439999977,10,204806.3437500000,193997.5000000000,206353.5781250000,191343.8593750000,190363.8593750000,165614.0312500000,174663.5781250000,-44490.3984375000,,,
1.3479999979,10,204795.3437500000,193992.6406250000,206344.5625000000,191327.4687500000,190354.0937500000,165602.9843750000,174654.9687500000,-44501.0468750000,,,
1.3519999979,10,204800.2812500000,194007.3906250000,206343.3593750000,191326.7656250000,190347.1718750000,165601.4375000000,174640.2968750000,-44503.4335937500,,,
1.3559999978,10,204817.6875000000,194015.3125000000,206358.9687500000,191350.5625000000,190359.2968750000,165611.9687500000,174650.7968750000,-44494.8750000000,,,
1.3599999978,10,204826.5781250000,194008.7187500000,206373.2968750000,191366.3593750000,190376.3593750000,165628.6093750000,174672.8437500000,-44483.1562500000,,,
1.3639999977,10,204800.5781250000,193987.3281250000,206348.0312500000,191332.5312500000,190355.2812500000,165613.6406250000,174652.4062500000,-44498.9804687500,,,
1.3679999979,10,204803.7500000000,194010.3750000000,206343.8750000000,191330.7187500000,190350.3437500000,165618.1875000000,174641.7656250000,-44493.8046875000,,,
1.3719999979,10,204818.2343750000,194026.5000000000,206351.4375000000,191347.5781250000,190355.0625000000,165616.0000000000,174643.2343750000,-44492.4882812500,,,
1.3759999978,10,204832.9218750000,194019.0312500000,206366.6718750000,191369.7968750000,190368.4375000000,165616.3125000000,174659.1406250000,-44492.2460937500,,,
1.3799999978,10,204837.5468750000,194006.2500000000,206376.1875000000,191391.3906250000,190377.4531250000,165622.4843750000,174671.0468750000,-44488.2226562500,,,
1.3839999977,10,204818.3125000000,193990.5468750000,206359.1250000000,191374.6406250000,190360.7968750000,165609.7500000000,174653.2968750000,-44498.6328125000,,,
1.3879999977,10,204810.6406250000,194002.4375000000,206348.1562500000,191357.0312500000,190348.4843750000,165604.4062500000,174636.0781250000,-44500.2929687500,,,
1.3919999979,10,204821.5000000000,194020.1406250000,206355.1093750000,191378.7500000000,190349.3125000000,165606.9531250000,174634.6562500000,-44497.7187500000,,,
1.3959999979,10,204848.4062500000,194036.0156250000,206380.7812500000,191420.9218750000,190371.2656250000,165627.8437500000,174655.5312500000,-44480.8203125000,,,
1.3999999978,10,204839.0625000000,194011.1562500000,206377.7500000000,191402.7500000000,190369.2187500000,165621.7031250000,174653.3750000000,-44489.8320312500,,,
1.4039999978,10,204807.2812500000,193980.4375000000,206350.0625000000,191347.9843750000,190346.3750000000,165605.6093750000,174635.8593750000,-44510.9179687500,,,
1.4079999977,11,204800.4687500000,193990.3593750000,206341.1562500000,191342.1093750000,190338.3437500000,165607.7343750000,174630.2812500000,-44509.9492187500,,,
1.4119999977,11,204828.6875000000,194033.1250000000,206363.3437500000,191361.7500000000,190355.2812500000,165631.0937500000,174643.4218750000,-44486.2382812500,,,
1.4159999976,11,204853.7187500000,194053.2968750000,206386.9218750000,191382.9843750000,190374.9375000000,165648.7187500000,174660.7812500000,-44471.4062500000,,,
1.4199999976,11,204844.1718750000,194019.3906250000,206385.7656250000,191405.4375000000,190374.1250000000,165633.8906250000,174664.2187500000,-44487.4453125000,,,
1.4239999976,11,204832.2500000000,194007.9062500000,206374.5468750000,191376.7343750000,190367.6406250000,165627.5312500000,174659.4062500000,-44491.2539062500,,,
1.4279999975,11,204798.4375000000,193994.5000000000,206338.1562500000,191310.7031250000,190334.4062500000,165612.3750000000,174632.5312500000,-44514.8046875000,,,
1.4319999977,11,204804.4687500000,194014.0781250000,206338.3125000000,191327.2187500000,190331.5937500000,165624.3593750000,174628.5468750000,-44511.3984375000,,,
1.4359999977,11,204834.0000000000,194034.0000000000,206366.7812500000,191366.6250000000,190359.1562500000,165643.5468750000,174655.5468750000,-44491.2539062500,,,
1.4399999976,11,204835.2031250000,194022.0625000000,206377.8281250000,191376.1250000000,190372.3125000000,165646.2187500000,174677.6250000000,-44489.5117187500,,,
1.4439999976,11,204821.5625000000,194015.1406250000,206367.5312500000,191361.7500000000,190366.7812500000,165649.2031250000,174676.3125000000,-44488.9492187500,,,
1.4479999975,11,204788.4062500000,193992.7500000000,206329.1718750000,191323.5000000000,190330.8906250000,165621.9531250000,174641.8437500000,-44516.3593750000,,,
1.4519999977,11,204804.3906250000,194012.2500000000,206337.5156250000,191336.7968750000,190333.2187500000,165626.0468750000,174639.6718750000,-44510.9414062500,,,
1.4559999977,11,204838.9843750000,194033.5781250000,206368.2187500000,191396.3750000000,190358.7812500000,165647.4843750000,174656.1406250000,-44488.8945312500,,,
1.4599999976,11,204837.2656250000,194017.7187500000,206371.6250000000,191444.1093750000,190362.2968750000,165647.1562500000,174657.9843750000,-44490.3164062500,,,
1.4639999976,11,204818.5781250000,194000.8281250000,206359.7812500000,191432.4531250000,190354.0156250000,165644.0312500000,174655.2500000000,-44496.5117187500,,,
1.4679999975,11,204806.2343750000,194006.2968750000,206349.4218750000,191343.7968750000,190344.5781250000,165641.4843750000,174646.5625000000,-44500.2148437500,,,
1.4719999975,11,204825.2343750000,194036.7187500000,206364.8750000000,191326.7656250000,190355.3750000000,165654.8906250000,174654.9687500000,-44487.1796875000,,,
1.4759999977,11,204855.1562500000,194057.1718750000,206390.1093750000,191368.1875000000,190379.8125000000,165676.4218750000,174678.8906250000,-44467.1171875000,,,
1.4799999977,11,204850.6250000000,194025.4687500000,206390.8125000000,191390.6875000000,190382.1250000000,165662.7187500000,174684.2031250000,-44479.7226562500,,,
1.4839999976,11,204832.7656250000,194006.6406250000,206369.7812500000,191380.5468750000,190369.1875000000,165653.5781250000,174674.2656250000,-44489.2187500000,,,
1.4879999976,11,204827.7187500000,194017.7187500000,206361.5468750000,191364.9843750000,190361.3281250000,165649.1250000000,174665.5312500000,-44490.2343750000,,,
1.4919999975,11,204843.7656250000,194044.8750000000,206371.8437500000,191389.0000000000,190368.1250000000,165656.0156250000,174668.6406250000,-44480.3125000000,,,
1.4959999977,11,204864.3906250000,194054.6093750000,206394.2968750000,191407.3437500000,190386.8125000000,165665.7500000000,174688.8125000000,-44470.3867187500,,,
1.4999999977,11,204875.3593750000,194049.1093750000,206414.2031250000,191411.8281250000,190408.5156250000,165677.6406250000,174711.6093750000,-44458.5039062500,,,
1.5039999976,11,204866.2343750000,194045.1406250000,206406.3437500000,191416.0312500000,190405.3281250000,165682.5937500000,174709.2968750000,-44455.6367187500,,,
1.5079999976,11,204845.9843750000,194042.9062500000,206381.6875000000,191381.4375000000,190381.3750000000,165668.8906250000,174689.0312500000,-44472.2929687500,,,
1.5119999975,11,204853.6406250000,194058.3593750000,206383.6250000000,191392.2500000000,190379.3281250000,165669.7187500000,174685.5156250000,-44472.5351562500,,,
1.5159999975,11,204864.0937500000,194059.5625000000,206392.3593750000,191422.0156250000,190384.1406250000,165675.1875000000,174687.3593750000,-44472.4257812500,,,
1.5199999977,11,204866.2187500000,194046.5312500000,206401.3437500000,191441.6250000000,190394.7812500000,165681.8906250000,174699.6406250000,-44470.0937500000,,,
1.5239999976,11,204843.3593750000,194023.2968750000,206384.2656250000,191407.1875000000,190382.6250000000,165671.2968750000,174691.2187500000,-44484.3632812500,,,
1.5279999976,11,204832.7656250000,194028.9062500000,206370.9375000000,191399.7187500000,190369.8906250000,165662.3906250000,174677.7812500000,-44490.8007812500,,,
1.5319999976,11,204855.8593750000,194057.2656250000,206391.4531250000,191399.4531250000,190385.3437500000,165674.0156250000,174693.3125000000,-44476.1015625000,,,
1.5359999975,12,204874.6875000000,194065.6562500000,206411.1875000000,191406.6250000000,190401.2812500000,165685.1093750000,174714.7812500000,-44466.5273437500,,,
1.5399999975,12,204850.4218750000,194020.5468750000,206392.6250000000,191406.5156250000,190386.1406250000,165663.7343750000,174708.4218750000,-44490.9609375000,,,
1.5439999974,12,204821.3125000000,193993.3125000000,206365.4062500000,191364.7968750000,190365.7343750000,165651.9375000000,174691.3125000000,-44507.5351562500,,,
1.5479999974,12,204815.2187500000,194002.2968750000,206355.2500000000,191350.4531250000,190355.6250000000,165641.1250000000,174678.9062500000,-44511.6406250000,,,
1.5519999973,12,204842.0781250000,194029.6093750000,206378.6093750000,191388.2656250000,190372.5156250000,165647.5937500000,174693.3125000000,-44497.7734375000,,,
1.5559999973,12,204862.5156250000,194040.2031250000,206393.8125000000,191420.9687500000,190387.7343750000,165660.9531250000,174706.1718750000,-44487.9843750000,,,
1.5599999975,12,204856.0468750000,194020.7812500000,206392.2031250000,191412.3593750000,190391.5625000000,165666.6875000000,174713.0312500000,-44490.3437500000,,,
1.5639999975,12,204847.0937500000,194013.2500000000,206387.7187500000,191408.1250000000,190390.8125000000,165671.1718750000,174715.1718750000,-44487.7421875000,,,
1.5679999974,12,204838.2656250000,194029.1718750000,206372.2812500000,191418.7187500000,190372.0937500000,165667.7031250000,174692.4062500000,-44489.3242187500,,,
1.5719999974,12,204847.5000000000,194052.5156250000,206376.6718750000,191402.3750000000,190370.3750000000,165675.2187500000,174687.5000000000,-44485.1679687500,,,
1.5759999973,12,204859.6093750000,194053.2968750000,206391.7187500000,191394.5156250000,190383.5937500000,165686.5312500000,174702.6718750000,-44482.8867187500,,,
1.5799999975,12,204831.6406250000,194010.0781250000,206368.9218750000,191360.2656250000,190362.6250000000,165664.9687500000,174685.5312500000,-44509.7343750000,,,
1.5839999975,12,204809.1562500000,193986.3437500000,206347.6250000000,191348.3125000000,190345.2968750000,165652.5312500000,174676.3437500000,-44523.3632812500,,,
1.5879999974,12,204806.3281250000,193996.9375000000,206341.5156250000,191365.4218750000,190335.3750000000,165648.1875000000,174662.2812500000,-44526.7421875000,,,
1.5919999974,12,204835.3750000000,194036.3906250000,206362.4062500000,191397.2812500000,190350.0468750000,165652.7343750000,174659.2031250000,-44508.7421875000,,,
1.5959999973,12,204857.4687500000,194055.3281250000,206384.8750000000,191440.7968750000,190370.0312500000,165671.9687500000,174691.3906250000,-44495.8671875000,,,
1.5999999973,12,204858.0312500000,194046.2031250000,206396.0156250000,191435.6093750000,190383.9687500000,165689.3281250000,174732.1250000000,-44489.9687500000,,,
1.6039999975,12,204817.8593750000,194006.2187500000,206364.8437500000,191314.3750000000,190358.1718750000,165663.3437500000,174716.2812500000,-44514.9140625000,,,
1.6079999974,12,204801.0156250000,194003.4843750000,206342.8750000000,191324.7812500000,190333.3593750000,165632.8125000000,174679.2656250000,-44529.5585937500,,,
1.6119999974,12,204807.7187500000,194017.8906250000,206341.7812500000,191349.0625000000,190324.7031250000,165624.6562500000,174664.9687500000,-44534.3593750000,,,
1.6159999974,12,204819.9687500000,194018.0937500000,206354.2812500000,191361.1562500000,190331.6093750000,165630.9687500000,174675.2343750000,-44533.5820312500,,,
1.6199999973,12,204821.4687500000,193998.7812500000,206361.8906250000,191372.0468750000,190341.7343750000,165635.4687500000,174696.0000000000,-44533.0429687500,,,
1.6239999975,12,204821.0468750000,193997.8437500000,206368.2187500000,191366.1718750000,190352.5312500000,165641.5312500000,174714.0000000000,-44525.4257812500,,,
1.6279999975,12,204810.3437500000,193998.9531250000,206352.0468750000,191363.1718750000,190338.7187500000,165629.1875000000,174694.9218750000,-44534.0625000000,,,
1.6319999974,12,204819.1093750000,194019.4375000000,206354.8125000000,191375.2031250000,190336.5781250000,165630.7968750000,174689.3437500000,-44532.3750000000,,,
1.6359999974,12,204840.9687500000,194040.4218750000,206375.1718750000,191408.0468750000,190352.7812500000,165646.0625000000,174707.4218750000,-44519.5273437500,,,
1.6399999973,12,204844.7500000000,194021.0781250000,206386.2031250000,191440.5781250000,190363.0000000000,165640.1406250000,174717.6718750000,-44519.5546875000,,,
1.6439999973,12,204832.4687500000,193999.2656250000,206374.1250000000,191418.9375000000,190355.9218750000,165623.9062500000,174712.9843750000,-44526.3125000000,,,
1.6479999975,12,204814.0468750000,193995.3750000000,206351.5468750000,191360.8281250000,190335.8593750000,165609.5000000000,174695.8906250000,-44537.3632812500,,,
1.6519999974,12,204837.3593750000,194031.4062500000,206369.0000000000,191388.3593750000,190350.1562500000,165623.6718750000,174707.6093750000,-44517.0312500000,,,
1.6559999974,12,204864.3906250000,194050.6875000000,206393.6250000000,191441.4687500000,190372.3906250000,165642.8125000000,174729.9062500000,-44497.8789062500,,,
1.6599999974,12,204878.8750000000,194049.4218750000,206410.9531250000,191485.2343750000,190391.9687500000,165658.5937500000,174753.8281250000,-44484.4414062500,,,
1.6639999973,13,204862.8906250000,194034.5625000000,206402.3906250000,191441.6718750000,190388.0000000000,165656.9843750000,174755.8437500000,-44489.2695312500,,,
1.6679999973,13,204855.1093750000,194039.9531250000,206396.9843750000,191401.0468750000,190384.4531250000,165654.7031250000,174753.5000000000,-44491.3906250000,,,
1.6719999972,13,204841.6406250000,194036.6562500000,206375.6562500000,191375.6718750000,190361.6875000000,165637.0468750000,174729.5000000000,-44511.8554687500,,,
1.6759999972,13,204846.2812500000,194034.0781250000,206375.4062500000,191387.0468750000,190360.3750000000,165637.2656250000,174727.1093750000,-44515.7421875000,,,
1.6799999971,13,204844.2812500000,194017.7968750000,206377.0156250000,191389.5312500000,190364.6875000000,165641.8593750000,174735.9375000000,-44516.6015625000,,,
1.6839999971,13,204820.2187500000,193996.0468750000,206358.3750000000,191337.7343750000,190350.5312500000,165638.5312500000,174729.0468750000,-44528.8867187500,,,
1.6879999973,13,204812.0937500000,194000.7656250000,206349.0937500000,191322.6406250000,190340.3281250000,165632.5781250000,174721.5937500000,-44532.8828125000,,,
1.6919999972,13,204827.1562500000,194023.7031250000,206353.9218750000,191363.5937500000,190343.1250000000,165637.6093750000,174718.6562500000,-44524.7304687500,,,
1.6959999972,13,204868.9531250000,194058.6562500000,206392.3593750000,191409.3750000000,190379.0937500000,165664.4687500000,174746.6875000000,-44495.4140625000,,,
1.6999999972,13,204866.9062500000,194043.8750000000,206396.5156250000,191425.0937500000,190382.4375000000,165661.2500000000,174749.9843750000,-44501.2617187500,,,
1.7039999971,13,204849.4218750000,194026.6250000000,206384.1093750000,191389.6718750000,190371.0937500000,165649.6250000000,174734.0312500000,-44509.8164062500,,,
1.7079999973,13,204818.9843750000,194009.2968750000,206352.3125000000,191369.3593750000,190340.7343750000,165625.1093750000,174704.8437500000,-44534.2226562500,,,
1.7119999973,13,204811.5468750000,194008.4218750000,206341.6718750000,191360.0312500000,190328.0781250000,165619.5156250000,174702.0000000000,-44547.0742187500,,,
1.7159999972,13,204825.1718750000,194016.9687500000,206353.6093750000,191374.8906250000,190337.5156250000,165637.4218750000,174719.6250000000,-44540.4726562500,,,
1.7199999972,13,204817.3750000000,193997.9843750000,206350.0937500000,191374.8906250000,190332.3906250000,165634.3750000000,174712.7968750000,-44546.5898437500,,,
1.7239999971,13,204808.0156250000,193984.9531250000,206347.3906250000,191354.0000000000,190330.6718750000,165631.0625000000,174712.8750000000,-44547.9296875000,,,
1.7279999971,13,204781.3281250000,193971.0468750000,206314.8281250000,191362.2500000000,190302.5937500000,165612.2343750000,174693.3437500000,-44568.1289062500,,,
1.7319999973,13,204796.5000000000,193990.9218750000,206326.4062500000,191409.4375000000,190307.0156250000,165605.9375000000,174691.5156250000,-44564.9375000000,,,
1.7359999972,13,204837.9218750000,194023.7812500000,206366.8281250000,191461.3906250000,190341.4531250000,165629.5468750000,174718.6562500000,-44537.3359375000,,,
1.7399999972,13,204802.6250000000,193982.3750000000,206338.2656250000,191389.7968750000,190317.1250000000,165611.2968750000,174709.8437500000,-44567.6992187500,,,
1.7439999972,13,204760.1562500000,193935.3593750000,206307.0156250000,191338.2968750000,190290.7656250000,165585.9531250000,174696.9375000000,-44598.7578125000,,,
1.7479999971,13,204752.7812500000,193942.7812500000,206301.0312500000,191343.4218750000,190281.8281250000,165576.3750000000,174682.6093750000,-44602.5117187500,,,
1.7519999973,13,204759.8125000000,193966.4687500000,206297.7656250000,191349.5937500000,190275.9375000000,165575.5781250000,174670.1406250000,-44599.1054687500,,,
1.7559999973,13,204774.8593750000,193973.5937500000,206306.5312500000,191379.6562500000,190282.3125000000,165577.6718750000,174675.5937500000,-44596.6914062500,,,
1.7599999972,13,204775.2812500000,193955.8906250000,206312.7500000000,191375.0000000000,190289.4062500000,165580.0468750000,174685.5625000000,-44597.8203125000,,,
1.7639999972,13,204774.4531250000,193948.7656250000,206318.2031250000,191349.3593750000,190298.7343750000,165587.5937500000,174696.2968750000,-44589.9609375000,,,
1.7679999971,13,204783.5156250000,193964.4843750000,206329.2500000000,191348.9218750000,190308.2812500000,165587.9375000000,174706.2656250000,-44582.3164062500,,,
1.7719999971,13,204784.6406250000,193978.9687500000,206319.7500000000,191361.4531250000,190298.7812500000,165585.2812500000,174692.1093750000,-44584.0078125000,,,
1.7759999973,13,204802.9375000000,193995.7500000000,206332.4218750000,191383.3125000000,190307.9843750000,165594.1875000000,174695.4843750000,-44573.3828125000,,,
1.7799999972,13,204811.3906250000,193991.8593750000,206342.2343750000,191387.2031250000,190320.8125000000,165605.5937500000,174708.2500000000,-44564.1328125000,,,
1.7839999972,13,204789.2343750000,193966.2031250000,206326.9218750000,191378.8125000000,190309.1718750000,165590.0625000000,174700.8281250000,-44579.7968750000,,,
1.7879999971,13,204786.6562500000,193971.4531250000,206325.0625000000,191372.6406250000,190306.7187500000,165580.8593750000,174699.0000000000,-44582.1289062500,,,
1.7919999971,14,204814.6562500000,194011.7343750000,206346.2031250000,191374.2968750000,190322.0156250000,165603.8125000000,174709.5781250000,-44558.7929687500,,,
1.7959999971,14,204847.1406250000,194030.0937500000,206378.3437500000,191412.5156250000,190349.0781250000,165627.3125000000,174739.0000000000,-44538.3007812500,,,
1.7999999970,14,204846.9218750000,194015.6093750000,206378.7343750000,191420.0312500000,190352.4062500000,165633.4843750000,174747.2031250000,-44536.9882812500,,,
1.8039999970,14,204817.9375000000,193987.0312500000,206356.5312500000,191372.3437500000,190334.2500000000,165620.2812500000,174735.6406250000,-44555.2265625000,,,
1.8079999969,14,204797.5781250000,193979.3750000000,206338.2968750000,191338.2500000000,190316.1875000000,165604.6718750000,174719.7343750000,-44571.6953125000,,,
1.8119999969,14,204799.9062500000,193996.0000000000,206331.5312500000,191345.8906250000,190306.4531250000,165597.7500000000,174707.7968750000,-44575.4765625000,,,
1.8159999971,14,204823.4531250000,194014.6406250000,206349.6875000000,191381.6250000000,190320.8281250000,165611.0625000000,174718.7500000000,-44560.9921875000,,,
1.8199999970,14,204838.9375000000,194011.5781250000,206373.2187500000,191398.9531250000,190343.9062500000,165625.5468750000,174744.3906250000,-44546.9101562500,,,
1.8239999970,14,204830.6406250000,193991.2968750000,206373.0312500000,191407.6406250000,190346.0468750000,165620.2031250000,174748.0625000000,-44552.3281250000,,,
1.8279999970,14,204808.2187500000,193985.3750000000,206343.5156250000,191407.3437500000,190319.6250000000,165607.7656250000,174720.4062500000,-44569.5742187500,,,
1.8319999969,14,204823.5468750000,194014.6406250000,206347.4843750000,191413.6406250000,190322.0937500000,165619.4843750000,174720.0781250000,-44558.1210937500,,,
1.8359999971,14,204843.4687500000,194032.8437500000,206364.7968750000,191397.6406250000,190335.0468750000,165635.3593750000,174733.7968750000,-44546.4023437500,,,
1.8399999971,14,204825.9531250000,193997.9531250000,206355.2656250000,191386.6562500000,190325.4687500000,165619.4062500000,174730.1406250000,-44565.9531250000,,,
1.8439999970,14,204814.4531250000,193978.4843750000,206348.3281250000,191399.9375000000,190321.3750000000,165614.7812500000,174731.9687500000,-44572.3906250000,,,
1.8479999970,14,204801.8906250000,193980.7343750000,206332.2812500000,191375.7812500000,190305.4062500000,165607.2812500000,174720.9375000000,-44580.7890625000,,,
1.8519999969,14,204806.2968750000,194000.6875000000,206328.0468750000,191381.4843750000,190299.8125000000,165610.5468750000,174714.2343750000,-44578.6132812500,,,
1.8559999969,14,204836.1406250000,194024.7187500000,206354.5156250000,191428.1093750000,190325.0937500000,165631.4531250000,174739.2031250000,-44557.3437500000,,,
1.8599999971,14,204837.8125000000,194009.1875000000,206362.1875000000,191446.5625000000,190333.7656250000,165632.9531250000,174750.1562500000,-44557.5859375000,,,
1.8639999970,14,204828.5000000000,193996.1875000000,206357.8750000000,191450.3125000000,190333.7031250000,165631.7343750000,174753.8281250000,-44558.5000000000,,,
1.8679999970,14,204801.5937500000,193988.4375000000,206330.2656250000,191401.2031250000,190307.7656250000,165611.7812500000,174728.8593750000,-44577.6757812500,,,
1.8719999969,14,204802.6718750000,193999.1406250000,206330.2656250000,191381.0312500000,190305.3906250000,165610.6875000000,174728.4531250000,-44580.4921875000,,,
1.8759999969,14,204838.7968750000,194031.1406250000,206366.4843750000,191398.7031250000,190339.0156250000,165646.6250000000,174766.4531250000,-44550.8007812500,,,
1.8799999971,14,204834.4531250000,194012.7343750000,206366.0468750000,191402.5468750000,190338.7812500000,165642.9531250000,174767.2187500000,-44557.8281250000,,,
1.8839999971,14,204813.3281250000,193987.9531250000,206347.2968750000,191381.8593750000,190324.2656250000,165632.9687500000,174756.1562500000,-44570.5156250000,,,
1.8879999970,14,204801.2031250000,193992.7500000000,206331.6093750000,191365.3437500000,190309.6718750000,165627.9843750000,174741.2968750000,-44575.7460937500,,,
1.8919999970,14,204801.9531250000,194002.1093750000,206327.0781250000,191376.8125000000,190301.5156250000,165619.4843750000,174729.9531250000,-44581.8320312500,,,
1.8959999969,14,204836.1718750000,194028.5000000000,206360.2656250000,191423.0937500000,190331.5625000000,165643.4843750000,174757.6875000000,-44556.3789062500,,,
1.8999999969,14,204833.7812500000,194005.5781250000,206367.1718750000,191425.9062500000,190339.9843750000,165640.8593750000,174768.0156250000,-44561.5039062500,,,
1.9039999971,14,204821.3906250000,193990.7968750000,206362.7812500000,191400.6093750000,190340.4218750000,165641.8750000000,174772.1250000000,-44563.7539062500,,,
1.9079999970,14,204813.8593750000,193995.0312500000,206353.5781250000,191389.2656250000,190332.7500000000,165634.3125000000,174763.9375000000,-44566.8125000000,,,
1.9119999970,14,204833.1718750000,194027.1718750000,206365.7500000000,191420.4531250000,190340.3281250000,165643.6718750000,174767.1093750000,-44555.8984375000,,,
1.9159999969,14,204861.2187500000,194050.6406250000,206386.6250000000,191443.6875000000,190359.2656250000,165663.1562500000,174781.7812500000,-44538.7031250000,,,
1.9199999969,15,204866.9062500000,194041.6250000000,206398.1093750000,191424.5937500000,190372.4687500000,165670.9218750000,174796.5312500000,-44531.9726562500,,,
1.9239999969,15,204829.5468750000,193997.4531250000,206368.6875000000,191392.4843750000,190348.2656250000,165645.8437500000,174777.1875000000,-44560.4023437500,,,
1.9279999968,15,204830.9687500000,194008.8125000000,206368.7343750000,191393.9062500000,190349.2187500000,165654.1562500000,174782.2031250000,-44550.9882812500,,,
1.9319999968,15,204842.8281250000,194034.6406250000,206372.4843750000,191431.2343750000,190347.5781250000,165657.4375000000,174778.3750000000,-44544.4453125000,,,
1.9359999967,15,204852.7031250000,194044.0625000000,206378.4687500000,191462.7031250000,190350.8437500000,165661.7500000000,174779.2812500000,-44542.4062500000,,,
1.9399999967,15,204857.7343750000,194032.7500000000,206391.4218750000,191452.6718750000,190366.1406250000,165677.2343750000,174802.8906250000,-44533.4453125000,,,
1.9439999969,15,204845.3750000000,194015.1406250000,206386.7656250000,191416.4843750000,190365.5937500000,165681.2812500000,174809.7500000000,-44534.4921875000,,,
1.9479999968,15,204837.5937500000,194021.3437500000,206380.4062500000,191395.8437500000,190358.2500000000,165672.3437500000,174804.5000000000,-44537.1757812500,,,
1.9519999968,15,204847.2500000000,194043.2031250000,206380.4218750000,191402.6250000000,190355.1718750000,165671.9687500000,174797.7343750000,-44534.0625000000,,,
1.9559999967,15,204878.5468750000,194065.5781250000,206406.9843750000,191420.8125000000,190378.1562500000,165686.4062500000,174813.0312500000,-44515.5546875000,,,
1.9599999967,15,204876.4375000000,194054.3125000000,206408.0625000000,191419.5156250000,190382.6562500000,165691.7968750000,174821.8750000000,-44515.3164062500,,,
1.9639999969,15,204832.0625000000,194008.3906250000,206371.8750000000,191367.8125000000,190354.8750000000,165682.5625000000,174812.2968750000,-44544.1484375000,,,
1.9679999969,15,204817.7812500000,194005.8437500000,206358.9218750000,191348.9843750000,190342.9687500000,165680.3125000000,174810.6562500000,-44550.4804687500,,,
1.9719999968,15,204834.6718750000,194035.7968750000,206369.6718750000,191368.3750000000,190348.0625000000,165689.1718750000,174820.0468750000,-44539.4804687500,,,
1.9759999968,15,204868.5937500000,194065.5937500000,206402.5625000000,191412.4687500000,190377.1093750000,165722.6718750000,174858.1875000000,-44513.5703125000,,,
1.9799999967,15,204874.7187500000,194053.6406250000,206414.7656250000,191406.1875000000,190393.9843750000,165740.9375000000,174885.0625000000,-44504.8281250000,,,
1.9839999967,15,204850.2031250000,194023.3281250000,206392.8281250000,191375.8593750000,190379.3593750000,165736.2343750000,174881.0781250000,-44517.0585937500,,,
1.9879999969,15,204848.7500000000,194038.5625000000,206388.4687500000,191377.4687500000,190375.9531250000,165752.5937500000,174883.7812500000,-44508.5039062500,,,
1.9919999968,15,204869.6718750000,194076.7031250000,206402.8281250000,191398.0312500000,190388.7500000000,165776.7656250000,174894.7500000000,-44489.5664062500,,,
1.9959999968,15,204902.0468750000,194102.1093750000,206438.2500000000,191435.6875000000,190421.6093750000,165799.4531250000,174926.9687500000,-44467.1171875000,,,
1.9999999967,15,204916.7500000000,194098.4375000000,206461.8125000000,191452.0000000000,190448.3125000000,165818.9531250000,174960.8125000000,-44455.1796875000,,,
2.0039999967,15,204894.0781250000,194067.5625000000,206443.5937500000,191425.5312500000,190439.1250000000,165819.2031250000,174963.5468750000,-44467.6796875000,,,
2.0079999969,15,204891.5000000000,194082.1562500000,206435.3593750000,191406.6406250000,190431.7187500000,165825.9531250000,174956.9218750000,-44460.6523437500,,,
2.0119999968,15,204898.4531250000,194099.9375000000,206432.7812500000,191429.9218750000,190425.6250000000,165827.2968750000,174947.1406250000,-44459.1757812500,,,
2.0159999968,15,204920.0468750000,194114.3125000000,206450.0312500000,191451.2812500000,190441.1093750000,165844.3281250000,174965.2656250000,-44447.2148437500,,,
2.0199999968,15,204919.0312500000,194104.6250000000,206451.4843750000,191437.8437500000,190447.8125000000,165851.0937500000,174971.8125000000,-44446.5156250000,,,
2.0239999967,15,204903.1250000000,194083.2187500000,206442.9531250000,191432.7500000000,190446.0625000000,165853.1093750000,174974.8906250000,-44451.7734375000,,,
2.0279999967,15,204908.6718750000,194102.4843750000,206446.7812500000,191437.6718750000,190451.7187500000,165871.3125000000,174984.3593750000,-44437.4492187500,,,
2.0319999969,15,204917.6562500000,194125.0625000000,206447.4375000000,191406.2187500000,190450.6250000000,165877.7187500000,174979.9062500000,-44431.1210937500,,,
2.0359999968,15,204936.1875000000,194138.3906250000,206467.1250000000,191425.6875000000,190467.8437500000,165889.5781250000,174994.6875000000,-44419.6679687500,,,
2.0399999968,15,204944.0781250000,194132.1406250000,206484.2343750000,191435.1562500000,190486.9218750000,165909.0468750000,175013.7343750000,-44407.1679687500,,,
2.0439999967,15,204921.2812500000,194104.8750000000,206466.2343750000,191409.3750000000,190474.5000000000,165909.1562500000,174999.9687500000,-44415.9375000000,,,
2.0479999967,16,204907.2812500000,194103.4687500000,206450.8125000000,191385.5937500000,190456.7968750000,165892.8593750000,174977.0156250000,-44427.1250000000,,,
2.0519999966,16,204929.7343750000,194137.0625000000,206464.2968750000,191417.0000000000,190462.1875000000,165892.2968750000,174977.7968750000,-44414.9453125000,,,
2.0559999966,16,204939.8125000000,194140.6250000000,206469.5000000000,191436.3125000000,190462.9687500000,165893.0625000000,174977.3906250000,-44416.2617187500,,,
2.0599999966,16,204929.0000000000,194120.1562500000,206458.8906250000,191423.1406250000,190454.4687500000,165888.2343750000,174964.7031250000,-44426.8828125000,,,
2.0639999965,16,204903.1718750000,194087.0000000000,206436.8593750000,191393.7656250000,190436.7031250000,165866.4843750000,174943.5937500000,-44448.9843750000,,,
2.0679999965,16,204893.6875000000,194088.0000000000,206423.6875000000,191389.2187500000,190425.2187500000,165853.2968750000,174921.2968750000,-44456.3320312500,,,
2.0719999967,16,204899.9531250000,194108.1093750000,206425.4843750000,191413.9687500000,190421.4687500000,165846.7500000000,174909.4531250000,-44456.2812500000,,,
2.0759999966,16,204920.3437500000,194123.0000000000,206447.6250000000,191438.5937500000,190439.5156250000,165856.2656250000,174929.6406250000,-44447.4296875000,,,
2.0799999966,16,204907.4062500000,194096.1718750000,206443.6718750000,191436.2031250000,190436.5781250000,165844.5937500000,174928.5781250000,-44463.5742187500,,,
2.0839999965,16,204878.9843750000,194056.0000000000,206426.8281250000,191402.5468750000,190422.3750000000,165820.5156250000,174914.4843750000,-44487.6601562500,,,
2.0879999965,16,204873.0000000000,194061.0937500000,206415.8906250000,191392.2968750000,190411.1718750000,165813.7343750000,174901.8593750000,-44489.9960937500,,,
2.0919999967,16,204880.5312500000,194085.5000000000,206415.0000000000,191410.8281250000,190404.7656250000,165810.5312500000,174888.6093750000,-44487.3945312500,,,
2.0959999966,16,204896.8750000000,194099.2656250000,206430.1875000000,191437.2812500000,190415.0937500000,165816.9218750000,174894.5312500000,-44479.5078125000,,,
2.0999999966,16,204900.5156250000,194085.1875000000,206438.6875000000,191455.1875000000,190425.0312500000,165821.9062500000,174906.7187500000,-44475.3750000000,,,
2.1039999966,16,204876.0312500000,194055.1875000000,206419.1562500000,191422.6875000000,190410.0781250000,165806.5625000000,174894.5156250000,-44489.1093750000,,,
2.1079999965,16,204859.1562500000,194057.0781250000,206397.7031250000,191393.9062500000,190391.1406250000,165800.1093750000,174879.6718750000,-44492.5703125000,,,
2.1119999965,16,204873.6406250000,194085.6875000000,206400.1406250000,191407.0468750000,190391.0781250000,165806.4531250000,174879.0000000000,-44480.9843750000,,,
2.1159999967,16,204893.0625000000,194094.2968750000,206410.9218750000,191417.5625000000,190399.6875000000,165809.8437500000,174879.2812500000,-44476.1562500000,,,
2.1199999966,16,204892.7656250000,194076.2031250000,206414.1718750000,191411.8750000000,190405.4531250000,165807.7187500000,174883.2968750000,-44479.3750000000,,,
2.1239999966,16,204877.7812500000,194053.7656250000,206403.4218750000,191403.2343750000,190399.5781250000,165797.0468750000,174879.8906250000,-44488.6523437500,,,
2.1279999965,16,204870.4062500000,194059.2187500000,206396.3125000000,191396.2968750000,190388.3437500000,165787.2500000000,174863.6562500000,-44493.5351562500,,,
2.1319999965,16,204866.4531250000,194065.4375000000,206393.2812500000,191398.1093750000,190376.8593750000,165767.0625000000,174845.3437500000,-44508.1796875000,,,
2.1359999967,16,204880.6406250000,194076.8593750000,206408.5156250000,191415.2812500000,190388.1250000000,165772.2812500000,174855.2656250000,-44503.1093750000,,,
2.1399999966,16,204879.9687500000,194065.7343750000,206406.5000000000,191427.8281250000,190389.0937500000,165777.5937500000,174854.2968750000,-44501.9296875000,,,
2.1439999966,16,204867.3906250000,194046.2812500000,206400.5937500000,191419.3906250000,190386.8906250000,165771.1875000000,174855.7500000000,-44506.3281250000,,,
2.1479999966,16,204852.0781250000,194046.6718750000,206385.9843750000,191393.5000000000,190372.3281250000,165758.4687500000,174841.9375000000,-44516.6835937500,,,
2.1519999965,16,204849.6718750000,194059.7031250000,206377.4531250000,191386.1875000000,190358.6250000000,165745.8437500000,174822.7343750000,-44525.7773437500,,,
2.1559999965,16,204865.2500000000,194064.9843750000,206390.1093750000,191418.4531250000,190366.5625000000,165743.0781250000,174822.3281250000,-44526.0703125000,,,
2.1599999967,16,204870.8750000000,194050.0937500000,206396.7656250000,191428.2187500000,190373.1093750000,165744.3125000000,174825.2812500000,-44525.6679687500,,,
2.1639999966,16,204867.1250000000,194036.7187500000,206401.3437500000,191409.4062500000,190380.2187500000,165747.5625000000,174834.1562500000,-44520.8945312500,,,
2.1679999966,16,204840.1406250000,194022.8750000000,206371.9062500000,191361.9843750000,190353.3437500000,165725.4843750000,174806.3750000000,-44539.7500000000,,,
2.1719999965,16,204842.1875000000,194036.8750000000,206364.9531250000,191351.8750000000,190344.0312500000,165722.8593750000,174793.9062500000,-44542.0820312500,,,
2.1759999965,17,204872.2187500000,194062.4687500000,206392.5312500000,191381.9687500000,190366.4062500000,165743.7031250000,174814.2812500000,-44521.9687500000,,,
2.1799999964,17,204868.6875000000,194042.0781250000,206395.9375000000,191393.4687500000,190368.7343750000,165740.4218750000,174821.2656250000,-44529.0195312500,,,
2.1839999964,17,204851.8593750000,194019.7812500000,206386.2187500000,191376.6093750000,190363.0000000000,165736.0312500000,174821.4687500000,-44535.8320312500,,,
2.1879999964,17,204844.4687500000,194026.3125000000,206375.3906250000,191375.3125000000,190354.9843750000,165736.8593750000,174813.2968750000,-44533.4179687500,,,
2.1919999963,17,204844.8437500000,194039.5625000000,206369.6250000000,191380.3906250000,190346.2031250000,165730.6562500000,174802.3437500000,-44537.1210937500,,,
2.1959999963,17,204870.7187500000,194060.0156250000,206392.7656250000,191410.5937500000,190366.5312500000,165746.7500000000,174818.0625000000,-44522.3164062500,,,
2.1999999965,17,204889.5781250000,194060.4843750000,206423.0000000000,191424.0468750000,190395.5312500000,165763.5781250000,174848.3750000000,-44507.0273437500,,,
2.2039999964,17,204871.6093750000,194036.4218750000,206412.1875000000,191387.2812500000,190389.4687500000,165757.7031250000,174847.5937500000,-44517.6757812500,,,
2.2079999964,17,204850.3593750000,194023.4687500000,206384.9843750000,191367.8125000000,190363.8593750000,165732.8906250000,174823.0000000000,-44537.4960937500,,,
2.2119999963,17,204852.1562500000,194034.7343750000,206378.5468750000,191388.1875000000,190352.1562500000,165717.2500000000,174804.8437500000,-44545.5156250000,,,
2.2159999963,17,204890.1093750000,194070.4062500000,206412.3437500000,191447.2812500000,190380.8281250000,165741.2812500000,174829.7031250000,-44518.3203125000,,,
2.2199999965,17,204886.0312500000,194054.4375000000,206411.0312500000,191428.7968750000,190381.4218750000,165740.5000000000,174827.5625000000,-44521.8320312500,,,
2.2239999964,17,204873.2968750000,194035.0000000000,206403.1718750000,191407.6406250000,190379.0156250000,165739.7812500000,174826.3750000000,-44524.1914062500,,,
2.2279999964,17,204859.7968750000,194035.8593750000,206388.0156250000,191395.5625000000,190364.3593750000,165730.1718750000,174813.5000000000,-44530.3632812500,,,
2.2319999964,17,204854.0937500000,194048.7031250000,206374.4531250000,191400.1250000000,190346.9843750000,165720.7968750000,174793.2343750000,-44538.1406250000,,,
2.2359999963,17,204879.3906250000,194072.2187500000,206396.4375000000,191429.9062500000,190366.1406250000,165740.4218750000,174811.9531250000,-44521.0000000000,,,
2.2399999963,17,204876.8281250000,194055.5937500000,206398.4531250000,191434.6250000000,190369.6250000000,165740.6718750000,174818.4687500000,-44526.5820312500,,,
2.2439999965,17,204859.6093750000,194025.6093750000,206390.6250000000,191430.1406250000,190363.1250000000,165729.0000000000,174815.9531250000,-44539.4804687500,,,
2.2479999964,17,204848.1406250000,194021.9062500000,206382.8437500000,191412.1718750000,190357.6406250000,165725.7500000000,174816.7187500000,-44545.0859375000,,,
2.2519999964,17,204858.3750000000,194050.9843750000,206385.2500000000,191404.9531250000,190359.7187500000,165736.6718750000,174818.5156250000,-44535.4296875000,,,
2.2559999963,17,204875.7656250000,194067.2656250000,206396.6875000000,191437.1093750000,190367.8750000000,165745.7656250000,174824.5000000000,-44526.9023437500,,,
2.2599999963,17,204883.8593750000,194059.2187500000,206407.5781250000,191457.0468750000,190378.9531250000,165755.4218750000,174836.8437500000,-44521.1367187500,,,
2.2639999965,17,204864.6875000000,194033.5468750000,206394.0000000000,191430.0312500000,190370.3281250000,165748.1718750000,174832.2500000000,-44531.3007812500,,,
2.2679999964,17,204848.4531250000,194028.8593750000,206376.0312500000,191405.6562500000,190354.4687500000,165736.9375000000,174815.6562500000,-44539.8828125000,,,
2.2719999964,17,204843.3125000000,194037.0937500000,206366.0000000000,191382.6875000000,190340.6093750000,165730.1718750000,174798.8281250000,-44547.7968750000,,,
2.2759999963,17,204864.6093750000,194057.7187500000,206384.3125000000,191416.7031250000,190356.6875000000,165751.6875000000,174813.2343750000,-44534.0898437500,,,
2.2799999963,17,204879.7656250000,194059.7500000000,206406.6875000000,191448.5468750000,190379.2500000000,165772.0468750000,174835.7656250000,-44521.1093750000,,,
2.2839999963,17,204865.1093750000,194035.2968750000,206401.5312500000,191416.7812500000,190378.0156250000,165767.3593750000,174838.0468750000,-44531.0585937500,,,
2.2879999964,17,204846.5312500000,194025.8437500000,206384.9375000000,191378.7031250000,190363.4531250000,165755.2031250000,174827.2343750000,-44547.3125000000,,,
2.2919999964,17,204864.5468750000,194055.6718750000,206395.9843750000,191412.8750000000,190370.9687500000,165762.1718750000,174831.4843750000,-44536.6640625000,,,
2.2959999964,17,204890.1406250000,194074.1093750000,206414.0312500000,191456.2656250000,190384.6406250000,165766.9531250000,174840.1093750000,-44523.5742187500,,,
2.2999999963,17,204893.6250000000,194059.3750000000,206419.0312500000,191411.9843750000,190389.1718750000,165754.4218750000,174840.7031250000,-44523.3085937500,,,
2.3039999963,18,204879.6562500000,194039.7187500000,206407.3593750000,191391.7343750000,190381.3750000000,165744.8750000000,174831.0000000000,-44528.8593750000,,,
2.3079999962,18,204856.1562500000,194036.9218750000,206378.9062500000,191381.3281250000,190357.2031250000,165753.0625000000,174815.5781250000,-44537.9257812500,,,
2.3119999962,18,204863.3750000000,194063.7031250000,206378.9218750000,191403.2343750000,190355.3281250000,165766.7031250000,174810.3906250000,-44528.6445312500,,,
2.3159999961,18,204868.8125000000,194070.4843750000,206384.7968750000,191412.9218750000,190358.3593750000,165774.1093750000,174812.4531250000,-44530.2031250000,,,
2.3199999961,18,204862.2968750000,194053.2656250000,206385.9218750000,191409.8125000000,190360.2656250000,165777.5468750000,174813.6875000000,-44537.9257812500,,,
2.3239999961,18,204835.7968750000,194023.3593750000,206368.1250000000,191384.2500000000,190344.7031250000,165760.1718750000,174798.0625000000,-44555.3085937500,,,
2.3279999963,18,204821.5781250000,194019.8750000000,206358.4843750000,191370.5937500000,190335.2343750000,165754.2656250000,174794.7812500000,-44561.5820312500,,,
2.3319999962,18,204830.0312500000,194040.3281250000,206362.8281250000,191379.0937500000,190334.1718750000,165757.4531250000,174792.0468750000,-44558.6601562500,,,
2.3359999962,18,204850.8750000000,194056.4062500000,206376.1406250000,191405.9687500000,190342.6718750000,165767.1718750000,174793.5000000000,-44551.8750000000,,,
2.3399999961,18,204851.7812500000,194040.0468750000,206377.9375000000,191396.2656250000,190345.0000000000,165768.0781250000,174795.9843750000,-44553.9375000000,,,
2.3439999961,18,204852.8281250000,194026.7968750000,206384.5312500000,191388.9375000000,190356.0781250000,165776.9218750000,174810.7187500000,-44543.8789062500,,,
2.3479999963,18,204837.8593750000,194024.9375000000,206360.9843750000,191376.9531250000,190338.4531250000,165766.3906250000,174789.2812500000,-44548.1718750000,,,
2.3519999962,18,204854.4062500000,194055.8906250000,206368.5000000000,191399.6250000000,190345.0000000000,165771.6406250000,174792.3437500000,-44535.4296875000,,,
2.3559999962,18,204881.9375000000,194083.3281250000,206390.9375000000,191446.0781250000,190363.0781250000,165785.8125000000,174807.6093750000,-44519.5273437500,,,
2.3599999961,18,204888.6875000000,194076.7812500000,206404.4375000000,191444.3281250000,190375.2343750000,165795.1093750000,174823.6406250000,-44515.7968750000,,,
2.3639999961,18,204862.0000000000,194044.8125000000,206388.1875000000,191412.7656250000,190360.3750000000,165784.1718750000,174813.2187500000,-44535.0820312500,,,
2.3679999961,18,204833.5156250000,194033.9218750000,206360.8281250000,191348.3906250000,190335.0156250000,165770.6250000000,174789.3593750000,-44554.0742187500,,,
2.3719999962,18,204833.2812500000,194046.3437500000,206352.6406250000,191351.1562500000,190326.5781250000,165768.3437500000,174777.3437500000,-44558.0703125000,,,
2.3759999962,18,204861.7656250000,194066.5625000000,206377.7500000000,191391.0156250000,190348.2968750000,165777.8750000000,174794.7500000000,-44546.4296875000,,,
2.3799999962,18,204867.9843750000,194058.5937500000,206386.9687500000,191399.8593750000,190358.6250000000,165781.7343750000,174809.3437500000,-44545.7031250000,,,
2.3839999961,18,204847.4062500000,194022.9531250000,206376.1093750000,191386.0156250000,190351.7812500000,165769.2812500000,174806.1250000000,-44562.9492187500,,,
2.3879999961,18,204841.4375000000,194022.7343750000,206371.0156250000,191390.4218750000,190349.6718750000,165769.6093750000,174802.1093750000,-44564.5585937500,,,
2.3919999963,18,204833.0156250000,194025.4687500000,206355.8906250000,191373.1718750000,190333.6875000000,165752.7343750000,174778.9843750000,-44580.5742187500,,,
2.3959999962,18,204853.7656250000,194043.3906250000,206370.6093750000,191393.5000000000,190347.2812500000,165767.9218750000,174789.6093750000,-44570.1132812500,,,
2.3999999962,18,204861.8750000000,194038.1093750000,206382.3125000000,191391.5781250000,190357.9531250000,165776.7187500000,174804.6250000000,-44565.9023437500,,,
2.4039999961,18,204838.2187500000,194007.5000000000,206365.3750000000,191369.3125000000,190341.7031250000,165761.1875000000,174793.0468750000,-44582.3164062500,,,
2.4079999961,18,204810.2343750000,193994.4375000000,206337.5156250000,191344.0937500000,190314.1093750000,165741.5156250000,174768.0468750000,-44598.5429687500,,,
2.4119999961,18,204818.7187500000,194025.0781250000,206336.9843750000,191365.8281250000,190310.9062500000,165746.7500000000,174762.3906250000,-44587.1992187500,,,
2.4159999962,18,204853.5000000000,194061.2812500000,206366.4062500000,191418.2812500000,190337.0312500000,165772.5625000000,174785.8750000000,-44557.4257812500,,,
2.4199999962,18,204853.3125000000,194049.0781250000,206369.9687500000,191412.8750000000,190340.3281250000,165775.7187500000,174789.6093750000,-44557.2382812500,,,
2.4239999962,18,204825.6875000000,194013.0625000000,206348.6406250000,191337.6406250000,190325.9375000000,165761.0468750000,174781.1875000000,-44572.6054687500,,,
2.4279999961,18,204823.4062500000,194020.1093750000,206345.4843750000,191312.6875000000,190325.9531250000,165762.1250000000,174782.5781250000,-44566.3554687500,,,
2.4319999961,19,204825.2343750000,194029.2031250000,206340.9687500000,191328.1875000000,190320.4843750000,165750.5937500000,174773.4375000000,-44570.9960937500,,,
2.4359999960,19,204849.9375000000,194049.6093750000,206361.1718750000,191371.3281250000,190337.6718750000,165761.0156250000,174787.3281250000,-44555.9492187500,,,
2.4399999960,19,204861.6875000000,194045.6250000000,206373.4218750000,191403.2343750000,190349.1250000000,165769.5468750000,174798.5156250000,-44548.0390625000,,,
2.4439999959,19,204839.7187500000,194014.6093750000,206358.2968750000,191386.6875000000,190337.1093750000,165760.4375000000,174793.1250000000,-44562.7890625000,,,
2.4479999959,19,204817.2968750000,193999.5937500000,206338.1562500000,191350.3437500000,190317.9375000000,165746.2656250000,174779.1718750000,-44580.0898437500,,,
2.4519999959,19,204828.5312500000,194026.0312500000,206341.8593750000,191375.0468750000,190317.4062500000,165752.0625000000,174777.1093750000,-44574.4843750000,,,
2.4559999960,19,204862.8125000000,194058.8125000000,206371.9062500000,191409.2187500000,190342.7812500000,165777.7812500000,174803.6406250000,-44550.4804687500,,,
2.4599999960,19,204864.2343750000,194045.4843750000,206380.1875000000,191389.8750000000,190351.7343750000,165785.5937500000,174821.2656250000,-44548.8945312500,,,
2.4639999960,19,204848.3281250000,194022.7968750000,206372.5468750000,191371.7031250000,190348.3281250000,165779.4218750000,174821.4218750000,-44555.3085937500,,,
2.4679999959,19,204833.2031250000,194018.7656250000,206356.6093750000,191348.0468750000,190335.1093750000,165763.3281250000,174803.5625000000,-44565.2851562500,,,
2.4719999959,19,204850.0937500000,194049.1250000000,206367.2656250000,191362.6562500000,190344.7031250000,165766.3125000000,174803.3125000000,-44551.7656250000,,,
2.4759999961,19,204873.3437500000,194064.6562500000,206387.5625000000,191390.0156250000,190362.1718750000,165775.0000000000,174816.9062500000,-44540.9570312500,,,
2.4799999960,19,204885.2812500000,194063.8593750000,206401.9687500000,191414.0156250000,190375.4375000000,165787.2500000000,174832.3906250000,-44532.9648437500,,,
2.4839999960,19,204862.4375000000,194034.0781250000,206385.2343750000,191397.4687500000,190361.6875000000,165772.5312500000,174823.4531250000,-44550.5312500000,,,
2.4879999959,19,204849.1250000000,194029.3906250000,206371.8125000000,191377.2031250000,190348.8593750000,165766.0156250000,174814.3125000000,-44559.6523437500,,,
2.4919999959,19,204860.0781250000,194054.0937500000,206374.9062500000,191382.4531250000,190347.2500000000,165772.9062500000,174812.2968750000,-44553.8320312500,,,
2.4959999959,19,204880.6718750000,194073.6406250000,206390.8593750000,191400.7500000000,190357.5000000000,165780.2031250000,174821.3437500000,-44543.5312500000,,,
2.4999999960,19,204873.7812500000,194054.7187500000,206387.8593750000,191397.4218750000,190355.8125000000,165780.5468750000,174822.8906250000,-44549.2460937500,,,
2.5039999960,19,204879.6718750000,194054.6562500000,206403.0468750000,191397.0781250000,190375.9062500000,165799.0000000000,174845.6875000000,-44531.4335937500,,,
2.5079999960,19,204901.0781250000,194089.2031250000,206428.2812500000,191401.4218750000,190402.8906250000,165823.4375000000,174868.6250000000,-44500.2148437500,,,
2.5119999959,19,204879.1718750000,194079.3906250000,206398.2656250000,191388.1406250000,190374.4843750000,165791.8750000000,174833.1406250000,-44524.9179687500,,,
2.5159999959,19,204893.9531250000,194092.0781250000,206406.6406250000,191401.0156250000,190381.1093750000,165796.7031250000,174837.9687500000,-44517.0039062500,,,
2.5199999961,19,204902.2968750000,194087.5625000000,206416.5000000000,191410.6406250000,190391.8593750000,165808.6250000000,174850.0937500000,-44510.2187500000,,,
2.5239999960,19,204884.4062500000,194059.1562500000,206405.7500000000,191393.7187500000,190385.1562500000,165800.3125000000,174847.4375000000,-44520.4921875000,,,
2.5279999960,19,204861.3593750000,194046.4531250000,206385.3593750000,191369.0625000000,190364.2343750000,165784.7656250000,174832.2031250000,-44536.3710937500,,,
2.5319999959,19,204868.6875000000,194070.7812500000,206388.7656250000,191380.5000000000,190361.7187500000,165786.8593750000,174830.4375000000,-44532.1328125000,,,
2.5359999959,19,204907.5468750000,194115.3593750000,206421.8750000000,191417.4531250000,190387.3593750000,165813.2656250000,174851.1875000000,-44503.2734375000,,,
2.5399999958,19,204915.4375000000,194101.8437500000,206434.1250000000,191439.9531250000,190399.8750000000,165816.4375000000,174866.5312500000,-44501.6875000000,,,
2.5439999960,19,204872.4843750000,194046.8593750000,206395.0468750000,191394.9218750000,190369.4843750000,165788.7812500000,174841.0312500000,-44533.5820312500,,,
2.5479999960,19,204841.5156250000,194024.0468750000,206364.8437500000,191360.4062500000,190342.6718750000,165763.2187500000,174814.5468750000,-44555.8437500000,,,
2.5519999960,19,204860.9375000000,194058.9218750000,206377.5781250000,191390.6875000000,190352.7187500000,165775.2187500000,174820.6093750000,-44538.2460937500,,,
2.5559999959,19,204881.3437500000,194079.1250000000,206395.5625000000,191415.7187500000,190366.2187500000,165790.7343750000,174832.0468750000,-44527.0625000000,,,
2.5599999959,20,204880.6406250000,194065.6875000000,206398.9375000000,191421.5937500000,190370.8281250000,165795.4687500000,174837.6406250000,-44529.5859375000,,,
2.5639999958,20,204859.1406250000,194034.5937500000,206385.5000000000,191402.6718750000,190362.3281250000,165788.0625000000,174833.3750000000,-44542.6484375000,,,
2.5679999958,20,204851.1406250000,194035.5625000000,206374.8750000000,191380.2812500000,190353.3750000000,165782.2968750000,174826.1718750000,-44545.4882812500,,,
2.5719999957,20,204861.3281250000,194061.2343750000,206375.4687500000,191374.0312500000,190352.3281250000,165785.3281250000,174822.0937500000,-44537.8984375000,,,
2.5759999957,20,204882.0468750000,194079.6562500000,206395.2812500000,191372.5312500000,190368.4375000000,165798.6250000000,174840.1718750000,-44527.4101562500,,,
2.5799999957,20,204878.9531250000,194061.6562500000,206395.1250000000,191384.1718750000,190371.2656250000,165793.6718750000,174844.7343750000,-44533.9843750000,,,
2.5839999958,20,204868.3281250000,194042.6718750000,206394.0000000000,191380.3125000000,190373.0000000000,165795.3593750000,174848.9062500000,-44534.7343750000,,,
2.5879999958,20,204847.9218750000,194036.5312500000,206373.3281250000,191362.6562500000,190353.7968750000,165785.4375000000,174831.9062500000,-44545.4375000000,,,
2.5919999958,20,204850.1406250000,194052.7031250000,206367.5468750000,191377.2812500000,190347.2500000000,165786.7500000000,174822.0937500000,-44544.7929687500,,,
2.5959999957,20,204879.8593750000,194078.9843750000,206391.4843750000,191407.2656250000,190368.6875000000,165808.1250000000,174840.1406250000,-44524.4335937500,,,
2.5999999957,20,204877.4843750000,194063.6093750000,206390.4375000000,191395.0625000000,190367.3437500000,165803.7031250000,174839.7187500000,-44531.1679687500,,,
2.6039999959,20,204842.3906250000,194021.2656250000,206361.0625000000,191356.6718750000,190341.1875000000,165777.4687500000,174817.9062500000,-44556.8632812500,,,
2.6079999958,20,204844.0625000000,194034.8593750000,206362.1093750000,191344.3437500000,190344.6562500000,165783.0156250000,174820.1875000000,-44545.1132812500,,,
2.6119999958,20,204849.9062500000,194052.5625000000,206361.9218750000,191357.5156250000,190342.0312500000,165780.3593750000,174811.1250000000,-44542.5664062500,,,
2.6159999957,20,204866.6406250000,194062.3281250000,206374.4687500000,191384.0312500000,190352.8906250000,165780.8906250000,174817.2031250000,-44537.9257812500,,,
2.6199999957,20,204877.6406250000,194057.0468750000,206389.4687500000,191405.5156250000,190368.9531250000,165788.3281250000,174838.6875000000,-44532.6132812500,,,
2.6239999956,20,204866.5625000000,194036.5312500000,206387.4062500000,191395.1406250000,190369.5937500000,165786.0781250000,174848.4531250000,-44537.7109375000,,,
2.6279999958,20,204859.5937500000,194039.5000000000,206383.2500000000,191383.0156250000,190365.5937500000,165786.2343750000,174845.0156250000,-44537.3906250000,,,
2.6319999958,20,204869.0625000000,194065.0625000000,206384.9687500000,191408.3125000000,190362.2187500000,165789.3125000000,174832.7968750000,-44530.8984375000,,,
2.6359999957,20,204897.9375000000,194097.5781250000,206409.1250000000,191443.4687500000,190382.9531250000,165814.4843750000,174848.7812500000,-44506.9726562500,,,
2.6399999957,20,204914.3281250000,194095.7187500000,206432.7031250000,191456.7968750000,190405.3750000000,165825.5625000000,174871.9531250000,-44494.7968750000,,,
2.6439999957,20,204877.3125000000,194047.9843750000,206401.9375000000,191402.0937500000,190381.9687500000,165797.5468750000,174854.2812500000,-44522.5039062500,,,
2.6479999959,20,204850.2812500000,194033.1406250000,206372.1718750000,191349.3750000000,190358.7031250000,165784.2968750000,174834.4218750000,-44535.6210937500,,,
2.6519999958,20,204852.1875000000,194049.1093750000,206366.4218750000,191362.3593750000,190349.5312500000,165771.4375000000,174818.8437500000,-44537.3906250000,,,
2.6559999958,20,204894.1406250000,194086.7031250000,206401.1562500000,191432.6406250000,190379.5000000000,165795.5625000000,174840.7031250000,-44508.5546875000,,,
2.6599999957,20,204905.6093750000,194085.5781250000,206416.9062500000,191438.6718750000,190396.8437500000,165810.6093750000,174857.1718750000,-44498.6835937500,,,
2.6639999957,20,204876.2656250000,194049.1875000000,206398.7500000000,191366.1406250000,190383.6562500000,165797.6406250000,174850.7031250000,-44517.8632812500,,,
2.6679999956,20,204852.6406250000,194034.8906250000,206378.9062500000,191343.4843750000,190367.0781250000,165779.7187500000,174835.8281250000,-44533.4179687500,,,
2.6719999958,20,204869.8906250000,194066.7343750000,206389.8750000000,191371.4218750000,190375.4375000000,165787.6562500000,174841.0468750000,-44521.5898437500,,,
2.6759999958,20,204889.1406250000,194087.2968750000,206405.2343750000,191403.7812500000,190385.2031250000,165797.4531250000,174851.2968750000,-44514.0546875000,,,
2.6799999957,20,204891.3750000000,194076.3906250000,206407.5937500000,191425.0937500000,190386.3593750000,165800.5312500000,174854.0625000000,-44516.3867187500,,,
2.6839999957,20,204875.5000000000,194049.1562500000,206399.6093750000,191390.4218750000,190379.7031250000,165795.2187500000,174851.4375000000,-44526.2304687500,,,
2.6879999957,21,204849.1093750000,194032.0781250000,206372.8593750000,191360.3750000000,190354.9843750000,165777.0625000000,174829.7812500000,-44545.0859375000,,,
2.6919999956,21,204858.0625000000,194058.7812500000,206373.8593750000,191370.1718750000,190354.9531250000,165785.3750000000,174826.6250000000,-44535.9140625000,,,
2.6959999956,21,204887.5156250000,194089.7968750000,206400.1406250000,191394.6093750000,190377.6718750000,165810.8593750000,174850.9218750000,-44513.3046875000,,,
2.6999999955,21,204905.8593750000,194091.6718750000,206423.0000000000,191417.1093750000,190400.4375000000,165825.4218750000,174876.6406250000,-44500.0781250000,,,
2.7039999955,21,204883.6250000000,194059.2656250000,206406.6406250000,191394.1250000000,190389.0156250000,165807.2968750000,174864.5156250000,-44516.4960937500,,,
2.7079999954,21,204853.5781250000,194042.2656250000,206375.9218750000,191366.2812500000,190361.4218750000,165783.5468750000,174835.9062500000,-44539.9375000000,,,
2.7119999956,21,204850.2343750000,194053.9843750000,206371.0937500000,191369.0937500000,190352.8906250000,165776.8750000000,174828.0937500000,-44545.9179687500,,,
2.7159999956,21,204875.8437500000,194080.6406250000,206392.0937500000,191403.1093750000,190370.1406250000,165793.4531250000,174844.2656250000,-44529.3437500000,,,
2.7199999955,21,204884.8750000000,194077.1875000000,206403.1718750000,191429.6093750000,190382.0937500000,165803.1406250000,174859.2968750000,-44525.0507812500,,,
2.7239999955,21,204862.1875000000,194042.1093750000,206390.6718750000,191396.2343750000,190374.4218750000,165796.0468750000,174859.1562500000,-44539.9921875000,,,
2.7279999955,21,204848.8125000000,194037.6562500000,206377.3437500000,191363.3750000000,190364.6875000000,165789.3125000000,174849.9062500000,-44544.3359375000,,,
2.7319999957,21,204846.1718750000,194050.2031250000,206366.1250000000,191365.4687500000,190350.6093750000,165782.0781250000,174830.0625000000,-44547.8515625000,,,
2.7359999956,21,204880.7812500000,194080.9375000000,206395.4531250000,191414.0781250000,190374.7968750000,165802.8125000000,174847.6250000000,-44525.2109375000,,,
2.7399999956,21,204896.3906250000,194078.6562500000,206413.4531250000,191431.8593750000,190393.7031250000,165816.1406250000,174864.2812500000,-44513.2500000000,,,
2.7439999955,21,204878.0468750000,194051.3593750000,206399.9843750000,191409.6718750000,190385.9062500000,165808.6250000000,174859.6718750000,-44523.2265625000,,,
2.7479999955,21,204867.2812500000,194051.2187500000,206388.3437500000,191393.8593750000,190376.4062500000,165805.4375000000,174854.3906250000,-44524.8632812500,,,
2.7519999954,21,204862.8125000000,194064.9375000000,206376.0312500000,191365.5781250000,190363.9687500000,165800.7968750000,174839.3125000000,-44528.3515625000,,,
2.7559999956,21,204873.5312500000,194077.1093750000,206382.4375000000,191374.2500000000,190366.7500000000,165801.0625000000,174840.0625000000,-44526.7929687500,,,
2.7599999956,21,204901.0312500000,194090.4062500000,206412.3437500000,191405.3281250000,190396.7656250000,165827.5156250000,174873.0312500000,-44502.5468750000,,,
2.7639999955,21,204891.7187500000,194065.0312500000,206409.0000000000,191413.0781250000,190396.7968750000,165823.1093750000,174875.2500000000,-44509.4414062500,,,
2.7679999955,21,204893.0156250000,194069.2968750000,206413.5312500000,191414.2968750000,190400.6875000000,165825.7500000000,174879.9218750000,-44504.1835937500,,,
2.7719999955,21,204898.2968750000,194092.0156250000,206414.0937500000,191393.5625000000,190397.4843750000,165827.5625000000,174875.8437500000,-44502.3046875000,,,
2.7759999956,21,204896.6250000000,194089.8437500000,206407.2031250000,191391.2968750000,190387.5156250000,165824.3437500000,174866.1875000000,-44513.2500000000,,,
2.7799999956,21,204910.9843750000,194090.2500000000,206423.7187500000,191409.6562500000,190404.0937500000,165833.1718750000,174883.2187500000,-44502.3046875000,,,
2.7839999956,21,204895.9375000000,194064.7968750000,206417.7656250000,191389.7500000000,190401.4843750000,165821.7812500000,174882.2187500000,-44512.5273437500,,,
2.7879999955,21,204874.9531250000,194054.4687500000,206398.5000000000,191371.5625000000,190385.0937500000,165814.3750000000,174868.6250000000,-44522.3671875000,,,
2.7919999955,21,204859.0781250000,194055.5625000000,206377.2031250000,191363.2968750000,190361.6875000000,165794.3437500000,174842.2656250000,-44538.0585937500,,,
2.7959999954,21,204873.6093750000,194072.3281250000,206388.8437500000,191383.1718750000,190369.0000000000,165799.2656250000,174846.6875000000,-44533.5000000000,,,
2.7999999956,21,204868.3125000000,194054.2031250000,206387.5312500000,191390.1250000000,190369.3593750000,165794.9843750000,174848.8281250000,-44543.5039062500,,,
2.8039999956,21,204850.9531250000,194030.6562500000,206379.2187500000,191375.7187500000,190366.7031250000,165790.2656250000,174849.0937500000,-44550.3437500000,,,
2.8079999955,21,204850.9531250000,194030.5468750000,206386.3906250000,191372.9375000000,190374.5312500000,165788.1406250000,174857.6875000000,-44544.7656250000,,,
2.8119999955,21,204858.3281250000,194049.6406250000,206380.1562500000,191386.3906250000,190366.6250000000,165788.6562500000,174842.9062500000,-44541.9218750000,,,
2.8159999955,22,204887.5312500000,194080.0625000000,206396.8906250000,191422.5468750000,190380.8593750000,165811.3437500000,174849.3437500000,-44523.3867187500,,,
2.8199999954,22,204902.2968750000,194075.6562500000,206415.8906250000,191424.3437500000,190401.4687500000,165825.6406250000,174871.9843750000,-44513.2773437500,,,
2.8239999954,22,204887.5312500000,194051.2187500000,206410.5781250000,191403.0781250000,190399.1562500000,165820.1875000000,174877.2343750000,-44519.6875000000,,,
2.8279999953,22,204870.8750000000,194044.0156250000,206394.4375000000,191381.4531250000,190384.7187500000,165809.5937500000,174865.0625000000,-44528.3242187500,,,
2.8319999953,22,204891.1875000000,194081.1875000000,206407.6250000000,191406.3750000000,190394.7031250000,165821.7968750000,174872.1406250000,-44509.0937500000,,,
2.8359999952,22,204914.3906250000,194109.3750000000,206424.4218750000,191440.3593750000,190408.3281250000,165834.4062500000,174882.3125000000,-44494.2578125000,,,
2.8399999954,22,204910.4218750000,194096.5468750000,206423.7500000000,191425.2343750000,190409.4531250000,165832.6875000000,174883.7031250000,-44500.9101562500,,,
2.8439999954,22,204889.8906250000,194064.1718750000,206412.6093750000,191395.4375000000,190402.7500000000,165824.7187500000,174881.3593750000,-44513.8398437500,,,
2.8479999953,22,204873.6093750000,194055.0000000000,206394.7500000000,191383.8281250000,190386.9531250000,165816.8906250000,174864.4687500000,-44522.5820312500,,,
2.8519999953,22,204863.1875000000,194058.2031250000,206375.7812500000,191371.7812500000,190364.4218750000,165799.1406250000,174838.0000000000,-44537.9531250000,,,
2.8559999953,22,204878.7968750000,194073.0312500000,206386.4687500000,191389.2187500000,190370.1875000000,165804.5000000000,174842.5000000000,-44532.0000000000,,,
2.8599999954,22,204893.9687500000,194073.8125000000,206406.0781250000,191426.8906250000,190391.1562500000,165821.6093750000,174867.5468750000,-44518.8828125000,,,
2.8639999954,22,204888.7187500000,194059.2968750000,206410.2812500000,191404.5781250000,190400.5000000000,165828.2968750000,174882.4375000000,-44515.5039062500,,,
2.8679999954,22,204874.2031250000,194053.7656250000,206399.7343750000,191365.2656250000,190392.0156250000,165826.3906250000,174879.1875000000,-44519.6875000000,,,
2.8719999953,22,204862.1093750000,194058.6562500000,206381.5000000000,191350.8593750000,190370.1406250000,165810.8125000000,174858.5468750000,-44534.2500000000,,,
2.8759999953,22,204870.7500000000,194069.7812500000,206381.6406250000,191377.3593750000,190364.8281250000,165803.9687500000,174851.2968750000,-44536.6132812500,,,
2.8799999952,22,204878.9218750000,194061.9843750000,206392.7656250000,191401.6093750000,190377.3281250000,165809.2031250000,174866.5312500000,-44532.0781250000,,,
2.8839999954,22,204866.8906250000,194041.0625000000,206386.3281250000,191383.7343750000,190376.5468750000,165804.8750000000,174868.6562500000,-44534.9765625000,,,
2.8879999954,22,204860.7656250000,194043.5781250000,206378.6875000000,191368.9375000000,190370.9843750000,165801.0625000000,174863.0468750000,-44534.6250000000,,,
2.8919999953,22,204860.6406250000,194060.7968750000,206369.8125000000,191349.3750000000,190359.7031250000,165796.8593750000,174846.2812500000,-44535.7265625000,,,
2.8959999953,22,204880.6718750000,194078.6406250000,206385.1718750000,191369.6093750000,190372.7031250000,165803.8906250000,174854.9531250000,-44524.3281250000,,,
2.8999999953,22,204911.1093750000,194091.3281250000,206420.0781250000,191398.3281250000,190408.8906250000,165832.1562500000,174892.8437500000,-44498.7382812500,,,
2.9039999954,22,204897.3593750000,194064.1250000000,206415.7343750000,191388.3281250000,190410.6093750000,165825.4687500000,174895.7187500000,-44507.6992187500,,,
2.9079999954,22,204884.4218750000,194061.8437500000,206403.6250000000,191375.8750000000,190401.3593750000,165823.7656250000,174884.8281250000,-44510.8632812500,,,
2.9119999954,22,204873.2968750000,194070.6718750000,206384.5000000000,191358.0156250000,190380.2500000000,165810.0000000000,174857.5156250000,-44522.1562500000,,,
2.9159999953,22,204880.1562500000,194070.8281250000,206388.0781250000,191376.4375000000,190380.4843750000,165803.1562500000,174854.8125000000,-44527.9218750000,,,
2.9199999953,22,204900.7343750000,194076.7812500000,206409.1250000000,191391.8125000000,190400.6250000000,165821.5937500000,174873.8593750000,-44511.9882812500,,,
2.9239999952,22,204873.9687500000,194042.4531250000,206386.2500000000,191375.5937500000,190381.9375000000,165807.7500000000,174858.1093750000,-44531.2460937500,,,
2.9279999954,22,204875.4218750000,194053.2343750000,206391.2656250000,191380.0625000000,190386.6562500000,165812.2812500000,174861.8906250000,-44523.2539062500,,,
2.9319999954,22,204893.3281250000,194090.5156250000,206401.3281250000,191405.2812500000,190393.1250000000,165822.2812500000,174863.0000000000,-44507.2968750000,,,
2.9359999953,22,204902.7968750000,194097.6562500000,206406.6875000000,191417.5156250000,190395.8750000000,165821.5000000000,174862.3437500000,-44511.7460937500,,,
2.9399999953,22,204913.7968750000,194092.3906250000,206423.5781250000,191415.6093750000,190411.3281250000,165830.7343750000,174877.6875000000,-44507.8320312500,,,
2.9439999952,23,204891.3125000000,194057.5000000000,206408.7187500000,191406.0312500000,190398.0781250000,165815.6250000000,174865.6562500000,-44524.5937500000,,,
