Time:250Hz,Epoch,Channel 1,Channel 2,Channel 3,Channel 4,Channel 5,Channel 6,Channel 7,Channel 8,Event Id,Event Date,Event Duration
0.0000000000,0,160699.9375000000,144963.8750000000,170317.1562500000,161729.7656250000,128968.1406250000,36593.5976562500,104602.2265625000,150888.4687500000,,,
0.0040000000,0,160814.7343750000,144975.3437500000,170448.1250000000,161811.8437500000,129080.4140625000,36677.0937500000,104714.1015625000,150696.6093750000,,,
0.0079999999,0,160940.5312500000,144980.6093750000,170560.9687500000,161950.1718750000,129192.2343750000,36783.7656250000,104817.4453125000,150471.8125000000,,,
0.0119999999,0,160934.3125000000,145009.5781250000,170535.9531250000,161938.7968750000,129174.4531250000,36803.9648437500,104781.1562500000,150555.4687500000,,,
0.0159999998,0,160763.2031250000,144970.1406250000,170366.9062500000,161789.2031250000,129012.5312500000,36658.2109375000,104607.6718750000,150790.1875000000,,,
0.0199999998,0,160709.4375000000,144968.0312500000,170316.8437500000,161723.8437500000,128953.6796875000,36581.7968750000,104542.7578125000,150891.2812500000,,,
0.0240000000,0,160798.6718750000,144963.7656250000,170411.5781250000,161824.0781250000,129041.6015625000,36650.1367187500,104636.0703125000,150688.4843750000,,,
0.0279999999,0,160930.5000000000,144982.7187500000,170537.6406250000,161917.9218750000,129163.2421875000,36777.5976562500,104747.8671875000,150473.2656250000,,,
0.0319999999,0,160929.9375000000,145004.0156250000,170530.5312500000,161925.7656250000,129157.6875000000,36779.6875000000,104727.1328125000,150549.8437500000,,,
0.0359999998,0,160774.5312500000,144970.4062500000,170377.5937500000,161809.5312500000,129009.2578125000,36624.8710937500,104571.1875000000,150782.5156250000,,,
0.0399999998,0,160677.0312500000,144938.0312500000,170279.6093750000,161736.0937500000,128913.9062500000,36531.4492187500,104472.6718750000,150859.5468750000,,,
0.0440000000,0,160784.3125000000,144961.6406250000,170378.5781250000,161785.6406250000,129006.6015625000,36623.9335937500,104564.6718750000,150679.2031250000,,,
0.0480000000,0,160956.7343750000,145014.2656250000,170553.3593750000,161928.2187500000,129168.1484375000,36761.6367187500,104714.5312500000,150490.4218750000,,,
0.0519999999,0,160943.4531250000,145013.1875000000,170542.1406250000,161948.2968750000,129163.6953125000,36742.1367187500,104708.0625000000,150550.9687500000,,,
0.0559999999,0,160759.4531250000,144957.2656250000,170355.9375000000,161784.6718750000,128987.2578125000,36567.3125000000,104521.3046875000,150772.3281250000,,,
0.0599999998,0,160661.1250000000,144931.6562500000,170240.5468750000,161692.6406250000,128877.5625000000,36476.8671875000,104409.3984375000,150854.9062500000,,,
0.0639999998,0,160750.5781250000,144925.7812500000,170336.4687500000,161755.3593750000,128960.1953125000,36530.3242187500,104486.0000000000,150656.7500000000,,,
0.0680000000,0,160959.8906250000,144998.9843750000,170559.1250000000,161932.7031250000,129164.2578125000,36687.3945312500,104686.3906250000,150489.2187500000,,,
0.0719999999,0,160935.2187500000,144994.8437500000,170530.4687500000,161931.7187500000,129142.5312500000,36679.2929687500,104658.5468750000,150541.4375000000,,,
0.0759999999,0,160746.0468750000,144960.8437500000,170316.5625000000,161772.7656250000,128949.2031250000,36532.7929687500,104463.1250000000,150779.6250000000,,,
0.0799999998,0,160657.5312500000,144925.2187500000,170233.0937500000,161690.2812500000,128862.0312500000,36426.7656250000,104374.2890625000,150862.9062500000,,,
0.0839999998,0,160782.8750000000,144946.2656250000,170368.7343750000,161785.3125000000,128980.5546875000,36506.9101562500,104489.7812500000,150682.8750000000,,,
0.0880000000,0,160937.7343750000,144978.0000000000,170523.2343750000,161929.2656250000,129126.2031250000,36629.8867187500,104626.0937500000,150474.5156250000,,,
0.0919999999,0,160914.7031250000,144968.2187500000,170492.8437500000,161951.6093750000,129102.4921875000,36612.7226562500,104590.9296875000,150518.8593750000,,,
0.0959999999,0,160791.6406250000,144983.4687500000,170365.4375000000,161795.3750000000,128985.8906250000,36504.0937500000,104470.8203125000,150796.2187500000,,,
0.0999999999,0,160706.5000000000,144963.2187500000,170279.6562500000,161734.5781250000,128901.4843750000,36410.3476562500,104378.9062500000,150898.7656250000,,,
0.1039999998,0,160831.7343750000,144980.6875000000,170422.2187500000,161827.0781250000,129018.8828125000,36489.3125000000,104482.8906250000,150719.8593750000,,,
0.1079999998,0,160947.2812500000,144991.6250000000,170519.6093750000,161928.3593750000,129122.3906250000,36605.1054687500,104582.1875000000,150494.8593750000,,,
0.1120000000,0,160921.4531250000,144985.6406250000,170492.0312500000,161915.4375000000,129102.0078125000,36585.0937500000,104563.9765625000,150540.4218750000,,,
0.1159999999,0,160779.9218750000,144973.7187500000,170348.5468750000,161767.8281250000,128965.5625000000,36458.9765625000,104414.4687500000,150796.9218750000,,,
0.1199999999,0,160686.1562500000,144944.5625000000,170252.9218750000,161679.0000000000,128869.7265625000,36360.4062500000,104319.1953125000,150888.3906250000,,,
0.1239999998,0,160806.3125000000,144969.5625000000,170381.9062500000,161782.0781250000,128985.6250000000,36444.6289062500,104438.2890625000,150717.0000000000,,,
0.1279999998,1,160948.4218750000,144991.4218750000,170521.8437500000,161910.9218750000,129114.2109375000,36563.2070312500,104555.0156250000,150497.2343750000,,,
0.1319999998,1,160949.8906250000,145005.6250000000,170520.3593750000,161921.9843750000,129117.2968750000,36565.0312500000,104551.5312500000,150559.6250000000,,,
0.1359999997,1,160761.2968750000,144953.5156250000,170320.6718750000,161798.3281250000,128930.3437500000,36401.9257812500,104352.1328125000,150784.1875000000,,,
0.1399999997,1,160677.1562500000,144935.4375000000,170236.0468750000,161685.2187500000,128843.1484375000,36307.2695312500,104255.8671875000,150883.8750000000,,,
0.1439999996,1,160807.0156250000,144980.6562500000,170367.9531250000,161801.5468750000,128965.0546875000,36409.5976562500,104387.5156250000,150729.5937500000,,,
0.1479999996,1,160958.1250000000,145001.5000000000,170530.5312500000,161948.8750000000,129115.8984375000,36532.4414062500,104534.1250000000,150513.5000000000,,,
0.1519999998,1,160912.5312500000,144965.7500000000,170478.6562500000,161931.2343750000,129072.1796875000,36490.4921875000,104483.2968750000,150526.7187500000,,,
0.1559999997,1,160786.5156250000,144975.8281250000,170346.7187500000,161776.0156250000,128944.9062500000,36379.4492187500,104339.5312500000,150800.7656250000,,,
0.1599999997,1,160731.3906250000,144980.3125000000,170300.8437500000,161709.9687500000,128887.9687500000,36306.1992187500,104275.3437500000,150926.8750000000,,,
0.1639999996,1,160835.8906250000,145006.2187500000,170397.3593750000,161807.8437500000,128981.4140625000,36405.3867187500,104373.8593750000,150761.6250000000,,,
0.1679999996,1,160929.3125000000,144968.2187500000,170490.4531250000,161950.4062500000,129071.3750000000,36489.7695312500,104461.1093750000,150493.7500000000,,,
0.1719999998,1,160930.3593750000,144995.7031250000,170486.6406250000,161926.0312500000,129070.6796875000,36505.0859375000,104447.6171875000,150560.6718750000,,,
0.1759999997,1,160773.4843750000,144964.1093750000,170332.6562500000,161783.6250000000,128923.1328125000,36364.4296875000,104297.0937500000,150798.1875000000,,,
0.1799999997,1,160723.4375000000,144968.9687500000,170284.3281250000,161715.3125000000,128870.8281250000,36295.6289062500,104240.8203125000,150927.3281250000,,,
0.1839999997,1,160820.6875000000,144987.7343750000,170378.9843750000,161799.9375000000,128956.0390625000,36365.6093750000,104320.1875000000,150755.2656250000,,,
0.1879999996,1,160969.0625000000,145006.7500000000,170535.4687500000,161936.8125000000,129100.6093750000,36491.2421875000,104459.1562500000,150532.2968750000,,,
0.1919999996,1,160958.1250000000,145009.2031250000,170510.9687500000,161931.6562500000,129085.0546875000,36491.4062500000,104437.6953125000,150577.1718750000,,,
0.1959999998,1,160811.4062500000,145008.3437500000,170350.7656250000,161776.0937500000,128937.5312500000,36367.7539062500,104280.1953125000,150840.9843750000,,,
0.1999999997,1,160726.0000000000,144979.6875000000,170277.3593750000,161693.3437500000,128859.9375000000,36266.2343750000,104195.7578125000,150946.0000000000,,,
0.2039999997,1,160815.1562500000,144965.4843750000,170378.1718750000,161812.0000000000,128951.3750000000,36326.7187500000,104291.8359375000,150750.8750000000,,,
0.2079999996,1,160981.4843750000,145013.4843750000,170536.4531250000,161937.4218750000,129101.2031250000,36477.1875000000,104436.3828125000,150544.0781250000,,,
0.2119999996,1,161001.9843750000,145054.7968750000,170552.0625000000,161923.0000000000,129118.7734375000,36507.1210937500,104437.0781250000,150614.4843750000,,,
0.2159999998,1,160852.1718750000,145036.8281250000,170405.4062500000,161767.3750000000,128978.4375000000,36378.9687500000,104291.0312500000,150867.6562500000,,,
0.2199999997,1,160699.0156250000,144954.5312500000,170241.0156250000,161692.9375000000,128823.0546875000,36234.6093750000,104140.0234375000,150931.6250000000,,,
0.2239999997,1,160783.2968750000,144935.5937500000,170331.3125000000,161786.3906250000,128899.4765625000,36273.6093750000,104221.2656250000,150727.0000000000,,,
0.2279999997,1,160989.7968750000,145014.1406250000,170544.9375000000,161948.3906250000,129095.9453125000,36445.3515625000,104401.2734375000,150552.6250000000,,,
0.2319999996,1,160996.3125000000,145043.3906250000,170542.1875000000,161917.4687500000,129097.5781250000,36471.5039062500,104390.9453125000,150614.9687500000,,,
0.2359999996,1,160830.9843750000,145018.4218750000,170370.9375000000,161759.8437500000,128935.4140625000,36333.2343750000,104221.2421875000,150859.5000000000,,,
0.2399999998,1,160696.4687500000,144953.9375000000,170232.2968750000,161669.7968750000,128804.0156250000,36205.9101562500,104091.3671875000,150936.7812500000,,,
0.2439999997,1,160808.7812500000,144967.8593750000,170352.1093750000,161792.4062500000,128908.1328125000,36273.6640625000,104200.8281250000,150762.0000000000,,,
0.2479999997,1,160972.5000000000,144999.6718750000,170518.9687500000,161920.9062500000,129061.5312500000,36408.2578125000,104346.5781250000,150547.8750000000,,,
0.2519999996,1,160988.7343750000,145031.1406250000,170526.0000000000,161915.7343750000,129069.4140625000,36433.8164062500,104343.3593750000,150607.7812500000,,,
0.2559999996,2,160833.9687500000,145006.3593750000,170369.4843750000,161787.9531250000,128921.7890625000,36295.0664062500,104192.6250000000,150854.5156250000,,,
0.2599999995,2,160695.1093750000,144937.3125000000,170230.9531250000,161667.7031250000,128783.6562500000,36163.1835937500,104058.5156250000,150929.2343750000,,,
0.2639999995,2,160791.7500000000,144947.8750000000,170328.7968750000,161747.7187500000,128866.9375000000,36236.7578125000,104131.2578125000,150759.4843750000,,,
0.2679999995,2,160992.0781250000,145013.9218750000,170533.2031250000,161913.3437500000,129060.7812500000,36402.4648437500,104325.3671875000,150569.7656250000,,,
0.2719999994,2,161016.8437500000,145053.6718750000,170553.1093750000,161922.5937500000,129085.5937500000,36431.2148437500,104348.5156250000,150628.9687500000,,,
0.2759999994,2,160862.2656250000,145042.7031250000,170394.0312500000,161787.6718750000,128938.1250000000,36309.1484375000,104184.0156250000,150883.3437500000,,,
0.2799999996,2,160717.9531250000,144971.5625000000,170247.7656250000,161675.5625000000,128794.3593750000,36187.1875000000,104046.8203125000,150956.5937500000,,,
0.2839999995,2,160802.2031250000,144968.9375000000,170329.6875000000,161763.1875000000,128866.2656250000,36242.1210937500,104123.8515625000,150773.5312500000,,,
0.2879999995,2,160972.6562500000,144990.6093750000,170514.1875000000,161937.7968750000,129033.8281250000,36358.7968750000,104285.0000000000,150545.2500000000,,,
0.2919999994,2,160981.5625000000,145014.2187500000,170506.4687500000,161948.3125000000,129033.9609375000,36389.8554687500,104280.4140625000,150598.6875000000,,,
0.2959999994,2,160843.8593750000,145020.1406250000,170353.0937500000,161781.4218750000,128887.8046875000,36277.9296875000,104116.7734375000,150869.1250000000,,,
0.2999999996,2,160746.3593750000,144995.4687500000,170262.9531250000,161686.9062500000,128793.0937500000,36175.0937500000,104016.8593750000,150988.7031250000,,,
0.3039999995,2,160811.4375000000,144957.5156250000,170339.0937500000,161779.5000000000,128861.1953125000,36212.8046875000,104088.1484375000,150781.8281250000,,,
0.3079999995,2,160963.5468750000,144992.0000000000,170478.8437500000,161921.9843750000,128994.1796875000,36348.3085937500,104213.3828125000,150557.3281250000,,,
0.3119999995,2,160962.5468750000,144996.8906250000,170479.1093750000,161911.6718750000,128995.0156250000,36352.0390625000,104207.5078125000,150585.5312500000,,,
0.3159999994,2,160822.0312500000,144982.2187500000,170340.1250000000,161777.5156250000,128864.3906250000,36227.7695312500,104077.2343750000,150835.2500000000,,,
0.3199999994,2,160739.2500000000,144969.2343750000,170263.7343750000,161694.2812500000,128783.4140625000,36130.5937500000,103983.8437500000,150962.7343750000,,,
0.3239999996,2,160831.3125000000,144976.0000000000,170354.7656250000,161765.8437500000,128861.9453125000,36191.2109375000,104060.5000000000,150796.7812500000,,,
0.3279999995,2,160942.6406250000,144957.5625000000,170463.5000000000,161887.0468750000,128965.1640625000,36281.8984375000,104168.5078125000,150533.6718750000,,,
0.3319999995,2,160970.9687500000,144989.8906250000,170486.6250000000,161913.1250000000,128992.7578125000,36318.6718750000,104188.8984375000,150584.5468750000,,,
0.3359999994,2,160851.2187500000,145003.7187500000,170362.7031250000,161785.5000000000,128873.8046875000,36222.6484375000,104056.6093750000,150860.6718750000,,,
0.3399999994,2,160762.1093750000,144999.7812500000,170272.7343750000,161685.8125000000,128777.7265625000,36134.0273437500,103950.8515625000,150997.5781250000,,,
0.3439999996,2,160844.1250000000,145000.7968750000,170351.0312500000,161773.0625000000,128850.4921875000,36193.5976562500,104024.7421875000,150833.0468750000,,,
0.3479999995,2,160965.9062500000,144992.5937500000,170471.8437500000,161916.7500000000,128965.2656250000,36299.6015625000,104140.4843750000,150581.5937500000,,,
0.3519999995,2,161005.6875000000,145033.5312500000,170515.8750000000,161929.8906250000,129008.5078125000,36332.2421875000,104177.3046875000,150633.7656250000,,,
0.3559999994,2,160879.6718750000,145046.2656250000,170381.8281250000,161793.3437500000,128887.4296875000,36229.5664062500,104046.5468750000,150908.0000000000,,,
0.3599999994,2,160746.4687500000,144979.9687500000,170252.8125000000,161691.7968750000,128754.6328125000,36081.6445312500,103910.3750000000,150990.6250000000,,,
0.3639999994,2,160815.1093750000,144944.8593750000,170333.3593750000,161785.5625000000,128820.5078125000,36097.8164062500,103979.5468750000,150786.5937500000,,,
0.3679999996,2,160995.8125000000,145002.5781250000,170504.7031250000,161916.1093750000,128980.6640625000,36252.7421875000,104126.1015625000,150583.7343750000,,,
0.3719999995,2,161009.5625000000,145024.7812500000,170508.6406250000,161942.1406250000,128987.5312500000,36279.0000000000,104133.6718750000,150618.4218750000,,,
0.3759999995,2,160871.0000000000,145017.9687500000,170371.7656250000,161794.8437500000,128858.9453125000,36171.0156250000,104009.4531250000,150875.1406250000,,,
0.3799999994,2,160771.9531250000,144996.7500000000,170270.3593750000,161722.4218750000,128756.6718750000,36081.0546875000,103898.1406250000,151006.6250000000,,,
0.3839999994,3,160839.2812500000,144990.1250000000,170331.0468750000,161797.1406250000,128809.4062500000,36131.6132812500,103948.7812500000,150835.6250000000,,,
0.3879999993,3,160992.3281250000,145009.7343750000,170492.0625000000,161919.7812500000,128960.4140625000,36267.3046875000,104100.1406250000,150604.3125000000,,,
0.3919999993,3,161012.5937500000,145037.2031250000,170514.8906250000,161898.5937500000,128982.1640625000,36290.0507812500,104109.0468750000,150644.0312500000,,,
0.3959999993,3,160870.9531250000,145023.2187500000,170364.6406250000,161801.2812500000,128842.4218750000,36159.9101562500,103966.2734375000,150896.2656250000,,,
0.3999999992,3,160740.4687500000,144964.3281250000,170230.4687500000,161697.5000000000,128712.8750000000,36016.6015625000,103839.9921875000,150992.8593750000,,,
0.4039999992,3,160818.1875000000,144956.7812500000,170317.8281250000,161752.7343750000,128784.9140625000,36045.5664062500,103907.3984375000,150814.0156250000,,,
0.4079999994,3,161002.9375000000,145016.0156250000,170506.7656250000,161893.0937500000,128960.7890625000,36194.4843750000,104078.2500000000,150612.0625000000,,,
0.4119999993,3,161028.7968750000,145050.9531250000,170519.3906250000,161910.1250000000,128976.1328125000,36225.1953125000,104077.2109375000,150657.7968750000,,,
0.4159999993,3,160871.3750000000,145010.6250000000,170363.6875000000,161792.2968750000,128828.6875000000,36089.8789062500,103925.3437500000,150890.5312500000,,,
0.4199999992,3,160751.7500000000,144968.4062500000,170246.4531250000,161696.9375000000,128713.1953125000,35990.5820312500,103810.0625000000,151004.1562500000,,,
0.4239999992,3,160851.4843750000,144994.2343750000,170348.0312500000,161756.5625000000,128799.1328125000,36070.9960937500,103897.3906250000,150860.2968750000,,,
0.4279999994,3,160999.8125000000,145020.7031250000,170490.1875000000,161925.5468750000,128937.2656250000,36214.4687500000,104033.5937500000,150633.9843750000,,,
0.4319999993,3,161021.2343750000,145041.3281250000,170512.4531250000,161938.3437500000,128962.2890625000,36247.0820312500,104046.3906250000,150664.7968750000,,,
0.4359999993,3,160890.4062500000,145036.5625000000,170381.9062500000,161802.3750000000,128834.2968750000,36119.1132812500,103902.0859375000,150923.1718750000,,,
0.4399999992,3,160730.2968750000,144961.5625000000,170207.4843750000,161703.2500000000,128676.6875000000,35969.8750000000,103752.9296875000,151014.1875000000,,,
0.4439999992,3,160812.4218750000,144961.5156250000,170293.1718750000,161752.2656250000,128750.3671875000,36006.6484375000,103826.3906250000,150847.0781250000,,,
0.4479999992,3,160977.6250000000,144986.3437500000,170460.6250000000,161888.3906250000,128907.2812500000,36131.7226562500,103979.1718750000,150611.9843750000,,,
0.4519999993,3,161005.2031250000,145013.7343750000,170484.0937500000,161898.0781250000,128929.1953125000,36152.2929687500,103983.1953125000,150640.3906250000,,,
0.4559999993,3,160888.6875000000,145019.5312500000,170366.3750000000,161798.6250000000,128813.5625000000,36037.4414062500,103862.6562500000,150906.9687500000,,,
0.4599999993,3,160804.2500000000,145007.6093750000,170288.8281250000,161730.8750000000,128729.7187500000,35936.4023437500,103775.4609375000,151054.2812500000,,,
0.4639999992,3,160887.7187500000,145026.1562500000,170362.0781250000,161805.8437500000,128796.2890625000,36013.3281250000,103845.6562500000,150908.3750000000,,,
0.4679999992,3,161017.2968750000,145022.2812500000,170496.2187500000,161901.0312500000,128923.5625000000,36139.2304687500,103972.1484375000,150651.6875000000,,,
0.4719999994,3,161042.8281250000,145041.8437500000,170516.3906250000,161940.2656250000,128948.0234375000,36177.1562500000,103994.1406250000,150675.3437500000,,,
0.4759999993,3,160891.3437500000,145024.7343750000,170356.5312500000,161783.8906250000,128798.3281250000,36061.3398437500,103840.2343750000,150924.5937500000,,,
0.4799999993,3,160775.8125000000,144993.0781250000,170242.0625000000,161672.0000000000,128682.5625000000,35947.9375000000,103718.9453125000,151050.9218750000,,,
0.4839999992,3,160879.9687500000,145013.8593750000,170353.1562500000,161758.7343750000,128779.2812500000,36006.8085937500,103811.1875000000,150912.2031250000,,,
0.4879999992,3,161046.4843750000,145052.6718750000,170524.0312500000,161902.1562500000,128940.5937500000,36148.7539062500,103973.5703125000,150691.8125000000,,,
0.4919999992,3,161056.1562500000,145061.0468750000,170524.1406250000,161934.8750000000,128951.5859375000,36157.6835937500,103986.6328125000,150702.8281250000,,,
0.4959999993,3,160899.5937500000,145029.5312500000,170363.4531250000,161790.1406250000,128797.2812500000,36009.0898437500,103830.5000000000,150930.0625000000,,,
0.4999999993,3,160771.9531250000,144977.7656250000,170239.2343750000,161685.5937500000,128668.1562500000,35876.2148437500,103696.9765625000,151039.1250000000,,,
0.5039999993,3,160869.7500000000,145006.4687500000,170338.7500000000,161789.2812500000,128755.8671875000,35951.7695312500,103782.7812500000,150904.1250000000,,,
0.5079999992,3,161027.6718750000,145028.8281250000,170499.8906250000,161947.2187500000,128908.0546875000,36088.9648437500,103935.7187500000,150669.1406250000,,,
0.5119999992,4,161065.0937500000,145058.6093750000,170540.1250000000,161932.8593750000,128948.0234375000,36132.3359375000,103973.5937500000,150694.4687500000,,,
0.5159999991,4,160904.5312500000,145040.1718750000,170363.3125000000,161797.5156250000,128787.7031250000,36020.3554687500,103807.6953125000,150939.2187500000,,,
0.5199999991,4,160752.3437500000,144962.3906250000,170209.3593750000,161683.3437500000,128635.4062500000,35883.7500000000,103658.6484375000,151039.8750000000,,,
0.5239999990,4,160839.4687500000,144972.8750000000,170303.2031250000,161756.5937500000,128716.7109375000,35941.9804687500,103739.3828125000,150892.5937500000,,,
0.5279999990,4,161021.7968750000,145023.5156250000,170489.8125000000,161916.7187500000,128890.3281250000,36089.7968750000,103903.5859375000,150677.7812500000,,,
0.5319999990,4,161060.3750000000,145058.2500000000,170516.6562500000,161915.4531250000,128917.6015625000,36120.9375000000,103923.3593750000,150703.0937500000,,,
0.5359999991,4,160934.5468750000,145053.0000000000,170391.9375000000,161780.4062500000,128796.1562500000,36003.9140625000,103795.7656250000,150958.8281250000,,,
0.5399999991,4,160787.2656250000,144998.6875000000,170238.2500000000,161702.8125000000,128652.1484375000,35872.7539062500,103657.8203125000,151080.7500000000,,,
0.5439999991,4,160831.4375000000,144955.2656250000,170289.5781250000,161747.4375000000,128692.2187500000,35879.3242187500,103695.6640625000,150885.5625000000,,,
0.5479999990,4,161019.6250000000,145011.6406250000,170477.6406250000,161900.7812500000,128864.8203125000,36033.9023437500,103858.8515625000,150666.8906250000,,,
0.5519999990,4,161056.3750000000,145039.7812500000,170512.5000000000,161944.9687500000,128902.6953125000,36072.7382812500,103898.8671875000,150686.9531250000,,,
0.5559999992,4,160928.7812500000,145041.5156250000,170390.8593750000,161816.2187500000,128786.3671875000,35967.9179687500,103776.9843750000,150950.4218750000,,,
0.5599999991,4,160776.4375000000,144969.3437500000,170240.4531250000,161688.8125000000,128638.4375000000,35827.2617187500,103626.5937500000,151060.0000000000,,,
0.5639999991,4,160823.5312500000,144951.7656250000,170280.8906250000,161733.7187500000,128673.5781250000,35865.5117187500,103665.8359375000,150890.2656250000,,,
0.5679999990,4,161013.1406250000,145014.0468750000,170466.1562500000,161905.8281250000,128848.4609375000,36025.9062500000,103835.4062500000,150679.4375000000,,,
0.5719999990,4,161074.6875000000,145067.4531250000,170522.2968750000,161941.0156250000,128902.7187500000,36094.2500000000,103882.5078125000,150716.5937500000,,,
0.5759999990,4,160914.7031250000,145031.1406250000,170356.5312500000,161812.9375000000,128748.9765625000,35957.5117187500,103726.7500000000,150946.4531250000,,,
0.5799999991,4,160797.0625000000,144997.0937500000,170239.9062500000,161681.3593750000,128636.2109375000,35827.3437500000,103608.6250000000,151086.1718750000,,,
0.5839999991,4,160859.3125000000,144987.7656250000,170309.4531250000,161731.9687500000,128697.7421875000,35851.2421875000,103681.8515625000,150929.7656250000,,,
0.5879999991,4,161043.5000000000,145044.8437500000,170488.2031250000,161911.4843750000,128867.4453125000,36006.5429687500,103844.0937500000,150714.3906250000,,,
0.5919999990,4,161043.0156250000,145020.1406250000,170486.5468750000,161925.7343750000,128867.1562500000,36008.4726562500,103843.8046875000,150685.9531250000,,,
0.5959999990,4,160928.3750000000,145033.1718750000,170372.9218750000,161781.5156250000,128758.1171875000,35917.9765625000,103722.2187500000,150951.7343750000,,,
0.5999999992,4,160780.7500000000,144978.1718750000,170213.5781250000,161691.6250000000,128608.6953125000,35797.5976562500,103582.2343750000,151073.7812500000,,,
0.6039999991,4,160865.1250000000,144988.3906250000,170298.2812500000,161772.4687500000,128682.3203125000,35853.7382812500,103657.8671875000,150935.5156250000,,,
0.6079999991,4,161027.2187500000,145018.0468750000,170468.6250000000,161920.2656250000,128842.8281250000,35993.1054687500,103819.3671875000,150702.9375000000,,,
0.6119999990,4,161071.6093750000,145055.9218750000,170504.2343750000,161936.7812500000,128878.2265625000,36032.6679687500,103842.1953125000,150723.7812500000,,,
0.6159999990,4,160934.4062500000,145043.1250000000,170365.6718750000,161794.2968750000,128744.3906250000,35913.0664062500,103693.6015625000,150973.7656250000,,,
0.6199999989,4,160810.8750000000,145008.4531250000,170245.0000000000,161688.1093750000,128623.8515625000,35785.7968750000,103575.3125000000,151118.1250000000,,,
0.6239999991,4,160874.9687500000,144995.7031250000,170318.0937500000,161750.4218750000,128681.1640625000,35805.8320312500,103637.9687500000,150963.2968750000,,,
0.6279999991,4,161024.3437500000,145027.3906250000,170453.5468750000,161879.6718750000,128815.8671875000,35946.5156250000,103785.7578125000,150724.2343750000,,,
0.6319999991,4,161086.9218750000,145068.8437500000,170517.9218750000,161915.9375000000,128875.6015625000,36001.6601562500,103836.6171875000,150738.7656250000,,,
0.6359999990,4,160962.5312500000,145056.8281250000,170390.2812500000,161839.1250000000,128756.5390625000,35890.3203125000,103717.6328125000,150983.8125000000,,,
0.6399999990,5,160816.0468750000,144996.5937500000,170242.7812500000,161714.4062500000,128612.2890625000,35758.7851562500,103578.0781250000,151112.4062500000,,,
0.6439999989,5,160910.2187500000,145024.7031250000,170337.4687500000,161766.2812500000,128691.7656250000,35822.0078125000,103647.7578125000,150992.4843750000,,,
0.6479999989,5,161066.8906250000,145052.4687500000,170497.8281250000,161905.9687500000,128844.4062500000,35964.6992187500,103800.7265625000,150751.5468750000,,,
0.6519999988,5,161098.5937500000,145077.2500000000,170519.2968750000,161915.7343750000,128871.4687500000,36004.3164062500,103821.7812500000,150756.7656250000,,,
0.6559999988,5,160954.0468750000,145053.0312500000,170367.4687500000,161793.0625000000,128733.0390625000,35881.9804687500,103690.6171875000,150991.0312500000,,,
0.6599999988,5,160840.9375000000,145026.8437500000,170259.4375000000,161698.9843750000,128624.8984375000,35760.6914062500,103585.6953125000,151142.7968750000,,,
0.6639999989,5,160914.7812500000,145034.3281250000,170335.7968750000,161771.9062500000,128693.1015625000,35808.1914062500,103661.8125000000,151006.5937500000,,,
0.6679999989,5,161033.7968750000,145014.0000000000,170457.7812500000,161902.2656250000,128808.6015625000,35906.4140625000,103780.5546875000,150728.3593750000,,,
0.6719999989,5,161113.4218750000,145080.2031250000,170541.5312500000,161944.0000000000,128885.6093750000,35981.1132812500,103846.9375000000,150764.5781250000,,,
0.6759999988,5,160959.5468750000,145041.5781250000,170383.0000000000,161849.8281250000,128737.0625000000,35844.2695312500,103700.4140625000,150983.1562500000,,,
0.6799999988,5,160803.3125000000,144983.2031250000,170209.4687500000,161716.5937500000,128572.1875000000,35703.6953125000,103530.8125000000,151107.9218750000,,,
0.6839999990,5,160882.1718750000,144993.2343750000,170294.8906250000,161748.7812500000,128642.6015625000,35750.4453125000,103599.9375000000,150976.2500000000,,,
0.6879999989,5,161074.0468750000,145046.3437500000,170494.5625000000,161909.1093750000,128829.2500000000,35920.3906250000,103794.5546875000,150757.5468750000,,,
0.6919999989,5,161116.9375000000,145066.7656250000,170536.4531250000,161962.2968750000,128874.7421875000,35958.6093750000,103833.2890625000,150751.7343750000,,,
0.6959999988,5,160977.5937500000,145063.9218750000,170378.9062500000,161813.7031250000,128725.2343750000,35843.0625000000,103671.7109375000,150997.0156250000,,,
0.6999999988,5,160850.5625000000,145028.4531250000,170258.6875000000,161693.0000000000,128603.5468750000,35716.8632812500,103550.5312500000,151149.0937500000,,,
0.7039999987,5,160892.2968750000,145008.2343750000,170294.0937500000,161773.3281250000,128639.0000000000,35732.8242187500,103589.5546875000,151003.1250000000,,,
0.7079999989,5,161077.1875000000,145050.9062500000,170488.7656250000,161908.3281250000,128820.0234375000,35885.2539062500,103777.7890625000,150775.8125000000,,,
0.7119999989,5,161145.2031250000,145104.4375000000,170556.5937500000,161960.3125000000,128886.2734375000,35949.6796875000,103843.1875000000,150792.9531250000,,,
0.7159999989,5,161005.3906250000,145090.8125000000,170409.2968750000,161822.8125000000,128747.9296875000,35829.5429687500,103695.6875000000,151028.6406250000,,,
0.7199999988,5,160856.4218750000,145026.1250000000,170258.7343750000,161726.6093750000,128601.9921875000,35685.1601562500,103550.3984375000,151157.3906250000,,,
0.7239999988,5,160894.2343750000,145007.6093750000,170287.1406250000,161767.8593750000,128622.1093750000,35708.6289062500,103573.7265625000,151003.4531250000,,,
0.7279999990,5,161064.9531250000,145043.2031250000,170467.8437500000,161886.7812500000,128789.0703125000,35861.1132812500,103740.8593750000,150771.9843750000,,,
0.7319999989,5,161138.7187500000,145103.0781250000,170537.1718750000,161902.6718750000,128864.1250000000,35946.8632812500,103812.3359375000,150800.6250000000,,,
0.7359999989,5,160988.1406250000,145060.7031250000,170393.2187500000,161809.3437500000,128732.3984375000,35817.8750000000,103690.6718750000,151017.5937500000,,,
0.7399999988,5,160834.2812500000,144991.5468750000,170236.4531250000,161714.7500000000,128582.6796875000,35679.1250000000,103543.0156250000,151138.7656250000,,,
0.7439999988,5,160893.7031250000,145000.0781250000,170287.2812500000,161750.1562500000,128623.0703125000,35713.2148437500,103586.0937500000,151007.7500000000,,,
0.7479999987,5,161050.5000000000,145028.6406250000,170449.0468750000,161883.1093750000,128772.6328125000,35849.4726562500,103743.3828125000,150766.3750000000,,,
0.7519999989,5,161114.9062500000,145065.1250000000,170518.4375000000,161924.5000000000,128839.4687500000,35904.6992187500,103809.1171875000,150769.8906250000,,,
0.7559999989,5,160974.6250000000,145040.8750000000,170371.2812500000,161807.5468750000,128698.6015625000,35781.4492187500,103659.2109375000,150992.7187500000,,,
0.7599999988,5,160854.1093750000,145017.4843750000,170240.5000000000,161713.0312500000,128571.5703125000,35675.5039062500,103534.0312500000,151154.8593750000,,,
0.7639999988,5,160911.0312500000,145015.5625000000,170303.2968750000,161734.9687500000,128626.3671875000,35710.1835937500,103595.3515625000,151024.2187500000,,,
0.7679999988,6,161092.6093750000,145056.2500000000,170495.6093750000,161895.6875000000,128806.0781250000,35854.3281250000,103778.0625000000,150789.5000000000,,,
0.7719999987,6,161143.2968750000,145085.6093750000,170539.6406250000,161912.2656250000,128851.0859375000,35918.9687500000,103815.2109375000,150779.7500000000,,,
0.7759999987,6,160992.1875000000,145061.4687500000,170378.3906250000,161799.6093750000,128701.3906250000,35800.6289062500,103654.4375000000,151009.2968750000,,,
0.7799999986,6,160852.5781250000,145005.9062500000,170239.1093750000,161716.9531250000,128565.7812500000,35644.3359375000,103529.9531250000,151151.1093750000,,,
0.7839999986,6,160908.7968750000,144994.0937500000,170291.8125000000,161765.9531250000,128609.8203125000,35655.3867187500,103595.2656250000,151014.0468750000,,,
0.7879999985,6,161107.2031250000,145058.8125000000,170498.8437500000,161916.3437500000,128797.5234375000,35819.6445312500,103774.7578125000,150803.0156250000,,,
0.7919999987,6,161167.5781250000,145108.4062500000,170548.1718750000,161951.1250000000,128850.2031250000,35878.5468750000,103816.7656250000,150811.7500000000,,,
0.7959999987,6,160966.5781250000,145032.1250000000,170335.9531250000,161814.4531250000,128658.8281250000,35716.2460937500,103628.5546875000,150995.3593750000,,,
0.7999999986,6,160849.7031250000,145000.4062500000,170219.9843750000,161696.1875000000,128541.5859375000,35594.7695312500,103512.8437500000,151152.9843750000,,,
0.8039999986,6,160926.1718750000,145019.0468750000,170298.6562500000,161731.4531250000,128608.0234375000,35635.8085937500,103583.3828125000,151039.2343750000,,,
0.8079999986,6,161109.0781250000,145064.5781250000,170491.8437500000,161891.7968750000,128786.2812500000,35791.5078125000,103764.1171875000,150808.5156250000,,,
0.8119999988,6,161189.1406250000,145116.7500000000,170570.2812500000,161980.3750000000,128864.7421875000,35865.0546875000,103837.9531250000,150817.2812500000,,,
0.8159999987,6,160992.5625000000,145040.0937500000,170365.1093750000,161836.7343750000,128678.7031250000,35700.8242187500,103649.9062500000,150995.6250000000,,,
0.8199999987,6,160878.5156250000,145025.6718750000,170248.3593750000,161720.8906250000,128565.8828125000,35586.5625000000,103529.5546875000,151171.4375000000,,,
0.8239999986,6,160966.5156250000,145053.8281250000,170344.1875000000,161753.9375000000,128647.7734375000,35642.8359375000,103608.9453125000,151073.1093750000,,,
0.8279999986,6,161128.3125000000,145086.9062500000,170509.9531250000,161902.5781250000,128806.6718750000,35795.5312500000,103771.3046875000,150839.5625000000,,,
0.8319999985,6,161099.7500000000,145039.8281250000,170466.0156250000,161926.1406250000,128779.8750000000,35791.6171875000,103749.4453125000,150759.5937500000,,,
0.8359999987,6,160991.5468750000,145039.8281250000,170357.1250000000,161823.0625000000,128674.8671875000,35697.4179687500,103643.0390625000,150998.8906250000,,,
0.8399999987,6,160877.6875000000,145021.4062500000,170243.3906250000,161698.1718750000,128559.9296875000,35583.0468750000,103528.5312500000,151175.5781250000,,,
0.8439999986,6,160975.1875000000,145056.2500000000,170343.8437500000,161775.0781250000,128640.4531250000,35638.6757812500,103608.4921875000,151082.3906250000,,,
0.8479999986,6,161141.9843750000,145084.8125000000,170518.4375000000,161909.2968750000,128804.9765625000,35779.6289062500,103781.0625000000,150845.7968750000,,,
0.8519999986,6,161135.8437500000,145057.9843750000,170497.0000000000,161929.8906250000,128797.1484375000,35794.0312500000,103772.4843750000,150785.9062500000,,,
0.8559999987,6,161014.5000000000,145047.1250000000,170370.1875000000,161816.2500000000,128677.4140625000,35684.4882812500,103639.2578125000,151013.4531250000,,,
0.8599999987,6,160912.1562500000,145044.9843750000,170264.0156250000,161711.4843750000,128572.0546875000,35587.3945312500,103529.6875000000,151202.2031250000,,,
0.8639999987,6,160987.4375000000,145074.1562500000,170338.9687500000,161746.8593750000,128636.7812500000,35637.2539062500,103598.0312500000,151109.4531250000,,,
0.8679999986,6,161116.5937500000,145057.7187500000,170477.7187500000,161894.2656250000,128766.2500000000,35747.8984375000,103744.2343750000,150837.0468750000,,,
0.8719999986,6,161138.5000000000,145053.1875000000,170489.5468750000,161946.9531250000,128779.4140625000,35779.2773437500,103755.4531250000,150788.6093750000,,,
0.8759999985,6,161034.9687500000,145064.2968750000,170381.8593750000,161811.1406250000,128677.3359375000,35701.3593750000,103645.4218750000,151032.4687500000,,,
0.8799999987,6,160943.1875000000,145063.8281250000,170298.0625000000,161728.9843750000,128593.7265625000,35607.0820312500,103562.3046875000,151228.0937500000,,,
0.8839999987,6,160987.2031250000,145058.9843750000,170340.7812500000,161776.5937500000,128636.2421875000,35634.0625000000,103613.7734375000,151110.5000000000,,,
0.8879999986,6,161119.9375000000,145053.4531250000,170474.7343750000,161911.4687500000,128761.0156250000,35750.2031250000,103739.0859375000,150838.9218750000,,,
0.8919999986,6,161182.6562500000,145090.5156250000,170532.1406250000,161972.9687500000,128818.6875000000,35812.9921875000,103792.1953125000,150821.2187500000,,,
0.8959999986,7,161042.3750000000,145065.2343750000,170385.6875000000,161826.6562500000,128683.4453125000,35703.8007812500,103656.7734375000,151037.5156250000,,,
0.8999999985,7,160930.6562500000,145055.7812500000,170272.7968750000,161689.1093750000,128574.7109375000,35596.0585937500,103553.3203125000,151222.2343750000,,,
0.9039999985,7,160974.1875000000,145035.7500000000,170325.2031250000,161749.5156250000,128618.9375000000,35607.8593750000,103606.4765625000,151095.6718750000,,,
0.9079999984,7,161111.3593750000,145040.6875000000,170450.9218750000,161896.2500000000,128737.0078125000,35732.7148437500,103725.6484375000,150831.2031250000,,,
0.9119999984,7,161185.5781250000,145095.2187500000,170514.4375000000,161952.9062500000,128798.5937500000,35818.0625000000,103776.3671875000,150825.4843750000,,,
0.9159999983,7,161070.0000000000,145096.6718750000,170396.3593750000,161825.3125000000,128692.9453125000,35723.7851562500,103671.0390625000,151064.3437500000,,,
0.9199999985,7,160950.2343750000,145070.0000000000,170281.3437500000,161714.6718750000,128582.7343750000,35603.1914062500,103567.2890625000,151242.2031250000,,,
0.9239999985,7,160974.5625000000,145038.5937500000,170303.1093750000,161776.7656250000,128604.6406250000,35613.9218750000,103594.4609375000,151108.8593750000,,,
0.9279999984,7,161137.5312500000,145062.2500000000,170473.4531250000,161906.0156250000,128764.0468750000,35749.3164062500,103756.4687500000,150863.1718750000,,,
0.9319999984,7,161201.0000000000,145092.0468750000,170534.5312500000,161955.9531250000,128826.0625000000,35814.7109375000,103815.2109375000,150836.4531250000,,,
0.9359999984,7,161067.9843750000,145082.6562500000,170386.0156250000,161841.9062500000,128691.6796875000,35711.7421875000,103675.4687500000,151060.5625000000,,,
0.9399999985,7,160925.7968750000,145040.9218750000,170240.7968750000,161704.2656250000,128545.6328125000,35572.3203125000,103532.2343750000,151218.7031250000,,,
0.9439999985,7,160959.0937500000,145011.5312500000,170282.9062500000,161756.0625000000,128573.5546875000,35570.1210937500,103568.5234375000,151080.6406250000,,,
0.9479999985,7,161143.9218750000,145065.6562500000,170465.6406250000,161920.7500000000,128748.8437500000,35735.2617187500,103751.8281250000,150855.9531250000,,,
0.9519999984,7,161221.2500000000,145117.0468750000,170541.0156250000,161955.5781250000,128822.3359375000,35812.2421875000,103818.7734375000,150845.9531250000,,,
0.9559999984,7,161065.5781250000,145076.6093750000,170382.0156250000,161844.7343750000,128674.6796875000,35690.9804687500,103662.2421875000,151050.6562500000,,,
0.9599999983,7,160904.1875000000,145014.7031250000,170213.4062500000,161711.3750000000,128515.5937500000,35547.3750000000,103505.5781250000,151196.1093750000,,,
0.9639999985,7,160971.4218750000,145034.5156250000,170280.4843750000,161749.1875000000,128575.0078125000,35585.6757812500,103563.9687500000,151103.7968750000,,,
0.9679999985,7,161149.1250000000,145079.1562500000,170465.0312500000,161894.8906250000,128750.0234375000,35740.4140625000,103741.3125000000,150883.7656250000,,,
0.9719999984,7,161215.4843750000,145101.9687500000,170533.9531250000,161954.6718750000,128821.4453125000,35819.0546875000,103811.3203125000,150853.0625000000,,,
0.9759999984,7,161085.5625000000,145088.3750000000,170386.0937500000,161826.4375000000,128686.0468750000,35716.1406250000,103671.7656250000,151072.2031250000,,,
0.9799999984,7,160918.5625000000,145016.7656250000,170217.5156250000,161720.4375000000,128520.6406250000,35541.8750000000,103508.4453125000,151208.8906250000,,,
0.9839999985,7,160981.3281250000,145025.2968750000,170283.9062500000,161764.0781250000,128572.6171875000,35567.0078125000,103562.4140625000,151106.8281250000,,,
0.9879999985,7,161160.7187500000,145062.3125000000,170472.7187500000,161901.8125000000,128748.0078125000,35712.5976562500,103740.4062500000,150869.7500000000,,,
0.9919999985,7,161233.0781250000,145100.6562500000,170545.2500000000,161951.3437500000,128825.3125000000,35788.7734375000,103814.6171875000,150842.3906250000,,,
0.9959999984,7,161105.0625000000,145095.3281250000,170408.4843750000,161836.8750000000,128703.3750000000,35703.0781250000,103689.6796875000,151069.8593750000,,,
0.9999999984,7,160946.4531250000,145053.2968750000,170238.2812500000,161728.7500000000,128540.5156250000,35574.1171875000,103530.2500000000,151239.0781250000,,,
1.0039999983,7,160983.7343750000,145042.7812500000,170279.3593750000,161766.8593750000,128569.6718750000,35592.5429687500,103565.8984375000,151129.4062500000,,,
1.0079999985,7,161150.2812500000,145069.3906250000,170455.5312500000,161900.5156250000,128732.3750000000,35742.9335937500,103725.3281250000,150885.7812500000,,,
1.0119999985,7,161228.1718750000,145110.2968750000,170531.0156250000,161944.6718750000,128810.9062500000,35835.0703125000,103798.9296875000,150858.4843750000,,,
1.0159999984,7,161089.8281250000,145087.6562500000,170379.7031250000,161843.4687500000,128677.0078125000,35729.0664062500,103669.5156250000,151072.6562500000,,,
1.0199999984,7,160955.1406250000,145055.5156250000,170241.7343750000,161720.9687500000,128543.9765625000,35604.6406250000,103536.6328125000,151251.0156250000,,,
1.0239999983,8,161011.1562500000,145064.4218750000,170300.9531250000,161766.9375000000,128592.2265625000,35635.1093750000,103580.3046875000,151155.4218750000,,,
1.0279999983,8,161186.6250000000,145099.6406250000,170485.2812500000,161918.8437500000,128765.2578125000,35779.0898437500,103766.7421875000,150915.1250000000,,,
1.0319999983,8,161247.0781250000,145124.5000000000,170541.7968750000,161956.3593750000,128828.7734375000,35850.0078125000,103836.7500000000,150872.7187500000,,,
1.0359999982,8,161114.9843750000,145098.0937500000,170407.4375000000,161870.9687500000,128706.4609375000,35748.1914062500,103713.5781250000,151081.7968750000,,,
1.0399999982,8,160979.9843750000,145075.9375000000,170266.4062500000,161719.8750000000,128569.4531250000,35635.5117187500,103574.1562500000,151271.1875000000,,,
1.0439999981,8,161019.6875000000,145080.0312500000,170302.0781250000,161742.0781250000,128602.3125000000,35683.1484375000,103622.7578125000,151179.8125000000,,,
1.0479999983,8,161188.7343750000,145102.0312500000,170483.8593750000,161914.5937500000,128773.6484375000,35834.8007812500,103814.5937500000,150931.3593750000,,,
1.0519999983,8,161280.8750000000,145152.2187500000,170571.4843750000,161973.8281250000,128859.4843750000,35927.3085937500,103890.7656250000,150909.2500000000,,,
1.0559999982,8,161176.1875000000,145164.5312500000,170459.3437500000,161859.2968750000,128757.4765625000,35851.5117187500,103768.8906250000,151151.7187500000,,,
1.0599999982,8,161025.2031250000,145127.1562500000,170299.9375000000,161709.8750000000,128607.4843750000,35723.1679687500,103618.8750000000,151333.7968750000,,,
1.0639999982,8,161029.6875000000,145076.2187500000,170316.4062500000,161753.3437500000,128622.3203125000,35706.4843750000,103646.7656250000,151200.4687500000,,,
1.0679999983,8,161205.2031250000,145110.5312500000,170500.0312500000,161914.5468750000,128796.0234375000,35851.5117187500,103824.9218750000,150956.4375000000,,,
1.0719999983,8,161286.0312500000,145151.9375000000,170577.8750000000,161957.5937500000,128873.1640625000,35934.4726562500,103897.9531250000,150918.5312500000,,,
1.0759999983,8,161191.3750000000,145179.2968750000,170471.5156250000,161840.8437500000,128777.9921875000,35865.3789062500,103796.5390625000,151167.0156250000,,,
1.0799999982,8,161024.2968750000,145118.1562500000,170304.2812500000,161724.2500000000,128616.1796875000,35707.6367187500,103636.8984375000,151326.9843750000,,,
1.0839999982,8,161016.6718750000,145055.2031250000,170299.3750000000,161777.5937500000,128603.6250000000,35665.6328125000,103635.7734375000,151174.7968750000,,,
1.0879999981,8,161205.3750000000,145104.7656250000,170492.7343750000,161926.0312500000,128778.1328125000,35813.8242187500,103806.9765625000,150939.1562500000,,,
1.0919999983,8,161273.9062500000,145144.1718750000,170550.6406250000,161964.0937500000,128834.7812500000,35892.1171875000,103855.2812500000,150901.7500000000,,,
1.0959999983,8,161180.7500000000,145168.7031250000,170454.7343750000,161854.8437500000,128744.2812500000,35822.1132812500,103761.2734375000,151151.3750000000,,,
1.0999999982,8,160994.3281250000,145084.5156250000,170266.0156250000,161724.8593750000,128564.3046875000,35657.7226562500,103578.5859375000,151293.7187500000,,,
1.1039999982,8,161015.3437500000,145064.5625000000,170283.7968750000,161745.2187500000,128570.0156250000,35649.0039062500,103585.7500000000,151183.8281250000,,,
1.1079999981,8,161231.6093750000,145142.6093750000,170506.0937500000,161915.2187500000,128773.7578125000,35827.9609375000,103793.7812500000,150976.6250000000,,,
1.1119999983,8,161293.1875000000,145165.7656250000,170569.3437500000,161966.5781250000,128837.7578125000,35896.2500000000,103855.8984375000,150922.9531250000,,,
1.1159999983,8,161174.8750000000,145157.2343750000,170449.7343750000,161853.9843750000,128728.6953125000,35807.9765625000,103739.7031250000,151141.2343750000,,,
1.1199999982,8,160979.8750000000,145067.6718750000,170253.2968750000,161719.6562500000,128538.4218750000,35628.4023437500,103548.6015625000,151277.9218750000,,,
1.1239999982,8,161031.0000000000,145072.4687500000,170303.7968750000,161785.8750000000,128573.0468750000,35636.0234375000,103585.5625000000,151188.6406250000,,,
1.1279999982,8,161221.7812500000,145129.3593750000,170497.9687500000,161894.8906250000,128750.7187500000,35795.5039062500,103761.7500000000,150964.7500000000,,,
1.1319999981,8,161296.5156250000,145168.6562500000,170569.3125000000,161943.7500000000,128824.6093750000,35881.0156250000,103841.3593750000,150921.6406250000,,,
1.1359999983,8,161105.4531250000,145075.0937500000,170381.1875000000,161847.6718750000,128648.4453125000,35721.6914062500,103668.8437500000,151062.8593750000,,,
1.1399999983,8,160954.4531250000,145025.0000000000,170225.2968750000,161708.2343750000,128494.9140625000,35561.2148437500,103511.8750000000,151226.0468750000,,,
1.1439999982,8,161014.0781250000,145044.7343750000,170284.7031250000,161761.9843750000,128542.7109375000,35581.1445312500,103563.7500000000,151153.8906250000,,,
1.1479999982,8,161192.5781250000,145088.7187500000,170464.3281250000,161900.7031250000,128709.5468750000,35727.4062500000,103731.1250000000,150919.9843750000,,,
1.1519999981,9,161248.7343750000,145099.5625000000,170516.6093750000,161965.5156250000,128761.3125000000,35781.4765625000,103775.9140625000,150849.3593750000,,,
1.1559999981,9,161126.0312500000,145081.7187500000,170387.7812500000,161862.5625000000,128644.6875000000,35676.1210937500,103650.4375000000,151056.3437500000,,,
1.1599999981,9,161003.6093750000,145068.7968750000,170263.4531250000,161734.5156250000,128527.7187500000,35558.7460937500,103531.9687500000,151261.8593750000,,,
1.1639999980,9,161058.5781250000,145084.9375000000,170318.2343750000,161778.3750000000,128573.9296875000,35582.4296875000,103580.7578125000,151190.1406250000,,,
1.1679999980,9,161215.4843750000,145096.0781250000,170483.9375000000,161950.7031250000,128727.8906250000,35703.2109375000,103730.6406250000,150929.3750000000,,,
1.1719999979,9,161292.5937500000,145134.6406250000,170556.4062500000,161983.4218750000,128801.2734375000,35786.3867187500,103789.5937500000,150882.2500000000,,,
1.1759999981,9,161156.0781250000,145103.4218750000,170420.4843750000,161858.5156250000,128677.7890625000,35680.8671875000,103662.7812500000,151077.8906250000,,,
1.1799999981,9,161008.6875000000,145063.0000000000,170274.8593750000,161725.2656250000,128536.0312500000,35543.0546875000,103527.0078125000,151262.2031250000,,,
1.1839999980,9,161028.3125000000,145049.4062500000,170292.2968750000,161756.8906250000,128546.6015625000,35549.1992187500,103545.0859375000,151170.5000000000,,,
1.1879999980,9,161208.8593750000,145092.2656250000,170475.4687500000,161902.5312500000,128718.2343750000,35707.6093750000,103723.5078125000,150932.4843750000,33029,1.1902622737,0.0000000000
1.1919999979,9,161294.5781250000,145136.1718750000,170559.2343750000,161968.0312500000,128800.7421875000,35802.2382812500,103792.2265625000,150887.2343750000,,,
1.1959999981,9,161178.5000000000,145129.2343750000,170439.8906250000,161841.2343750000,128690.1250000000,35706.6171875000,103673.0234375000,151100.5781250000,,,
1.1999999981,9,161027.0625000000,145093.2031250000,170291.2968750000,161710.4531250000,128553.0625000000,35583.8515625000,103539.7968750000,151297.6406250000,,,
1.2039999980,9,161005.0937500000,145040.3906250000,170265.9062500000,161720.3281250000,128530.4531250000,35546.4375000000,103529.6640625000,151178.0625000000,,,
1.2079999980,9,161207.4375000000,145099.7968750000,170474.3593750000,161908.1093750000,128722.8750000000,35705.9726562500,103722.3750000000,150953.7500000000,,,
1.2119999980,9,161290.5781250000,145136.5781250000,170557.0781250000,161991.8750000000,128802.1328125000,35784.0781250000,103791.1250000000,150899.4843750000,,,
1.2159999979,9,161167.7343750000,145116.8906250000,170428.3593750000,161859.8281250000,128682.6406250000,35690.8203125000,103670.5312500000,151100.5781250000,,,
1.2199999981,9,161019.5156250000,145078.4531250000,170276.9218750000,161697.8750000000,128536.7812500000,35563.7890625000,103529.4453125000,151288.5156250000,,,
1.2239999981,9,161046.0000000000,145065.6562500000,170304.3125000000,161775.3125000000,128554.7578125000,35571.3007812500,103555.1171875000,151201.0781250000,,,
1.2279999980,9,161209.4531250000,145094.7812500000,170469.1093750000,161916.3437500000,128703.7812500000,35707.9570312500,103703.9765625000,150951.5312500000,,,
1.2319999980,9,161281.0625000000,145124.4531250000,170535.8906250000,161974.0312500000,128768.3359375000,35781.5039062500,103763.3906250000,150882.3281250000,,,
1.2359999979,9,161186.8906250000,145130.6250000000,170438.7187500000,161885.6250000000,128678.1093750000,35687.1992187500,103670.0234375000,151099.4531250000,,,
1.2399999981,9,161037.7812500000,145099.7812500000,170287.6562500000,161761.5781250000,128537.9921875000,35558.7187500000,103534.7578125000,151299.7343750000,,,
1.2439999981,9,161007.9062500000,145038.9687500000,170255.3593750000,161770.8593750000,128506.9609375000,35528.0898437500,103504.4765625000,151174.4687500000,,,
1.2479999980,9,161177.6562500000,145069.6875000000,170428.3281250000,161897.1093750000,128664.0000000000,35655.7890625000,103650.9218750000,150923.4375000000,,,
1.2519999980,9,161252.4375000000,145091.4375000000,170505.9843750000,161957.2812500000,128737.6015625000,35726.5195312500,103721.8671875000,150842.5468750000,,,
1.2559999980,9,161164.1406250000,145105.5468750000,170410.3906250000,161863.7968750000,128653.1953125000,35656.7265625000,103638.7968750000,151068.2343750000,,,
1.2599999979,9,161016.3593750000,145068.5000000000,170256.7031250000,161741.7343750000,128507.5468750000,35511.8085937500,103492.3750000000,151262.6406250000,,,
1.2639999981,9,161031.0468750000,145046.9375000000,170276.6093750000,161782.6093750000,128521.3046875000,35503.4921875000,103510.4531250000,151169.8281250000,,,
1.2679999981,9,161187.4218750000,145070.8125000000,170437.7500000000,161917.6875000000,128670.6015625000,35632.8554687500,103663.2109375000,150919.0156250000,,,
1.2719999980,9,161255.5781250000,145086.9531250000,170503.4062500000,161977.3906250000,128736.7734375000,35700.9062500000,103721.2812500000,150837.2656250000,,,
1.2759999980,9,161161.3750000000,145089.8750000000,170405.4218750000,161873.9062500000,128648.7421875000,35625.5351562500,103619.8906250000,151049.9843750000,,,
1.2799999979,10,161029.2812500000,145071.6718750000,170271.7968750000,161748.5156250000,128522.9453125000,35499.9531250000,103494.6015625000,151261.5937500000,,,
1.2839999979,10,161064.0468750000,145079.2812500000,170308.0156250000,161756.1093750000,128551.2968750000,35518.3515625000,103523.0390625000,151199.6093750000,,,
1.2879999978,10,161248.2343750000,145122.5156250000,170502.0937500000,161930.2968750000,128729.9843750000,35670.7578125000,103701.5937500000,150963.5468750000,,,
1.2919999978,10,161316.0156250000,145134.8125000000,170570.6250000000,162017.9218750000,128798.2500000000,35734.9960937500,103765.0781250000,150879.0000000000,,,
1.2959999978,10,161194.7031250000,145112.5937500000,170440.4531250000,161917.6875000000,128681.2187500000,35644.7109375000,103651.6250000000,151071.0468750000,,,
1.2999999977,10,161047.5156250000,145079.4687500000,170290.0468750000,161775.7968750000,128539.0625000000,35515.6445312500,103509.3828125000,151270.1406250000,,,
1.3039999979,10,161070.9375000000,145077.3750000000,170313.6718750000,161761.4218750000,128556.7109375000,35520.3906250000,103528.0000000000,151202.1250000000,,,
1.3079999979,10,161220.8437500000,145092.7812500000,170467.9218750000,161920.8437500000,128698.1171875000,35656.5937500000,103675.3359375000,150945.7343750000,,,
1.3119999978,10,161299.3281250000,145119.2500000000,170542.2812500000,161985.7031250000,128773.8359375000,35739.5273437500,103747.1093750000,150871.1875000000,,,
1.3159999978,10,161195.0781250000,145116.2187500000,170433.0000000000,161901.2500000000,128674.3828125000,35657.6406250000,103639.0703125000,151075.7343750000,,,
1.3199999977,10,161042.5625000000,145082.8437500000,170279.1562500000,161764.0156250000,128527.2656250000,35517.8437500000,103492.2734375000,151274.5937500000,,,
1.3239999979,10,161058.0625000000,145071.7500000000,170298.6250000000,161769.2187500000,128537.8828125000,35521.6523437500,103498.5234375000,151199.5781250000,,,
1.3279999979,10,161221.1406250000,145095.6718750000,170472.1875000000,161910.1250000000,128695.4921875000,35663.4882812500,103658.5156250000,150948.1250000000,,,
1.3319999978,10,161295.7656250000,145118.8750000000,170537.6406250000,161994.9843750000,128760.9609375000,35744.1679687500,103730.1796875000,150860.0312500000,,,
1.3359999978,10,161189.3281250000,145119.8593750000,170422.3593750000,161879.3593750000,128653.8593750000,35666.7343750000,103617.4531250000,151064.3437500000,,,
1.3399999978,10,161027.1875000000,145068.4531250000,170261.2343750000,161754.3593750000,128501.1406250000,35528.8398437500,103466.0390625000,151254.7187500000,,,
1.3439999977,10,161046.3906250000,145059.6562500000,170285.1250000000,161779.5781250000,128519.6484375000,35534.1523437500,103488.1640625000,151185.9843750000,,,
1.3479999979,10,161210.5000000000,145084.3593750000,170459.9375000000,161913.2656250000,128682.4531250000,35671.2109375000,103655.4843750000,150932.9687500000,,,
1.3519999979,10,161297.2656250000,145114.5781250000,170551.5312500000,161995.3593750000,128770.7500000000,35757.0156250000,103744.0234375000,150852.1718750000,,,
1.3559999978,10,161194.7031250000,145106.9843750000,170440.0312500000,161912.7812500000,128669.6328125000,35678.1054687500,103637.8593750000,151048.4375000000,,,
1.3599999978,10,161034.2500000000,145066.7343750000,170272.4531250000,161766.7031250000,128508.4375000000,35534.4726562500,103467.0078125000,151245.7031250000,,,
1.3639999977,10,161056.9843750000,145064.8593750000,170301.0156250000,161777.1718750000,128527.6406250000,35545.1210937500,103493.0234375000,151186.6250000000,,,
1.3679999979,10,161239.2968750000,145114.7187500000,170483.2187500000,161939.2187500000,128696.7812500000,35710.1054687500,103673.0546875000,150956.7812500000,,,
1.3719999979,10,161321.0000000000,145141.5156250000,170566.3281250000,162001.4218750000,128780.7343750000,35795.4531250000,103757.8906250000,150872.1562500000,,,
1.3759999978,10,161211.6250000000,145132.8437500000,170451.5625000000,161919.9687500000,128678.1875000000,35717.8007812500,103648.1093750000,151066.5156250000,,,
1.3799999978,10,161071.9375000000,145115.7343750000,170309.8906250000,161746.7187500000,128543.2500000000,35592.4375000000,103508.2812500000,151286.3437500000,,,
1.3839999977,10,161080.5156250000,145100.9531250000,170324.4062500000,161753.2656250000,128554.1093750000,35583.1015625000,103523.3046875000,151219.2968750000,,,
1.3879999977,10,161232.3593750000,145116.1406250000,170478.2812500000,161919.7500000000,128698.8203125000,35722.8984375000,103673.2656250000,150962.5781250000,,,
1.3919999979,10,161315.0781250000,145131.7500000000,170562.5468750000,162005.2656250000,128782.7421875000,35804.4375000000,103748.5546875000,150868.4531250000,,,
1.3959999979,10,161211.8125000000,145122.8750000000,170450.5781250000,161909.5625000000,128684.2812500000,35723.1132812500,103642.7968750000,151062.8125000000,,,
1.3999999978,10,161038.5625000000,145074.4062500000,170269.3593750000,161749.1093750000,128508.3828125000,35574.2226562500,103468.4531250000,151250.9687500000,,,
1.4039999978,10,161047.4218750000,145066.7343750000,170281.6718750000,161755.2187500000,128509.8515625000,35571.8359375000,103481.9218750000,151189.2812500000,,,
1.4079999977,11,161207.7656250000,145095.8281250000,170449.5000000000,161903.6250000000,128667.0625000000,35713.1875000000,103651.7812500000,150946.8593750000,,,
1.4119999977,11,161290.0000000000,145116.2656250000,170532.1406250000,161973.8281250000,128751.5781250000,35795.9335937500,103740.7812500000,150853.8593750000,,,
1.4159999976,11,161210.0625000000,145125.1250000000,170445.7656250000,161899.7656250000,128674.3828125000,35736.2304687500,103656.2890625000,151058.9687500000,,,
1.4199999976,11,161067.9375000000,145103.5781250000,170299.3281250000,161764.7968750000,128534.5859375000,35602.6562500000,103507.0468750000,151274.8593750000,,,
1.4239999976,11,161088.3437500000,145107.8750000000,170323.2656250000,161791.5156250000,128551.8281250000,35611.5859375000,103526.7890625000,151231.2500000000,,,
1.4279999975,11,161245.6250000000,145129.5468750000,170491.2343750000,161919.5312500000,128707.9062500000,35755.1914062500,103688.0156250000,150977.9218750000,,,
1.4319999977,11,161337.2031250000,145156.6718750000,170579.1562500000,161975.4843750000,128792.7734375000,35850.3554687500,103763.6875000000,150881.7812500000,,,
1.4359999977,11,161226.7812500000,145144.0625000000,170460.7656250000,161901.9687500000,128683.6328125000,35772.6796875000,103662.5390625000,151071.9375000000,,,
1.4399999976,11,161065.7031250000,145103.3437500000,170297.7656250000,161769.5937500000,128527.6640625000,35656.8085937500,103510.4296875000,151275.1562500000,,,
1.4439999976,11,161080.5625000000,145099.7812500000,170317.3750000000,161752.3281250000,128537.5390625000,35670.5156250000,103527.8125000000,151220.5781250000,,,
1.4479999975,11,161250.4375000000,145131.5937500000,170495.3906250000,161914.9531250000,128701.2031250000,35820.6640625000,103706.3671875000,150975.3750000000,,,
1.4519999977,11,161315.0156250000,145133.7656250000,170561.4062500000,161995.2031250000,128766.6484375000,35889.3281250000,103764.5156250000,150860.2968750000,,,
1.4559999977,11,161208.7812500000,145128.9843750000,170449.3125000000,161876.2187500000,128666.8203125000,35819.3515625000,103658.5703125000,151050.3437500000,,,
1.4599999976,11,161060.2968750000,145097.2500000000,170295.9375000000,161738.4531250000,128522.4062500000,35688.4062500000,103523.3046875000,151261.9062500000,,,
1.4639999976,11,161062.0000000000,145085.5000000000,170298.8437500000,161742.2187500000,128523.5078125000,35686.4453125000,103530.3593750000,151207.6718750000,,,
1.4679999975,11,161224.8906250000,145113.1093750000,170468.8593750000,161889.4375000000,128680.8437500000,35825.8398437500,103686.6484375000,150962.7968750000,,,
1.4719999975,11,161307.0312500000,145128.5781250000,170555.4218750000,161964.5625000000,128765.8203125000,35903.2773437500,103776.1562500000,150855.0156250000,,,
1.4759999977,11,161229.7187500000,145141.8906250000,170473.3125000000,161886.0156250000,128689.3750000000,35846.1718750000,103699.7656250000,151058.4375000000,,,
1.4799999977,11,161082.0468750000,145114.7500000000,170317.4843750000,161756.2500000000,128542.9843750000,35719.1718750000,103553.5312500000,151274.2031250000,,,
1.4839999976,11,161088.0312500000,145105.2187500000,170322.3593750000,161762.1718750000,128542.8203125000,35714.7460937500,103556.8593750000,151218.1718750000,,,
1.4879999976,11,161233.1250000000,145113.5937500000,170476.8906250000,161888.1875000000,128684.0937500000,35827.2890625000,103702.2890625000,150954.2031250000,,,
1.4919999975,11,161322.1875000000,145141.5937500000,170558.0781250000,161983.1250000000,128768.6328125000,35927.3359375000,103781.9531250000,150857.2187500000,,,
1.4959999977,11,161212.2656250000,145124.5000000000,170444.0312500000,161875.5781250000,128669.4453125000,35859.7187500000,103683.7265625000,151039.4218750000,,,
1.4999999977,11,161063.7968750000,145095.7187500000,170296.1250000000,161732.4218750000,128529.8359375000,35727.3242187500,103551.8203125000,151258.3437500000,,,
1.5039999976,11,161060.8750000000,145074.9375000000,170297.2031250000,161740.9218750000,128524.9296875000,35711.3125000000,103553.2656250000,151197.8125000000,,,
1.5079999976,11,161219.6406250000,145102.3281250000,170460.7031250000,161875.3125000000,128680.0390625000,35854.1406250000,103716.3984375000,150951.2343750000,,,
1.5119999975,11,161306.9531250000,145123.8593750000,170545.4062500000,161960.7343750000,128762.8437500000,35939.4609375000,103799.8671875000,150843.4531250000,,,
1.5159999975,11,161218.0781250000,145130.2187500000,170448.4218750000,161873.2343750000,128672.8515625000,35877.2070312500,103702.5000000000,151037.9218750000,,,
1.5199999977,11,161073.4843750000,145107.5000000000,170303.8281250000,161731.5468750000,128533.1875000000,35749.9335937500,103564.7734375000,151259.9218750000,,,
1.5239999976,11,161076.1718750000,145094.8437500000,170310.6093750000,161748.3593750000,128534.6093750000,35736.7109375000,103571.4531250000,151211.2500000000,,,
1.5279999976,11,161219.2343750000,145107.2031250000,170453.4218750000,161894.0625000000,128668.2656250000,35857.0078125000,103717.3593750000,150953.5156250000,,,
1.5319999976,11,161308.8437500000,145125.8750000000,170544.8281250000,161979.9062500000,128757.7421875000,35949.7343750000,103804.7500000000,150841.5312500000,,,
1.5359999975,12,161228.1718750000,145135.0937500000,170461.2656250000,161879.8437500000,128683.9062500000,35894.4257812500,103721.7343750000,151041.4062500000,,,
1.5399999975,12,161058.9687500000,145092.8593750000,170292.0312500000,161711.6875000000,128521.8437500000,35737.7304687500,103562.6250000000,151253.4375000000,,,
1.5439999974,12,161062.7343750000,145091.2500000000,170291.0312500000,161712.3593750000,128519.5390625000,35730.1132812500,103567.2656250000,151218.0312500000,,,
1.5479999974,12,161237.5625000000,145125.1718750000,170477.6875000000,161884.8281250000,128692.6484375000,35877.9843750000,103742.3359375000,150979.9375000000,,,
1.5519999973,12,161319.0156250000,145135.8593750000,170563.3593750000,161973.2656250000,128775.9296875000,35959.8710937500,103821.3281250000,150853.2968750000,,,
1.5559999973,12,161218.2500000000,145130.2968750000,170449.6093750000,161877.0781250000,128674.6484375000,35892.0937500000,103714.2265625000,151031.7187500000,,,
1.5599999975,12,161033.4375000000,145070.1718750000,170259.7812500000,161716.7656250000,128499.0468750000,35735.0742187500,103546.2343750000,151228.5781250000,,,
1.5639999975,12,161051.5000000000,145076.1406250000,170280.0937500000,161722.8437500000,128512.3750000000,35723.3007812500,103566.3828125000,151199.1718750000,,,
1.5679999974,12,161222.0468750000,145120.6406250000,170453.6875000000,161866.7812500000,128674.4609375000,35875.1406250000,103731.5000000000,150968.5000000000,,,
1.5719999974,12,161309.2500000000,145127.0312500000,170546.6406250000,161959.2656250000,128762.7578125000,35960.0859375000,103816.2031250000,150843.0312500000,,,
1.5759999973,12,161217.8437500000,145118.1718750000,170452.8750000000,161869.9687500000,128677.8984375000,35893.2734375000,103734.6640625000,151020.6718750000,,,
1.5799999975,12,161068.9218750000,145092.0000000000,170297.3125000000,161733.6250000000,128530.3437500000,35752.0273437500,103584.4609375000,151240.2187500000,,,
1.5839999975,12,161088.9843750000,145104.5000000000,170320.7187500000,161753.7500000000,128552.6328125000,35763.1054687500,103613.7187500000,151219.7500000000,,,
1.5879999974,12,161239.7500000000,145127.1875000000,170473.2656250000,161882.8125000000,128698.1484375000,35900.0585937500,103767.9765625000,150972.6875000000,,,
1.5919999974,12,161330.8750000000,145146.3125000000,170562.5781250000,161961.4375000000,128782.7968750000,35998.8437500000,103847.9843750000,150854.9375000000,,,
1.5959999973,12,161242.2500000000,145148.7812500000,170468.0781250000,161898.1875000000,128698.0625000000,35936.5898437500,103750.6484375000,151038.2656250000,,,
1.5999999973,12,161082.2031250000,145120.3437500000,170306.8593750000,161758.3281250000,128548.0000000000,35801.9414062500,103610.1015625000,151263.3125000000,,,
1.6039999975,12,161048.2500000000,145072.9531250000,170276.3125000000,161739.7812500000,128512.7265625000,35753.6914062500,103584.4296875000,151193.5156250000,,,
1.6079999974,12,161215.4218750000,145104.8125000000,170449.9062500000,161857.0468750000,128673.7343750000,35900.4882812500,103744.7500000000,150951.4687500000,,,
1.6119999974,12,161292.7031250000,145119.1093750000,170526.5312500000,161928.0156250000,128752.1093750000,35982.8593750000,103822.8515625000,150831.4218750000,,,
1.6159999974,12,161213.6250000000,145123.1406250000,170447.1093750000,161865.4375000000,128680.7109375000,35931.0898437500,103755.3437500000,151018.9531250000,,,
1.6199999973,12,161078.5781250000,145116.5156250000,170303.6093750000,161747.6562500000,128546.9218750000,35819.7812500000,103625.3125000000,151261.1875000000,,,
1.6239999975,12,161055.8906250000,145084.0312500000,170281.8281250000,161725.0000000000,128519.7500000000,35789.0703125000,103595.3984375000,151206.3593750000,,,
1.6279999975,12,161205.2968750000,145093.7343750000,170438.8281250000,161831.0781250000,128664.0546875000,35903.9726562500,103742.6015625000,150948.6093750000,,,
1.6319999974,12,161306.2968750000,145121.8750000000,170535.5625000000,161949.5468750000,128764.5859375000,36008.1250000000,103853.1875000000,150840.8281250000,,,
1.6359999974,12,161212.5625000000,145114.2812500000,170440.1562500000,161861.9218750000,128678.6171875000,35948.5507812500,103765.5078125000,151008.3593750000,,,
1.6399999973,12,161068.2500000000,145104.5468750000,170292.5312500000,161714.4062500000,128536.0859375000,35830.1328125000,103622.5468750000,151243.4531250000,,,
1.6439999973,12,161047.0468750000,145075.9375000000,170275.9375000000,161704.0781250000,128513.8515625000,35794.2460937500,103600.4687500000,151198.6406250000,,,
1.6479999975,12,161214.7343750000,145102.8281250000,170457.2187500000,161855.2968750000,128680.0937500000,35928.3007812500,103769.2343750000,150958.0625000000,,,
1.6519999974,12,161311.6718750000,145132.2343750000,170540.4843750000,161965.2968750000,128769.2812500000,36028.7500000000,103864.4296875000,150842.8906250000,,,
1.6559999974,12,161236.0625000000,145136.6250000000,170461.5468750000,161882.4062500000,128700.9921875000,35972.1289062500,103791.8984375000,151024.7812500000,,,
1.6599999974,12,161080.3593750000,145106.6093750000,170303.4531250000,161735.8906250000,128549.2578125000,35833.2695312500,103639.0703125000,151245.2031250000,,,
1.6639999973,13,161052.4375000000,145082.1562500000,170270.4375000000,161707.3125000000,128514.1171875000,35805.1601562500,103613.7734375000,151203.7031250000,,,
1.6679999973,13,161214.0937500000,145108.4375000000,170439.7343750000,161843.3281250000,128672.6640625000,35943.6718750000,103786.1640625000,150958.7968750000,,,
1.6719999972,13,161328.4062500000,145142.4218750000,170559.7031250000,161949.8750000000,128788.6406250000,36044.7617187500,103902.5390625000,150843.2656250000,,,
1.6759999972,13,161249.2812500000,145144.0937500000,170477.9843750000,161894.0312500000,128715.4453125000,35991.8437500000,103814.0546875000,151020.0781250000,,,
1.6799999971,13,161060.4218750000,145091.3750000000,170280.0937500000,161721.2343750000,128533.3281250000,35847.0859375000,103635.3125000000,151226.9687500000,,,
1.6839999971,13,161038.1406250000,145068.2812500000,170263.2968750000,161705.9218750000,128515.8359375000,35826.4843750000,103627.9375000000,151190.2500000000,,,
1.6879999973,13,161194.2656250000,145089.4531250000,170426.4531250000,161820.8593750000,128667.4375000000,35955.6328125000,103783.9609375000,150944.2500000000,,,
1.6919999972,13,161308.9531250000,145122.8437500000,170541.5781250000,161935.5156250000,128780.0078125000,36068.3671875000,103893.8750000000,150833.0781250000,,,
1.6959999972,13,161252.1718750000,145152.3750000000,170481.3906250000,161864.5468750000,128730.4140625000,36039.2109375000,103840.7187500000,151038.6406250000,,,
1.6999999972,13,161062.5156250000,145083.3593750000,170284.8437500000,161710.5312500000,128547.0546875000,35880.7734375000,103666.2421875000,151232.1406250000,,,
1.7039999971,13,161054.5781250000,145070.6718750000,170279.3906250000,161700.0000000000,128534.5078125000,35850.5429687500,103655.7265625000,151197.9375000000,,,
1.7079999973,13,161223.1562500000,145110.5000000000,170452.9062500000,161863.6718750000,128696.6171875000,35994.6054687500,103811.1562500000,150968.1562500000,,,
1.7119999973,13,161316.5781250000,145130.9375000000,170550.6406250000,161932.5781250000,128788.8281250000,36094.1953125000,103898.2812500000,150840.1562500000,,,
1.7159999972,13,161183.1562500000,145090.4218750000,170408.5156250000,161804.3281250000,128659.3906250000,36000.5859375000,103772.0234375000,150975.2343750000,,,
1.7199999972,13,161040.3593750000,145071.1562500000,170265.7968750000,161693.3125000000,128526.8046875000,35869.7500000000,103650.3046875000,151205.1562500000,,,
1.7239999971,13,161038.4375000000,145062.9687500000,170259.6718750000,161689.6406250000,128519.1640625000,35860.0390625000,103653.0156250000,151185.8906250000,,,
1.7279999971,13,161186.4375000000,145078.3750000000,170410.7656250000,161815.7343750000,128656.2734375000,35979.7734375000,103799.6015625000,150934.7031250000,,,
1.7319999973,13,161312.0625000000,145128.0468750000,170543.2656250000,161911.1093750000,128783.2812500000,36107.1250000000,103922.7890625000,150831.5000000000,,,
1.7359999972,13,161214.3593750000,145112.1875000000,170439.5000000000,161868.7656250000,128694.4218750000,36040.2578125000,103831.3593750000,150992.8593750000,,,
1.7399999972,13,161044.0312500000,145067.7187500000,170263.0312500000,161714.7187500000,128529.7265625000,35890.7773437500,103659.9921875000,151204.4843750000,,,
1.7439999972,13,161026.4687500000,145048.7656250000,170250.9375000000,161699.9687500000,128516.6171875000,35868.0312500000,103654.1953125000,151178.8437500000,,,
1.7479999971,13,161205.5781250000,145097.0937500000,170440.4843750000,161838.4218750000,128695.7031250000,36023.5195312500,103842.9687500000,150961.7968750000,,,
1.7519999973,13,161309.9531250000,145120.2187500000,170543.2656250000,161940.3750000000,128797.3906250000,36133.4101562500,103945.1093750000,150835.9687500000,,,
1.7559999973,13,161231.0468750000,145122.8906250000,170455.7968750000,161864.0625000000,128720.5703125000,36081.4296875000,103857.8828125000,151005.4687500000,,,
1.7599999972,13,161074.2968750000,145096.6718750000,170294.4375000000,161719.2031250000,128566.6406250000,35949.1445312500,103698.2890625000,151232.7812500000,,,
1.7639999972,13,161059.0000000000,145079.6562500000,170281.8125000000,161723.4375000000,128546.5468750000,35913.2265625000,103680.7500000000,151208.1093750000,,,
1.7679999971,13,161215.1562500000,145107.2031250000,170442.3437500000,161861.1406250000,128697.5312500000,36035.5351562500,103843.6640625000,150969.5781250000,,,
1.7719999971,13,161320.2500000000,145139.4687500000,170546.8281250000,161922.8125000000,128803.6093750000,36143.9257812500,103958.2500000000,150846.4062500000,,,
1.7759999973,13,161224.8437500000,145130.2968750000,170446.2500000000,161839.1250000000,128714.4296875000,36093.1757812500,103861.4218750000,151004.7187500000,,,
1.7799999972,13,161052.1562500000,145084.6718750000,170270.6718750000,161688.1406250000,128546.7890625000,35949.1679687500,103689.4140625000,151217.0625000000,,,
1.7839999972,13,161058.5000000000,145082.9375000000,170279.1562500000,161701.7968750000,128553.5468750000,35928.9453125000,103713.8984375000,151211.3281250000,,,
1.7879999971,13,161194.8281250000,145089.9375000000,170415.8437500000,161834.0312500000,128677.5703125000,36042.6992187500,103840.5546875000,150956.9218750000,,,
1.7919999971,14,161292.4843750000,145111.1250000000,170509.3437500000,161914.3125000000,128774.0546875000,36148.9414062500,103941.8125000000,150824.5000000000,,,
1.7959999971,14,161213.7968750000,145108.2031250000,170431.1718750000,161821.5625000000,128709.9765625000,36100.8203125000,103882.8281250000,150987.8125000000,,,
1.7999999970,14,161058.8750000000,145077.7343750000,170273.8593750000,161680.3125000000,128561.6718750000,35965.6640625000,103732.9765625000,151215.3281250000,,,
1.8039999970,14,161036.4375000000,145060.8906250000,170250.9375000000,161676.8750000000,128532.4687500000,35934.3632812500,103705.3203125000,151199.3906250000,,,
1.8079999969,14,161198.5312500000,145088.0625000000,170423.8593750000,161818.3437500000,128689.0000000000,36059.3281250000,103866.3046875000,150959.2812500000,,,
1.8119999969,14,161309.1406250000,145118.4375000000,170538.3125000000,161918.3593750000,128803.5546875000,36176.7539062500,103982.6328125000,150828.2187500000,,,
1.8159999971,14,161251.7656250000,145135.5312500000,170480.1250000000,161862.3437500000,128751.4687500000,36133.6796875000,103927.0000000000,151002.6250000000,,,
1.8199999970,14,161079.3125000000,145095.2500000000,170294.5156250000,161711.2343750000,128575.6796875000,35982.8046875000,103746.7031250000,151220.7187500000,,,
1.8239999970,14,161049.0781250000,145069.1250000000,170270.3750000000,161671.8593750000,128547.1953125000,35944.4218750000,103728.1484375000,151197.2500000000,,,
1.8279999970,14,161215.1562500000,145108.8906250000,170448.0000000000,161830.0000000000,128709.0625000000,36080.3554687500,103902.5703125000,150974.1562500000,,,
1.8319999969,14,161322.7968750000,145132.4531250000,170551.0468750000,161935.3906250000,128812.6484375000,36192.5546875000,104008.1953125000,150839.2500000000,,,
1.8359999971,14,161260.2187500000,145145.7031250000,170480.7656250000,161879.0312500000,128752.4609375000,36159.1328125000,103938.2187500000,151005.1406250000,,,
1.8399999971,14,161097.3281250000,145107.0937500000,170319.0156250000,161733.2343750000,128599.1484375000,36010.9687500000,103791.0703125000,151232.1718750000,,,
1.8439999970,14,161046.0468750000,145071.0000000000,170259.1718750000,161673.7656250000,128544.1875000000,35968.2382812500,103752.7109375000,151204.9062500000,,,
1.8479999970,14,161177.8437500000,145074.7031250000,170399.5312500000,161803.6093750000,128672.7421875000,36082.2343750000,103882.0000000000,150949.4062500000,,,
1.8519999969,14,161301.7187500000,145099.7187500000,170534.3125000000,161895.2656250000,128803.9843750000,36192.2031250000,104013.2109375000,150808.7812500000,,,
1.8559999969,14,161235.8906250000,145101.0625000000,170464.3593750000,161850.6250000000,128745.7265625000,36146.5273437500,103950.9296875000,150965.9062500000,,,
1.8599999971,14,161078.1562500000,145077.1718750000,170299.2187500000,161703.1562500000,128590.5859375000,36011.5312500000,103792.1953125000,151204.2656250000,,,
1.8639999970,14,161047.7968750000,145064.4843750000,170267.0781250000,161673.7187500000,128554.0312500000,35973.7929687500,103766.6328125000,151199.0468750000,,,
1.8679999970,14,161213.8125000000,145112.8906250000,170437.5156250000,161797.6093750000,128710.1328125000,36122.0117187500,103919.6015625000,150981.0312500000,,,
1.8719999969,14,161337.9531250000,145147.6562500000,170567.5625000000,161908.7187500000,128835.9296875000,36237.8828125000,104048.9609375000,150851.1875000000,,,
1.8759999969,14,161251.9843750000,145139.6562500000,170480.9062500000,161840.9687500000,128757.1015625000,36175.2812500000,103970.5625000000,151003.6406250000,,,
1.8799999971,14,161027.9218750000,145040.2343750000,170249.6406250000,161695.5937500000,128544.8828125000,35988.7851562500,103775.3750000000,151180.2968750000,,,
1.8839999971,14,161024.7968750000,145041.5156250000,170247.6562500000,161679.3906250000,128533.9140625000,35965.9882812500,103763.6328125000,151184.5000000000,,,
1.8879999970,14,161169.5156250000,145066.9531250000,170390.5156250000,161798.7031250000,128666.8984375000,36090.5507812500,103910.2968750000,150951.0625000000,,,
1.8919999970,14,161303.5937500000,145115.4687500000,170521.7812500000,161922.1093750000,128793.5234375000,36217.1210937500,104034.7187500000,150825.7031250000,,,
1.8959999969,14,161226.6093750000,145110.2968750000,170439.5000000000,161843.5468750000,128721.9921875000,36173.5078125000,103956.0234375000,150974.9687500000,,,
1.8999999969,14,161070.8281250000,145080.7812500000,170278.6875000000,161691.9218750000,128572.3203125000,36041.2500000000,103817.7031250000,151207.0937500000,,,
1.9039999971,14,161044.2968750000,145069.6562500000,170249.0312500000,161663.8125000000,128542.8437500000,36019.2031250000,103793.7500000000,151208.5625000000,,,
1.9079999970,14,161194.4218750000,145090.1718750000,170409.1093750000,161815.8437500000,128688.1953125000,36134.4023437500,103938.9140625000,150969.2500000000,,,
1.9119999970,14,161316.0156250000,145129.2343750000,170533.7187500000,161910.7187500000,128810.9062500000,36247.5937500000,104058.7578125000,150837.6406250000,,,
1.9159999969,14,161234.8437500000,145120.0000000000,170452.7656250000,161847.3906250000,128739.9375000000,36202.2109375000,103981.0468750000,150985.6718750000,,,
1.9199999969,15,161071.2031250000,145081.0000000000,170292.3281250000,161693.6875000000,128588.8984375000,36057.8515625000,103828.2968750000,151213.2031250000,,,
1.9239999969,15,161034.2187500000,145063.6250000000,170254.4218750000,161665.0468750000,128553.3906250000,36024.1640625000,103803.9687500000,151212.9843750000,,,
1.9279999968,15,161181.2031250000,145074.9375000000,170415.8437500000,161798.0625000000,128699.5390625000,36144.9453125000,103961.5468750000,150967.5937500000,,,
1.9319999968,15,161324.1875000000,145122.0937500000,170563.0156250000,161920.5781250000,128837.7265625000,36274.8437500000,104093.7812500000,150833.7500000000,,,
1.9359999967,15,161232.4843750000,145107.7500000000,170458.9375000000,161832.4687500000,128745.9453125000,36217.4179687500,104001.7812500000,150972.3906250000,,,
1.9399999967,15,161054.8437500000,145062.4687500000,170279.2343750000,161675.9843750000,128577.5781250000,36075.6093750000,103831.5703125000,151193.4843750000,,,
1.9439999969,15,161035.2343750000,145057.7968750000,170258.3125000000,161661.9687500000,128558.1875000000,36053.4257812500,103818.5859375000,151199.7968750000,,,
1.9479999968,15,161179.4843750000,145078.1093750000,170405.3437500000,161784.8593750000,128696.0781250000,36180.0820312500,103973.6718750000,150964.0312500000,,,
1.9519999968,15,161276.6562500000,145089.2031250000,170503.6718750000,161898.3750000000,128793.0937500000,36276.9882812500,104071.7656250000,150802.6093750000,,,
1.9559999967,15,161221.2968750000,145104.3437500000,170442.7656250000,161860.4531250000,128741.7343750000,36248.8242187500,104016.3203125000,150962.1250000000,,,
1.9599999967,15,161076.5937500000,145088.6406250000,170293.6875000000,161717.2968750000,128604.7265625000,36126.3554687500,103879.4453125000,151214.4843750000,,,
1.9639999969,15,161040.5468750000,145056.3281250000,170263.0625000000,161678.1875000000,128569.9921875000,36073.1132812500,103852.9765625000,151205.3437500000,,,
1.9679999969,15,161157.2187500000,145053.8593750000,170377.3750000000,161779.2343750000,128672.0781250000,36181.2070312500,103957.2343750000,150950.2656250000,,,
1.9719999968,15,161266.0468750000,145074.4218750000,170483.9375000000,161879.0937500000,128777.2187500000,36289.0312500000,104059.9609375000,150791.0156250000,,,
1.9759999968,15,161200.9687500000,145075.3125000000,170420.1875000000,161821.2031250000,128722.8203125000,36243.7578125000,104007.3906250000,150940.0468750000,,,
1.9799999967,15,161056.5156250000,145063.7500000000,170274.1875000000,161696.6718750000,128586.4843750000,36126.3281250000,103871.2656250000,151193.6718750000,,,
1.9839999967,15,161042.2343750000,145059.9531250000,170264.9687500000,161696.1406250000,128573.2890625000,36097.1484375000,103856.5937500000,151208.8906250000,,,
1.9879999969,15,161177.4687500000,145074.2343750000,170404.2812500000,161794.6562500000,128701.5781250000,36219.2968750000,103993.2812500000,150966.4062500000,,,
1.9919999968,15,161288.5156250000,145097.7187500000,170515.0468750000,161879.3593750000,128809.4609375000,36329.8828125000,104101.0781250000,150809.8750000000,,,
1.9959999968,15,161257.1875000000,145125.0468750000,170479.7031250000,161864.3906250000,128784.0859375000,36312.0468750000,104079.1640625000,150979.1718750000,,,
1.9999999967,15,161094.8125000000,145093.9843750000,170316.0625000000,161726.5312500000,128632.7578125000,36176.1914062500,103932.0234375000,151220.6250000000,,,
2.0039999967,15,161035.3750000000,145057.3125000000,170254.0468750000,161656.6562500000,128567.0703125000,36122.8710937500,103861.7421875000,151208.3750000000,,,
2.0079999969,15,161189.4843750000,145085.3750000000,170411.7031250000,161786.2031250000,128713.6250000000,36258.0781250000,104015.8671875000,150981.4531250000,,,
2.0119999968,15,161320.3593750000,145112.0937500000,170552.5781250000,161908.3281250000,128851.0625000000,36367.2460937500,104157.4609375000,150833.7812500000,,,
2.0159999968,15,161256.2500000000,145118.4218750000,170487.3125000000,161873.0468750000,128795.5625000000,36331.9492187500,104097.3750000000,150981.2968750000,,,
2.0199999968,15,161080.1406250000,145087.4375000000,170296.3750000000,161717.1875000000,128620.7656250000,36201.2695312500,103922.1484375000,151219.0468750000,,,
2.0239999967,15,161025.1562500000,145052.4687500000,170246.3437500000,161655.3125000000,128568.1953125000,36143.7382812500,103878.3203125000,151212.7187500000,,,
2.0279999967,15,161160.9218750000,145062.8437500000,170393.5781250000,161781.1093750000,128702.6250000000,36254.4843750000,104024.6093750000,150972.7187500000,,,
2.0319999969,15,161278.7343750000,145089.2031250000,170510.3593750000,161880.2187500000,128819.3281250000,36371.7773437500,104145.9296875000,150814.2968750000,,,
2.0359999968,15,161224.6875000000,145099.9375000000,170448.5625000000,161836.1406250000,128772.0937500000,36346.6445312500,104101.8593750000,150959.8125000000,,,
2.0399999968,15,161069.6718750000,145079.1718750000,170290.3281250000,161711.1562500000,128626.1796875000,36219.6718750000,103958.1718750000,151209.9062500000,,,
2.0439999967,15,161031.8281250000,145058.8125000000,170253.9843750000,161685.0312500000,128587.0781250000,36166.6953125000,103922.4453125000,151223.2812500000,,,
2.0479999967,16,161171.6250000000,145069.2187500000,170399.1875000000,161817.1875000000,128722.6875000000,36284.5546875000,104067.9531250000,150982.1250000000,,,
2.0519999966,16,161297.9843750000,145096.1875000000,170522.5156250000,161910.4375000000,128843.2031250000,36413.7539062500,104196.6171875000,150823.2031250000,,,
2.0559999966,16,161258.5312500000,145122.2812500000,170473.5625000000,161849.4218750000,128803.1796875000,36401.2812500000,104155.3437500000,150981.0781250000,,,
2.0599999966,16,161088.0312500000,145083.7343750000,170300.3125000000,161722.2656250000,128639.3515625000,36267.8984375000,103996.0937500000,151214.4687500000,,,
2.0639999965,16,161032.8281250000,145041.2968750000,170252.0000000000,161686.4218750000,128589.6484375000,36208.0546875000,103954.3359375000,151206.9062500000,,,
2.0679999965,16,161187.0000000000,145071.2031250000,170413.6093750000,161807.5781250000,128739.1015625000,36322.7734375000,104102.1250000000,150985.4062500000,,,
2.0719999967,16,161334.2031250000,145125.9531250000,170565.1562500000,161926.5156250000,128889.1171875000,36464.8242187500,104254.1015625000,150852.6093750000,,,
2.0759999966,16,161255.7656250000,145112.1875000000,170479.2656250000,161878.6562500000,128815.6015625000,36421.6406250000,104183.2109375000,150974.6718750000,,,
2.0799999966,16,161096.4687500000,145088.1875000000,170315.0156250000,161722.7968750000,128661.3437500000,36283.8281250000,104024.9609375000,151216.5000000000,,,
2.0839999965,16,161051.5468750000,145068.9531250000,170278.8750000000,161667.4375000000,128621.5703125000,36240.4296875000,103993.9765625000,151238.9843750000,,,
2.0879999965,16,161202.5781250000,145102.6718750000,170433.7500000000,161795.8125000000,128767.2656250000,36374.3281250000,104150.0859375000,151027.8593750000,,,
2.0919999967,16,161325.3437500000,145138.0468750000,170546.7812500000,161900.0312500000,128878.8437500000,36492.7187500000,104260.1875000000,150874.1406250000,,,
2.0959999966,16,161259.9843750000,145130.7500000000,170476.5156250000,161868.7343750000,128820.5625000000,36462.9726562500,104201.2578125000,151001.8906250000,,,
2.0999999966,16,161093.4687500000,145086.9843750000,170310.2187500000,161711.5781250000,128665.6953125000,36325.0546875000,104050.3046875000,151229.3437500000,,,
2.1039999966,16,161078.3750000000,145087.5156250000,170298.8593750000,161678.2500000000,128652.3593750000,36296.3007812500,104036.6796875000,151268.0312500000,,,
2.1079999965,16,161236.1406250000,145131.0781250000,170462.5937500000,161809.4531250000,128807.3671875000,36426.3867187500,104203.8593750000,151059.8125000000,,,
2.1119999965,16,161351.6093750000,145147.4687500000,170587.7656250000,161943.2500000000,128930.3984375000,36543.6289062500,104329.7890625000,150889.5468750000,,,
2.1159999967,16,161286.4843750000,145142.5625000000,170522.5625000000,161884.2656250000,128875.3046875000,36499.0234375000,104270.1640625000,151013.5625000000,,,
2.1199999966,16,161119.1875000000,145119.5468750000,170342.5625000000,161729.2812500000,128709.9453125000,36364.7773437500,104103.1953125000,151260.0625000000,,,
2.1239999966,16,161047.6093750000,145070.2500000000,170275.7656250000,161675.2968750000,128640.5859375000,36283.5078125000,104033.3515625000,151254.7812500000,,,
2.1279999965,16,161195.6562500000,145094.0156250000,170432.4375000000,161789.7500000000,128783.5468750000,36405.0390625000,104185.2734375000,151026.7812500000,,,
2.1319999965,16,161329.3750000000,145132.8437500000,170561.7187500000,161914.9687500000,128911.5937500000,36540.4882812500,104318.7968750000,150871.8437500000,,,
2.1359999967,16,161247.7812500000,145108.1406250000,170477.6875000000,161862.0000000000,128837.7265625000,36478.4218750000,104246.2968750000,150976.3125000000,,,
2.1399999966,16,161080.8125000000,145072.0937500000,170307.0468750000,161733.3593750000,128676.5312500000,36332.4296875000,104084.6875000000,151208.7812500000,,,
2.1439999966,16,161033.8125000000,145049.6406250000,170255.7812500000,161695.7656250000,128626.6406250000,36279.6718750000,104045.5546875000,151231.0937500000,,,
2.1479999966,16,161162.8906250000,145067.9843750000,170386.3593750000,161802.9062500000,128742.2421875000,36383.9296875000,104154.1875000000,151005.7343750000,,,
2.1519999965,16,161313.5468750000,145112.7812500000,170541.2812500000,161933.1562500000,128891.7500000000,36512.6484375000,104303.2890625000,150853.2500000000,,,
2.1559999965,16,161274.4375000000,145129.0937500000,170494.9843750000,161905.4218750000,128855.9140625000,36493.7656250000,104265.2812500000,150989.0781250000,,,
2.1599999967,16,161120.9375000000,145116.0000000000,170340.2500000000,161747.0468750000,128713.5703125000,36367.4335937500,104120.0390625000,151246.2968750000,,,
2.1639999966,16,161067.1562500000,145083.2812500000,170295.5156250000,161692.1093750000,128662.8203125000,36295.7109375000,104066.7500000000,151261.1406250000,,,
2.1679999966,16,161206.7656250000,145106.1562500000,170444.1093750000,161791.7031250000,128798.7265625000,36404.3671875000,104203.1093750000,151036.5000000000,,,
2.1719999965,16,161313.3593750000,145115.9843750000,170553.4062500000,161910.2031250000,128908.1640625000,36522.8398437500,104316.5703125000,150855.3906250000,,,
2.1759999965,17,161264.0625000000,145117.0156250000,170497.2187500000,161891.5000000000,128859.5078125000,36491.0312500000,104261.3984375000,150978.6718750000,,,
2.1799999964,17,161101.8437500000,145091.5156250000,170327.3750000000,161766.4687500000,128701.5000000000,36344.0976562500,104103.3359375000,151221.8437500000,,,
2.1839999964,17,161029.2812500000,145046.6406250000,170253.2656250000,161702.8437500000,128626.3671875000,36275.0312500000,104032.3593750000,151229.6093750000,,,
2.1879999964,17,161158.4531250000,145053.2343750000,170390.1875000000,161781.9687500000,128753.7187500000,36381.5156250000,104167.6484375000,150997.1718750000,,,
2.1919999963,17,161299.4375000000,145094.1093750000,170532.6250000000,161894.3437500000,128892.9843750000,36506.8281250000,104304.7656250000,150841.5625000000,,,
2.1959999963,17,161245.1406250000,145090.4687500000,170474.5468750000,161861.2187500000,128844.1093750000,36465.0664062500,104249.3281250000,150958.8750000000,,,
2.1999999965,17,161089.6875000000,145070.8125000000,170312.6562500000,161729.2812500000,128695.9453125000,36311.3203125000,104099.0156250000,151209.7187500000,,,
2.2039999964,17,161040.4218750000,145053.3281250000,170262.7343750000,161696.0312500000,128642.6796875000,36182.4687500000,104039.6328125000,151239.2500000000,,,
2.2079999964,17,161162.1093750000,145052.2500000000,170394.4062500000,161806.5625000000,128763.4609375000,36260.2265625000,104168.8046875000,151001.4218750000,,,
2.2119999963,17,161295.9687500000,145088.3281250000,170529.7031250000,161908.4531250000,128893.9218750000,36381.4062500000,104304.0937500000,150838.0937500000,,,
2.2159999963,17,161246.7343750000,145096.8750000000,170471.5000000000,161860.5312500000,128843.6015625000,36360.4609375000,104250.9609375000,150959.0156250000,,,
2.2199999965,17,161083.5468750000,145064.0468750000,170308.7031250000,161729.7187500000,128691.3359375000,36226.4843750000,104099.1718750000,151198.0781250000,,,
2.2239999964,17,161011.7343750000,145025.5625000000,170236.7500000000,161670.9687500000,128621.7812500000,36144.8085937500,104036.7578125000,151214.8906250000,,,
2.2279999964,17,161147.0937500000,145044.3281250000,170372.6718750000,161801.0156250000,128744.2500000000,36245.0429687500,104164.1953125000,150995.2968750000,,,
2.2319999964,17,161286.2187500000,145070.5937500000,170517.2968750000,161930.7812500000,128878.9843750000,36350.8320312500,104291.3515625000,150820.5781250000,,,
2.2359999963,17,161226.3125000000,145070.7500000000,170447.4531250000,161868.8437500000,128824.8828125000,36320.3593750000,104240.6093750000,150931.6562500000,,,
2.2399999963,17,161075.0937500000,145053.4218750000,170292.6718750000,161708.9531250000,128683.5781250000,36190.9453125000,104093.1093750000,151186.7812500000,,,
2.2439999965,17,161027.8281250000,145038.0781250000,170247.6875000000,161667.7031250000,128636.1640625000,36138.7500000000,104043.3593750000,151229.9062500000,,,
2.2479999964,17,161158.2656250000,145051.0156250000,170383.7812500000,161809.1875000000,128759.3515625000,36242.7382812500,104170.5468750000,151006.3437500000,,,
2.2519999964,17,161287.7187500000,145072.7656250000,170516.6562500000,161907.8125000000,128886.3281250000,36356.7031250000,104299.8593750000,150827.1562500000,,,
2.2559999963,17,161246.3593750000,145088.8281250000,170468.4375000000,161865.4375000000,128843.9765625000,36334.5781250000,104250.5078125000,150953.2968750000,,,
2.2599999963,17,161075.4218750000,145051.7343750000,170292.7187500000,161705.2500000000,128679.5078125000,36188.1796875000,104087.7187500000,151190.6406250000,,,
2.2639999965,17,161013.1093750000,145017.1406250000,170234.5781250000,161656.8593750000,128620.4687500000,36127.1875000000,104028.5781250000,151212.9843750000,,,
2.2679999964,17,161140.8125000000,145033.2343750000,170367.8750000000,161776.4687500000,128746.5859375000,36243.4882812500,104165.2109375000,150992.2187500000,,,
2.2719999964,17,161288.7812500000,145070.8906250000,170521.1093750000,161925.8437500000,128892.7968750000,36370.5703125000,104308.1718750000,150824.3281250000,,,
2.2759999963,17,161242.7656250000,145074.8281250000,170464.7812500000,161882.8906250000,128847.6015625000,36336.8554687500,104266.3281250000,150935.2656250000,,,
2.2799999963,17,161097.7343750000,145065.4375000000,170312.5937500000,161733.4375000000,128707.6406250000,36225.8671875000,104122.3203125000,151198.0000000000,,,
2.2839999963,17,161014.1875000000,145019.0937500000,170233.1562500000,161661.2968750000,128628.7578125000,36146.2578125000,104047.9453125000,151222.1093750000,,,
2.2879999964,17,161125.7968750000,145014.7500000000,170348.9687500000,161766.5468750000,128733.6562500000,36229.7812500000,104165.0781250000,150982.2343750000,,,
2.2919999964,17,161268.5625000000,145053.7968750000,170489.3750000000,161902.6718750000,128866.1093750000,36358.0742187500,104289.9609375000,150811.0781250000,,,
2.2959999964,17,161242.8125000000,145080.7031250000,170459.5312500000,161864.0625000000,128843.8437500000,36355.8984375000,104261.7187500000,150940.8750000000,,,
2.2999999963,17,161103.0156250000,145075.6875000000,170319.9218750000,161739.6875000000,128714.1093750000,36243.9726562500,104131.1171875000,151204.8125000000,,,
2.3039999963,18,161016.1406250000,145024.5468750000,170241.7031250000,161694.3906250000,128635.5156250000,36159.2148437500,104063.1015625000,151222.7968750000,,,
2.3079999962,18,161125.7031250000,145017.7812500000,170354.3281250000,161803.9843750000,128739.4531250000,36242.7382812500,104174.3593750000,150985.1093750000,,,
2.3119999962,18,161278.0000000000,145067.1875000000,170507.1718750000,161908.4843750000,128886.7578125000,36385.8046875000,104315.3906250000,150821.7812500000,,,
2.3159999961,18,161244.2968750000,145079.5781250000,170475.8125000000,161886.0156250000,128863.6953125000,36379.6914062500,104288.7812500000,150940.5000000000,,,
2.3199999961,18,161061.9218750000,145027.8437500000,170293.0468750000,161742.6718750000,128693.6953125000,36220.7421875000,104118.4609375000,151163.0937500000,,,
2.3239999961,18,160969.9531250000,144976.0781250000,170197.1250000000,161671.0625000000,128598.7187500000,36132.9531250000,104030.1328125000,151175.2812500000,,,
2.3279999963,18,161122.0937500000,145008.7343750000,170356.3750000000,161821.0781250000,128744.3906250000,36236.1679687500,104178.8125000000,150976.3906250000,,,
2.3319999962,18,161291.6875000000,145071.2656250000,170525.5312500000,161947.9375000000,128907.0625000000,36388.4609375000,104337.8359375000,150828.0937500000,,,
2.3359999962,18,161246.4062500000,145079.4687500000,170471.2812500000,161898.5000000000,128862.9687500000,36371.4570312500,104289.6406250000,150938.8593750000,,,
2.3399999961,18,161091.5156250000,145060.6093750000,170312.8906250000,161765.2812500000,128715.7109375000,36243.8359375000,104137.1250000000,151191.9843750000,,,
2.3439999961,18,161009.7500000000,145020.4062500000,170232.5937500000,161684.0625000000,128636.3515625000,36166.7500000000,104067.6328125000,151219.2343750000,,,
2.3479999963,18,161118.2500000000,145015.6406250000,170347.1718750000,161802.1875000000,128739.8281250000,36258.3476562500,104180.2031250000,150985.0781250000,,,
2.3519999962,18,161266.3593750000,145056.1093750000,170496.7812500000,161927.0000000000,128883.4062500000,36393.2617187500,104325.2343750000,150812.1250000000,,,
2.3559999962,18,161226.2656250000,145065.1718750000,170451.2968750000,161898.8281250000,128846.3906250000,36377.6250000000,104280.4687500000,150921.4375000000,,,
2.3599999961,18,161065.2187500000,145034.0156250000,170288.7187500000,161752.2187500000,128693.9609375000,36242.0937500000,104122.2187500000,151166.2968750000,,,
2.3639999961,18,161009.0625000000,145007.3750000000,170238.0000000000,161687.7343750000,128643.3203125000,36171.9531250000,104076.8828125000,151211.4531250000,,,
2.3679999961,18,161135.6406250000,145016.3906250000,170366.8281250000,161797.6250000000,128768.4453125000,36272.0273437500,104208.5000000000,150992.3281250000,,,
2.3719999962,18,161281.0156250000,145055.4375000000,170507.7031250000,161916.7656250000,128905.2109375000,36408.9804687500,104349.0468750000,150817.0937500000,,,
2.3759999962,18,161240.8593750000,145060.7968750000,170464.4375000000,161880.6718750000,128866.7500000000,36394.5234375000,104301.0625000000,150920.0156250000,,,
2.3799999962,18,161068.7968750000,145022.2656250000,170291.5156250000,161741.5937500000,128702.4140625000,36242.2265625000,104133.5625000000,151157.5468750000,,,
2.3839999961,18,161000.6718750000,144997.6718750000,170222.8281250000,161692.7343750000,128632.5937500000,36164.4687500000,104067.7109375000,151206.3281250000,,,
2.3879999961,18,161146.9062500000,145031.8281250000,170375.1250000000,161818.7343750000,128773.7578125000,36289.9960937500,104214.7812500000,151009.3593750000,,,
2.3919999963,18,161277.5781250000,145055.0625000000,170510.2812500000,161911.4062500000,128905.6718750000,36416.8398437500,104350.9296875000,150819.4531250000,,,
2.3959999962,18,161252.3437500000,145071.2656250000,170482.5625000000,161882.5468750000,128887.2656250000,36410.0273437500,104329.7343750000,150928.4843750000,,,
2.3999999962,18,161097.9687500000,145052.7812500000,170325.2031250000,161751.8125000000,128743.5000000000,36283.6406250000,104182.6171875000,151186.8281250000,,,
2.4039999961,18,161016.6250000000,145007.2968750000,170247.4218750000,161690.5781250000,128664.5625000000,36199.7968750000,104106.7656250000,151222.5937500000,,,
2.4079999961,18,161139.0468750000,145018.6093750000,170377.5937500000,161798.2500000000,128783.8984375000,36287.9335937500,104235.7500000000,151008.1406250000,,,
2.4119999961,18,161290.0000000000,145062.9687500000,170529.3281250000,161926.7968750000,128929.1640625000,36420.2734375000,104375.4453125000,150833.8281250000,,,
2.4159999962,18,161254.0468750000,145069.5781250000,170483.7187500000,161898.7812500000,128891.7187500000,36406.6484375000,104326.1406250000,150932.7968750000,,,
2.4199999962,18,161108.2187500000,145060.0000000000,170328.9843750000,161767.5937500000,128748.0859375000,36283.5351562500,104183.8515625000,151191.8593750000,,,
2.4239999962,18,161042.9062500000,145035.9687500000,170263.8125000000,161695.8906250000,128684.9218750000,36209.1289062500,104123.1250000000,151246.9687500000,,,
2.4279999961,18,161160.9843750000,145041.9687500000,170388.6406250000,161799.1250000000,128797.6562500000,36298.9843750000,104233.4218750000,151028.8750000000,,,
2.4319999961,19,161321.6406250000,145090.5156250000,170554.5000000000,161935.7968750000,128960.8671875000,36451.3046875000,104400.3593750000,150861.7187500000,,,
2.4359999960,19,161270.0937500000,145078.1875000000,170499.3125000000,161903.3281250000,128915.7578125000,36425.5039062500,104350.3125000000,150940.2656250000,,,
2.4399999960,19,161114.2500000000,145057.3125000000,170340.8437500000,161750.1875000000,128769.0390625000,36297.8828125000,104200.1875000000,151191.7500000000,,,
2.4439999959,19,161038.4531250000,145027.4062500000,170265.7968750000,161690.8437500000,128695.8359375000,36227.2070312500,104133.1562500000,151245.1406250000,,,
2.4479999959,19,161153.6875000000,145034.9687500000,170387.5937500000,161811.2812500000,128805.4375000000,36311.5625000000,104252.7578125000,151029.9218750000,,,
2.4519999959,19,161296.1406250000,145070.4531250000,170532.7500000000,161938.2031250000,128946.6796875000,36448.3554687500,104392.1250000000,150844.0000000000,,,
2.4559999960,19,161240.4531250000,145061.3593750000,170473.3437500000,161886.2500000000,128897.0312500000,36430.0078125000,104340.2265625000,150924.3750000000,,,
2.4599999960,19,161086.3281250000,145043.3125000000,170315.8125000000,161754.3906250000,128751.7109375000,36301.5039062500,104197.0781250000,151179.8125000000,,,
2.4639999960,19,161023.8593750000,145019.0937500000,170256.1406250000,161708.9531250000,128692.1640625000,36221.9218750000,104142.8984375000,151239.7500000000,,,
2.4679999959,19,161151.6718750000,145035.5312500000,170385.5468750000,161817.6718750000,128809.8593750000,36319.5273437500,104268.0234375000,151034.2187500000,,,
2.4719999959,19,161285.1718750000,145060.8906250000,170516.0468750000,161930.1562500000,128933.8828125000,36445.5390625000,104390.1406250000,150840.7968750000,,,
2.4759999961,19,161257.2656250000,145075.9531250000,170482.5625000000,161902.9375000000,128906.7968750000,36433.8710937500,104360.8281250000,150941.7031250000,,,
2.4799999960,19,161095.6718750000,145047.2031250000,170317.9687500000,161767.7812500000,128752.8125000000,36290.4804687500,104203.8593750000,151188.7187500000,,,
2.4839999960,19,161018.2812500000,145017.9687500000,170241.0312500000,161696.2187500000,128674.9687500000,36213.0195312500,104124.5781250000,151242.0937500000,,,
2.4879999959,19,161156.9375000000,145052.8906250000,170386.8437500000,161803.7187500000,128810.6093750000,36328.4335937500,104259.3046875000,151051.9531250000,,,
2.4919999959,19,161288.0312500000,145067.9375000000,170526.1093750000,161929.4531250000,128947.8593750000,36452.5390625000,104394.9921875000,150848.6093750000,,,
2.4959999959,19,161260.7031250000,145067.5312500000,170499.3593750000,161908.9687500000,128931.6093750000,36435.3750000000,104373.2421875000,150930.5312500000,,,
2.4999999960,19,161097.0625000000,145039.9687500000,170331.5625000000,161767.7500000000,128774.5859375000,36292.2500000000,104212.8984375000,151175.2187500000,,,
2.5039999960,19,161009.7500000000,145003.0781250000,170245.2968750000,161694.3125000000,128687.5234375000,36205.1054687500,104129.1093750000,151225.5937500000,,,
2.5079999960,19,161134.0781250000,145024.5468750000,170373.7031250000,161793.7656250000,128804.6015625000,36311.0273437500,104243.2343750000,151028.2031250000,,,
2.5119999959,19,161267.0156250000,145046.4843750000,170510.9687500000,161922.9375000000,128938.5000000000,36437.8398437500,104380.2734375000,150835.9218750000,,,
2.5159999959,19,161248.8750000000,145064.2343750000,170488.2812500000,161901.2968750000,128924.6562500000,36436.1796875000,104359.0234375000,150928.2500000000,,,
2.5199999961,19,161090.7656250000,145037.0156250000,170329.1406250000,161748.2968750000,128776.5234375000,36306.6015625000,104209.3593750000,151172.0000000000,,,
2.5239999960,19,161022.9843750000,145013.2187500000,170264.1562500000,161708.6093750000,128708.8515625000,36234.1289062500,104146.5156250000,151235.7812500000,,,
2.5279999960,19,161143.6250000000,145023.7656250000,170393.2812500000,161836.3281250000,128824.8828125000,36324.6523437500,104268.4453125000,151029.4218750000,,,
2.5319999959,19,161293.7500000000,145062.7812500000,170542.4062500000,161950.0000000000,128970.2812500000,36465.0664062500,104409.1328125000,150845.7343750000,,,
2.5359999959,19,161265.3750000000,145070.6718750000,170507.1718750000,161899.1250000000,128944.7500000000,36459.3007812500,104377.8828125000,150930.0937500000,,,
2.5399999958,19,161102.4531250000,145043.3750000000,170340.0625000000,161769.7031250000,128789.4218750000,36324.7070312500,104221.5937500000,151176.2343750000,,,
2.5439999960,19,161016.3593750000,145007.1562500000,170255.5781250000,161692.9218750000,128705.9218750000,36238.0703125000,104143.8359375000,151233.9687500000,,,
2.5479999960,19,161148.1250000000,145035.7500000000,170392.9531250000,161812.3593750000,128833.6484375000,36350.2148437500,104276.2031250000,151045.7812500000,,,
2.5519999960,19,161276.2656250000,145055.1718750000,170523.8281250000,161927.5625000000,128961.4296875000,36464.0195312500,104405.9921875000,150841.9062500000,,,
2.5559999959,19,161238.6562500000,145056.1406250000,170479.7812500000,161906.9218750000,128925.0078125000,36455.6796875000,104362.0312500000,150914.0625000000,,,
2.5599999959,20,161080.4843750000,145029.4687500000,170317.4531250000,161776.5937500000,128773.2500000000,36325.0000000000,104203.8359375000,151157.0937500000,,,
2.5639999958,20,161015.3593750000,145011.7500000000,170254.8281250000,161715.7656250000,128710.1640625000,36251.9375000000,104144.3671875000,151234.0937500000,,,
2.5679999958,20,161133.1406250000,145021.1406250000,170377.6718750000,161824.4843750000,128822.5703125000,36342.1132812500,104261.3671875000,151033.8437500000,,,
2.5719999957,20,161256.2812500000,145026.4687500000,170503.5781250000,161932.8437500000,128943.9453125000,36450.6367187500,104383.1406250000,150815.9687500000,,,
2.5759999957,20,161254.8593750000,145057.6718750000,170497.8906250000,161927.5000000000,128946.4687500000,36466.5390625000,104382.7656250000,150918.4531250000,,,
2.5799999957,20,161100.8750000000,145036.7656250000,170340.8125000000,161785.9375000000,128798.8359375000,36328.2734375000,104226.3125000000,151170.0468750000,,,
2.5839999958,20,161006.0000000000,144992.7812500000,170249.1406250000,161716.3593750000,128703.1640625000,36222.1914062500,104131.6796875000,151224.5937500000,,,
2.5879999958,20,161141.4062500000,145028.1875000000,170391.4843750000,161834.0468750000,128834.4296875000,36332.9687500000,104266.2265625000,151045.7187500000,,,
2.5919999958,20,161288.5156250000,145068.0468750000,170539.2500000000,161947.3750000000,128976.4218750000,36471.6367187500,104401.5937500000,150855.3437500000,,,
2.5959999957,20,161261.1562500000,145077.5156250000,170505.0468750000,161930.5625000000,128949.0156250000,36447.6601562500,104367.1250000000,150931.3281250000,,,
2.5999999957,20,161083.9687500000,145029.0937500000,170327.5156250000,161788.1406250000,128782.4453125000,36294.8242187500,104207.1328125000,151157.2812500000,,,
2.6039999959,20,161010.7812500000,144999.6250000000,170259.3906250000,161726.7656250000,128714.5078125000,36217.0156250000,104148.6093750000,151225.6718750000,,,
2.6079999958,20,161139.5156250000,145025.5000000000,170392.5625000000,161838.9687500000,128836.9765625000,36317.0078125000,104273.5156250000,151036.9843750000,,,
2.6119999958,20,161304.2031250000,145073.7031250000,170556.3593750000,161990.7968750000,128995.5781250000,36465.1445312500,104422.2187500000,150856.8750000000,,,
2.6159999957,20,161272.5000000000,145073.7812500000,170520.3125000000,161956.5781250000,128969.9062500000,36451.6015625000,104390.5937500000,150929.8750000000,,,
2.6199999957,20,161103.8437500000,145040.7343750000,170350.7656250000,161789.9531250000,128814.9531250000,36315.1015625000,104241.0937500000,151173.5625000000,,,
2.6239999956,20,161013.0000000000,145011.8281250000,170260.4531250000,161708.8281250000,128727.1953125000,36227.2343750000,104153.7578125000,151250.3750000000,,,
2.6279999958,20,161112.4531250000,145014.4218750000,170362.8437500000,161813.3437500000,128820.1562500000,36299.7343750000,104251.1250000000,151045.7500000000,,,
2.6319999958,20,161276.7656250000,145060.4062500000,170529.2656250000,161976.5625000000,128981.1484375000,36441.5429687500,104413.6875000000,150857.6250000000,,,
2.6359999957,20,161268.5937500000,145093.8281250000,170511.4843750000,161953.2187500000,128973.3125000000,36457.1523437500,104400.0390625000,150959.6250000000,,,
2.6399999957,20,161074.3437500000,145033.4375000000,170311.2031250000,161777.7031250000,128784.8359375000,36294.6132812500,104214.3203125000,151178.1406250000,,,
2.6439999957,20,160979.6093750000,144981.1718750000,170220.3906250000,161710.0625000000,128693.5625000000,36189.5234375000,104131.3046875000,151225.1406250000,,,
2.6479999959,20,161097.6250000000,144999.5625000000,170343.3437500000,161820.3437500000,128806.1015625000,36281.6562500000,104245.4921875000,151034.7812500000,,,
2.6519999958,20,161251.5000000000,145039.8593750000,170501.2656250000,161947.3281250000,128957.6250000000,36425.3164062500,104394.3750000000,150844.0781250000,,,
2.6559999958,20,161228.2812500000,145043.0468750000,170476.0781250000,161925.5937500000,128938.1250000000,36408.4726562500,104367.2109375000,150913.2500000000,,,
2.6599999957,20,161085.4531250000,145037.0625000000,170329.7968750000,161805.3281250000,128799.6171875000,36280.1523437500,104218.3437500000,151181.1562500000,,,
2.6639999957,20,161003.7031250000,145009.2031250000,170249.8281250000,161735.2343750000,128716.1718750000,36192.1523437500,104136.4062500000,151258.2656250000,,,
2.6679999956,20,161102.9687500000,145010.1093750000,170354.3906250000,161814.9062500000,128809.4296875000,36281.1718750000,104240.8750000000,151049.7968750000,,,
2.6719999958,20,161254.6406250000,145044.1718750000,170509.4687500000,161946.6562500000,128955.7187500000,36409.7578125000,104384.0234375000,150843.8125000000,,,
2.6759999958,20,161245.7187500000,145057.3125000000,170497.5312500000,161937.3437500000,128948.5546875000,36397.8750000000,104371.9531250000,150911.2656250000,,,
2.6799999957,20,161097.8906250000,145029.8437500000,170349.7812500000,161813.1093750000,128809.9140625000,36256.3632812500,104229.4765625000,151150.6250000000,,,
2.6839999957,20,161028.7500000000,145023.0156250000,170278.3437500000,161742.3437500000,128741.7031250000,36184.2109375000,104160.1953125000,151250.0000000000,,,
2.6879999957,21,161155.1093750000,145065.9062500000,170405.8906250000,161841.1406250000,128861.7109375000,36304.9101562500,104276.0390625000,151089.9531250000,,,
2.6919999956,21,161276.5781250000,145063.1406250000,170535.6718750000,161970.0625000000,128986.0000000000,36391.0351562500,104403.7968750000,150849.4687500000,,,
2.6959999956,21,161242.9531250000,145043.3125000000,170502.2812500000,161957.5937500000,128961.1093750000,36360.7265625000,104373.7265625000,150884.5468750000,,,
2.6999999955,21,161106.2031250000,145046.5312500000,170358.8906250000,161828.4531250000,128831.4765625000,36258.2148437500,104238.3828125000,151160.4375000000,,,
2.7039999955,21,161005.8750000000,145016.3593750000,170255.8437500000,161735.3281250000,128732.1796875000,36176.0039062500,104142.7890625000,151247.1250000000,,,
2.7079999954,21,161095.9687500000,145018.4843750000,170348.0312500000,161799.1250000000,128815.2812500000,36254.4570312500,104231.1406250000,151054.0625000000,,,
2.7119999956,21,161260.7812500000,145053.7187500000,170517.8437500000,161948.5781250000,128977.0156250000,36383.0703125000,104392.9609375000,150850.6406250000,,,
2.7159999956,21,161270.0156250000,145086.0468750000,170522.5937500000,161973.9531250000,128987.6640625000,36395.1679687500,104397.6484375000,150935.6718750000,,,
2.7199999955,21,161088.0781250000,145039.1093750000,170336.8437500000,161824.0156250000,128812.6250000000,36225.8671875000,104218.2109375000,151156.9218750000,,,
2.7239999955,21,160999.2968750000,145010.2656250000,170249.1562500000,161739.5312500000,128729.9843750000,36145.7500000000,104141.9296875000,151234.9843750000,,,
2.7279999955,21,161108.8593750000,145022.3906250000,170365.2500000000,161850.6093750000,128836.7890625000,36217.5507812500,104252.4062500000,151043.0156250000,,,
2.7319999957,21,161255.4687500000,145054.5312500000,170515.4062500000,161972.8281250000,128983.6640625000,36364.2968750000,104398.1093750000,150841.7656250000,,,
2.7359999956,21,161257.5937500000,145088.1093750000,170512.0468750000,161969.3906250000,128986.5390625000,36385.7539062500,104398.9140625000,150932.8281250000,,,
2.7399999956,21,161091.7187500000,145055.8906250000,170340.6250000000,161832.6093750000,128826.4062500000,36230.2109375000,104234.5703125000,151172.8281250000,,,
2.7439999955,21,160999.9687500000,145015.8281250000,170249.7812500000,161737.0312500000,128738.3281250000,36139.3906250000,104150.8906250000,151247.9687500000,,,
2.7479999955,21,161109.4062500000,145028.5156250000,170364.5781250000,161838.5000000000,128841.0546875000,36212.5898437500,104255.9531250000,151061.9218750000,,,
2.7519999954,21,161275.9687500000,145081.4843750000,170536.4218750000,161966.6875000000,129005.1015625000,36365.2343750000,104417.6875000000,150872.4218750000,,,
2.7559999956,21,161269.2031250000,145098.7812500000,170530.9375000000,161942.2343750000,129007.0546875000,36400.1562500000,104409.1875000000,150939.4218750000,,,
2.7599999956,21,161087.8125000000,145048.4062500000,170343.8437500000,161774.7187500000,128833.1718750000,36252.8476562500,104246.7265625000,151163.3906250000,,,
2.7639999955,21,161002.1406250000,145027.3593750000,170259.0312500000,161707.1250000000,128746.0234375000,36172.3554687500,104171.6250000000,151261.7031250000,,,
2.7679999955,21,161126.7031250000,145057.5312500000,170391.4531250000,161822.1718750000,128866.9609375000,36271.4921875000,104309.8125000000,151091.6250000000,,,
2.7719999955,21,161284.3593750000,145091.2812500000,170556.5468750000,161949.2031250000,129029.0000000000,36418.0468750000,104460.8984375000,150885.0312500000,,,
2.7759999956,21,161304.9687500000,145129.0156250000,170577.4687500000,161987.7187500000,129056.1406250000,36418.7187500000,104458.1093750000,150965.1562500000,,,
2.7799999956,21,161153.5312500000,145116.4531250000,170416.5000000000,161844.3281250000,128909.1562500000,36328.7031250000,104336.2265625000,151224.4062500000,,,
2.7839999956,21,161048.2968750000,145071.8281250000,170315.0156250000,161744.5468750000,128812.3046875000,36218.7578125000,104247.0703125000,151299.9218750000,,,
2.7879999955,21,161159.7187500000,145094.8437500000,170432.8125000000,161834.1562500000,128923.2890625000,36306.9492187500,104359.2187500000,151127.6093750000,,,
2.7919999955,21,161304.6406250000,145123.6406250000,170582.7031250000,161990.5625000000,129065.5312500000,36457.3398437500,104493.2734375000,150925.7031250000,,,
2.7959999954,21,161307.2968750000,145142.2968750000,170584.5468750000,161996.0625000000,129071.7812500000,36470.6992187500,104499.2500000000,150993.8750000000,,,
2.7999999956,21,161160.3125000000,145127.9375000000,170433.3750000000,161847.2031250000,128931.2812500000,36319.1523437500,104363.4296875000,151246.5156250000,,,
2.8039999956,21,161066.5937500000,145096.1093750000,170340.5468750000,161762.5937500000,128840.4140625000,36213.5273437500,104281.1875000000,151334.3593750000,,,
2.8079999955,21,161162.7968750000,145102.5625000000,170439.9687500000,161836.0625000000,128932.3046875000,36293.8593750000,104361.7343750000,151146.1718750000,,,
2.8119999955,21,161299.2500000000,145119.4062500000,170579.6718750000,161964.9218750000,129065.2890625000,36433.0664062500,104485.6796875000,150919.6406250000,,,
2.8159999955,22,161293.4062500000,145129.3281250000,170569.0937500000,161974.7031250000,129058.7656250000,36426.2539062500,104486.8359375000,150970.1875000000,,,
2.8199999954,22,161140.3593750000,145108.2187500000,170408.8906250000,161845.7187500000,128912.5625000000,36285.4921875000,104353.0156250000,151212.5781250000,,,
2.8239999954,22,161054.9218750000,145087.4375000000,170326.7656250000,161768.4687500000,128834.5390625000,36208.3789062500,104258.5781250000,151317.4375000000,,,
2.8279999953,22,161161.5937500000,145104.0625000000,170433.9218750000,161852.5000000000,128930.2343750000,36291.4179687500,104336.6875000000,151149.8281250000,,,
2.8319999953,22,161306.4843750000,145124.6718750000,170583.2656250000,161976.9843750000,129071.3750000000,36427.0312500000,104476.0000000000,150931.7031250000,,,
2.8359999952,22,161302.5156250000,145137.1406250000,170578.9375000000,161967.6250000000,129069.6562500000,36408.5507812500,104459.5312500000,150983.2812500000,,,
2.8399999954,22,161161.6718750000,145116.8593750000,170438.8281250000,161838.9687500000,128933.1875000000,36258.2148437500,104322.0703125000,151222.4843750000,,,
2.8439999954,22,161075.4687500000,145095.8125000000,170353.3125000000,161765.6562500000,128844.0546875000,36173.7773437500,104232.0234375000,151324.5937500000,,,
2.8479999953,22,161164.7343750000,145101.7343750000,170446.1406250000,161858.7343750000,128924.2265625000,36247.7539062500,104319.6796875000,151142.5312500000,,,
2.8519999953,22,161302.8750000000,145113.9062500000,170586.1875000000,161974.8906250000,129056.1406250000,36353.2187500000,104442.6562500000,150907.0468750000,,,
2.8559999953,22,161309.6562500000,145137.4843750000,170594.7343750000,161978.2500000000,129069.5234375000,36375.7734375000,104440.7578125000,150965.6406250000,,,
2.8599999954,22,161178.5781250000,145140.0937500000,170466.0156250000,161848.1875000000,128954.8359375000,36282.3281250000,104324.3750000000,151241.1718750000,,,
2.8639999954,22,161096.1718750000,145134.7187500000,170381.9531250000,161768.6093750000,128872.2500000000,36212.6953125000,104212.7656250000,151365.8125000000,,,
2.8679999954,22,161188.6562500000,145123.8125000000,170477.3906250000,161858.8593750000,128955.0781250000,36208.7265625000,104308.3046875000,151163.3437500000,,,
2.8719999953,22,161323.1250000000,145124.3125000000,170620.7500000000,161983.3125000000,129090.3906250000,36331.2226562500,104447.9453125000,150923.2500000000,,,
2.8759999953,22,161327.3281250000,145154.4375000000,170616.1093750000,161994.3437500000,129090.2890625000,36368.2382812500,104427.0234375000,150989.0781250000,,,
2.8799999952,22,161192.6562500000,145174.0781250000,170470.5312500000,161865.9375000000,128959.5312500000,36273.5820312500,104314.2578125000,151276.1875000000,,,
2.8839999954,22,161060.6093750000,145090.2500000000,170350.3593750000,161757.7187500000,128838.3437500000,36096.7187500000,104149.7109375000,151321.6093750000,,,
2.8879999954,22,161146.0937500000,145074.2187500000,170441.6875000000,161849.2343750000,128914.9218750000,36143.3867187500,104227.5156250000,151117.1250000000,,,
2.8919999953,22,161318.7187500000,145125.1562500000,170620.7812500000,162002.5468750000,129086.6640625000,36308.2890625000,104409.3203125000,150920.5781250000,,,
2.8959999953,22,161332.0000000000,145160.9375000000,170626.5781250000,162007.4531250000,129098.0390625000,36370.4375000000,104395.0234375000,150988.2656250000,,,
2.8999999953,22,161166.1250000000,145130.2187500000,170446.0156250000,161854.1093750000,128934.5000000000,36189.6015625000,104215.2890625000,151220.8437500000,,,
2.9039999954,22,161023.2500000000,145052.4375000000,170299.3281250000,161737.0312500000,128784.1953125000,36030.2812500000,104077.9296875000,151276.3125000000,,,
2.9079999954,22,161144.9375000000,145078.7812500000,170447.1093750000,161837.3750000000,128925.3281250000,36126.0078125000,104186.9062500000,151118.5156250000,,,
2.9119999954,22,161346.6406250000,145153.6406250000,170650.0468750000,162008.4843750000,129126.1718750000,36296.4609375000,104401.9453125000,150948.2031250000,,,
2.9159999953,22,161339.0312500000,145178.9062500000,170610.8906250000,161985.7031250000,129085.0546875000,36358.5273437500,104402.3750000000,151009.1406250000,,,
2.9199999953,22,161202.3593750000,145185.2656250000,170481.6875000000,161846.4687500000,128959.2343750000,36235.0117187500,104225.8593750000,151276.1562500000,,,
2.9239999952,22,161056.5312500000,145075.6875000000,170337.9687500000,161749.2187500000,128817.9609375000,36020.2500000000,104085.4687500000,151298.9843750000,,,
2.9279999954,22,161159.1875000000,145086.4687500000,170442.5312500000,161832.6250000000,128919.6718750000,36127.3750000000,104210.7031250000,151127.2968750000,,,
2.9319999954,22,161365.4375000000,145185.6093750000,170668.0468750000,161979.0781250000,129142.8593750000,36332.1640625000,104422.5390625000,150983.3593750000,,,
2.9359999953,22,161371.8593750000,145210.1562500000,170657.9531250000,161990.6875000000,129125.3984375000,36331.3593750000,104363.8828125000,151041.3281250000,,,
2.9399999953,22,161210.8906250000,145169.5937500000,170492.2500000000,161866.5625000000,128971.4609375000,36183.8906250000,104238.8125000000,151259.2031250000,,,
2.9439999952,23,161106.1875000000,145127.5937500000,170405.5937500000,161755.8125000000,128892.2031250000,36043.2070312500,104163.5234375000,151340.5000000000,,,
2.9479999952,23,161157.2500000000,145094.0625000000,170454.9687500000,161800.7656250000,128933.8359375000,36059.0585937500,104183.2890625000,151127.5000000000,,,
2.9519999952,23,161336.8750000000,145158.2500000000,170655.7343750000,161975.5156250000,129125.5546875000,36216.5039062500,104271.0546875000,150947.2031250000,,,
2.9559999951,23,161309.1406250000,145129.4218750000,170590.0000000000,161965.0312500000,129042.8906250000,36204.7578125000,104240.5000000000,150945.1093750000,,,
2.9599999951,23,161154.2187500000,145096.7187500000,170418.6250000000,161839.0156250000,128885.8203125000,36089.3164062500,104131.6328125000,151167.2812500000,,,
