Time:250Hz,Epoch,Channel 1,Channel 2,Channel 3,Channel 4,Channel 5,Channel 6,Channel 7,Channel 8,Event Id,Event Date,Event Duration
0.0000000000,0,178395.2968750000,167153.5781250000,192855.8906250000,179488.8125000000,167117.6250000000,142495.0000000000,165942.9062500000,178770.8437500000,,,
0.0040000000,0,178355.9062500000,167106.8281250000,192808.0937500000,179453.7500000000,167073.1093750000,142520.2656250000,165912.3281250000,179053.5937500000,,,
0.0079999999,0,178351.6093750000,167129.1093750000,192796.6406250000,179452.3593750000,167060.0937500000,142525.4687500000,165888.7187500000,179736.0625000000,,,
0.0119999999,0,178361.9375000000,167119.5937500000,192810.1718750000,179476.2656250000,167068.8750000000,142452.2968750000,165893.9218750000,180129.0312500000,,,
0.0159999998,0,178365.4687500000,167108.4531250000,192820.2031250000,179491.4687500000,167075.5156250000,142468.9843750000,165904.2812500000,179919.0156250000,,,
0.0199999998,0,178380.9218750000,167135.1406250000,192838.3750000000,179485.5625000000,167093.7656250000,142407.9687500000,165921.3125000000,179633.0937500000,,,
0.0240000000,0,178358.5781250000,167113.2656250000,192818.9062500000,179436.3281250000,167078.9218750000,142403.9687500000,165903.8281250000,179916.3906250000,,,
0.0279999999,0,178341.3437500000,167096.9218750000,192792.2187500000,179445.8125000000,167051.5625000000,142460.7968750000,165876.0937500000,180621.4843750000,,,
0.0319999999,0,178387.5312500000,167147.2187500000,192836.1093750000,179514.7968750000,167092.1718750000,142533.3593750000,165915.8593750000,181022.3593750000,,,
0.0359999998,0,178411.7500000000,167164.0312500000,192865.4687500000,179532.7968750000,167121.4375000000,142547.6562500000,165952.5312500000,180839.0937500000,,,
0.0399999998,0,178389.8281250000,167142.3125000000,192846.5937500000,179481.7343750000,167107.6562500000,142563.7812500000,165947.7031250000,180535.4687500000,,,
0.0440000000,0,178355.2812500000,167122.1875000000,192809.4375000000,179443.2656250000,167073.0468750000,142460.2187500000,165919.4062500000,180805.5156250000,,,
0.0480000000,0,178360.8906250000,167105.6875000000,192821.2656250000,179483.0781250000,167082.5000000000,142377.3906250000,165928.2656250000,181530.6718750000,,,
0.0519999999,0,178377.1406250000,167122.1406250000,192835.6718750000,179498.0625000000,167090.5156250000,142413.7343750000,165934.3281250000,181995.3906250000,,,
0.0559999999,0,178393.9531250000,167146.8125000000,192852.6250000000,179490.5781250000,167107.9218750000,142535.6093750000,165954.7031250000,181812.9687500000,,,
0.0599999998,0,178409.0937500000,167144.2968750000,192887.2812500000,179484.0625000000,167141.1875000000,142500.3593750000,165980.5312500000,181454.5468750000,,,
0.0639999998,0,178403.1093750000,167146.5937500000,192873.3906250000,179512.8437500000,167130.0468750000,142488.3437500000,165977.1562500000,181652.7968750000,,,
0.0680000000,0,178373.3906250000,167121.1718750000,192833.6562500000,179470.8125000000,167092.7656250000,142505.0000000000,165938.5781250000,182314.5000000000,,,
0.0719999999,0,178417.1875000000,167180.1875000000,192880.0625000000,179497.5781250000,167137.5000000000,142547.2031250000,165992.0937500000,182669.9062500000,,,
0.0759999999,0,178420.7500000000,167184.4218750000,192888.2500000000,179509.8125000000,167144.6406250000,142549.7968750000,165993.3750000000,182414.1406250000,,,
0.0799999998,0,178379.3437500000,167127.4531250000,192847.8281250000,179486.9062500000,167101.6250000000,142492.8906250000,165947.4375000000,182078.7500000000,,,
0.0839999998,0,178362.3906250000,167128.5000000000,192826.4218750000,179475.0312500000,167083.6406250000,142476.3593750000,165944.3593750000,182365.7812500000,,,
0.0880000000,0,178327.1250000000,167076.1093750000,192797.6875000000,179455.6406250000,167052.3125000000,142497.5468750000,165907.8750000000,183091.0468750000,,,
0.0919999999,0,178348.9062500000,167099.0937500000,192816.1718750000,179480.7343750000,167070.6406250000,142456.2968750000,165925.1718750000,183516.0625000000,,,
0.0959999999,0,178373.0625000000,167134.2656250000,192837.8750000000,179475.9062500000,167096.2500000000,142425.2656250000,165952.9375000000,183339.7187500000,,,
0.0999999999,0,178353.3281250000,167085.1250000000,192841.2500000000,179458.1562500000,167097.7500000000,142478.7500000000,165951.2656250000,182969.2500000000,,,
0.1039999998,0,178315.7968750000,167056.7968750000,192793.4531250000,179429.4218750000,167049.7656250000,142465.1562500000,165896.1250000000,183081.0625000000,,,
0.1079999998,0,178308.5312500000,167060.4531250000,192772.3750000000,179451.0937500000,167032.2343750000,142450.2968750000,165898.7812500000,183647.0937500000,,,
0.1120000000,0,178383.2656250000,167129.6250000000,192856.2187500000,179537.5468750000,167113.3906250000,142465.5468750000,165974.6875000000,183912.7968750000,,,
0.1159999999,0,178410.6250000000,167165.5625000000,192873.8750000000,179539.7187500000,167130.4843750000,142560.3437500000,165979.9218750000,183476.5000000000,,,
0.1199999999,0,178382.3750000000,167126.3281250000,192857.5937500000,179478.9218750000,167110.3281250000,142548.5937500000,165960.0625000000,182808.5312500000,,,
0.1239999998,0,178348.8437500000,167107.2812500000,192823.7968750000,179437.2031250000,167077.9843750000,142499.9062500000,165924.0468750000,182695.5000000000,,,
0.1279999998,1,178346.7500000000,167115.2968750000,192810.1718750000,179451.2812500000,167068.2812500000,142485.0312500000,165912.3750000000,183120.7968750000,,,
0.1319999998,1,178335.3281250000,167108.3281250000,192789.8593750000,179433.2343750000,167049.6875000000,142432.3437500000,165889.2031250000,183305.8125000000,,,
0.1359999997,1,178310.1406250000,167075.6250000000,192776.4843750000,179357.8906250000,167037.9218750000,142462.4687500000,165889.6562500000,182843.1250000000,,,
0.1399999997,1,178360.6250000000,167143.7031250000,192836.7187500000,179400.5468750000,167098.5937500000,142513.9062500000,165962.4843750000,182193.6562500000,,,
0.1439999996,1,178383.0468750000,167166.5000000000,192867.8281250000,179476.7656250000,167125.5156250000,142526.2812500000,165994.0312500000,182081.1875000000,,,
0.1479999996,1,178333.7656250000,167084.0156250000,192795.2812500000,179467.4843750000,167055.5156250000,142507.3437500000,165921.2656250000,182447.0000000000,,,
0.1519999998,1,178334.6093750000,167092.4687500000,192791.5468750000,179420.2031250000,167054.1718750000,142528.7968750000,165911.2343750000,182606.3125000000,,,
0.1559999997,1,178365.7656250000,167135.6875000000,192835.7343750000,179440.3906250000,167097.7343750000,142551.1875000000,165954.7656250000,182118.0156250000,,,
0.1599999997,1,178368.6093750000,167119.5625000000,192849.5468750000,179455.6093750000,167109.7968750000,142470.1406250000,165976.1406250000,181438.9375000000,,,
0.1639999996,1,178320.5156250000,167080.1562500000,192793.4218750000,179408.6718750000,167055.4531250000,142492.9687500000,165925.4375000000,181342.4375000000,,,
0.1679999996,1,178307.2656250000,167085.4218750000,192770.7968750000,179392.3281250000,167033.2812500000,142497.7968750000,165895.0312500000,181785.1875000000,,,
0.1719999998,1,178334.1718750000,167104.8125000000,192800.1875000000,179426.9062500000,167059.0781250000,142513.4531250000,165916.0000000000,182018.7031250000,,,
0.1759999997,1,178386.0468750000,167143.1093750000,192865.2812500000,179470.0312500000,167121.2500000000,142533.4687500000,165963.4687500000,181607.7812500000,,,
0.1799999997,1,178377.4687500000,167133.5156250000,192855.3125000000,179465.1875000000,167108.0781250000,142526.0625000000,165964.6250000000,180992.4062500000,,,
0.1839999997,1,178341.7343750000,167107.2500000000,192807.1562500000,179446.7812500000,167064.1718750000,142544.6718750000,165926.5937500000,180865.6718750000,,,
0.1879999996,1,178332.0312500000,167106.1718750000,192790.9062500000,179436.7500000000,167049.3125000000,142548.5156250000,165902.0000000000,181306.6718750000,,,
0.1919999996,1,178357.5625000000,167120.7187500000,192821.1093750000,179476.7656250000,167075.7031250000,142509.6406250000,165927.8593750000,181549.9843750000,,,
0.1959999998,1,178405.9531250000,167166.4687500000,192874.0625000000,179514.0468750000,167129.0781250000,142548.9375000000,165997.2187500000,181116.0312500000,,,
0.1999999997,1,178423.8750000000,167184.3906250000,192890.9062500000,179532.6406250000,167148.2031250000,142577.2187500000,166018.1093750000,180509.2812500000,,,
0.2039999997,1,178364.3437500000,167133.5312500000,192839.5312500000,179392.6562500000,167102.2031250000,142490.6093750000,165967.6406250000,180437.1406250000,,,
0.2079999996,1,178353.3281250000,167149.0625000000,192820.3593750000,179395.4218750000,167080.1093750000,142496.2656250000,165898.2968750000,180880.5312500000,,,
0.2119999996,1,178345.6875000000,167085.5000000000,192800.8593750000,179458.5625000000,167055.3750000000,142620.7187500000,165897.4062500000,181126.4687500000,,,
0.2159999998,1,178372.1562500000,167120.3593750000,192833.7968750000,179448.8125000000,167092.5468750000,142608.9687500000,165973.9687500000,180670.1875000000,,,
0.2199999997,1,178368.5625000000,167121.8750000000,192844.1718750000,179422.7968750000,167105.8593750000,142605.3750000000,165995.4687500000,180009.4531250000,,,
0.2239999997,1,178355.4218750000,167106.2031250000,192841.1250000000,179399.2031250000,167103.8125000000,142583.6718750000,165986.4062500000,179933.7031250000,,,
0.2279999997,1,178366.8125000000,167128.4687500000,192833.0937500000,179418.5312500000,167102.2656250000,142553.6406250000,166028.1250000000,180416.4062500000,,,
0.2319999996,1,178383.3593750000,167151.3437500000,192848.4218750000,179446.4531250000,167116.1875000000,142466.8437500000,166022.4843750000,180683.1406250000,,,
0.2359999996,1,178401.0625000000,167148.1562500000,192877.9218750000,179456.1406250000,167144.8281250000,142577.4062500000,166063.3125000000,180315.4375000000,,,
0.2399999998,1,178415.7656250000,167150.6250000000,192901.5781250000,179454.2343750000,167166.7968750000,142638.0468750000,166118.6093750000,179726.2187500000,,,
0.2439999997,1,178400.1093750000,167143.0625000000,192876.9218750000,179438.3593750000,167148.0781250000,142634.7968750000,166101.1250000000,179648.5937500000,,,
0.2479999997,1,178419.8750000000,167191.6875000000,192892.7187500000,179455.9843750000,167169.5781250000,142612.6093750000,166142.1718750000,180156.0156250000,,,
0.2519999996,1,178410.7812500000,167152.8281250000,192895.1093750000,179471.1875000000,167162.2343750000,142570.0312500000,166140.5000000000,180465.9062500000,,,
0.2559999996,2,178422.8750000000,167154.5937500000,192911.7187500000,179487.8750000000,167177.8437500000,142591.9687500000,166181.3593750000,180107.2187500000,,,
0.2599999995,2,178426.6250000000,167158.8906250000,192921.4531250000,179480.5781250000,167193.2500000000,142625.0937500000,166232.6562500000,179548.2031250000,,,
0.2639999995,2,178419.4218750000,167167.6562500000,192915.1250000000,179461.2968750000,167192.1093750000,142617.6093750000,166231.4843750000,179530.7656250000,,,
0.2679999995,2,178433.5468750000,167192.8125000000,192928.0156250000,179466.9843750000,167204.4531250000,142595.5781250000,166246.6406250000,180095.5312500000,,,
0.2719999994,2,178430.2031250000,167170.3593750000,192925.2656250000,179480.9062500000,167202.1718750000,142522.8125000000,166221.4218750000,180470.4687500000,,,
0.2759999994,2,178458.0625000000,167178.9687500000,192959.5937500000,179513.4687500000,167237.6562500000,142670.6406250000,166268.5000000000,180167.6562500000,,,
0.2799999996,2,178502.9375000000,167228.7343750000,193012.6718750000,179534.6250000000,167287.6093750000,142694.9687500000,166369.2656250000,179620.6406250000,,,
0.2839999995,2,178501.8906250000,167271.0312500000,192999.0156250000,179525.1250000000,167275.3437500000,142605.6093750000,166361.7500000000,179629.2031250000,,,
0.2879999995,2,178443.8437500000,167195.7656250000,192923.8437500000,179479.2656250000,167205.3593750000,142577.6093750000,166314.9843750000,180203.2656250000,,,
0.2919999994,2,178414.1562500000,167125.3593750000,192902.2656250000,179473.7343750000,167178.4375000000,142596.6250000000,166234.0781250000,180526.6093750000,,,
0.2959999994,2,178474.4531250000,167181.5156250000,192987.6406250000,179538.0000000000,167257.2343750000,142620.6562500000,166306.6718750000,180187.6093750000,,,
0.2999999996,2,178507.7656250000,167225.7968750000,193016.9687500000,179559.7812500000,167291.8593750000,142612.5156250000,166412.2968750000,179613.6406250000,,,
0.3039999995,2,178498.1875000000,167241.5000000000,193001.2968750000,179528.0312500000,167279.0937500000,142621.0468750000,166400.8906250000,179565.5000000000,,,
0.3079999995,2,178481.3281250000,167205.1718750000,192996.0468750000,179526.2500000000,167267.3750000000,142589.9843750000,166342.9843750000,180078.5781250000,,,
0.3119999995,2,178473.0312500000,167174.5937500000,192982.4218750000,179561.9531250000,167250.1875000000,142524.7812500000,166317.6406250000,180390.7812500000,,,
0.3159999994,2,178468.2812500000,167180.3437500000,192986.5000000000,179542.8593750000,167259.4687500000,142509.1093750000,166373.0468750000,180044.6406250000,,,
0.3199999994,2,178508.6562500000,167256.6718750000,193022.8593750000,179549.2187500000,167307.1093750000,142572.5937500000,166511.4843750000,179470.2031250000,,,
0.3239999996,2,178428.6718750000,167147.4531250000,192932.8750000000,179497.4531250000,167203.8593750000,142537.6562500000,166255.9218750000,179439.0781250000,,,
0.3279999995,2,178388.1093750000,167094.4843750000,192893.3125000000,179474.3593750000,167161.3437500000,142468.2656250000,166208.3593750000,180043.2812500000,,,
0.3319999995,2,178446.6875000000,167175.8906250000,192954.8906250000,179526.8437500000,167221.7031250000,142476.7968750000,166275.6250000000,180493.0625000000,,,
0.3359999994,2,178503.2031250000,167210.3281250000,193024.9531250000,179591.4531250000,167289.8750000000,142554.2187500000,166349.9062500000,180248.7968750000,,,
0.3399999994,2,178519.0312500000,167233.3750000000,193044.1093750000,179596.8281250000,167311.5781250000,142499.2968750000,166366.5312500000,179760.6250000000,,,
0.3439999996,2,178502.2968750000,167218.0312500000,193016.9062500000,179571.4843750000,167286.5625000000,142505.2500000000,166356.2031250000,179818.0312500000,,,
0.3479999995,2,178473.9687500000,167188.0937500000,192980.1406250000,179532.9843750000,167249.5937500000,142549.2343750000,166328.9218750000,180361.6093750000,,,
0.3519999995,2,178415.0468750000,167118.8437500000,192916.7343750000,179484.1718750000,167189.5937500000,142463.0312500000,166303.7968750000,180775.2187500000,,,
0.3559999994,2,178466.0312500000,167191.5781250000,192975.4375000000,179502.2500000000,167249.1875000000,142468.1562500000,166405.3125000000,180652.9375000000,,,
0.3599999994,2,178507.1562500000,167231.9687500000,193037.0781250000,179528.7500000000,167310.6093750000,142590.5156250000,166481.6718750000,180355.4531250000,,,
0.3639999994,2,178442.0468750000,167143.4062500000,192960.1875000000,179518.5781250000,167220.3281250000,142528.1875000000,166222.2500000000,180663.2187500000,,,
0.3679999996,2,178442.8593750000,167180.4531250000,192942.0468750000,179533.9218750000,167203.4062500000,142503.1875000000,166253.8750000000,181549.0468750000,,,
0.3719999995,2,178484.0781250000,167207.8906250000,193000.6875000000,179576.3281250000,167262.9062500000,142463.7031250000,166337.3437500000,182245.6406250000,,,
0.3759999995,2,178496.8281250000,167202.9843750000,193013.6406250000,179587.3281250000,167274.0312500000,142429.9531250000,166279.2031250000,182264.8125000000,,,
0.3799999994,2,178427.2968750000,167132.4843750000,192950.8437500000,179498.1718750000,167209.6875000000,142449.4843750000,166255.2968750000,181957.8125000000,,,
0.3839999994,3,178388.0625000000,167093.2968750000,192907.3906250000,179449.0312500000,167182.9687500000,142496.6093750000,166329.6562500000,182060.4375000000,,,
0.3879999993,3,178408.1562500000,167136.4531250000,192927.8593750000,179460.1406250000,167199.2031250000,142437.6875000000,166285.6875000000,182745.0625000000,,,
0.3919999993,3,178415.1562500000,167150.8437500000,192911.4218750000,179466.3593750000,167174.5000000000,142395.9218750000,166168.4843750000,183362.4843750000,,,
0.3959999993,3,178426.5000000000,167167.4687500000,192938.2187500000,179471.7812500000,167200.8906250000,142302.2812500000,166211.9531250000,183297.1718750000,,,
0.3999999992,3,178400.6718750000,167096.9531250000,192920.5156250000,179469.5468750000,167183.7500000000,142514.9375000000,166174.0312500000,182842.9375000000,,,
0.4039999992,3,178358.6875000000,167059.7812500000,192869.1250000000,179422.2187500000,167142.5781250000,142375.9375000000,166241.2968750000,182848.0625000000,,,
0.4079999994,3,178412.2031250000,167156.6093750000,192937.3906250000,179447.8750000000,167219.7656250000,142308.6718750000,166378.6093750000,183460.9687500000,,,
0.4119999993,3,178399.0781250000,167127.5000000000,192937.4687500000,179467.5468750000,167201.1562500000,142489.9062500000,166210.2187500000,183936.9375000000,,,
0.4159999993,3,178385.2656250000,167076.2500000000,192922.9843750000,179468.3437500000,167169.1093750000,142455.5781250000,166216.8125000000,183768.2968750000,,,
0.4199999992,3,178388.5937500000,167091.7187500000,192926.4062500000,179436.4843750000,167177.3125000000,142393.9062500000,166262.7500000000,183340.7343750000,,,
0.4239999992,3,178382.0312500000,167102.8750000000,192896.9375000000,179419.3437500000,167153.7343750000,142444.4375000000,166197.3437500000,183359.7968750000,,,
0.4279999994,3,178347.5000000000,167053.1718750000,192866.7812500000,179408.2343750000,167123.1875000000,142423.4218750000,166250.2031250000,183940.8281250000,,,
0.4319999993,3,178354.7968750000,167074.0937500000,192832.2656250000,179459.5468750000,167092.9531250000,142344.5312500000,166069.6093750000,184391.2812500000,,,
0.4359999993,3,178425.1250000000,167134.8750000000,192940.0156250000,179539.9687500000,167204.3437500000,142456.2656250000,166211.9218750000,184137.6406250000,,,
0.4399999992,3,178494.0000000000,167202.9843750000,193052.0781250000,179590.3906250000,167311.5781250000,142539.2812500000,166420.8750000000,183590.8281250000,,,
0.4439999992,3,178440.2812500000,167163.2343750000,192955.5625000000,179540.3125000000,167216.7968750000,142496.4531250000,166269.2812500000,183475.9375000000,,,
0.4479999992,3,178344.9843750000,167092.1562500000,192837.6250000000,179428.2187500000,167107.5781250000,142400.3125000000,166103.9687500000,183911.8593750000,,,
0.4519999993,3,178371.1093750000,167150.3750000000,192886.1562500000,179403.0937500000,167155.2343750000,142307.3593750000,166199.2500000000,184262.5312500000,,,
0.4559999993,3,178274.1406250000,166977.7500000000,192782.2656250000,179357.5781250000,167036.8125000000,142286.4531250000,166030.0000000000,183944.8125000000,,,
0.4599999993,3,178294.1093750000,167000.6875000000,192832.9375000000,179361.7812500000,167090.6718750000,142378.1093750000,166154.9531250000,183328.5625000000,,,
0.4639999992,3,178347.7656250000,167081.0937500000,192911.9531250000,179381.9218750000,167175.1718750000,142361.8281250000,166305.0781250000,183234.2187500000,,,
0.4679999992,3,178321.7343750000,167104.8437500000,192828.6250000000,179371.7656250000,167093.6250000000,142351.2343750000,166188.8593750000,183749.6093750000,,,
0.4719999994,3,178301.0468750000,167010.9062500000,192846.1875000000,179397.1093750000,167111.1406250000,142430.9843750000,166226.7031250000,184098.6406250000,,,
0.4759999993,3,178313.1406250000,167023.5156250000,192865.1718750000,179428.3593750000,167121.5156250000,142362.9843750000,165990.2187500000,183768.3281250000,,,
0.4799999993,3,178310.2500000000,167068.3906250000,192830.5781250000,179418.8593750000,167108.1093750000,142373.5000000000,166101.3750000000,183162.4687500000,,,
0.4839999992,3,178281.7031250000,167031.4218750000,192792.2187500000,179375.0000000000,167051.1718750000,142433.4218750000,166013.8281250000,183026.4843750000,,,
0.4879999992,3,178279.2968750000,167014.1562500000,192808.0156250000,179376.7031250000,167069.5625000000,142276.0312500000,166077.6093750000,183502.5781250000,,,
0.4919999992,3,178280.7656250000,167042.8437500000,192790.2656250000,179363.5781250000,167061.0625000000,142320.9531250000,166226.4687500000,183891.9218750000,,,
0.4959999993,3,178302.9843750000,167049.2656250000,192804.6875000000,179398.4531250000,167058.8906250000,142401.9531250000,166082.8281250000,183582.3750000000,,,
0.4999999993,3,178303.1406250000,167052.2343750000,192796.1875000000,179400.8593750000,167053.7656250000,142373.3593750000,166072.2187500000,182975.4687500000,,,
0.5039999993,3,178292.7812500000,167034.7031250000,192807.7812500000,179384.4531250000,167064.7656250000,142381.8593750000,166088.1718750000,182834.3906250000,,,
0.5079999992,3,178306.0312500000,167051.3281250000,192839.7031250000,179384.4218750000,167094.1562500000,142421.1875000000,166065.5937500000,183282.1562500000,,,
0.5119999992,4,178316.9531250000,167080.1562500000,192835.8593750000,179417.0312500000,167094.1093750000,142404.9843750000,166135.0312500000,183664.0468750000,,,
0.5159999991,4,178334.1718750000,167051.3281250000,192864.3750000000,179447.0156250000,167118.1406250000,142394.2031250000,166180.2031250000,183400.7343750000,,,
0.5199999991,4,178318.3437500000,167040.7343750000,192851.4218750000,179416.1562500000,167108.2968750000,142385.2500000000,166133.1562500000,182788.5156250000,,,
0.5239999990,4,178302.7187500000,167028.2031250000,192845.1718750000,179409.9531250000,167103.4218750000,142371.2187500000,166120.2500000000,182616.5156250000,,,
0.5279999990,4,178317.1093750000,167055.0781250000,192830.7343750000,179421.5937500000,167099.0468750000,142445.5468750000,166066.4687500000,183055.5625000000,,,
0.5319999990,4,178309.7656250000,167041.6093750000,192824.2812500000,179379.5156250000,167095.2656250000,142431.1875000000,166175.2656250000,183360.8437500000,,,
0.5359999991,4,178307.2656250000,167026.0937500000,192882.3125000000,179359.8437500000,167134.9843750000,142336.2500000000,166143.6406250000,183023.9375000000,,,
0.5399999991,4,178289.8437500000,167013.3750000000,192818.4843750000,179377.9531250000,167080.7031250000,142320.6562500000,166130.4375000000,182427.1250000000,,,
0.5439999991,4,178330.0468750000,167064.1406250000,192878.6093750000,179379.1562500000,167131.6250000000,142370.5156250000,166082.5156250000,182333.3437500000,,,
0.5479999990,4,178310.4062500000,167057.2031250000,192844.5000000000,179352.2031250000,167096.8906250000,142425.5312500000,166141.3906250000,182802.7031250000,,,
0.5519999990,4,178306.9843750000,167061.3593750000,192791.6875000000,179367.2812500000,167056.6875000000,142411.0468750000,166112.5468750000,183168.9687500000,,,
0.5559999992,4,178319.0781250000,167050.5156250000,192822.5312500000,179393.9218750000,167081.2031250000,142431.0625000000,166060.0937500000,182857.7500000000,,,
0.5599999991,4,178326.4218750000,167065.0625000000,192851.5312500000,179382.7500000000,167119.9843750000,142439.1562500000,166157.3750000000,182236.5156250000,,,
0.5639999991,4,178315.9062500000,167040.5156250000,192861.7968750000,179356.0625000000,167138.3593750000,142330.7187500000,166172.6875000000,182076.1718750000,,,
0.5679999990,4,178269.6093750000,166997.7968750000,192783.6875000000,179325.9218750000,167071.3593750000,142376.9375000000,166219.6562500000,182509.8125000000,,,
0.5719999990,4,178310.4375000000,167039.5781250000,192840.6875000000,179385.5468750000,167110.6250000000,142393.5000000000,166137.1562500000,182867.9062500000,,,
0.5759999990,4,178359.2500000000,167098.5000000000,192884.7812500000,179439.4375000000,167134.4531250000,142341.7656250000,166084.0156250000,182606.3125000000,,,
0.5799999991,4,178323.7656250000,167054.0625000000,192829.2656250000,179401.7187500000,167085.2812500000,142466.7812500000,166092.4843750000,182014.6250000000,,,
0.5839999991,4,178325.1875000000,167057.7656250000,192852.8437500000,179390.5625000000,167113.0156250000,142439.4062500000,166167.4531250000,181822.5156250000,,,
0.5879999991,4,178335.8125000000,167073.9687500000,192865.8437500000,179406.2812500000,167125.9687500000,142424.6250000000,166099.9531250000,182185.6875000000,,,
0.5919999990,4,178329.4062500000,167064.7656250000,192822.0468750000,179404.1562500000,167092.3125000000,142442.3750000000,166114.5156250000,182452.1718750000,,,
0.5959999990,4,178333.1875000000,167074.5000000000,192828.6406250000,179412.6875000000,167094.4375000000,142434.5156250000,166119.6406250000,182092.4062500000,,,
0.5999999992,4,178361.2343750000,167084.6875000000,192892.1093750000,179426.3750000000,167159.9843750000,142468.8281250000,166181.4062500000,181403.5625000000,,,
0.6039999991,4,178376.0156250000,167107.3281250000,192909.6718750000,179452.8906250000,167176.8593750000,142418.1093750000,166232.5625000000,181152.2187500000,,,
0.6079999991,4,178330.4218750000,167073.1562500000,192859.3906250000,179413.4375000000,167131.6250000000,142465.2500000000,166225.0468750000,181522.9687500000,,,
0.6119999990,4,178328.9375000000,167057.2500000000,192879.4531250000,179381.3593750000,167152.5000000000,142446.5625000000,166238.4843750000,181864.7656250000,,,
0.6159999990,4,178327.2343750000,167058.2187500000,192844.6562500000,179409.1562500000,167102.4531250000,142436.7500000000,166127.0625000000,181566.7500000000,,,
0.6199999989,4,178332.2968750000,167076.5937500000,192845.5156250000,179426.4843750000,167105.9062500000,142399.3281250000,166183.3906250000,180931.0156250000,,,
0.6239999991,4,178316.3125000000,167072.5625000000,192839.0312500000,179387.6718750000,167101.6250000000,142417.4843750000,166055.2812500000,180701.7656250000,,,
0.6279999991,4,178272.0000000000,167029.7031250000,192795.1718750000,179325.9531250000,167057.1406250000,142413.9531250000,166070.2812500000,181123.4531250000,,,
0.6319999991,4,178284.9218750000,167024.3906250000,192814.4531250000,179345.1718750000,167080.9375000000,142430.3593750000,166124.9375000000,181515.0625000000,,,
0.6359999990,4,178311.1406250000,167057.6875000000,192823.5468750000,179391.7500000000,167088.9062500000,142435.4375000000,166133.3906250000,181267.7812500000,,,
0.6399999990,5,178321.0000000000,167068.2187500000,192841.3281250000,179395.2343750000,167106.5468750000,142397.4531250000,166151.2343750000,180688.8593750000,,,
0.6439999989,5,178313.8437500000,167058.7812500000,192857.6718750000,179378.5468750000,167134.4531250000,142481.0625000000,166276.0312500000,180548.9531250000,,,
0.6479999989,5,178275.1718750000,167026.0937500000,192803.2500000000,179354.2187500000,167067.8750000000,142434.7812500000,166086.1875000000,181067.8593750000,,,
0.6519999988,5,178281.6562500000,167036.0156250000,192812.1718750000,179361.7812500000,167071.1406250000,142376.3750000000,166119.3437500000,181590.6718750000,,,
0.6559999988,5,178311.9062500000,167059.0781250000,192876.6250000000,179382.7500000000,167140.2968750000,142401.6875000000,166213.4062500000,181546.1250000000,,,
0.6599999988,5,178290.2968750000,167034.8593750000,192819.1718750000,179402.8281250000,167082.8750000000,142422.3906250000,166221.8750000000,181166.5000000000,,,
0.6639999989,5,178277.3437500000,167047.5937500000,192791.4687500000,179362.1093750000,167056.0000000000,142441.3906250000,166083.7656250000,181155.0000000000,,,
0.6679999989,5,178234.4218750000,166988.1406250000,192761.7812500000,179281.0000000000,167033.7812500000,142397.1562500000,166114.6718750000,181730.0468750000,,,
0.6719999989,5,178254.8593750000,166998.9687500000,192793.6093750000,179327.3906250000,167063.0937500000,142396.0781250000,166128.1875000000,182332.1718750000,,,
0.6759999988,5,178281.5000000000,167031.9062500000,192791.2343750000,179398.0468750000,167058.6562500000,142431.1875000000,166093.8906250000,182508.6093750000,,,
0.6799999988,5,178288.2031250000,167051.7500000000,192812.3437500000,179326.2500000000,167093.8125000000,142453.3750000000,166191.2031250000,182457.1250000000,,,
0.6839999990,5,178287.1093750000,167030.7343750000,192829.6093750000,179301.8125000000,167110.2500000000,142444.3906250000,166188.4375000000,182672.5156250000,,,
0.6879999989,5,178238.7343750000,166996.7656250000,192735.8750000000,179264.7343750000,167011.9218750000,142422.6562500000,166068.3281250000,183361.5000000000,,,
0.6919999989,5,178233.1875000000,166998.9687500000,192735.2812500000,179238.1562500000,167018.5156250000,142331.9531250000,166158.0937500000,183891.6875000000,,,
0.6959999988,5,178277.3437500000,167032.8750000000,192803.8593750000,179286.0625000000,167090.5156250000,142416.7031250000,166273.1875000000,183694.5625000000,,,
0.6999999988,5,178291.3906250000,167026.3281250000,192835.5468750000,179319.1406250000,167116.0781250000,142506.4531250000,166181.0781250000,183078.3281250000,,,
0.7039999987,5,178260.2187500000,167004.8437500000,192807.7500000000,179270.8593750000,167094.3750000000,142437.6093750000,166219.2812500000,182881.8281250000,,,
0.7079999989,5,178253.4375000000,167004.1406250000,192803.5468750000,179287.5312500000,167092.0156250000,142418.3125000000,166260.6718750000,183330.8906250000,,,
0.7119999989,5,178287.9843750000,167034.3281250000,192824.5156250000,179362.2343750000,167101.3750000000,142450.7656250000,166072.3125000000,183720.0312500000,,,
0.7159999989,5,178316.1250000000,167063.9375000000,192822.2343750000,179389.7031250000,167105.5000000000,142498.2500000000,166126.0781250000,183418.9531250000,,,
0.7199999988,5,178344.7656250000,167090.2968750000,192881.5468750000,179401.6718750000,167160.8906250000,142513.7031250000,166221.8750000000,182721.4375000000,,,
0.7239999988,5,178331.3281250000,167081.2656250000,192866.4375000000,179376.7968750000,167155.0000000000,142512.9218750000,166321.0156250000,182473.8906250000,,,
0.7279999990,5,178296.4843750000,167048.2968750000,192810.9218750000,179354.8593750000,167097.4531250000,142487.4843750000,166186.1875000000,182891.6562500000,,,
0.7319999989,5,178307.6250000000,167058.7031250000,192833.8281250000,179366.8593750000,167124.0625000000,142495.4062500000,166229.5000000000,183274.2656250000,,,
0.7359999989,5,178358.9375000000,167108.0000000000,192879.3906250000,179434.9218750000,167163.1406250000,142535.7187500000,166291.9687500000,182967.6718750000,,,
0.7399999988,5,178356.0937500000,167111.2812500000,192877.8125000000,179405.0468750000,167164.3281250000,142536.8750000000,166295.4843750000,182273.3750000000,,,
0.7439999988,5,178341.1250000000,167100.4843750000,192889.8750000000,179374.1718750000,167177.9062500000,142539.3437500000,166273.1406250000,181998.2031250000,,,
0.7479999987,5,178313.2187500000,167072.2500000000,192840.8281250000,179376.4531250000,167132.8593750000,142511.4687500000,166281.8281250000,182429.9843750000,,,
0.7519999989,5,178322.4843750000,167083.3593750000,192846.8125000000,179378.3906250000,167130.5781250000,142488.8593750000,166184.1406250000,182849.4531250000,,,
0.7559999989,5,178367.0781250000,167134.7187500000,192890.2031250000,179424.4687500000,167170.7968750000,142498.0937500000,166285.2031250000,182583.1718750000,,,
0.7599999988,5,178358.9531250000,167121.0625000000,192908.2031250000,179402.8281250000,167192.7812500000,142525.8750000000,166449.7031250000,181873.9375000000,,,
0.7639999988,5,178345.9218750000,167115.5312500000,192895.0625000000,179385.8125000000,167165.1093750000,142520.9687500000,166204.5468750000,181563.6406250000,,,
0.7679999988,6,178316.5000000000,167080.0312500000,192828.0000000000,179386.7812500000,167108.2500000000,142507.0937500000,166127.5000000000,181972.8281250000,,,
0.7719999987,6,178332.5156250000,167104.0781250000,192834.4375000000,179413.3593750000,167115.4375000000,142480.4062500000,166183.3593750000,182365.7968750000,,,
0.7759999987,6,178361.0781250000,167121.9218750000,192886.0781250000,179415.9375000000,167162.9531250000,142495.6718750000,166298.6250000000,182072.4218750000,,,
0.7799999986,6,178372.2656250000,167120.9062500000,192912.5937500000,179416.7656250000,167188.5000000000,142499.3281250000,166293.2812500000,181407.2968750000,,,
0.7839999986,6,178367.3593750000,167144.3125000000,192890.5312500000,179409.3437500000,167163.8437500000,142441.6250000000,166235.7968750000,181130.7500000000,,,
0.7879999985,6,178325.0000000000,167085.8437500000,192848.6875000000,179385.7031250000,167121.9687500000,142501.3281250000,166207.6406250000,181548.9843750000,,,
0.7919999987,6,178335.6250000000,167092.7187500000,192862.6875000000,179408.0000000000,167130.6093750000,142463.5468750000,166156.7500000000,181971.9687500000,,,
0.7959999987,6,178362.0468750000,167116.2968750000,192882.1250000000,179438.4375000000,167147.4062500000,142502.8281250000,166225.3437500000,181692.8593750000,,,
0.7999999986,6,178382.5312500000,167122.4531250000,192941.7500000000,179426.5000000000,167206.7656250000,142522.9218750000,166303.5781250000,181004.2031250000,,,
0.8039999986,6,178362.7656250000,167117.2812500000,192891.1093750000,179422.1093750000,167164.9687500000,142508.6875000000,166199.5156250000,180727.6406250000,,,
0.8079999986,6,178337.6406250000,167099.7656250000,192856.7031250000,179380.6875000000,167122.7343750000,142478.9062500000,166184.8593750000,181158.1093750000,,,
0.8119999988,6,178342.5468750000,167100.3906250000,192868.3125000000,179390.7968750000,167143.2656250000,142481.2656250000,166262.6718750000,181588.5000000000,,,
0.8159999987,6,178356.1718750000,167109.6875000000,192876.4375000000,179421.7343750000,167149.8125000000,142493.0781250000,166209.4062500000,181346.2343750000,,,
0.8199999987,6,178375.1250000000,167135.5156250000,192929.0625000000,179422.6093750000,167200.5937500000,142470.8906250000,166239.6093750000,180683.8125000000,,,
0.8239999986,6,178352.4375000000,167111.8906250000,192898.2968750000,179410.8437500000,167172.7031250000,142492.0312500000,166201.5156250000,180437.0312500000,,,
0.8279999986,6,178316.9843750000,167073.1875000000,192833.2812500000,179396.2187500000,167100.9218750000,142470.4531250000,166180.0156250000,180894.6093750000,,,
0.8319999985,6,178350.2968750000,167110.0625000000,192882.8593750000,179413.0937500000,167152.3593750000,142438.2812500000,166297.3281250000,181351.9843750000,,,
0.8359999987,6,178374.4687500000,167131.2812500000,192885.5625000000,179454.2187500000,167146.5937500000,142469.6875000000,166138.2187500000,181108.1406250000,,,
0.8399999987,6,178375.5312500000,167119.3437500000,192912.4687500000,179445.8750000000,167186.1562500000,142493.4218750000,166253.9843750000,180417.0781250000,,,
0.8439999986,6,178367.7500000000,167122.2656250000,192918.4687500000,179398.9843750000,167189.2656250000,142450.1562500000,166260.3906250000,180157.1718750000,,,
0.8479999986,6,178317.0156250000,167084.2343750000,192844.9062500000,179361.2500000000,167119.3750000000,142472.3125000000,166181.3593750000,180634.2500000000,,,
0.8519999986,6,178323.6562500000,167100.9218750000,192838.1718750000,179388.9218750000,167109.5781250000,142473.8593750000,166102.6250000000,181095.4843750000,,,
0.8559999987,6,178354.6875000000,167106.3437500000,192887.2500000000,179417.7343750000,167154.5156250000,142466.8437500000,166204.1250000000,180864.3906250000,,,
0.8599999987,6,178361.3750000000,167117.1250000000,192882.5312500000,179416.4218750000,167147.0468750000,142482.7500000000,166187.2187500000,180222.1875000000,,,
0.8639999987,6,178355.5000000000,167128.2812500000,192869.0468750000,179397.4843750000,167135.9843750000,142473.5468750000,166169.3281250000,179960.6718750000,,,
0.8679999986,6,178317.4687500000,167086.7343750000,192840.6093750000,179370.9062500000,167101.7500000000,142416.7656250000,166110.3750000000,180402.7500000000,,,
0.8719999986,6,178322.3437500000,167082.0156250000,192854.5312500000,179387.1875000000,167123.4843750000,142430.0937500000,166175.6406250000,180842.9062500000,,,
0.8759999985,6,178365.2031250000,167113.2031250000,192914.1250000000,179428.8437500000,167188.8750000000,142503.1562500000,166269.8906250000,180633.1718750000,,,
0.8799999987,6,178382.0781250000,167139.7031250000,192895.4843750000,179458.8750000000,167170.6562500000,142499.9843750000,166191.8125000000,180031.0156250000,,,
0.8839999987,6,178349.9687500000,167129.4843750000,192854.3437500000,179418.4531250000,167117.8125000000,142353.2187500000,166116.9062500000,179798.8437500000,,,
0.8879999986,6,178296.5625000000,167070.2031250000,192845.0625000000,179354.2500000000,167113.3125000000,142448.2031250000,166162.1406250000,180253.5625000000,,,
0.8919999986,6,178315.6406250000,167072.8125000000,192865.4687500000,179403.8593750000,167135.4687500000,142470.6718750000,166166.2187500000,180714.6562500000,,,
0.8959999986,7,178322.4218750000,167085.3593750000,192837.7968750000,179441.0937500000,167105.9062500000,142474.5937500000,166114.0781250000,180554.2187500000,,,
0.8999999985,7,178368.3125000000,167155.6718750000,192901.8125000000,179469.2812500000,167169.8281250000,142512.4062500000,166238.5625000000,179943.4218750000,,,
0.9039999985,7,178351.8437500000,167124.8750000000,192882.6406250000,179428.0312500000,167147.9687500000,142489.3906250000,166174.0312500000,179673.5625000000,,,
0.9079999984,7,178276.8593750000,167039.8437500000,192791.7343750000,179333.1562500000,167064.5000000000,142429.3437500000,166055.9062500000,180088.5000000000,,,
0.9119999984,7,178299.8906250000,167066.7968750000,192833.7968750000,179359.6562500000,167112.7500000000,142404.3750000000,166179.0781250000,180602.6250000000,,,
0.9159999983,7,178325.7031250000,167077.0000000000,192882.1250000000,179405.2343750000,167145.5000000000,142431.2187500000,166138.6250000000,180484.2812500000,,,
0.9199999985,7,178332.5156250000,167103.1406250000,192878.9843750000,179401.1562500000,167136.4843750000,142381.2812500000,166070.9218750000,179911.1718750000,,,
0.9239999985,7,178305.3750000000,167092.2031250000,192802.7968750000,179378.6250000000,167068.2812500000,142405.7656250000,166086.6718750000,179642.2031250000,,,
0.9279999984,7,178284.2656250000,167039.9062500000,192799.4375000000,179350.2031250000,167073.5625000000,142475.2031250000,166149.0625000000,180039.5781250000,,,
0.9319999984,7,178329.9687500000,167078.3906250000,192888.9687500000,179371.6250000000,167160.2187500000,142440.4531250000,166235.1875000000,180493.9218750000,,,
0.9359999984,7,178340.1093750000,167097.3281250000,192869.3281250000,179411.6718750000,167138.2031250000,142458.5312500000,166167.3281250000,180338.2656250000,,,
0.9399999985,7,178363.6562500000,167137.5000000000,192893.9843750000,179417.3906250000,167161.8125000000,142517.4843750000,166200.3906250000,179747.4531250000,,,
0.9439999985,7,178352.6875000000,167122.7343750000,192894.2031250000,179395.1718750000,167161.1406250000,142468.8437500000,166188.2968750000,179460.1406250000,,,
0.9479999985,7,178329.3125000000,167103.7031250000,192859.7031250000,179397.7812500000,167128.5000000000,142415.1562500000,166220.9687500000,179842.6718750000,,,
0.9519999984,7,178322.8593750000,167071.8125000000,192864.5312500000,179408.7968750000,167130.5000000000,142463.8906250000,166161.9375000000,180296.2031250000,,,
0.9559999984,7,178340.0000000000,167095.5781250000,192883.2031250000,179425.4375000000,167141.4531250000,142429.4218750000,166142.0625000000,180152.9062500000,,,
0.9599999983,7,178367.0000000000,167132.8125000000,192900.0468750000,179466.7343750000,167161.8593750000,142437.8437500000,166220.4375000000,179568.9531250000,,,
0.9639999985,7,178332.2187500000,167103.0156250000,192848.3906250000,179389.0000000000,167116.5000000000,142393.3750000000,166129.0781250000,179266.4375000000,,,
0.9679999985,7,178302.2343750000,167082.8437500000,192839.3437500000,179331.9531250000,167114.0625000000,142465.6562500000,166189.3750000000,179680.8281250000,,,
0.9719999984,7,178343.7187500000,167122.7343750000,192896.8593750000,179379.9375000000,167165.2968750000,142462.2812500000,166219.6250000000,180186.7812500000,,,
0.9759999984,7,178331.9531250000,167069.3750000000,192865.6562500000,179425.0000000000,167125.8125000000,142386.9687500000,166145.5468750000,180034.5625000000,,,
0.9799999984,7,178321.0312500000,167073.0312500000,192831.4843750000,179411.7187500000,167098.9687500000,142439.2968750000,166169.6093750000,179426.0468750000,,,
0.9839999985,7,178318.2187500000,167089.8437500000,192833.8437500000,179381.0468750000,167102.0000000000,142432.9062500000,166087.1250000000,179130.5468750000,,,
0.9879999985,7,178280.7968750000,167045.3125000000,192797.5937500000,179352.6562500000,167057.5781250000,142418.8750000000,166060.8593750000,179495.3593750000,,,
0.9919999985,7,178300.0312500000,167067.6562500000,192820.7812500000,179362.7812500000,167091.6875000000,142417.9218750000,166197.8437500000,179948.5625000000,,,
0.9959999984,7,178351.3125000000,167118.3750000000,192887.1250000000,179400.0625000000,167166.7187500000,142429.2031250000,166301.8593750000,179836.8750000000,,,
0.9999999984,7,178343.2656250000,167089.2500000000,192877.6718750000,179415.9687500000,167142.0312500000,142470.4375000000,166087.0468750000,179279.0937500000,,,
1.0039999983,7,178350.0781250000,167126.4062500000,192871.0000000000,179401.8750000000,167134.1250000000,142490.5781250000,166189.4062500000,178999.9531250000,,,
1.0079999985,7,178331.5000000000,167085.7656250000,192881.9375000000,179381.1718750000,167141.9843750000,142442.7031250000,166140.3125000000,179393.5468750000,,,
1.0119999985,7,178300.2187500000,167064.0468750000,192803.7343750000,179368.7031250000,167066.7968750000,142398.5000000000,166098.5468750000,179921.6718750000,,,
1.0159999984,7,178315.9062500000,167074.9531250000,192833.3125000000,179370.1718750000,167105.4218750000,142437.5781250000,166203.0000000000,179868.1875000000,,,
1.0199999984,7,178314.2187500000,167052.7500000000,192875.5000000000,179381.5000000000,167141.0468750000,142408.6562500000,166243.8437500000,179327.5000000000,,,
1.0239999983,8,178299.9531250000,167065.1875000000,192828.2968750000,179349.9218750000,167091.3437500000,142414.4531250000,166136.2031250000,179026.9687500000,,,
1.0279999983,8,178262.6406250000,167039.3906250000,192796.3593750000,179288.0000000000,167055.5312500000,142406.3750000000,166027.1562500000,179374.3281250000,,,
1.0319999983,8,178261.7500000000,167026.9687500000,192800.8125000000,179323.2187500000,167069.4375000000,142407.4062500000,166094.2343750000,179787.3750000000,,,
1.0359999982,8,178264.5781250000,167027.0781250000,192774.7812500000,179343.3593750000,167041.8281250000,142389.2500000000,166150.5000000000,179647.5781250000,,,
1.0399999982,8,178324.1406250000,167083.4531250000,192853.5625000000,179377.2812500000,167116.0156250000,142410.9687500000,166149.4843750000,179079.6093750000,,,
1.0439999981,8,178302.2500000000,167086.5937500000,192823.2500000000,179333.9375000000,167093.5781250000,142423.3125000000,166148.7343750000,178786.9843750000,,,
1.0479999983,8,178264.0625000000,167036.4062500000,192801.8281250000,179304.3906250000,167076.0000000000,142354.1093750000,166156.5937500000,179193.0781250000,,,
1.0519999983,8,178265.2187500000,167036.9218750000,192804.6718750000,179318.7343750000,167072.7812500000,142352.4375000000,166171.9062500000,179746.2187500000,,,
1.0559999982,8,178268.8593750000,167025.3593750000,192812.6562500000,179311.7031250000,167073.3281250000,142478.3125000000,166082.0781250000,179701.2656250000,,,
1.0599999982,8,178289.9687500000,167053.6406250000,192802.0937500000,179345.5625000000,167073.3750000000,142447.0156250000,166107.2500000000,179148.4687500000,,,
1.0639999982,8,178333.4531250000,167096.7343750000,192884.4375000000,179345.3125000000,167158.4531250000,142489.2656250000,166217.1562500000,178833.6562500000,,,
1.0679999983,8,178351.3437500000,167142.1406250000,192878.3750000000,179361.0312500000,167140.8125000000,142480.1406250000,166149.8437500000,179154.5625000000,,,
1.0719999983,8,178350.1406250000,167120.4531250000,192885.2187500000,179397.4218750000,167149.8437500000,142486.2343750000,166208.5781250000,179587.7343750000,,,
1.0759999983,8,178348.3906250000,167105.4531250000,192858.9218750000,179423.0781250000,167126.8906250000,142517.1562500000,166120.6562500000,179480.1250000000,,,
1.0799999982,8,178397.1562500000,167158.6718750000,192928.7968750000,179449.1718750000,167201.1875000000,142544.5156250000,166247.8750000000,178925.3906250000,,,
1.0839999982,8,178350.2187500000,167117.5468750000,192883.0625000000,179402.6875000000,167145.8281250000,142480.1093750000,166173.8906250000,178624.3593750000,,,
1.0879999981,8,178296.8437500000,167067.5468750000,192821.2500000000,179372.8906250000,167088.0468750000,142452.4843750000,166104.2656250000,179002.1718750000,,,
1.0919999983,8,178310.1406250000,167083.5625000000,192834.8750000000,179382.9375000000,167099.8437500000,142477.5625000000,166119.0937500000,179495.8437500000,,,
1.0959999983,8,178332.4531250000,167100.8906250000,192848.4218750000,179408.5937500000,167111.4062500000,142508.4375000000,166097.4843750000,179449.5937500000,,,
1.0999999982,8,178355.3437500000,167111.8125000000,192890.5000000000,179422.2187500000,167156.2031250000,142492.9843750000,166171.1093750000,178909.0781250000,,,
1.1039999982,8,178341.8750000000,167111.2187500000,192870.3281250000,179406.5781250000,167136.8906250000,142491.1875000000,166153.9062500000,178584.8750000000,,,
1.1079999981,8,178312.0781250000,167088.7187500000,192834.0625000000,179392.1718750000,167098.0468750000,142485.7500000000,166099.0156250000,178924.8281250000,,,
1.1119999983,8,178335.5625000000,167109.8281250000,192855.3281250000,179426.2968750000,167119.9062500000,142499.0468750000,166126.2031250000,179406.7031250000,,,
1.1159999983,8,178356.0312500000,167128.3281250000,192876.4375000000,179418.0781250000,167142.3281250000,142458.3437500000,166152.6562500000,179366.7968750000,,,
1.1199999982,8,178361.1875000000,167127.6562500000,192887.4062500000,179415.6718750000,167155.3906250000,142537.4843750000,166189.5312500000,178868.3437500000,,,
1.1239999982,8,178346.8281250000,167116.0156250000,192873.3125000000,179400.4062500000,167139.8125000000,142548.0000000000,166144.5781250000,178579.2968750000,,,
1.1279999982,8,178303.7656250000,167070.9062500000,192828.0000000000,179381.6093750000,167093.3906250000,142471.1250000000,166077.7343750000,178961.1875000000,,,
1.1319999981,8,178303.3750000000,167065.9218750000,192816.8750000000,179375.4687500000,167085.2812500000,142468.7968750000,166088.5156250000,179501.9843750000,,,
1.1359999983,8,178352.4687500000,167108.6406250000,192876.3125000000,179428.9687500000,167144.1875000000,142514.9843750000,166185.2968750000,179504.0937500000,,,
1.1399999983,8,178354.4218750000,167110.0625000000,192886.1562500000,179411.8593750000,167152.6562500000,142505.7812500000,166184.3906250000,179023.6875000000,,,
1.1439999982,8,178333.9062500000,167094.1093750000,192870.7343750000,179373.5312500000,167140.8281250000,142475.7500000000,166203.9062500000,178736.4218750000,,,
1.1479999982,8,178320.7656250000,167085.3125000000,192851.6250000000,179386.2656250000,167116.1093750000,142469.6875000000,166090.4843750000,179087.9531250000,,,
1.1519999981,9,178295.0625000000,167061.5781250000,192809.3906250000,179391.3125000000,167078.2031250000,142474.6718750000,166074.1406250000,179611.3125000000,,,
1.1559999981,9,178317.5937500000,167089.3906250000,192842.0781250000,179394.2656250000,167113.9531250000,142486.3125000000,166128.4375000000,179594.9218750000,,,
1.1599999981,9,178344.0468750000,167104.4687500000,192877.7812500000,179424.2031250000,167146.3906250000,142521.7500000000,166155.3125000000,179080.8281250000,,,
1.1639999980,9,178340.1875000000,167098.6406250000,192869.8750000000,179402.7656250000,167142.7968750000,142517.8281250000,166160.7031250000,178765.8750000000,,,
1.1679999980,9,178338.0937500000,167113.6093750000,192862.3906250000,179387.0468750000,167135.7968750000,142526.2968750000,166147.9375000000,179095.7031250000,,,
1.1719999979,9,178321.4375000000,167094.5156250000,192841.9843750000,179379.2656250000,167113.3437500000,142499.9687500000,166116.2031250000,179588.6406250000,,,
1.1759999981,9,178313.2500000000,167071.4687500000,192849.0312500000,179373.1250000000,167115.3750000000,142474.1093750000,166109.7968750000,179575.1562500000,33029,1.1765177501,0.0000000000
1.1799999981,9,178321.8437500000,167090.4843750000,192847.1250000000,179373.2031250000,167116.8750000000,142488.4531250000,166126.6093750000,179074.2500000000,,,
1.1839999980,9,178333.7656250000,167112.7031250000,192861.2031250000,179375.2500000000,167136.5625000000,142491.2187500000,166159.5781250000,178757.5000000000,,,
1.1879999980,9,178328.8125000000,167105.1093750000,192864.4218750000,179388.2500000000,167139.7343750000,142523.8906250000,166153.1562500000,179101.9375000000,,,
1.1919999979,9,178317.2812500000,167095.9843750000,192844.7968750000,179382.8437500000,167121.4687500000,142496.5000000000,166108.9531250000,179623.0625000000,,,
1.1959999981,9,178307.3750000000,167075.3125000000,192829.9531250000,179382.0625000000,167106.4687500000,142484.9375000000,166132.1093750000,179616.3750000000,,,
1.1999999981,9,178361.2968750000,167122.1406250000,192905.7031250000,179411.7500000000,167177.7656250000,142526.0312500000,166201.3281250000,179107.7031250000,,,
1.2039999980,9,178352.5000000000,167115.3281250000,192894.6562500000,179412.7500000000,167170.7343750000,142514.4687500000,166207.5625000000,178781.5625000000,,,
1.2079999980,9,178312.6093750000,167084.6718750000,192832.6718750000,179387.2968750000,167113.7968750000,142490.6093750000,166126.3593750000,179110.7812500000,,,
1.2119999980,9,178295.5312500000,167067.4531250000,192821.7031250000,179365.7500000000,167098.4218750000,142467.9687500000,166084.2500000000,179631.0781250000,,,
1.2159999979,9,178332.0000000000,167101.3437500000,192875.2343750000,179403.8437500000,167148.4218750000,142505.0000000000,166138.2812500000,179600.9531250000,,,
1.2199999981,9,178358.0781250000,167133.5156250000,192897.8281250000,179400.4843750000,167174.9531250000,142548.7031250000,166207.2812500000,179072.3750000000,,,
1.2239999981,9,178338.6562500000,167125.9218750000,192863.3593750000,179371.3593750000,167139.3593750000,142502.6406250000,166137.9531250000,178734.6250000000,,,
1.2279999980,9,178282.1406250000,167046.9062500000,192809.0937500000,179335.5468750000,167080.7031250000,142447.8281250000,166084.8750000000,179076.3437500000,,,
1.2319999980,9,178263.0156250000,167026.1093750000,192792.4843750000,179339.5781250000,167061.7656250000,142412.6875000000,166066.1250000000,179643.8906250000,,,
1.2359999979,9,178270.1718750000,167045.6718750000,192797.5937500000,179352.5781250000,167065.0625000000,142406.9218750000,166063.6093750000,179665.0937500000,,,
1.2399999981,9,178277.2031250000,167031.1250000000,192818.9062500000,179337.8281250000,167089.9531250000,142442.8906250000,166093.9687500000,179132.9843750000,,,
1.2439999981,9,178281.6875000000,167038.3750000000,192837.2500000000,179320.8750000000,167110.1250000000,142435.8125000000,166113.0937500000,178771.2187500000,,,
1.2479999980,9,178267.0937500000,167036.7656250000,192823.9218750000,179312.5625000000,167097.1718750000,142427.4062500000,166071.5468750000,179110.2500000000,,,
1.2519999980,9,178278.2500000000,167050.0937500000,192808.8437500000,179348.0156250000,167082.6562500000,142463.8906250000,166073.9843750000,179669.9687500000,,,
1.2559999980,9,178328.5156250000,167113.0156250000,192845.8437500000,179398.3437500000,167121.7343750000,142461.1562500000,166130.2500000000,179667.8750000000,,,
1.2599999979,9,178336.3750000000,167088.2031250000,192865.7968750000,179396.6562500000,167143.8906250000,142524.6406250000,166164.9062500000,179087.2656250000,,,
1.2639999981,9,178336.6406250000,167116.9062500000,192870.6250000000,179381.2343750000,167149.7656250000,142520.1875000000,166165.9531250000,178712.0156250000,,,
1.2679999981,9,178311.8281250000,167098.7812500000,192844.7968750000,179363.2031250000,167120.5312500000,142484.0781250000,166128.7031250000,179063.3281250000,,,
1.2719999980,9,178284.0156250000,167047.5468750000,192816.4687500000,179359.5625000000,167090.3281250000,142435.0312500000,166093.4843750000,179612.8906250000,,,
1.2759999980,9,178293.7500000000,167047.4843750000,192831.7500000000,179389.6718750000,167107.2031250000,142457.9062500000,166105.9218750000,179599.7812500000,,,
1.2799999979,10,178308.1562500000,167064.5468750000,192856.5937500000,179369.2343750000,167137.7812500000,142475.6093750000,166112.6093750000,179071.5468750000,,,
1.2839999979,10,178317.2500000000,167089.5468750000,192869.0625000000,179351.4531250000,167150.7031250000,142482.0468750000,166156.6718750000,178715.5625000000,,,
1.2879999978,10,178294.9843750000,167064.0468750000,192835.4531250000,179343.7343750000,167116.3750000000,142466.8906250000,166126.6875000000,179072.1093750000,,,
1.2919999978,10,178291.9062500000,167047.9531250000,192828.2500000000,179369.8906250000,167110.9062500000,142466.4687500000,166134.1250000000,179593.9531250000,,,
1.2959999978,10,178323.6406250000,167082.5781250000,192862.3125000000,179409.2812500000,167142.0625000000,142492.1875000000,166169.2500000000,179562.0156250000,,,
1.2999999977,10,178358.1250000000,167119.9375000000,192896.6093750000,179419.6093750000,167173.4218750000,142516.9375000000,166201.6562500000,179007.0312500000,,,
1.3039999979,10,178348.4687500000,167110.7968750000,192888.4375000000,179390.6093750000,167165.5625000000,142525.3906250000,166205.3281250000,178652.9531250000,,,
1.3079999979,10,178354.3125000000,167152.3437500000,192886.8281250000,179394.6875000000,167165.4531250000,142546.2656250000,166186.6875000000,179017.3125000000,,,
1.3119999978,10,178347.2343750000,167122.2968750000,192873.6875000000,179425.4062500000,167149.1250000000,142515.3125000000,166144.4687500000,179583.5468750000,,,
1.3159999978,10,178335.8437500000,167081.9531250000,192877.0000000000,179423.0781250000,167152.4687500000,142480.4687500000,166159.7812500000,179551.6250000000,,,
1.3199999977,10,178338.3593750000,167086.7031250000,192904.5781250000,179390.0000000000,167184.1250000000,142503.9843750000,166208.4375000000,178983.8593750000,,,
1.3239999979,10,178336.7031250000,167104.5468750000,192883.6562500000,179374.3906250000,167164.8437500000,142500.7656250000,166155.7968750000,178622.3281250000,,,
1.3279999979,10,178326.0937500000,167093.3593750000,192858.5312500000,179373.0156250000,167142.2343750000,142511.5000000000,166140.0937500000,178960.2031250000,,,
1.3319999978,10,178352.1250000000,167129.4375000000,192881.0781250000,179409.0625000000,167163.7343750000,142523.8437500000,166160.6718750000,179499.2656250000,,,
1.3359999978,10,178389.0312500000,167171.1875000000,192916.0000000000,179436.5312500000,167194.4218750000,142564.7187500000,166198.5156250000,179510.5937500000,,,
1.3399999978,10,178350.5156250000,167107.9218750000,192890.1250000000,179412.3437500000,167170.0156250000,142532.0468750000,166191.4687500000,178974.0625000000,,,
1.3439999977,10,178347.0000000000,167120.1250000000,192887.8906250000,179412.4531250000,167166.2031250000,142529.0937500000,166169.5468750000,178613.3437500000,,,
1.3479999979,10,178347.5781250000,167132.0937500000,192881.8281250000,179407.2968750000,167160.8906250000,142533.9218750000,166158.8750000000,178958.7812500000,,,
1.3519999979,10,178335.7343750000,167120.2656250000,192865.4218750000,179393.6250000000,167142.1406250000,142542.2031250000,166161.6875000000,179527.2968750000,,,
1.3559999978,10,178354.4218750000,167120.0156250000,192885.4843750000,179392.9218750000,167160.4375000000,142529.3593750000,166184.9687500000,179511.8593750000,,,
1.3599999978,10,178353.5468750000,167106.2343750000,192896.8750000000,179394.7500000000,167173.0781250000,142516.6250000000,166198.2812500000,178944.4843750000,,,
1.3639999977,10,178345.3125000000,167102.4687500000,192892.6718750000,179393.4843750000,167170.3593750000,142523.2500000000,166186.0000000000,178576.0781250000,,,
1.3679999979,10,178334.7968750000,167098.6093750000,192876.4218750000,179406.2343750000,167154.8593750000,142538.7968750000,166161.2656250000,178894.2187500000,,,
1.3719999979,10,178365.6875000000,167140.2187500000,192889.6406250000,179414.0781250000,167171.2500000000,142565.7812500000,166194.9531250000,179412.7187500000,,,
1.3759999978,10,178402.0000000000,167173.6093750000,192937.5937500000,179445.5000000000,167213.6875000000,142567.4531250000,166228.4843750000,179406.0312500000,,,
1.3799999978,10,178395.4687500000,167150.7031250000,192947.5781250000,179449.7343750000,167222.9687500000,142572.7343750000,166230.0312500000,178863.6093750000,,,
1.3839999977,10,178380.2343750000,167159.4531250000,192918.6562500000,179422.5312500000,167201.5000000000,142581.9531250000,166231.8906250000,178515.8750000000,,,
1.3879999977,10,178340.0781250000,167105.1093750000,192876.3593750000,179406.6250000000,167159.4687500000,142548.8593750000,166191.6250000000,178879.7343750000,,,
1.3919999979,10,178348.5312500000,167117.9843750000,192883.9531250000,179407.9375000000,167166.7187500000,142547.9687500000,166199.9687500000,179476.5000000000,,,
1.3959999979,10,178388.0937500000,167146.6250000000,192934.1406250000,179459.4218750000,167211.2968750000,142586.0937500000,166226.4687500000,179477.4062500000,,,
1.3999999978,10,178404.9062500000,167165.9687500000,192942.4218750000,179497.7500000000,167220.3281250000,142586.2812500000,166241.5156250000,178898.4062500000,,,
1.4039999978,10,178376.5468750000,167148.5625000000,192914.0468750000,179430.8281250000,167194.8593750000,142546.8281250000,166222.2343750000,178533.3281250000,,,
1.4079999977,11,178344.0468750000,167117.8437500000,192883.9843750000,179343.4062500000,167165.9375000000,142553.5000000000,166183.8125000000,178893.9531250000,,,
1.4119999977,11,178364.4375000000,167129.2500000000,192897.0468750000,179389.2500000000,167178.3281250000,142577.5000000000,166204.9062500000,179455.5468750000,,,
1.4159999976,11,178388.8125000000,167146.7343750000,192927.1406250000,179440.9687500000,167203.6562500000,142583.4062500000,166234.1093750000,179450.6250000000,,,
1.4199999976,11,178405.6875000000,167152.7656250000,192961.6562500000,179441.1562500000,167236.1250000000,142605.4531250000,166255.2187500000,178859.2656250000,,,
1.4239999976,11,178396.1562500000,167152.6093750000,192957.0468750000,179418.9687500000,167231.8125000000,142608.0781250000,166245.6406250000,178441.0312500000,,,
1.4279999975,11,178376.2031250000,167151.4062500000,192910.1250000000,179431.2187500000,167194.1562500000,142583.8125000000,166239.9531250000,178784.6718750000,,,
1.4319999977,11,178379.6875000000,167162.8750000000,192911.1562500000,179454.3125000000,167193.7812500000,142560.6093750000,166233.0937500000,179381.9062500000,,,
1.4359999977,11,178380.4218750000,167159.4687500000,192914.5781250000,179415.3750000000,167194.7968750000,142571.2500000000,166224.5625000000,179376.6718750000,,,
1.4399999976,11,178394.5000000000,167144.3750000000,192943.3593750000,179420.8125000000,167221.8125000000,142643.2812500000,166256.4218750000,178816.0000000000,,,
1.4439999976,11,178386.0000000000,167152.2812500000,192934.1718750000,179466.0937500000,167213.4687500000,142618.5468750000,166256.1875000000,178425.1250000000,,,
1.4479999975,11,178387.6093750000,167174.1250000000,192934.8906250000,179415.5000000000,167216.6875000000,142605.7812500000,166249.9843750000,178764.5156250000,,,
1.4519999977,11,178344.8437500000,167110.3593750000,192899.7500000000,179360.5468750000,167178.5156250000,142573.7500000000,166199.3281250000,179332.3281250000,,,
1.4559999977,11,178363.5937500000,167128.3593750000,192901.3593750000,179418.8125000000,167184.0468750000,142585.6562500000,166226.9218750000,179339.7812500000,,,
1.4599999976,11,178390.4218750000,167153.5781250000,192941.3281250000,179474.8906250000,167222.8281250000,142606.3906250000,166264.5000000000,178809.5625000000,,,
1.4639999976,11,178400.4531250000,167170.0156250000,192956.6406250000,179412.6562500000,167241.1718750000,142637.4531250000,166299.9375000000,178435.5312500000,,,
1.4679999975,11,178371.4062500000,167151.6406250000,192918.9843750000,179377.9062500000,167204.4218750000,142598.5625000000,166259.5312500000,178762.0937500000,,,
1.4719999975,11,178355.7656250000,167134.6562500000,192895.9375000000,179427.4218750000,167180.3906250000,142594.8906250000,166237.9531250000,179335.8125000000,,,
1.4759999977,11,178390.1250000000,167169.1093750000,192931.6093750000,179481.1718750000,167216.5312500000,142644.6093750000,166276.7656250000,179356.3437500000,,,
1.4799999977,11,178423.4843750000,167183.6093750000,192981.0468750000,179473.5468750000,167264.8906250000,142660.5000000000,166330.7500000000,178801.6093750000,,,
1.4839999976,11,178426.2812500000,167194.4218750000,192985.3437500000,179425.8125000000,167270.5937500000,142667.8906250000,166337.3750000000,178375.3437500000,,,
1.4879999976,11,178375.7187500000,167157.0000000000,192922.3281250000,179421.2812500000,167209.4687500000,142653.7031250000,166287.3750000000,178714.6250000000,,,
1.4919999975,11,178349.3281250000,167135.4062500000,192890.9218750000,179425.2187500000,167177.3906250000,142646.9531250000,166260.6718750000,179330.9843750000,,,
1.4959999977,11,178374.1875000000,167151.9375000000,192921.3125000000,179413.4218750000,167205.7343750000,142641.1875000000,166284.2187500000,179397.9375000000,,,
1.4999999977,11,178427.1093750000,167203.9218750000,192983.7031250000,179483.0781250000,167266.6250000000,142690.4218750000,166334.2187500000,178858.0156250000,,,
1.5039999976,11,178438.6250000000,167216.8437500000,193000.7656250000,179447.6406250000,167285.7812500000,142723.7187500000,166364.1250000000,178440.6562500000,,,
1.5079999976,11,178414.3125000000,167206.0312500000,192974.7187500000,179392.2187500000,167264.3437500000,142721.3593750000,166321.9062500000,178732.4531250000,,,
1.5119999975,11,178377.2187500000,167164.7343750000,192937.4843750000,179378.5468750000,167230.6875000000,142683.2343750000,166301.0312500000,179339.7031250000,,,
1.5159999975,11,178407.5312500000,167180.9843750000,192964.0781250000,179455.5781250000,167252.4687500000,142708.7812500000,166377.0781250000,179372.4843750000,,,
1.5199999977,11,178446.2031250000,167226.6093750000,193008.4062500000,179443.7968750000,167291.2187500000,142744.3437500000,166420.4218750000,178822.7656250000,,,
1.5239999976,11,178422.9218750000,167219.0781250000,192970.0000000000,179411.0625000000,167261.2031250000,142713.0468750000,166388.3437500000,178400.7187500000,,,
1.5279999976,11,178363.1406250000,167157.0000000000,192912.4843750000,179369.8281250000,167202.5156250000,142677.6093750000,166303.6093750000,178739.2968750000,,,
1.5319999976,11,178359.5156250000,167141.0000000000,192899.5937500000,179412.6875000000,167193.6718750000,142687.6406250000,166297.7812500000,179342.5468750000,,,
1.5359999975,12,178383.7968750000,167148.5625000000,192934.3750000000,179455.5781250000,167225.1875000000,142713.5000000000,166332.9218750000,179404.1093750000,,,
1.5399999975,12,178434.1406250000,167208.5000000000,192990.7031250000,179464.2968750000,167281.2500000000,142766.2343750000,166410.5156250000,178846.6406250000,,,
1.5439999974,12,178427.7812500000,167223.0937500000,192979.7343750000,179423.1250000000,167269.6875000000,142753.4531250000,166416.3593750000,178380.3906250000,,,
1.5479999974,12,178394.6875000000,167178.8906250000,192948.4531250000,179407.7031250000,167236.0468750000,142746.2187500000,166374.3906250000,178650.8906250000,,,
1.5519999973,12,178396.7187500000,167180.5312500000,192948.5625000000,179435.5468750000,167235.2500000000,142744.9375000000,166367.6562500000,179209.2187500000,,,
1.5559999973,12,178451.9843750000,167235.3281250000,193009.2968750000,179470.1406250000,167296.0000000000,142776.7187500000,166436.0000000000,179249.2656250000,,,
1.5599999975,12,178439.6718750000,167214.3750000000,193002.3437500000,179461.8750000000,167285.0468750000,142744.7187500000,166401.0781250000,178701.2343750000,,,
1.5639999975,12,178421.0468750000,167198.0937500000,192987.4375000000,179430.8281250000,167271.2343750000,142747.5625000000,166382.0937500000,178269.0468750000,,,
1.5679999974,12,178406.8593750000,167192.5468750000,192968.8750000000,179431.9218750000,167251.5000000000,142735.2812500000,166391.6093750000,178582.8437500000,,,
1.5719999974,12,178364.2656250000,167147.3437500000,192927.1875000000,179418.7812500000,167208.3437500000,142683.9843750000,166339.0625000000,179171.8281250000,,,
1.5759999973,12,178383.2812500000,167159.3906250000,192938.2968750000,179419.5312500000,167225.9375000000,142716.3593750000,166374.7656250000,179191.7343750000,,,
1.5799999975,12,178417.2968750000,167186.8906250000,192982.7968750000,179443.3750000000,167263.7343750000,142717.0312500000,166373.7187500000,178637.4531250000,,,
1.5839999975,12,178423.5937500000,167200.9687500000,192983.2500000000,179450.8906250000,167261.8750000000,142708.5937500000,166382.7656250000,178193.5000000000,,,
1.5879999974,12,178407.1093750000,167186.6718750000,192955.2968750000,179460.2656250000,167236.0312500000,142693.2968750000,166367.8437500000,178464.4531250000,,,
1.5919999974,12,178375.9375000000,167156.0468750000,192921.1250000000,179420.8750000000,167202.1718750000,142680.0156250000,166328.3437500000,179054.7031250000,,,
1.5959999973,12,178390.4218750000,167161.4843750000,192938.9375000000,179411.1406250000,167217.0937500000,142672.5625000000,166345.6406250000,179125.6093750000,,,
1.5999999973,12,178425.0156250000,167185.0156250000,192988.6875000000,179440.7187500000,167261.9375000000,142700.7031250000,166388.9218750000,178577.0468750000,,,
1.6039999975,12,178450.0781250000,167213.8125000000,193016.6718750000,179453.8593750000,167287.8437500000,142714.8906250000,166404.2968750000,178140.1093750000,,,
1.6079999974,12,178425.6093750000,167206.2031250000,192978.8750000000,179449.8437500000,167251.6562500000,142698.2031250000,166346.6250000000,178437.0312500000,,,
1.6119999974,12,178396.3281250000,167179.6406250000,192944.6250000000,179475.3281250000,167216.7187500000,142641.5000000000,166288.2187500000,179036.1093750000,,,
1.6159999974,12,178390.6093750000,167157.9375000000,192940.7656250000,179458.3437500000,167215.6718750000,142663.3906250000,166285.2656250000,179129.6406250000,,,
1.6199999973,12,178404.6875000000,167158.5937500000,192961.9843750000,179457.7031250000,167240.1250000000,142683.0000000000,166323.8281250000,178633.6406250000,,,
1.6239999975,12,178426.6562500000,167183.8750000000,192987.2968750000,179448.3906250000,167265.6875000000,142693.1093750000,166349.9531250000,178213.6875000000,,,
1.6279999975,12,178397.7187500000,167170.8750000000,192951.1093750000,179409.6093750000,167229.2656250000,142674.7656250000,166305.9375000000,178483.3281250000,,,
1.6319999974,12,178400.7500000000,167179.4062500000,192948.1718750000,179428.4062500000,167221.9687500000,142675.6718750000,166291.1875000000,179061.2656250000,,,
1.6359999974,12,178392.3281250000,167163.0468750000,192940.4375000000,179441.2343750000,167211.4062500000,142651.2656250000,166274.1093750000,179129.3750000000,,,
1.6399999973,12,178403.3750000000,167163.6250000000,192967.4218750000,179438.8906250000,167237.9531250000,142664.9531250000,166311.2500000000,178600.7656250000,,,
1.6439999973,12,178439.2968750000,167199.6718750000,193017.9843750000,179430.7656250000,167286.5625000000,142710.2968750000,166357.7031250000,178146.6562500000,,,
1.6479999975,12,178405.4375000000,167182.1406250000,192960.5312500000,179396.3281250000,167230.2343750000,142680.0937500000,166303.6562500000,178412.4218750000,,,
1.6519999974,12,178378.8281250000,167158.2968750000,192922.3906250000,179409.8437500000,167196.6718750000,142641.5000000000,166266.2968750000,179018.5937500000,,,
1.6559999974,12,178382.4531250000,167139.4843750000,192934.9687500000,179441.0937500000,167211.0468750000,142625.8437500000,166281.7187500000,179117.7812500000,,,
1.6599999974,12,178405.8437500000,167161.7031250000,192966.9687500000,179449.6250000000,167242.8437500000,142656.0937500000,166309.5937500000,178554.9218750000,,,
1.6639999973,13,178421.7187500000,167176.3125000000,192986.7968750000,179447.5000000000,167262.0156250000,142673.6875000000,166322.9531250000,178085.9687500000,,,
1.6679999973,13,178395.1875000000,167156.4687500000,192952.8593750000,179416.0156250000,167227.3281250000,142652.7500000000,166278.6875000000,178367.7343750000,,,
1.6719999972,13,178401.8750000000,167166.5468750000,192953.1250000000,179430.1250000000,167222.4218750000,142654.2656250000,166267.7187500000,178943.7031250000,,,
1.6759999972,13,178423.3281250000,167179.6718750000,192976.8593750000,179466.9843750000,167246.4531250000,142669.6406250000,166302.2187500000,179038.9218750000,,,
1.6799999971,13,178432.8281250000,167186.5156250000,192992.6562500000,179480.0156250000,167261.2343750000,142670.7187500000,166317.0468750000,178519.5625000000,,,
1.6839999971,13,178427.5468750000,167181.5000000000,192987.5468750000,179474.4062500000,167255.7968750000,142662.4218750000,166309.9062500000,178073.2812500000,,,
1.6879999973,13,178409.7031250000,167165.5625000000,192965.5000000000,179430.3906250000,167234.4375000000,142649.3125000000,166288.2343750000,178365.7656250000,,,
1.6919999972,13,178388.3750000000,167153.8125000000,192935.4218750000,179402.3437500000,167205.5468750000,142637.1875000000,166266.2968750000,178987.9375000000,,,
1.6959999972,13,178397.2343750000,167160.1406250000,192939.3906250000,179413.2500000000,167206.3593750000,142628.8750000000,166260.7968750000,179116.0312500000,,,
1.6999999972,13,178402.7656250000,167158.6406250000,192952.6250000000,179423.1562500000,167218.6718750000,142633.3437500000,166268.9062500000,178611.1718750000,,,
1.7039999971,13,178420.2968750000,167186.9062500000,192970.7187500000,179397.2656250000,167235.9375000000,142661.1406250000,166286.8125000000,178162.3281250000,,,
1.7079999973,13,178394.2343750000,167164.8125000000,192937.9531250000,179401.6093750000,167208.1093750000,142639.4687500000,166265.3281250000,178398.8750000000,,,
1.7119999973,13,178358.6093750000,167116.5625000000,192897.0937500000,179400.7343750000,167169.3750000000,142594.2656250000,166222.9218750000,178986.6718750000,,,
1.7159999972,13,178404.2031250000,167153.2500000000,192945.8281250000,179451.8281250000,167218.6406250000,142637.0000000000,166270.1406250000,179091.1718750000,,,
1.7199999972,13,178443.5625000000,167191.6093750000,192993.7968750000,179483.6875000000,167268.1562500000,142672.2968750000,166322.4843750000,178555.5312500000,,,
1.7239999971,13,178415.2343750000,167168.9218750000,192967.0156250000,179458.0468750000,167242.0781250000,142652.9531250000,166297.4687500000,178095.1093750000,,,
1.7279999971,13,178368.1250000000,167127.1250000000,192915.7031250000,179395.2343750000,167189.6250000000,142610.1250000000,166238.3437500000,178348.0937500000,,,
1.7319999973,13,178353.3281250000,167118.3593750000,192894.7343750000,179392.3593750000,167170.0625000000,142602.8593750000,166215.3906250000,178950.9218750000,,,
1.7359999972,13,178395.0000000000,167165.6093750000,192937.0625000000,179447.2656250000,167210.1093750000,142644.4062500000,166259.5156250000,179090.4218750000,,,
1.7399999972,13,178415.5312500000,167179.7500000000,192966.5625000000,179459.5468750000,167237.3906250000,142660.7968750000,166288.5000000000,178609.2031250000,,,
1.7439999972,13,178419.7968750000,167181.1406250000,192973.3281250000,179488.2500000000,167239.6406250000,142655.0468750000,166280.4531250000,178156.1875000000,,,
1.7479999971,13,178371.1875000000,167138.7343750000,192916.4375000000,179431.0312500000,167184.2812500000,142609.0156250000,166232.7968750000,178395.9218750000,,,
1.7519999973,13,178352.4062500000,167113.0781250000,192895.4375000000,179397.2968750000,167164.9375000000,142588.3750000000,166216.8437500000,178959.1875000000,,,
1.7559999973,13,178390.4218750000,167143.3750000000,192935.0156250000,179446.7031250000,167202.6093750000,142613.9062500000,166243.3593750000,179061.1875000000,,,
1.7599999972,13,178413.7812500000,167165.4531250000,192960.9375000000,179481.0000000000,167230.4687500000,142635.0156250000,166264.5000000000,178578.8437500000,,,
1.7639999972,13,178421.5312500000,167178.4062500000,192972.9531250000,179473.9843750000,167244.1718750000,142643.1406250000,166276.4843750000,178121.7968750000,,,
1.7679999971,13,178391.3906250000,167156.5468750000,192938.9375000000,179418.5625000000,167212.9375000000,142625.4843750000,166240.5000000000,178335.5625000000,,,
1.7719999971,13,178392.3750000000,167157.9218750000,192935.0156250000,179419.4843750000,167209.7343750000,142626.2968750000,166237.7343750000,178903.0468750000,,,
1.7759999973,13,178414.4843750000,167171.0937500000,192958.4843750000,179460.7343750000,167230.6875000000,142635.1406250000,166262.0625000000,179048.6875000000,,,
1.7799999972,13,178435.0312500000,167184.6875000000,192981.5000000000,179475.4843750000,167256.6250000000,142652.7656250000,166291.4531250000,178603.3125000000,,,
1.7839999972,13,178426.1406250000,167181.9843750000,192974.1875000000,179433.9531250000,167250.7968750000,142644.5625000000,166284.1875000000,178156.5781250000,,,
1.7879999971,13,178397.7500000000,167162.9843750000,192941.5156250000,179405.5781250000,167218.4218750000,142629.3750000000,166251.8125000000,178347.6406250000,,,
1.7919999971,14,178387.4218750000,167146.1093750000,192924.9062500000,179415.0000000000,167202.2500000000,142618.2812500000,166238.2187500000,178880.0625000000,,,
1.7959999971,14,178405.9843750000,167158.1562500000,192941.3593750000,179447.0781250000,167216.0625000000,142628.6875000000,166251.0625000000,179010.3593750000,,,
1.7999999970,14,178428.0781250000,167180.5312500000,192975.4218750000,179447.4062500000,167247.0000000000,142652.0781250000,166285.2031250000,178542.4218750000,,,
1.8039999970,14,178416.1718750000,167170.7656250000,192973.6250000000,179435.3281250000,167246.2500000000,142627.0000000000,166287.3281250000,178104.5781250000,,,
1.8079999969,14,178393.1875000000,167148.9531250000,192949.1875000000,179418.0625000000,167222.6093750000,142592.0468750000,166260.0000000000,178313.4375000000,,,
1.8119999969,14,178383.9843750000,167144.5312500000,192930.6562500000,179423.9531250000,167207.6406250000,142577.9843750000,166237.2500000000,178884.3281250000,,,
1.8159999971,14,178409.5937500000,167166.5000000000,192954.2812500000,179455.5000000000,167231.5156250000,142597.7500000000,166257.3593750000,179023.7500000000,,,
1.8199999970,14,178428.0468750000,167177.2343750000,192980.1406250000,179454.9843750000,167256.2187500000,142618.7031250000,166291.1562500000,178565.1093750000,,,
1.8239999970,14,178418.3125000000,167165.5625000000,192976.1875000000,179433.1250000000,167252.7812500000,142607.7968750000,166282.1250000000,178113.0781250000,,,
1.8279999970,14,178384.9687500000,167138.6250000000,192934.1718750000,179412.6562500000,167215.0781250000,142574.0000000000,166241.2656250000,178308.9062500000,,,
1.8319999969,14,178390.4218750000,167144.9375000000,192929.4687500000,179451.1250000000,167210.3281250000,142574.2343750000,166245.2968750000,178870.1093750000,,,
1.8359999971,14,178418.2031250000,167166.3906250000,192959.7187500000,179484.0937500000,167238.4375000000,142598.7968750000,166275.0156250000,179035.5468750000,,,
1.8399999971,14,178445.0312500000,167193.0000000000,193003.3906250000,179461.1250000000,167277.6718750000,142621.0937500000,166313.0468750000,178586.7031250000,,,
1.8439999970,14,178435.5312500000,167189.6406250000,193005.0781250000,179405.0156250000,167278.4843750000,142617.3437500000,166308.5937500000,178123.6250000000,,,
1.8479999970,14,178381.4687500000,167138.1562500000,192939.3437500000,179408.4062500000,167220.4375000000,142564.7343750000,166207.9531250000,178305.7968750000,,,
1.8519999969,14,178359.3906250000,167114.4062500000,192912.0156250000,179396.7031250000,167193.7500000000,142540.0312500000,166184.7656250000,178875.5000000000,,,
1.8559999969,14,178377.4687500000,167129.4843750000,192922.2343750000,179416.9843750000,167201.1875000000,142560.1875000000,166245.6718750000,179041.5312500000,,,
1.8599999971,14,178404.3750000000,167149.2812500000,192955.0312500000,179438.4375000000,167227.7031250000,142592.3593750000,166300.9843750000,178584.1250000000,,,
1.8639999970,14,178403.1093750000,167151.3437500000,192957.3593750000,179425.3437500000,167230.0937500000,142596.4687500000,166295.7187500000,178110.1562500000,,,
1.8679999970,14,178389.3750000000,167144.1875000000,192940.5781250000,179411.0781250000,167212.8750000000,142583.1406250000,166267.4531250000,178258.0000000000,,,
1.8719999969,14,178377.6875000000,167132.8593750000,192922.8125000000,179409.4687500000,167193.7187500000,142565.4062500000,166242.6406250000,178827.5937500000,,,
1.8759999969,14,178407.4531250000,167168.7343750000,192946.7656250000,179438.3125000000,167217.6562500000,142602.9062500000,166260.6718750000,179029.2656250000,,,
1.8799999971,14,178419.8437500000,167165.0312500000,192970.3750000000,179464.8906250000,167242.7031250000,142607.0156250000,166288.2656250000,178613.7656250000,,,
1.8839999971,14,178392.5468750000,167139.8125000000,192952.0781250000,179430.7343750000,167225.7812500000,142585.3593750000,166272.3906250000,178146.6875000000,,,
1.8879999970,14,178362.3437500000,167117.6250000000,192920.0312500000,179406.8906250000,167194.2343750000,142566.2187500000,166239.2343750000,178300.5937500000,,,
1.8919999970,14,178362.6875000000,167116.3125000000,192919.2031250000,179417.2187500000,167192.7031250000,142564.6875000000,166233.4062500000,178830.4843750000,,,
1.8959999969,14,178391.5000000000,167142.0625000000,192944.6250000000,179448.5000000000,167218.4218750000,142585.6875000000,166248.9375000000,179002.4218750000,,,
1.8999999969,14,178419.2812500000,167177.4375000000,192973.0000000000,179436.1406250000,167247.2656250000,142616.7187500000,166281.6093750000,178605.4531250000,,,
1.9039999971,14,178424.8125000000,167184.8437500000,192982.6250000000,179426.8750000000,167255.4218750000,142627.5781250000,166294.7343750000,178133.2031250000,,,
1.9079999970,14,178377.0312500000,167122.0312500000,192933.0937500000,179441.9843750000,167206.3906250000,142574.2343750000,166248.8593750000,178237.7968750000,,,
1.9119999970,14,178372.5781250000,167124.1250000000,192919.1718750000,179443.0000000000,167193.7031250000,142573.0000000000,166237.1093750000,178755.3125000000,,,
1.9159999969,14,178390.6093750000,167139.6250000000,192936.4687500000,179457.0312500000,167212.0937500000,142588.5625000000,166258.6875000000,178920.8281250000,,,
1.9199999969,15,178387.3906250000,167136.9375000000,192937.1093750000,179426.7500000000,167214.5625000000,142595.6718750000,166265.2187500000,178517.2343750000,,,
1.9239999969,15,178376.8281250000,167131.3906250000,192928.7187500000,179402.5468750000,167206.1093750000,142598.4062500000,166254.6875000000,178074.4843750000,,,
1.9279999968,15,178368.4843750000,167130.8281250000,192915.5781250000,179398.4687500000,167192.7343750000,142594.7500000000,166233.9843750000,178203.0156250000,,,
1.9319999968,15,178357.8906250000,167116.9375000000,192902.1718750000,179394.6875000000,167177.0468750000,142574.2031250000,166213.8281250000,178705.8437500000,,,
1.9359999967,15,178387.4218750000,167138.3593750000,192935.2031250000,179410.4687500000,167209.0156250000,142589.5468750000,166244.0625000000,178867.3906250000,,,
1.9399999967,15,178416.3593750000,167166.7656250000,192967.5781250000,179438.7031250000,167240.9843750000,142620.8281250000,166274.0781250000,178455.4375000000,,,
1.9439999969,15,178414.6718750000,167173.9062500000,192967.6093750000,179426.9531250000,167241.3593750000,142630.3750000000,166273.7031250000,177988.7656250000,,,
1.9479999968,15,178391.4375000000,167149.3125000000,192943.3906250000,179432.3281250000,167218.0468750000,142608.4843750000,166253.3125000000,178098.2812500000,,,
1.9519999968,15,178361.3125000000,167115.8593750000,192903.6406250000,179428.2187500000,167180.9375000000,142577.9062500000,166221.6718750000,178628.3593750000,,,
1.9559999967,15,178381.8125000000,167129.1875000000,192925.2031250000,179435.3593750000,167201.0937500000,142589.3281250000,166242.2968750000,178821.2031250000,,,
1.9599999967,15,178392.6406250000,167135.7968750000,192945.3750000000,179438.3125000000,167219.5000000000,142595.0781250000,166242.3750000000,178448.5156250000,,,
1.9639999969,15,178389.2343750000,167137.4843750000,192947.9218750000,179414.5625000000,167222.9375000000,142601.4531250000,166243.6093750000,177985.6406250000,,,
1.9679999969,15,178364.7187500000,167122.1875000000,192917.2656250000,179389.9531250000,167194.2656250000,142583.2187500000,166230.3750000000,178094.7656250000,,,
1.9719999968,15,178346.9218750000,167105.7812500000,192893.0937500000,179382.7812500000,167171.0000000000,142568.7031250000,166217.3437500000,178615.0000000000,,,
1.9759999968,15,178356.4843750000,167103.7656250000,192904.0625000000,179399.4062500000,167180.7656250000,142568.1250000000,166229.3437500000,178824.9843750000,,,
1.9799999967,15,178387.6093750000,167133.0781250000,192940.7343750000,179434.7343750000,167213.1718750000,142593.3281250000,166262.5937500000,178471.3437500000,,,
1.9839999967,15,178402.3281250000,167152.8281250000,192966.1406250000,179435.4062500000,167233.2656250000,142608.0781250000,166285.6562500000,178013.3750000000,,,
1.9879999969,15,178368.3437500000,167129.8281250000,192927.1406250000,179387.8750000000,167199.0937500000,142585.9218750000,166244.5937500000,178123.0625000000,,,
1.9919999968,15,178336.6406250000,167093.0156250000,192889.6875000000,179405.8437500000,167167.2812500000,142557.3437500000,166204.2812500000,178637.1093750000,,,
1.9959999968,15,178375.5937500000,167125.6250000000,192928.0468750000,179468.1250000000,167202.5781250000,142587.2500000000,166236.2500000000,178839.6093750000,,,
1.9999999967,15,178374.8906250000,167119.3437500000,192932.5781250000,179450.8906250000,167205.0781250000,142582.7031250000,166242.7187500000,178470.4843750000,,,
2.0039999967,15,178372.5000000000,167120.5781250000,192933.7812500000,179413.8906250000,167206.2812500000,142585.6875000000,166245.5937500000,177999.7500000000,,,
2.0079999969,15,178348.7656250000,167101.5312500000,192904.3906250000,179396.0312500000,167180.0468750000,142566.3750000000,166219.4375000000,178101.2031250000,,,
2.0119999968,15,178339.0625000000,167091.9062500000,192888.7343750000,179397.6093750000,167167.9218750000,142556.6875000000,166207.3750000000,178667.1406250000,,,
2.0159999968,15,178379.2343750000,167134.5781250000,192927.0781250000,179434.7187500000,167205.7656250000,142591.3750000000,166238.4843750000,178928.3906250000,,,
2.0199999968,15,178412.0625000000,167169.8593750000,192967.4531250000,179448.2812500000,167244.5468750000,142625.2187500000,166265.7031250000,178579.6562500000,,,
2.0239999967,15,178384.5937500000,167131.7656250000,192951.3906250000,179426.2031250000,167228.7500000000,142595.5312500000,166251.6718750000,178106.7500000000,,,
2.0279999967,15,178351.9062500000,167100.2812500000,192911.0468750000,179393.4843750000,167188.8437500000,142562.0000000000,166235.5312500000,178192.4218750000,,,
2.0319999969,15,178355.4375000000,167104.8906250000,192905.4062500000,179398.9531250000,167183.8281250000,142562.1718750000,166232.2031250000,178721.6250000000,,,
2.0359999968,15,178385.7187500000,167130.2343750000,192933.9531250000,179443.7968750000,167209.0937500000,142589.1406250000,166252.8593750000,178939.2812500000,,,
2.0399999968,15,178409.5156250000,167150.9687500000,192966.3281250000,179470.0156250000,167238.1406250000,142614.9843750000,166277.0781250000,178556.3125000000,,,
2.0439999967,15,178403.3750000000,167146.9531250000,192965.2500000000,179456.6718750000,167237.3437500000,142614.2187500000,166270.1875000000,178073.3281250000,,,
2.0479999967,16,178382.0468750000,167133.5156250000,192938.3281250000,179428.2968750000,167213.9531250000,142604.9218750000,166246.9531250000,178137.0781250000,,,
2.0519999966,16,178380.3906250000,167134.6093750000,192930.2500000000,179433.7968750000,167207.0000000000,142603.0468750000,166239.4687500000,178629.0000000000,,,
2.0559999966,16,178390.4218750000,167141.7187500000,192940.7031250000,179441.0937500000,167218.6093750000,142606.2656250000,166255.5625000000,178850.4531250000,,,
2.0599999966,16,178408.0468750000,167156.7968750000,192968.6250000000,179456.5156250000,167246.8281250000,142623.9062500000,166254.8437500000,178503.0468750000,,,
2.0639999965,16,178418.6406250000,167171.4375000000,192984.2343750000,179474.1093750000,167264.7500000000,142636.1406250000,166221.8593750000,178033.3437500000,,,
2.0679999965,16,178393.3906250000,167151.7187500000,192946.3437500000,179446.1406250000,167229.6406250000,142619.0468750000,166238.2968750000,178095.5625000000,,,
2.0719999967,16,178362.0468750000,167121.3281250000,192908.4218750000,179405.9843750000,167188.8125000000,142595.2656250000,166255.6562500000,178594.2187500000,,,
2.0759999966,16,178383.0937500000,167134.0781250000,192935.4531250000,179422.1562500000,167211.4531250000,142605.5156250000,166285.6093750000,178803.5625000000,,,
2.0799999966,16,178425.8750000000,167173.6406250000,192985.5000000000,179473.8750000000,167258.4687500000,142637.7187500000,166322.4687500000,178451.5156250000,,,
2.0839999965,16,178412.0937500000,167166.9375000000,192971.1250000000,179443.6406250000,167248.5781250000,142636.5937500000,166303.8281250000,177975.1562500000,,,
2.0879999965,16,178381.3750000000,167137.2343750000,192937.8437500000,179424.2031250000,167219.8281250000,142610.5468750000,166266.4843750000,178039.4531250000,,,
2.0919999967,16,178363.9531250000,167118.4375000000,192914.7500000000,179410.2500000000,167197.5625000000,142589.3125000000,166234.5625000000,178540.0000000000,,,
2.0959999966,16,178386.3437500000,167139.3593750000,192935.9062500000,179432.9218750000,167218.2968750000,142610.9062500000,166249.9687500000,178766.2031250000,,,
2.0999999966,16,178410.9687500000,167154.5937500000,192967.3750000000,179455.8281250000,167248.9843750000,142626.0625000000,166280.1406250000,178419.9843750000,,,
2.1039999966,16,178400.6406250000,167143.3750000000,192964.6562500000,179435.2500000000,167245.7656250000,142616.6406250000,166280.4375000000,177956.2031250000,,,
2.1079999965,16,178372.7968750000,167125.5156250000,192932.1718750000,179400.3281250000,167211.7031250000,142595.1250000000,166242.4531250000,178047.5000000000,,,
2.1119999965,16,178362.8750000000,167118.7343750000,192918.4687500000,179401.2187500000,167197.2187500000,142591.5156250000,166217.7500000000,178589.8437500000,,,
2.1159999967,16,178383.2656250000,167137.7500000000,192938.0781250000,179432.4062500000,167217.9531250000,142614.0937500000,166240.0312500000,178848.8906250000,,,
2.1199999966,16,178411.6562500000,167169.9531250000,192970.6093750000,179467.1406250000,167251.7968750000,142644.4843750000,166274.6875000000,178503.2031250000,,,
2.1239999966,16,178401.0937500000,167152.7968750000,192970.5625000000,179453.5937500000,167252.5468750000,142631.3437500000,166263.2656250000,178010.9687500000,,,
2.1279999965,16,178363.8437500000,167118.7812500000,192925.4531250000,179392.0937500000,167210.4062500000,142601.8593750000,166219.1718750000,178075.9843750000,,,
2.1319999965,16,178357.2656250000,167110.6093750000,192909.0781250000,179404.4218750000,167193.0468750000,142585.3125000000,166218.9062500000,178605.8750000000,,,
2.1359999967,16,178376.8281250000,167120.0937500000,192928.6093750000,179432.9218750000,167209.0468750000,142591.0468750000,166247.0625000000,178841.1093750000,,,
2.1399999966,16,178400.7968750000,167142.1718750000,192959.2500000000,179445.7968750000,167237.9218750000,142616.4218750000,166277.7031250000,178461.1562500000,,,
2.1439999966,16,178405.7031250000,167155.3125000000,192966.2187500000,179431.6875000000,167245.9687500000,142633.5625000000,166283.0000000000,177958.7187500000,,,
2.1479999966,16,178382.5625000000,167137.7812500000,192935.9687500000,179416.1718750000,167216.2031250000,142613.0937500000,166249.9687500000,178026.9531250000,,,
2.1519999965,16,178366.3281250000,167127.2343750000,192914.2343750000,179412.6875000000,167194.3906250000,142603.4375000000,166221.6875000000,178561.2812500000,,,
2.1559999965,16,178379.3437500000,167137.6718750000,192932.5000000000,179431.4687500000,167212.2812500000,142617.1250000000,166223.4687500000,178800.9375000000,,,
2.1599999967,16,178396.0000000000,167155.0937500000,192954.6093750000,179425.7031250000,167234.0312500000,142636.8437500000,166238.7812500000,178425.9843750000,,,
2.1639999966,16,178392.5156250000,167152.3593750000,192956.2187500000,179426.3906250000,167236.1875000000,142639.8750000000,166258.3281250000,177914.3750000000,,,
2.1679999966,16,178362.6875000000,167117.9062500000,192923.6718750000,179408.2656250000,167204.8593750000,142604.4375000000,166243.2031250000,177987.2343750000,,,
2.1719999965,16,178348.3906250000,167100.5781250000,192902.5937500000,179396.8593750000,167183.4218750000,142580.5937500000,166222.9062500000,178541.2343750000,,,
2.1759999965,17,178375.0000000000,167127.3437500000,192926.5781250000,179421.3593750000,167207.2187500000,142603.9218750000,166236.5781250000,178798.2031250000,,,
2.1799999964,17,178404.8281250000,167158.3125000000,192957.3593750000,179439.3281250000,167238.2968750000,142636.7500000000,166266.1093750000,178459.6250000000,,,
2.1839999964,17,178411.5312500000,167164.6250000000,192971.1250000000,179433.5312500000,167251.3906250000,142643.6718750000,166285.2031250000,177964.8906250000,,,
2.1879999964,17,178391.0156250000,167148.1250000000,192950.0468750000,179410.3906250000,167233.0156250000,142630.5937500000,166264.7656250000,178019.1250000000,,,
2.1919999963,17,178362.9218750000,167117.2343750000,192917.2968750000,179417.6250000000,167199.6718750000,142598.4531250000,166230.1406250000,178539.0468750000,,,
2.1959999963,17,178369.0937500000,167117.7343750000,192925.2031250000,179431.9687500000,167205.7656250000,142597.7031250000,166230.4062500000,178822.8437500000,,,
2.1999999965,17,178402.8437500000,167149.5468750000,192967.2968750000,179448.3593750000,167243.5000000000,142623.0781250000,166265.2031250000,178474.2187500000,,,
2.2039999964,17,178422.2031250000,167171.4843750000,192992.7656250000,179459.8750000000,167268.6406250000,142653.5937500000,166295.2656250000,177932.7031250000,,,
2.2079999964,17,178390.9375000000,167146.4375000000,192959.4531250000,179418.9375000000,167237.8281250000,142635.3593750000,166262.6562500000,177955.9843750000,,,
2.2119999963,17,178369.8437500000,167128.6875000000,192928.9843750000,179404.6250000000,167208.7968750000,142610.3593750000,166235.3125000000,178473.9375000000,,,
2.2159999963,17,178397.3437500000,167152.9843750000,192952.7500000000,179449.8125000000,167231.1406250000,142624.7968750000,166256.5000000000,178729.5312500000,,,
2.2199999965,17,178428.5625000000,167171.3281250000,192996.5312500000,179465.5312500000,167270.5937500000,142646.5781250000,166297.1406250000,178391.6875000000,,,
2.2239999964,17,178400.1875000000,167137.1562500000,192969.9375000000,179423.6406250000,167248.1406250000,142624.1562500000,166280.1093750000,177898.2031250000,,,
2.2279999964,17,178371.1093750000,167115.1562500000,192931.9375000000,179392.7656250000,167214.0781250000,142606.3906250000,166246.9843750000,177958.4531250000,,,
2.2319999964,17,178373.4375000000,167118.7500000000,192927.3750000000,179405.3125000000,167207.2656250000,142605.5156250000,166235.5000000000,178482.8750000000,,,
2.2359999963,17,178398.0937500000,167142.1406250000,192947.5000000000,179448.8750000000,167224.1718750000,142618.5468750000,166245.2187500000,178772.3593750000,,,
2.2399999963,17,178427.6718750000,167177.5781250000,192981.5781250000,179459.1406250000,167257.6093750000,142651.1093750000,166275.0156250000,178455.3593750000,,,
2.2439999965,17,178428.5000000000,167183.2656250000,192989.7343750000,179452.3906250000,167268.0468750000,142659.9062500000,166295.9375000000,177949.6562500000,,,
2.2479999964,17,178388.3593750000,167140.1406250000,192947.6562500000,179432.7812500000,167227.3593750000,142616.6875000000,166263.5625000000,177968.5625000000,,,
2.2519999964,17,178375.2656250000,167124.2343750000,192927.7812500000,179429.1093750000,167209.1406250000,142601.6406250000,166244.0156250000,178474.1093750000,,,
2.2559999963,17,178395.9218750000,167145.5312500000,192946.6406250000,179437.8437500000,167227.9218750000,142627.3750000000,166261.3906250000,178752.5781250000,,,
2.2599999963,17,178429.2812500000,167175.7343750000,192987.0000000000,179477.5156250000,167266.7031250000,142657.9687500000,166297.2187500000,178421.0000000000,,,
2.2639999965,17,178430.7031250000,167173.3906250000,192997.6562500000,179475.6093750000,167279.1250000000,142662.0000000000,166309.8281250000,177912.8593750000,,,
2.2679999964,17,178404.9062500000,167155.9531250000,192969.0000000000,179429.5937500000,167252.5937500000,142643.4843750000,166283.7031250000,177953.9687500000,,,
2.2719999964,17,178376.2343750000,167125.0000000000,192936.0156250000,179427.5781250000,167219.0781250000,142610.3906250000,166246.1250000000,178491.6718750000,,,
2.2759999963,17,178377.7031250000,167117.5000000000,192935.0781250000,179436.9843750000,167217.7343750000,142601.1093750000,166247.4687500000,178790.2500000000,,,
2.2799999963,17,178399.9687500000,167134.6093750000,192963.7968750000,179448.0625000000,167241.8750000000,142625.4843750000,166277.2187500000,178462.7656250000,,,
2.2839999963,17,178404.9062500000,167146.4062500000,192975.4375000000,179425.2656250000,167248.0468750000,142634.8281250000,166283.9531250000,177976.8437500000,,,
2.2879999964,17,178373.5000000000,167121.1718750000,192937.7343750000,179393.0781250000,167212.6406250000,142615.1093750000,166247.0937500000,178006.4687500000,,,
2.2919999964,17,178360.8593750000,167107.7812500000,192918.4218750000,179399.3906250000,167194.1875000000,142601.4375000000,166219.6250000000,178533.7031250000,,,
2.2959999964,17,178386.8281250000,167124.6562500000,192944.5468750000,179431.5468750000,167222.0781250000,142611.8437500000,166241.4531250000,178828.5625000000,,,
2.2999999963,17,178415.1718750000,167145.7968750000,192976.2968750000,179449.4062500000,167254.2343750000,142633.5625000000,166277.2187500000,178513.0781250000,,,
2.3039999963,18,178415.6875000000,167150.8125000000,192978.9843750000,179429.0781250000,167257.4843750000,142639.2187500000,166284.4531250000,178003.4531250000,,,
2.3079999962,18,178398.8750000000,167142.5156250000,192958.1718750000,179411.6718750000,167237.7187500000,142627.6718750000,166260.2031250000,178038.1875000000,,,
2.3119999962,18,178384.8437500000,167130.1250000000,192938.8593750000,179410.7812500000,167215.6093750000,142611.9531250000,166244.8437500000,178574.0781250000,,,
2.3159999961,18,178405.9218750000,167148.4218750000,192959.8906250000,179440.8281250000,167233.4531250000,142625.8906250000,166274.6875000000,178854.9062500000,,,
2.3199999961,18,178421.8593750000,167165.1562500000,192979.2187500000,179462.7187500000,167254.6718750000,142645.0781250000,166298.7500000000,178501.9531250000,,,
2.3239999961,18,178423.4843750000,167173.2812500000,192988.7968750000,179452.7968750000,167265.8750000000,142659.0156250000,166302.2343750000,177967.8125000000,,,
2.3279999963,18,178412.0625000000,167164.4687500000,192976.4687500000,179427.6250000000,167252.7812500000,142649.3906250000,166282.9062500000,177979.7812500000,,,
2.3319999962,18,178389.2656250000,167137.1562500000,192943.2031250000,179448.3593750000,167221.4375000000,142614.5000000000,166257.8750000000,178504.4687500000,,,
2.3359999962,18,178426.1406250000,167171.9531250000,192977.4062500000,179485.2656250000,167256.2968750000,142638.5781250000,166283.4062500000,178790.2812500000,,,
2.3399999961,18,178442.8281250000,167182.8906250000,192997.3593750000,179490.6406250000,167277.8906250000,142656.9531250000,166295.1875000000,178442.9062500000,,,
2.3439999961,18,178408.6562500000,167149.6250000000,192970.1250000000,179442.9687500000,167252.4062500000,142636.3593750000,166274.5781250000,177926.1875000000,,,
2.3479999963,18,178379.0781250000,167133.1875000000,192933.5000000000,179429.5312500000,167217.0625000000,142618.7812500000,166250.9843750000,177963.9531250000,,,
2.3519999962,18,178364.6250000000,167125.0625000000,192910.5625000000,179424.5000000000,167193.8906250000,142608.8125000000,166236.0468750000,178515.5156250000,,,
2.3559999962,18,178384.7343750000,167141.9375000000,192935.5000000000,179429.2343750000,167215.0781250000,142626.5625000000,166255.1093750000,178820.2968750000,,,
2.3599999961,18,178417.7031250000,167173.9375000000,192975.6562500000,179426.3906250000,167253.9375000000,142658.8593750000,166285.4531250000,178504.6562500000,,,
2.3639999961,18,178420.8437500000,167179.4218750000,192980.7031250000,179418.8281250000,167261.8750000000,142665.7500000000,166280.1406250000,178004.2656250000,,,
2.3679999961,18,178376.7656250000,167120.3125000000,192941.7031250000,179410.1406250000,167225.0468750000,142614.2500000000,166260.2031250000,178018.8750000000,,,
2.3719999962,18,178365.5781250000,167104.6718750000,192925.5000000000,179405.6406250000,167209.6250000000,142602.1875000000,166256.1093750000,178539.1250000000,,,
2.3759999962,18,178412.2812500000,167143.2968750000,192973.4062500000,179452.6875000000,167255.0937500000,142640.3437500000,166296.9218750000,178819.1718750000,,,
2.3799999962,18,178435.5312500000,167162.7187500000,193001.6718750000,179473.1718750000,167283.4375000000,142657.0937500000,166316.8906250000,178511.8437500000,,,
2.3839999961,18,178437.1718750000,167164.0312500000,193012.5312500000,179466.8437500000,167293.3906250000,142655.7968750000,166328.2812500000,177990.3750000000,,,
2.3879999961,18,178415.0937500000,167148.2656250000,192985.8750000000,179434.8750000000,167263.6250000000,142635.8437500000,166295.2187500000,177985.7343750000,,,
2.3919999963,18,178400.9375000000,167148.9531250000,192958.9531250000,179420.0937500000,167235.9687500000,142625.6718750000,166266.9218750000,178514.1250000000,,,
2.3959999962,18,178427.6562500000,167170.3125000000,192986.0625000000,179467.5156250000,167259.5937500000,142637.9687500000,166291.2187500000,178854.0937500000,,,
2.3999999962,18,178434.6562500000,167168.4531250000,192999.3437500000,179477.4687500000,167271.1093750000,142645.0937500000,166301.0312500000,178579.5625000000,,,
2.4039999961,18,178410.7500000000,167144.6406250000,192982.0156250000,179428.2500000000,167256.4687500000,142633.1875000000,166287.9687500000,178072.1250000000,,,
2.4079999961,18,178401.5468750000,167146.6718750000,192966.1406250000,179415.3125000000,167243.3750000000,142636.8906250000,166275.1718750000,178016.8750000000,,,
2.4119999961,18,178396.6406250000,167148.0937500000,192957.2031250000,179424.1718750000,167232.8125000000,142637.6406250000,166264.4218750000,178517.6406250000,,,
2.4159999962,18,178415.7656250000,167163.3906250000,192973.2656250000,179455.5781250000,167250.4062500000,142648.5781250000,166282.7968750000,178830.5937500000,,,
2.4199999962,18,178428.7187500000,167165.7031250000,192993.3593750000,179473.7187500000,167273.3281250000,142654.8281250000,166308.3281250000,178551.0781250000,,,
2.4239999962,18,178432.9843750000,167171.6718750000,193002.8593750000,179464.5937500000,167285.0312500000,142666.5625000000,166318.2500000000,178064.0468750000,,,
2.4279999961,18,178409.9687500000,167152.3125000000,192979.5781250000,179442.5781250000,167262.3437500000,142655.6406250000,166287.0781250000,178086.1718750000,,,
2.4319999961,19,178378.7031250000,167123.5781250000,192942.0468750000,179417.6250000000,167223.6562500000,142626.5625000000,166231.5937500000,178657.6562500000,,,
2.4359999960,19,178370.8125000000,167111.2500000000,192933.4375000000,179420.5000000000,167213.3593750000,142616.6875000000,166232.7656250000,178999.0156250000,,,
2.4399999960,19,178405.3593750000,167145.9062500000,192969.4375000000,179441.4375000000,167249.8125000000,142650.4687500000,166276.8593750000,178716.5156250000,,,
2.4439999959,19,178416.8593750000,167155.1875000000,192989.6250000000,179427.5781250000,167271.7812500000,142663.1718750000,166301.8593750000,178187.1875000000,,,
2.4479999959,19,178396.7812500000,167138.6250000000,192967.7500000000,179407.2500000000,167251.8437500000,142647.5468750000,166283.8906250000,178154.9687500000,,,
2.4519999959,19,178389.2187500000,167134.2343750000,192956.3437500000,179402.4375000000,167239.1875000000,142641.6406250000,166267.7500000000,178655.5000000000,,,
2.4559999960,19,178415.1562500000,167159.1562500000,192986.1406250000,179436.4062500000,167265.4531250000,142663.3125000000,166289.5000000000,178984.2343750000,,,
2.4599999960,19,178415.6406250000,167154.7187500000,192993.2500000000,179437.6093750000,167272.2031250000,142663.1250000000,166299.8281250000,178712.6562500000,,,
2.4639999960,19,178421.5312500000,167163.7656250000,193001.2968750000,179443.5937500000,167282.2656250000,142674.7968750000,166320.1562500000,178181.6093750000,,,
2.4679999959,19,178393.3125000000,167145.4687500000,192964.2031250000,179426.9843750000,167248.6250000000,142655.5312500000,166289.6875000000,178145.6093750000,,,
2.4719999959,19,178363.0625000000,167116.0468750000,192929.9218750000,179405.7187500000,167212.8437500000,142620.8437500000,166250.7968750000,178663.1718750000,,,
2.4759999961,19,178401.6562500000,167156.7968750000,192968.1718750000,179438.4062500000,167248.9218750000,142654.4843750000,166283.1093750000,178998.2968750000,,,
2.4799999960,19,178426.3593750000,167171.7031250000,192996.8437500000,179457.6406250000,167279.5312500000,142670.3593750000,166309.8281250000,178700.0781250000,,,
2.4839999960,19,178424.2656250000,167161.1562500000,193000.7031250000,179460.5156250000,167282.1562500000,142660.0625000000,166307.7968750000,178177.6875000000,,,
2.4879999959,19,178400.0781250000,167142.5156250000,192970.7031250000,179428.0000000000,167251.3906250000,142639.3281250000,166269.4375000000,178169.3593750000,,,
2.4919999959,19,178385.9375000000,167128.9531250000,192952.0625000000,179404.5156250000,167230.4687500000,142624.8437500000,166247.8437500000,178671.5937500000,,,
2.4959999959,19,178409.8125000000,167152.2812500000,192976.9531250000,179423.0937500000,167251.9531250000,142648.3750000000,166273.3281250000,178972.0781250000,,,
2.4999999960,19,178436.4218750000,167174.0156250000,193007.0625000000,179454.6406250000,167281.6406250000,142675.1093750000,166304.1093750000,178685.2812500000,,,
2.5039999960,19,178444.3125000000,167187.0156250000,193017.7656250000,179449.1406250000,167292.8281250000,142688.0156250000,166314.3125000000,178195.2031250000,,,
2.5079999960,19,178414.5000000000,167161.0000000000,192984.2968750000,179427.5781250000,167262.2031250000,142663.1250000000,166286.5000000000,178174.9531250000,,,
2.5119999959,19,178388.8437500000,167128.3125000000,192954.7656250000,179428.2187500000,167233.9062500000,142631.7968750000,166260.5781250000,178706.4687500000,,,
2.5159999959,19,178400.5000000000,167136.9218750000,192964.5312500000,179446.4062500000,167244.5468750000,142639.1718750000,166271.3125000000,179092.0312500000,,,
2.5199999961,19,178438.7812500000,167172.5625000000,193010.0468750000,179471.4843750000,167288.6250000000,142672.3750000000,166314.2500000000,178829.5468750000,,,
2.5239999960,19,178431.9375000000,167166.9062500000,193004.1093750000,179450.0468750000,167288.0781250000,142680.9375000000,166310.5468750000,178316.4375000000,,,
2.5279999960,19,178388.4843750000,167122.0781250000,192961.3906250000,179404.9687500000,167247.4687500000,142640.1093750000,166265.3593750000,178290.2187500000,,,
2.5319999959,19,178379.9843750000,167115.9687500000,192951.3281250000,179398.8750000000,167234.4218750000,142632.9531250000,166253.0781250000,178794.2343750000,,,
2.5359999959,19,178411.9375000000,167146.3593750000,192984.7812500000,179439.7031250000,167265.6093750000,142656.5468750000,166275.2343750000,179114.0000000000,,,
2.5399999958,19,178424.0000000000,167151.4843750000,193007.5781250000,179443.9062500000,167289.2187500000,142661.4062500000,166304.1718750000,178821.6718750000,,,
2.5439999960,19,178431.0000000000,167157.1875000000,193016.2343750000,179453.0625000000,167297.0156250000,142672.4843750000,166329.5937500000,178267.9843750000,,,
2.5479999960,19,178419.6875000000,167154.3750000000,192996.6093750000,179440.2343750000,167277.2031250000,142666.0000000000,166313.0156250000,178193.7656250000,,,
2.5519999960,19,178411.1250000000,167153.7031250000,192981.8281250000,179413.2812500000,167262.3437500000,142655.5937500000,166285.3125000000,178671.1875000000,,,
2.5559999959,19,178446.6718750000,167195.2343750000,193014.1250000000,179440.5000000000,167292.9062500000,142687.2031250000,166302.1093750000,178986.6562500000,,,
2.5599999959,20,178456.0000000000,167197.6093750000,193029.1718750000,179476.5000000000,167306.2656250000,142689.3593750000,166308.5156250000,178712.5781250000,,,
2.5639999958,20,178429.8437500000,167166.3437500000,193006.9062500000,179453.0625000000,167286.0156250000,142675.1875000000,166295.4218750000,178190.9375000000,,,
2.5679999958,20,178398.5468750000,167137.7812500000,192975.6875000000,179409.4687500000,167251.0468750000,142641.5781250000,166278.6406250000,178154.4375000000,,,
2.5719999957,20,178399.0625000000,167155.0000000000,192963.7031250000,179389.8125000000,167239.2187500000,142648.2968750000,166273.6718750000,178677.4375000000,,,
2.5759999957,20,178419.7968750000,167168.2968750000,192985.0000000000,179451.7656250000,167260.1875000000,142662.1250000000,166293.8750000000,179026.3437500000,,,
2.5799999957,20,178429.0781250000,167164.4375000000,193000.0625000000,179478.1406250000,167275.4843750000,142659.7968750000,166306.8750000000,178754.7500000000,,,
2.5839999958,20,178426.0156250000,167164.4062500000,193001.2656250000,179451.3750000000,167278.1562500000,142667.0156250000,166305.0625000000,178245.9062500000,,,
2.5879999958,20,178416.0156250000,167160.0625000000,192993.6562500000,179403.2968750000,167269.3593750000,142660.1250000000,166291.0312500000,178188.4218750000,,,
2.5919999958,20,178410.6718750000,167160.2031250000,192975.5000000000,179440.3750000000,167254.2031250000,142655.9062500000,166267.2343750000,178652.0156250000,,,
2.5959999957,20,178426.2031250000,167170.7343750000,192990.5781250000,179463.9218750000,167269.1562500000,142664.2500000000,166267.2968750000,178991.9531250000,,,
2.5999999957,20,178448.2968750000,167186.9062500000,193019.0312500000,179479.4843750000,167298.1718750000,142682.3593750000,166289.2343750000,178729.1093750000,,,
2.6039999959,20,178447.9531250000,167183.2343750000,193022.7500000000,179458.7968750000,167303.2968750000,142682.3593750000,166307.1250000000,178209.1562500000,,,
2.6079999958,20,178426.7031250000,167162.9375000000,193001.0312500000,179422.0781250000,167281.2500000000,142664.6718750000,166300.6875000000,178170.8281250000,,,
2.6119999958,20,178409.8125000000,167146.3281250000,192978.5781250000,179409.1250000000,167258.5468750000,142644.6093750000,166284.7187500000,178660.5156250000,,,
2.6159999957,20,178421.7500000000,167151.3437500000,192992.2812500000,179429.3437500000,167272.4531250000,142652.3906250000,166302.2343750000,178996.2187500000,,,
2.6199999957,20,178446.5625000000,167166.2656250000,193022.8593750000,179460.9375000000,167301.1718750000,142667.5000000000,166326.9375000000,178738.0937500000,,,
2.6239999956,20,178455.7031250000,167174.2187500000,193034.4531250000,179459.4687500000,167308.2812500000,142673.6406250000,166330.7187500000,178213.2031250000,,,
2.6279999958,20,178411.3750000000,167129.8125000000,192986.2031250000,179434.3437500000,167262.5312500000,142634.0468750000,166278.2656250000,178121.0156250000,,,
2.6319999958,20,178390.6093750000,167114.7031250000,192961.9218750000,179407.8906250000,167239.4531250000,142618.9531250000,166245.3750000000,178552.2343750000,,,
2.6359999957,20,178419.6562500000,167144.7187500000,192987.7500000000,179454.9375000000,167261.8593750000,142645.7187500000,166273.3281250000,178867.5312500000,,,
2.6399999957,20,178453.9062500000,167174.9687500000,193027.7500000000,179477.5781250000,167299.3750000000,142665.5625000000,166325.4375000000,178606.0625000000,,,
2.6439999957,20,178480.8125000000,167205.8437500000,193059.1875000000,179484.0312500000,167333.5000000000,142692.8125000000,166354.0312500000,178071.0468750000,,,
2.6479999959,20,178447.1562500000,167176.6406250000,193024.2031250000,179426.0156250000,167301.4375000000,142663.8437500000,166308.9375000000,178022.7500000000,,,
2.6519999958,20,178411.0000000000,167141.3750000000,192984.2656250000,179405.7187500000,167262.3437500000,142627.5000000000,166275.8125000000,178554.3906250000,,,
2.6559999958,20,178440.7187500000,167170.9062500000,193009.6718750000,179454.7812500000,167289.1562500000,142655.6875000000,166305.5937500000,178915.7031250000,,,
2.6599999957,20,178463.3750000000,167191.3125000000,193035.3125000000,179467.2187500000,167312.6875000000,142665.0781250000,166329.2812500000,178663.8125000000,,,
2.6639999957,20,178478.9843750000,167218.7031250000,193050.5468750000,179452.1718750000,167326.7031250000,142693.9687500000,166341.5937500000,178124.5312500000,,,
2.6679999956,20,178457.6093750000,167205.9531250000,193031.2656250000,179436.6718750000,167309.4375000000,142686.4375000000,166321.6250000000,178031.1875000000,,,
2.6719999958,20,178426.5000000000,167168.7812500000,192996.7187500000,179453.5625000000,167276.7656250000,142654.3281250000,166271.0781250000,178528.1718750000,,,
2.6759999958,20,178423.8906250000,167162.6718750000,192989.2812500000,179482.0468750000,167269.5312500000,142643.4062500000,166279.2500000000,178908.2968750000,,,
2.6799999957,20,178448.0937500000,167183.8281250000,193021.2031250000,179480.3437500000,167298.6250000000,142657.9687500000,166325.2812500000,178685.7343750000,,,
2.6839999957,20,178449.7812500000,167183.5312500000,193034.3437500000,179468.2656250000,167311.1562500000,142663.5781250000,166340.0625000000,178161.3281250000,,,
2.6879999957,21,178426.3906250000,167166.3125000000,193008.3593750000,179430.0156250000,167289.7812500000,142648.8593750000,166315.7343750000,178053.4062500000,,,
2.6919999956,21,178403.8281250000,167149.6093750000,192976.4375000000,179427.0468750000,167259.9218750000,142633.1562500000,166271.9843750000,178538.8281250000,,,
2.6959999956,21,178424.1562500000,167166.3906250000,192993.3593750000,179435.7656250000,167276.6875000000,142647.2500000000,166278.9843750000,178925.4375000000,,,
2.6999999955,21,178450.5000000000,167186.6718750000,193023.0000000000,179456.7812500000,167304.7656250000,142667.6562500000,166320.4218750000,178719.0937500000,,,
2.7039999955,21,178445.1406250000,167177.4375000000,193020.6718750000,179455.5000000000,167303.9062500000,142665.2187500000,166327.5625000000,178209.7812500000,,,
2.7079999954,21,178427.2968750000,167165.0000000000,193004.0625000000,179428.5937500000,167289.7968750000,142654.5468750000,166313.4531250000,178104.1406250000,,,
2.7119999956,21,178407.2187500000,167147.8906250000,192980.5625000000,179408.9375000000,167265.7500000000,142638.9218750000,166284.3281250000,178575.3906250000,,,
2.7159999956,21,178426.4375000000,167161.0000000000,193000.0468750000,179444.6562500000,167281.5468750000,142650.1875000000,166298.9062500000,178942.9218750000,,,
2.7199999955,21,178469.9531250000,167210.0312500000,193042.8750000000,179468.8281250000,167324.3281250000,142691.2031250000,166336.3906250000,178699.2187500000,,,
2.7239999955,21,178462.7343750000,167206.0156250000,193036.5781250000,179459.8750000000,167320.5625000000,142690.9687500000,166332.8906250000,178177.2187500000,,,
2.7279999955,21,178421.8593750000,167161.2500000000,192992.5625000000,179426.1093750000,167279.9843750000,142643.0937500000,166296.4218750000,178098.6562500000,,,
2.7319999957,21,178402.5468750000,167145.5312500000,192967.2343750000,179394.1562500000,167256.1718750000,142621.4375000000,166272.7812500000,178619.2656250000,,,
2.7359999956,21,178434.6562500000,167178.9531250000,192995.2187500000,179432.4375000000,167282.0000000000,142648.7187500000,166295.5937500000,179022.4062500000,,,
2.7399999956,21,178479.2031250000,167223.4218750000,193044.5937500000,179474.6250000000,167329.0937500000,142690.6718750000,166334.8593750000,178771.4531250000,,,
2.7439999955,21,178485.6875000000,167230.0156250000,193058.7500000000,179473.5000000000,167345.3437500000,142701.1250000000,166341.6093750000,178208.6250000000,,,
2.7479999955,21,178457.0937500000,167207.6406250000,193028.0468750000,179454.8593750000,167317.4531250000,142683.2968750000,166323.8906250000,178100.2031250000,,,
2.7519999954,21,178433.9218750000,167193.0781250000,192996.3593750000,179427.8750000000,167286.2812500000,142662.5000000000,166305.3281250000,178604.1406250000,,,
2.7559999956,21,178438.5937500000,167190.2656250000,193002.9843750000,179447.0156250000,167288.9218750000,142655.5000000000,166296.8281250000,179028.9218750000,,,
2.7599999956,21,178454.0937500000,167190.2343750000,193030.3281250000,179468.3125000000,167314.3750000000,142661.0000000000,166318.3125000000,178794.8437500000,,,
2.7639999955,21,178466.0625000000,167202.3906250000,193046.6250000000,179469.1718750000,167329.6093750000,142672.1406250000,166338.0000000000,178232.6250000000,,,
2.7679999955,21,178465.6562500000,167205.5312500000,193046.6875000000,179458.3906250000,167328.5000000000,142672.1562500000,166340.3281250000,178094.0625000000,,,
2.7719999955,21,178416.4375000000,167158.2343750000,192991.9375000000,179423.1250000000,167275.1250000000,142631.3437500000,166292.6093750000,178559.6718750000,,,
2.7759999956,21,178416.0156250000,167157.1875000000,192988.4531250000,179450.5156250000,167271.3281250000,142633.7500000000,166283.5156250000,178950.0156250000,,,
2.7799999956,21,178447.7968750000,167190.4843750000,193022.9531250000,179483.9843750000,167304.6875000000,142666.6875000000,166317.9375000000,178732.9375000000,,,
2.7839999956,21,178454.8437500000,167199.5937500000,193040.9218750000,179467.5625000000,167321.2968750000,142681.8750000000,166335.5781250000,178193.3281250000,,,
2.7879999955,21,178430.7812500000,167173.4531250000,193016.2656250000,179458.3906250000,167299.4531250000,142657.9531250000,166316.5312500000,178055.8437500000,,,
2.7919999955,21,178400.7812500000,167138.1718750000,192979.6250000000,179435.6718750000,167263.3750000000,142621.3593750000,166289.4687500000,178522.5937500000,,,
2.7959999954,21,178415.0625000000,167149.3593750000,192989.3906250000,179460.3593750000,167271.1406250000,142629.7812500000,166291.5625000000,178928.2500000000,,,
2.7999999956,21,178450.9062500000,167180.0781250000,193029.0312500000,179496.7187500000,167309.2812500000,142660.9843750000,166336.3593750000,178717.4375000000,,,
2.8039999956,21,178463.3437500000,167194.7500000000,193050.2812500000,179478.8593750000,167330.1406250000,142683.5937500000,166369.2187500000,178153.6875000000,,,
2.8079999955,21,178434.2812500000,167174.4375000000,193020.7187500000,179449.8437500000,167301.8437500000,142663.8437500000,166337.9062500000,178007.2343750000,,,
2.8119999955,21,178405.2031250000,167152.3906250000,192986.4375000000,179430.6562500000,167270.1718750000,142638.3125000000,166295.9062500000,178472.3125000000,,,
2.8159999955,22,178415.5000000000,167159.9531250000,192994.7500000000,179443.5937500000,167278.7812500000,142643.1875000000,166296.5312500000,178879.9218750000,,,
2.8199999954,22,178445.5625000000,167189.3750000000,193027.6875000000,179456.0156250000,167309.5468750000,142668.5156250000,166329.5156250000,178679.2656250000,,,
2.8239999954,22,178455.8125000000,167195.0937500000,193044.5937500000,179465.9843750000,167328.7968750000,142678.6875000000,166352.8281250000,178132.6562500000,,,
2.8279999953,22,178424.9687500000,167166.5781250000,193010.8281250000,179439.2187500000,167297.8750000000,142652.3906250000,166324.7968750000,178008.2031250000,,,
2.8319999953,22,178415.6406250000,167163.8437500000,192995.2343750000,179425.5625000000,167281.4531250000,142646.5781250000,166307.5156250000,178475.7343750000,,,
2.8359999952,22,178419.2343750000,167160.9687500000,193000.6562500000,179423.6562500000,167282.1875000000,142638.7968750000,166310.1562500000,178886.4218750000,,,
2.8399999954,22,178445.7343750000,167179.9843750000,193030.0000000000,179443.8281250000,167310.0781250000,142658.3437500000,166326.0781250000,178672.2968750000,,,
2.8439999954,22,178448.9687500000,167187.6562500000,193038.2343750000,179438.7812500000,167321.0156250000,142672.4375000000,166311.7656250000,178138.0312500000,,,
2.8479999953,22,178424.3437500000,167172.8281250000,193007.7031250000,179427.6562500000,167292.6406250000,142653.8437500000,166294.7500000000,178016.8437500000,,,
2.8519999953,22,178410.2187500000,167162.3437500000,192982.7968750000,179424.6562500000,167268.6875000000,142638.9843750000,166296.9218750000,178474.4218750000,,,
2.8559999953,22,178432.5000000000,167183.2968750000,193004.7031250000,179458.0156250000,167286.4687500000,142652.7656250000,166325.5156250000,178863.4531250000,,,
2.8599999954,22,178461.4531250000,167203.8906250000,193040.5937500000,179491.5468750000,167320.4375000000,142671.6718750000,166360.0937500000,178649.3906250000,,,
2.8639999954,22,178470.0625000000,167216.0156250000,193054.8125000000,179479.0781250000,167336.7968750000,142689.8593750000,166375.1093750000,178108.0625000000,,,
2.8679999954,22,178433.2031250000,167181.5156250000,193014.9531250000,179465.3437500000,167302.8906250000,142660.4687500000,166339.8437500000,177963.3593750000,,,
2.8719999953,22,178397.4687500000,167139.8125000000,192974.7968750000,179437.6093750000,167264.1093750000,142620.1562500000,166298.8125000000,178416.5937500000,,,
2.8759999953,22,178425.5781250000,167164.0625000000,193002.5312500000,179469.7968750000,167286.9375000000,142639.7812500000,166317.8750000000,178788.1718750000,,,
2.8799999952,22,178451.3593750000,167184.9531250000,193033.0312500000,179490.4218750000,167314.2656250000,142669.7812500000,166341.7500000000,178594.6406250000,,,
2.8839999954,22,178452.7812500000,167184.3593750000,193039.6562500000,179494.8437500000,167320.6406250000,142675.0781250000,166348.5937500000,178061.4687500000,,,
2.8879999954,22,178447.6875000000,167182.4843750000,193034.9062500000,179466.7656250000,167316.0625000000,142676.5312500000,166346.6875000000,177909.5468750000,,,
2.8919999953,22,178419.2500000000,167156.4687500000,192997.1406250000,179456.2187500000,167279.7500000000,142644.2656250000,166308.1875000000,178404.9375000000,,,
2.8959999953,22,178424.7031250000,167156.2343750000,192999.0781250000,179488.1875000000,167280.3906250000,142636.5156250000,166306.4843750000,178845.5156250000,,,
2.8999999953,22,178446.3906250000,167173.0937500000,193027.9062500000,179479.7968750000,167308.5468750000,142660.0625000000,166331.7500000000,178624.3906250000,,,
2.9039999954,22,178462.1093750000,167193.6718750000,193048.0000000000,179459.6875000000,167328.4218750000,142685.9218750000,166351.1875000000,178046.4062500000,,,
2.9079999954,22,178451.5781250000,167192.9218750000,193032.5000000000,179447.2968750000,167312.5468750000,142678.2812500000,166347.3750000000,177878.7812500000,,,
2.9119999954,22,178431.6718750000,167186.2968750000,193002.7500000000,179422.1250000000,167282.3125000000,142661.2656250000,166319.6250000000,178365.6562500000,,,
2.9159999953,22,178421.7500000000,167167.1250000000,192993.8906250000,179437.4218750000,167271.1406250000,142645.6093750000,166303.6562500000,178834.5156250000,,,
2.9199999953,22,178440.7187500000,167184.6250000000,193015.4843750000,179478.4531250000,167292.3750000000,142662.5000000000,166319.5468750000,178664.9687500000,,,
2.9239999952,22,178440.5781250000,167183.1250000000,193019.7343750000,179472.1875000000,167298.5468750000,142663.4375000000,166317.1562500000,178121.3437500000,,,
2.9279999954,22,178427.3750000000,167171.6250000000,193008.0312500000,179444.6093750000,167287.8906250000,142654.2656250000,166312.8906250000,177965.1250000000,,,
2.9319999954,22,178416.1093750000,167166.3593750000,192990.4062500000,179423.7656250000,167268.6875000000,142646.8750000000,166309.2343750000,178410.0781250000,,,
2.9359999953,22,178421.4062500000,167165.4218750000,192994.5937500000,179446.9218750000,167271.3281250000,142642.5468750000,166322.8906250000,178836.6093750000,,,
2.9399999953,22,178439.8593750000,167175.2968750000,193021.3593750000,179469.5781250000,167297.2031250000,142654.3750000000,166348.0781250000,178658.7187500000,,,
2.9439999952,23,178451.1250000000,167188.1718750000,193039.6250000000,179467.2500000000,167314.7968750000,142671.2187500000,166354.8906250000,178101.2812500000,,,
