Time:250Hz,Epoch,Channel 1,Channel 2,Channel 3,Channel 4,Channel 5,Channel 6,Channel 7,Channel 8,Event Id,Event Date,Event Duration
0.0000000000,0,-5767.9570312500,157173.9843750000,191387.3906250000,163183.1562500000,122329.0781250000,140300.5000000000,152998.4062500000,156354.7812500000,,,
0.0040000000,0,-5646.3188476563,157242.2968750000,191485.7656250000,163324.7656250000,122444.4375000000,140394.1562500000,153104.0000000000,156461.5625000000,,,
0.0079999999,0,-5566.4697265625,157321.5781250000,191562.2187500000,163422.5625000000,122513.2109375000,140480.3750000000,153175.1093750000,156550.0781250000,,,
0.0119999999,0,-5629.4746093750,157291.7343750000,191509.4218750000,163322.4375000000,122442.0234375000,140432.8125000000,153117.2187500000,156491.2812500000,,,
0.0159999998,0,-5752.9638671875,157188.5468750000,191389.6406250000,163182.7031250000,122312.0468750000,140323.0781250000,152996.9218750000,156361.2968750000,,,
0.0199999998,0,-5767.7426757813,157149.8125000000,191363.8125000000,163161.7812500000,122294.1015625000,140294.5937500000,152972.2812500000,156338.8437500000,,,
0.0240000000,0,-5631.7812500000,157236.4531250000,191480.6718750000,163301.8437500000,122428.3984375000,140401.9687500000,153094.4218750000,156468.9687500000,,,
0.0279999999,0,-5538.1186523438,157314.4843750000,191566.2656250000,163406.8437500000,122516.8359375000,140483.6875000000,153183.0937500000,156553.5000000000,,,
0.0319999999,0,-5594.0424804688,157291.4843750000,191523.3437500000,163344.3593750000,122458.2031250000,140431.4375000000,153123.9843750000,156498.0625000000,,,
0.0359999998,0,-5713.1596679688,157194.1250000000,191409.2812500000,163216.7812500000,122334.3359375000,140322.5000000000,153001.7187500000,156374.3593750000,,,
0.0399999998,0,-5734.5903320313,157148.5312500000,191377.0000000000,163219.6093750000,122308.0234375000,140301.4687500000,152971.2500000000,156348.5625000000,,,
0.0440000000,0,-5626.1220703125,157209.9531250000,191469.5937500000,163347.8125000000,122419.1484375000,140380.5156250000,153064.7031250000,156449.5781250000,,,
0.0480000000,0,-5539.8085937500,157289.0000000000,191550.4375000000,163381.0468750000,122503.9843750000,140446.8125000000,153147.2968750000,156533.2812500000,,,
0.0519999999,0,-5597.5566406250,157262.6875000000,191499.6718750000,163290.3281250000,122440.7968750000,140390.8593750000,153096.2968750000,156473.3593750000,,,
0.0559999999,0,-5721.3403320313,157159.4687500000,191381.9218750000,163156.8437500000,122314.4062500000,140275.5312500000,152972.1093750000,156346.8906250000,,,
0.0599999998,0,-5738.6406250000,157121.9218750000,191360.5156250000,163163.4843750000,122298.5000000000,140254.4687500000,152945.7968750000,156332.2500000000,,,
0.0639999998,0,-5625.1562500000,157197.4062500000,191460.8593750000,163314.9062500000,122411.1015625000,140339.3906250000,153049.0937500000,156445.8906250000,,,
0.0680000000,0,-5527.4433593750,157289.4531250000,191555.7500000000,163437.3906250000,122507.6093750000,140415.5625000000,153135.2500000000,156546.9687500000,,,
0.0719999999,0,-5603.8593750000,157246.3437500000,191490.0156250000,163368.2968750000,122427.4062500000,140343.6093750000,153061.2968750000,156467.5625000000,,,
0.0759999999,0,-5747.9208984375,157126.0000000000,191350.6406250000,163185.1093750000,122280.1250000000,140214.6875000000,152922.5156250000,156320.2031250000,,,
0.0799999998,0,-5776.6206054688,157075.3281250000,191313.8906250000,163135.9687500000,122250.8359375000,140182.3437500000,152889.9062500000,156288.9687500000,,,
0.0839999998,0,-5651.7104492188,157155.0937500000,191423.4375000000,163276.6250000000,122378.1093750000,140283.9843750000,153000.7656250000,156411.1093750000,,,
0.0880000000,0,-5537.9575195313,157253.1875000000,191528.2500000000,163375.2187500000,122495.3750000000,140377.6406250000,153104.7031250000,156521.6093750000,,,
0.0919999999,0,-5589.8852539063,157239.1562500000,191488.5625000000,163300.9531250000,122446.6171875000,140333.4843750000,153054.2968750000,156475.2968750000,,,
0.0959999999,0,-5717.6123046875,157146.6562500000,191374.9218750000,163166.3593750000,122321.0625000000,140225.2968750000,152933.5937500000,156353.2500000000,,,
0.0999999999,0,-5745.0781250000,157104.0000000000,191342.1406250000,163148.6093750000,122298.7734375000,140192.4062500000,152903.0156250000,156322.4687500000,,,
0.1039999998,0,-5646.9091796875,157161.9687500000,191424.9062500000,163279.9531250000,122400.7187500000,140265.5781250000,152990.2500000000,156416.1562500000,,,
0.1079999998,0,-5554.5605468750,157245.8906250000,191513.1562500000,163373.1875000000,122495.9921875000,140340.5937500000,153077.6562500000,156510.2500000000,,,
0.1120000000,0,-5609.3315429688,157230.4218750000,191471.1562500000,163299.2031250000,122442.5078125000,140298.4531250000,153028.0625000000,156459.7968750000,,,
0.1159999999,0,-5738.1577148438,157141.3437500000,191357.7031250000,163162.2500000000,122315.7734375000,140190.0937500000,152903.8750000000,156339.0312500000,,,
0.1199999999,0,-5772.2753906250,157103.2500000000,191324.6250000000,163147.8593750000,122284.2031250000,140159.3593750000,152868.6875000000,156310.7343750000,,,
0.1239999998,0,-5661.4199218750,157167.2187500000,191423.1718750000,163283.3281250000,122398.9218750000,140246.7812500000,152971.4375000000,156416.8281250000,,,
0.1279999998,1,-5559.6567382813,157252.5156250000,191521.7968750000,163406.8750000000,122498.2187500000,140335.3750000000,153066.7968750000,156517.4531250000,,,
0.1319999998,1,-5605.9785156250,157239.6093750000,191486.0468750000,163326.3281250000,122448.3828125000,140301.8437500000,153024.8750000000,156468.5937500000,,,
0.1359999997,1,-5764.0678710938,157118.7031250000,191345.7812500000,163151.9375000000,122285.1171875000,140175.7031250000,152880.2968750000,156318.6875000000,,,
0.1399999997,1,-5798.3466796875,157062.5312500000,191309.5156250000,163133.1250000000,122256.0703125000,140138.5000000000,152844.6875000000,156286.2031250000,,,
0.1439999996,1,-5677.4594726563,157137.2968750000,191412.2500000000,163270.3750000000,122382.7734375000,140232.7968750000,152956.2343750000,156402.4218750000,,,
0.1479999996,1,-5578.0834960938,157232.9062500000,191505.4843750000,163383.8125000000,122481.7812500000,140317.3125000000,153055.4843750000,156504.2031250000,,,
0.1519999998,1,-5621.8842773438,157231.2812500000,191475.5781250000,163342.4687500000,122435.4296875000,140282.0468750000,153018.4843750000,156466.7968750000,,,
0.1559999997,1,-5752.0786132813,157139.0000000000,191360.0312500000,163191.3593750000,122304.4062500000,140167.5468750000,152895.6406250000,156339.2812500000,,,
0.1599999997,1,-5789.0927734375,157087.6406250000,191317.9218750000,163138.2500000000,122268.8906250000,140130.5781250000,152860.7187500000,156297.9218750000,,,
0.1639999996,1,-5681.3486328125,157158.2656250000,191411.4687500000,163260.2187500000,122380.7421875000,140229.0937500000,152964.5312500000,156408.1562500000,,,
0.1679999996,1,-5593.6406250000,157239.7187500000,191494.8437500000,163354.8437500000,122471.8828125000,140311.0468750000,153051.7500000000,156493.5312500000,,,
0.1719999998,1,-5653.3999023438,157220.8750000000,191449.4843750000,163298.4843750000,122412.4921875000,140266.7343750000,153002.9843750000,156439.7500000000,,,
0.1759999997,1,-5790.5146484375,157122.8281250000,191327.0625000000,163159.0156250000,122274.7656250000,140145.7968750000,152879.8437500000,156304.0156250000,,,
0.1799999997,1,-5829.8090820313,157080.3750000000,191292.0937500000,163134.6562500000,122239.4375000000,140116.9531250000,152841.2187500000,156273.0312500000,,,
0.1839999997,1,-5719.2480468750,157154.0781250000,191396.7968750000,163257.9531250000,122357.5937500000,140211.7187500000,152945.9843750000,156388.1718750000,,,
0.1879999996,1,-5626.4169921875,157234.2187500000,191487.1093750000,163365.8125000000,122452.7031250000,140291.3750000000,153039.7343750000,156476.7656250000,,,
0.1919999996,1,-5674.6967773438,157220.5000000000,191449.4218750000,163323.9687500000,122402.8125000000,140254.7656250000,152999.9531250000,156429.2343750000,,,
0.1959999998,1,-5808.1635742188,157136.1093750000,191333.1562500000,163172.5000000000,122267.4687500000,140150.7031250000,152876.3125000000,156306.1562500000,,,
0.1999999997,1,-5837.3457031250,157103.5468750000,191303.8437500000,163144.6562500000,122243.7578125000,140129.4531250000,152846.3750000000,156287.1875000000,,,
0.2039999997,1,-5714.6079101563,157188.6250000000,191415.6562500000,163281.2656250000,122376.4453125000,140248.1406250000,152960.6562500000,156424.4062500000,,,
0.2079999996,1,-5631.7812500000,157252.5156250000,191491.7031250000,163394.0000000000,122462.6562500000,140319.1875000000,153047.8281250000,156495.5937500000,,,
0.2119999996,1,-5699.5341796875,157225.2187500000,191441.4687500000,163339.3125000000,122394.5234375000,140265.9843750000,152991.5937500000,156431.5000000000,,,
0.2159999998,1,-5853.6806640625,157123.3125000000,191312.5468750000,163191.1406250000,122241.3203125000,140141.2343750000,152850.6562500000,156289.6250000000,,,
0.2199999997,1,-5905.5546875000,157065.2656250000,191264.8437500000,163128.1875000000,122197.3828125000,140094.2968750000,152803.8593750000,156244.5468750000,,,
0.2239999997,1,-5795.7446289063,157133.0781250000,191366.6875000000,163254.0468750000,122317.0078125000,140193.0156250000,152903.7968750000,156360.9843750000,,,
0.2279999997,1,-5689.4487304688,157228.8281250000,191475.8281250000,163371.0625000000,122431.6484375000,140284.7031250000,152998.3125000000,156473.3593750000,,,
0.2319999996,1,-5733.4638671875,157224.7812500000,191445.7500000000,163298.6718750000,122386.7500000000,140254.3906250000,152971.8125000000,156430.2812500000,,,
0.2359999996,1,-5868.4594726563,157129.3437500000,191322.1250000000,163128.4375000000,122253.4687500000,140133.3906250000,152855.5156250000,156289.9062500000,,,
0.2399999998,1,-5913.0913085938,157074.6406250000,191275.0781250000,163090.4218750000,122218.8906250000,140087.5781250000,152808.8281250000,156250.3437500000,,,
0.2439999997,1,-5808.9682617188,157127.6875000000,191362.6875000000,163221.8750000000,122336.4531250000,140179.8593750000,152906.2656250000,156357.7812500000,,,
0.2479999997,1,-5710.5043945313,157202.5000000000,191453.5781250000,163335.1250000000,122439.3437500000,140262.0312500000,152999.2343750000,156447.1875000000,,,
0.2519999996,1,-5765.4628906250,157197.3437500000,191414.0781250000,163281.9375000000,122382.5078125000,140218.2968750000,152955.7187500000,156400.4531250000,,,
0.2559999996,2,-5907.6196289063,157108.5156250000,191290.3750000000,163129.4531250000,122238.2890625000,140097.7187500000,152829.2656250000,156268.7343750000,,,
0.2599999995,2,-5937.3657226563,157073.5625000000,191267.2187500000,163103.5468750000,122210.6093750000,140075.8906250000,152799.4062500000,156255.9218750000,,,
0.2639999995,2,-5842.9516601563,157110.3906250000,191345.0156250000,163233.1718750000,122310.1171875000,140149.9531250000,152885.7500000000,156340.8125000000,,,
0.2679999995,2,-5748.9941406250,157176.9062500000,191429.7968750000,163326.0625000000,122406.9453125000,140227.7343750000,152977.4218750000,156429.5156250000,,,
0.2719999994,2,-5784.4257812500,157171.8437500000,191407.0156250000,163279.5156250000,122371.8906250000,140201.1250000000,152955.0312500000,156397.0468750000,,,
0.2759999994,2,-5912.0991210938,157091.4843750000,191298.2343750000,163154.5937500000,122243.9218750000,140093.0781250000,152836.1875000000,156278.4218750000,,,
0.2799999996,2,-5952.1176757813,157044.7343750000,191254.4843750000,163122.7500000000,122204.2187500000,140054.4531250000,152792.9687500000,156242.8750000000,,,
0.2839999995,2,-5842.0131835938,157102.8750000000,191344.7187500000,163252.7343750000,122317.6250000000,140142.3750000000,152896.4687500000,156350.4375000000,,,
0.2879999995,2,-5736.7631835938,157187.0937500000,191442.6718750000,163358.2500000000,122427.6250000000,140231.3281250000,153001.4375000000,156454.6093750000,,,
0.2919999994,2,-5796.1206054688,157173.6875000000,191400.5312500000,163272.7343750000,122369.6093750000,140186.6718750000,152952.2187500000,156404.5625000000,,,
0.2959999994,2,-5934.7099609375,157085.5468750000,191282.2656250000,163126.1562500000,122231.8750000000,140070.5312500000,152823.2812500000,156276.3281250000,,,
0.2999999996,2,-5978.4838867188,157028.7656250000,191239.4843750000,163088.6093750000,122194.6484375000,140020.3750000000,152778.0312500000,156230.6250000000,,,
0.3039999995,2,-5889.2197265625,157069.8906250000,191319.3437500000,163248.8125000000,122289.3281250000,140093.8281250000,152858.2812500000,156320.2968750000,,,
0.3079999995,2,-5767.5009765625,157170.8750000000,191431.3750000000,163354.2031250000,122416.1171875000,140204.1562500000,152977.7812500000,156443.8906250000,,,
0.3119999995,2,-5802.1552734375,157180.9062500000,191408.6562500000,163262.4062500000,122378.2421875000,140190.1250000000,152953.3125000000,156416.6875000000,,,
0.3159999994,2,-5968.7475585938,157072.5156250000,191263.6250000000,163101.5625000000,122206.9062500000,140058.3750000000,152798.8750000000,156263.1250000000,,,
0.3199999994,2,-6019.1997070313,157012.9687500000,191213.7187500000,163061.3281250000,122160.5312500000,140019.7187500000,152751.7500000000,156218.0781250000,,,
0.3239999996,2,-5922.4526367188,157049.0937500000,191288.5000000000,163163.0312500000,122262.7187500000,140091.2343750000,152839.7187500000,156298.6250000000,,,
0.3279999995,2,-5808.0024414063,157137.2656250000,191391.4062500000,163276.8906250000,122379.6640625000,140193.3906250000,152945.5625000000,156413.8750000000,,,
0.3319999995,2,-5833.0273437500,157150.3750000000,191377.4062500000,163260.0468750000,122354.8046875000,140186.3750000000,152926.1406250000,156395.1250000000,,,
0.3359999994,2,-5957.2138671875,157073.2968750000,191269.8593750000,163137.3125000000,122224.8984375000,140084.3125000000,152813.2187500000,156275.6250000000,,,
0.3399999994,2,-5964.6166992188,157044.5156250000,191257.0000000000,163119.8437500000,122217.3671875000,140065.0000000000,152799.3593750000,156261.7031250000,,,
0.3439999996,2,-5840.0014648438,157116.5781250000,191364.7187500000,163246.0000000000,122344.6875000000,140169.2812500000,152910.7656250000,156384.4218750000,,,
0.3479999995,2,-5746.9287109375,157182.8593750000,191448.0625000000,163347.2031250000,122437.0390625000,140248.1406250000,153002.1562500000,156466.8437500000,,,
0.3519999995,2,-5783.5678710938,157184.3593750000,191427.2500000000,163301.1093750000,122394.6875000000,140232.1093750000,152972.1406250000,156436.4218750000,,,
0.3559999994,2,-5909.5507812500,157100.4843750000,191317.8437500000,163190.0781250000,122262.7734375000,140123.5312500000,152851.3281250000,156308.7031250000,,,
0.3599999994,2,-5955.4438476563,157041.0781250000,191266.8281250000,163142.5625000000,122211.8906250000,140073.3906250000,152801.9531250000,156257.5468750000,,,
0.3639999994,2,-5830.2651367188,157109.7656250000,191371.0000000000,163274.1875000000,122338.6562500000,140173.8125000000,152912.1718750000,156380.0781250000,,,
0.3679999996,2,-5689.5830078125,157227.7812500000,191499.7968750000,163399.0937500000,122479.1250000000,140297.7031250000,153042.1250000000,156523.4375000000,,,
0.3719999995,2,-5734.2954101563,157214.4843750000,191460.8593750000,163359.9843750000,122425.3437500000,140254.7656250000,153001.6406250000,156466.4687500000,,,
0.3759999995,2,-5881.0390625000,157110.8437500000,191327.9843750000,163182.5625000000,122268.4843750000,140121.4062500000,152859.6250000000,156316.7187500000,,,
0.3799999994,2,-5934.4956054688,157051.7500000000,191268.1093750000,163094.8750000000,122209.1015625000,140072.0000000000,152806.0781250000,156261.3125000000,,,
0.3839999994,3,-5808.3510742188,157118.1406250000,191370.8125000000,163226.5000000000,122338.7656250000,140170.7031250000,152917.9375000000,156380.9375000000,,,
0.3879999993,3,-5685.4790039063,157228.6406250000,191492.6718750000,163362.7812500000,122458.5234375000,140286.6250000000,153024.6875000000,156519.4218750000,,,
0.3919999993,3,-5749.8256835938,157198.1562500000,191434.0000000000,163290.3593750000,122384.9218750000,140220.7031250000,152965.7031250000,156435.0625000000,,,
0.3959999993,3,-5896.1938476563,157099.7968750000,191300.6718750000,163134.9062500000,122230.5625000000,140092.7031250000,152824.2500000000,156286.7343750000,,,
0.3999999992,3,-5957.2138671875,157031.3125000000,191232.0937500000,163071.0312500000,122165.3593750000,140028.6562500000,152756.0312500000,156223.6250000000,,,
0.4039999992,3,-5842.8979492188,157082.7343750000,191320.6875000000,163194.2812500000,122279.2734375000,140115.8593750000,152853.4218750000,156330.5625000000,,,
0.4079999994,3,-5711.5234375000,157182.4843750000,191436.9062500000,163316.4375000000,122408.5000000000,140225.7187500000,152973.9687500000,156458.0000000000,,,
0.4119999993,3,-5744.6489257813,157183.6093750000,191410.2656250000,163268.4531250000,122370.1953125000,140188.3281250000,152942.2031250000,156418.2968750000,,,
0.4159999993,3,-5884.0698242188,157093.4062500000,191285.6562500000,163119.5312500000,122226.0312500000,140058.2656250000,152808.6406250000,156277.5625000000,,,
0.4199999992,3,-5934.8979492188,157033.8593750000,191227.8750000000,163069.2968750000,122172.0859375000,139999.3125000000,152751.5781250000,156222.9843750000,,,
0.4239999992,3,-5827.6899414063,157075.7656250000,191302.9843750000,163175.1875000000,122275.7031250000,140074.3593750000,152845.2187500000,156310.6562500000,,,
0.4279999994,3,-5714.2861328125,157155.6875000000,191400.9531250000,163308.5781250000,122385.0000000000,140163.7812500000,152941.5312500000,156417.2500000000,,,
0.4319999993,3,-5739.0161132813,157172.4531250000,191388.7500000000,163266.9687500000,122352.1718750000,140145.5156250000,152907.4687500000,156398.4531250000,,,
0.4359999993,3,-5874.4946289063,157082.0312500000,191261.2968750000,163106.8125000000,122205.6406250000,140029.0000000000,152786.5937500000,156252.3437500000,,,
0.4399999992,3,-5922.6401367188,157020.8593750000,191202.0781250000,163054.7031250000,122145.0234375000,139986.0625000000,152742.4687500000,156195.8125000000,,,
0.4439999992,3,-5761.1445312500,157109.4531250000,191332.1875000000,163216.9531250000,122302.4218750000,140112.2031250000,152886.7656250000,156348.9375000000,,,
0.4479999992,3,-5594.6596679688,157237.6562500000,191480.8125000000,163389.3593750000,122465.2812500000,140244.6250000000,153034.7500000000,156508.9531250000,,,
0.4519999993,3,-5622.5009765625,157252.5937500000,191464.1562500000,163373.1093750000,122427.0078125000,140221.7187500000,153005.7968750000,156477.0312500000,,,
0.4559999993,3,-5775.8964843750,157156.7968750000,191327.8750000000,163204.5000000000,122260.8203125000,140093.5625000000,152858.6875000000,156320.4218750000,,,
0.4599999993,3,-5836.5678710938,157085.8437500000,191261.1093750000,163136.1562500000,122195.1015625000,140032.0156250000,152793.9687500000,156251.8593750000,,,
0.4639999992,3,-5725.8999023438,157126.1562500000,191341.6250000000,163249.0781250000,122304.0312500000,140116.3125000000,152889.0000000000,156351.0312500000,,,
0.4679999992,3,-5592.5942382813,157225.7500000000,191456.5156250000,163380.2187500000,122431.4609375000,140235.0000000000,153011.0937500000,156481.2968750000,,,
0.4719999994,3,-5616.8413085938,157240.9843750000,191441.8593750000,163336.9687500000,122397.2343750000,140218.8281250000,152990.0625000000,156456.9687500000,,,
0.4759999993,3,-5753.6074218750,157154.1093750000,191321.7812500000,163169.7968750000,122250.6484375000,140101.4531250000,152860.7968750000,156312.3437500000,,,
0.4799999993,3,-5806.3129882813,157090.1718750000,191261.7187500000,163089.2500000000,122192.2578125000,140046.4375000000,152800.7187500000,156250.3125000000,,,
0.4839999992,3,-5679.8198242188,157149.7343750000,191356.8125000000,163234.6562500000,122318.9687500000,140136.6093750000,152906.7187500000,156367.1250000000,,,
0.4879999992,3,-5553.5415039063,157244.8750000000,191466.9687500000,163378.4218750000,122438.1640625000,140242.6406250000,153017.4375000000,156491.4687500000,,,
0.4919999992,3,-5581.6508789063,157249.2656250000,191447.9062500000,163330.5312500000,122400.4296875000,140223.9218750000,152990.7500000000,156458.0937500000,,,
0.4959999993,3,-5710.6113281250,157176.0781250000,191336.6093750000,163172.8593750000,122264.5703125000,140118.1875000000,152866.1718750000,156326.8281250000,,,
0.4999999993,3,-5753.9023437500,157120.8437500000,191281.7968750000,163115.5312500000,122217.0468750000,140071.4843750000,152818.2656250000,156268.0937500000,,,
0.5039999993,3,-5649.4838867188,157164.8906250000,191358.1718750000,163228.2968750000,122317.3281250000,140153.7343750000,152905.6250000000,156367.3281250000,,,
0.5079999992,3,-5538.9770507813,157240.0937500000,191449.3437500000,163329.7031250000,122420.0078125000,140240.6093750000,153004.7343750000,156472.8281250000,,,
0.5119999992,4,-5586.4790039063,157221.0000000000,191412.6875000000,163278.7968750000,122363.2265625000,140192.2187500000,152956.2031250000,156419.0000000000,,,
0.5159999991,4,-5714.1250000000,157139.4375000000,191304.1093750000,163143.3437500000,122227.5312500000,140081.4687500000,152831.7812500000,156282.0625000000,,,
0.5199999991,4,-5753.7148437500,157094.1562500000,191261.5937500000,163093.9375000000,122181.3984375000,140046.2812500000,152788.3906250000,156242.3125000000,,,
0.5239999990,4,-5607.1049804688,157179.1562500000,191379.1562500000,163245.5156250000,122325.1875000000,140161.1875000000,152916.1875000000,156382.0312500000,,,
0.5279999990,4,-5462.7485351563,157276.6875000000,191497.9687500000,163381.5000000000,122462.2265625000,140265.9218750000,153041.7187500000,156505.1406250000,,,
0.5319999990,4,-5500.1923828125,157268.9531250000,191467.4843750000,163326.8906250000,122414.1328125000,140230.6875000000,153007.0625000000,156462.8281250000,,,
0.5359999991,4,-5655.4653320313,157172.4843750000,191329.0156250000,163144.0937500000,122249.4140625000,140101.0156250000,152859.7500000000,156304.5781250000,,,
0.5399999991,4,-5719.5971679688,157104.1875000000,191255.6406250000,163077.6875000000,122181.5859375000,140039.7031250000,152790.2031250000,156230.3281250000,,,
0.5439999991,4,-5605.3349609375,157151.9843750000,191340.4687500000,163209.5937500000,122295.4453125000,140123.0781250000,152884.8125000000,156336.6250000000,,,
0.5479999990,4,-5436.3286132813,157272.0937500000,191484.1875000000,163377.6875000000,122461.2578125000,140256.9687500000,153030.8593750000,156495.0937500000,,,
0.5519999990,4,-5461.8364257813,157274.8906250000,191458.2031250000,163338.9375000000,122424.7265625000,140227.4062500000,152992.2343750000,156453.7812500000,,,
0.5559999992,4,-5614.8300781250,157181.7812500000,191329.0156250000,163177.5468750000,122264.3281250000,140106.3281250000,152854.7656250000,156305.0000000000,,,
0.5599999991,4,-5698.5952148438,157099.2343750000,191248.2656250000,163097.7812500000,122177.3203125000,140031.6093750000,152782.1093750000,156224.3125000000,,,
0.5639999991,4,-5595.2763671875,157138.2812500000,191322.7812500000,163214.0000000000,122277.0703125000,140101.8750000000,152874.8906250000,156321.8437500000,,,
0.5679999990,4,-5437.6430664063,157252.3906250000,191459.0000000000,163373.9687500000,122431.4296875000,140224.2187500000,153018.0000000000,156475.5625000000,,,
0.5719999990,4,-5449.5522460938,157272.5312500000,191455.3750000000,163343.0312500000,122411.2109375000,140215.5000000000,153005.1093750000,156457.7500000000,,,
0.5759999990,4,-5604.6909179688,157169.0156250000,191318.1406250000,163181.5468750000,122247.9453125000,140082.7031250000,152859.2968750000,156293.0156250000,,,
0.5799999991,4,-5679.6318359375,157076.8281250000,191239.3281250000,163094.8593750000,122170.7734375000,140012.2187500000,152780.1718750000,156211.1250000000,,,
0.5839999991,4,-5577.0107421875,157112.2343750000,191315.7968750000,163206.0312500000,122274.3906250000,140090.0000000000,152863.7812500000,156311.8750000000,,,
0.5879999991,4,-5428.5502929688,157212.8281250000,191439.4531250000,163350.9218750000,122420.4375000000,140211.4218750000,152998.6875000000,156453.8437500000,,,
0.5919999990,4,-5426.3242187500,157239.4062500000,191446.3437500000,163333.2968750000,122416.5468750000,140216.4687500000,153006.2656250000,156450.0781250000,,,
0.5959999990,4,-5571.5659179688,157151.9375000000,191323.5000000000,163180.2343750000,122264.3281250000,140094.3906250000,152867.7812500000,156302.9687500000,,,
0.5999999992,4,-5643.5561523438,157073.2656250000,191251.0000000000,163110.8593750000,122189.1484375000,140029.5625000000,152791.2031250000,156229.1250000000,,,
0.6039999991,4,-5529.9111328125,157114.7343750000,191332.9687500000,163218.3125000000,122301.9375000000,140112.7656250000,152891.8906250000,156332.1406250000,,,
0.6079999991,4,-5389.6044921875,157211.5000000000,191451.7031250000,163358.6562500000,122439.2890625000,140228.2656250000,153020.6562500000,156469.7187500000,,,
0.6119999990,4,-5415.3540039063,157218.3437500000,191437.5781250000,163322.9687500000,122409.1718750000,140210.3281250000,152998.6406250000,156442.6718750000,,,
0.6159999990,4,-5553.6752929688,157132.1093750000,191321.2187500000,163171.8281250000,122268.4062500000,140089.2968750000,152864.7187500000,156297.7343750000,,,
0.6199999989,4,-5606.5957031250,157074.9218750000,191267.1718750000,163110.8906250000,122213.9609375000,140041.7656250000,152807.0468750000,156241.6718750000,,,
0.6239999991,4,-5498.9853515625,157121.0312500000,191349.6562500000,163224.4375000000,122320.1718750000,140126.1093750000,152900.9843750000,156344.4843750000,,,
0.6279999991,4,-5383.0332031250,157189.9375000000,191445.1875000000,163346.2031250000,122435.5625000000,140214.5937500000,153009.7968750000,156452.5468750000,,,
0.6319999991,4,-5423.6152343750,157184.3437500000,191417.8281250000,163302.8125000000,122391.9218750000,140182.6093750000,152974.6093750000,156415.0312500000,,,
0.6359999990,4,-5563.5996093750,157109.0156250000,191306.1406250000,163143.6718750000,122248.4531250000,140071.5156250000,152849.5625000000,156277.6093750000,,,
0.6399999990,5,-5621.2133789063,157052.1875000000,191253.0625000000,163074.2031250000,122189.6562500000,140023.3437500000,152791.4375000000,156219.8906250000,,,
0.6439999989,5,-5486.6201171875,157120.4218750000,191361.1250000000,163216.8125000000,122323.7968750000,140134.3593750000,152914.1250000000,156349.5000000000,,,
0.6479999989,5,-5352.6708984375,157212.7343750000,191475.4218750000,163375.1406250000,122455.8671875000,140250.0000000000,153039.8593750000,156481.5937500000,,,
0.6519999988,5,-5364.1772460938,157241.5781250000,191478.4687500000,163354.7656250000,122441.0859375000,140247.0625000000,153032.0937500000,156472.2656250000,,,
0.6559999988,5,-5498.3144531250,157179.3281250000,191375.7187500000,163213.0000000000,122302.3671875000,140130.6562500000,152905.4687500000,156341.7187500000,,,
0.6599999988,5,-5568.3740234375,157110.1718750000,191305.7968750000,163135.4687500000,122229.9687500000,140062.6875000000,152832.9375000000,156264.9531250000,,,
0.6639999989,5,-5483.7504882813,157124.9062500000,191361.1250000000,163233.8750000000,122312.7421875000,140123.8750000000,152903.5781250000,156342.8437500000,,,
0.6679999989,5,-5317.2119140625,157233.9062500000,191501.0000000000,163385.8125000000,122480.8125000000,140266.7500000000,153059.7968750000,156509.5781250000,,,
0.6719999989,5,-5326.3046875000,157266.4062500000,191505.4843750000,163368.2968750000,122470.0312500000,140266.2812500000,153056.2343750000,156502.3593750000,,,
0.6759999988,5,-5510.4384765625,157158.5625000000,191354.8750000000,163192.7812500000,122284.1796875000,140108.2656250000,152881.8593750000,156321.1250000000,,,
0.6799999988,5,-5601.4990234375,157069.6718750000,191269.2343750000,163108.1875000000,122190.8125000000,140023.2968750000,152789.1875000000,156228.1875000000,,,
0.6839999990,5,-5491.7163085938,157109.2343750000,191353.7187500000,163215.0937500000,122300.7578125000,140109.6875000000,152880.1093750000,156340.3281250000,,,
0.6879999989,5,-5341.1103515625,157207.9062500000,191481.4218750000,163377.5625000000,122449.7265625000,140240.3593750000,153015.5156250000,156492.4843750000,,,
0.6919999989,5,-5351.1953125000,157229.1875000000,191479.1406250000,163362.0781250000,122435.2656250000,140228.5312500000,153008.4531250000,156476.5000000000,,,
0.6959999988,5,-5503.6523437500,157144.5937500000,191349.3281250000,163180.2343750000,122274.7656250000,140095.9218750000,152866.3281250000,156317.2343750000,,,
0.6999999988,5,-5599.1391601563,157054.8593750000,191253.4843750000,163072.4062500000,122175.7343750000,140008.4531250000,152769.2031250000,156218.5312500000,,,
0.7039999987,5,-5501.0502929688,157083.6250000000,191319.6093750000,163187.3281250000,122274.0390625000,140087.6093750000,152853.1562500000,156311.6250000000,,,
0.7079999989,5,-5367.2617187500,157166.0156250000,191426.4687500000,163336.3593750000,122406.4843750000,140196.1562500000,152973.2968750000,156440.0781250000,,,
0.7119999989,5,-5367.5302734375,157203.8593750000,191437.7343750000,163316.2656250000,122402.0625000000,140202.6718750000,152976.2968750000,156442.1093750000,,,
0.7159999989,5,-5505.6372070313,157138.5312500000,191326.7187500000,163157.7031250000,122262.4765625000,140087.5625000000,152849.0312500000,156303.3437500000,,,
0.7199999988,5,-5597.8515625000,157050.6093750000,191233.0312500000,163088.7031250000,122169.0078125000,139998.0312500000,152756.1406250000,156199.7812500000,,,
0.7239999988,5,-5489.7314453125,157080.3437500000,191306.6875000000,163195.8906250000,122276.1562500000,140085.4687500000,152850.9375000000,156299.0156250000,,,
0.7279999990,5,-5307.8779296875,157199.6250000000,191458.3593750000,163349.7187500000,122456.6171875000,140245.0312500000,153022.4843750000,156474.0000000000,,,
0.7319999989,5,-5292.7768554688,157244.2031250000,191479.8750000000,163348.4062500000,122468.5000000000,140247.6093750000,153036.7031250000,156478.2968750000,,,
0.7359999989,5,-5450.4907226563,157165.1093750000,191346.8281250000,163179.6093750000,122300.8593750000,140115.6406250000,152886.0156250000,156313.2343750000,,,
0.7399999988,5,-5555.3115234375,157065.1875000000,191239.8437500000,163081.2343750000,122191.1093750000,140019.6250000000,152780.9531250000,156199.5937500000,,,
0.7439999988,5,-5441.6396484375,157103.3906250000,191320.5000000000,163186.0468750000,122305.4765625000,140112.7500000000,152876.7812500000,156316.0000000000,,,
0.7479999987,5,-5279.9829101563,157213.8750000000,191456.2656250000,163353.1250000000,122467.6406250000,140252.2968750000,153021.8906250000,156483.3437500000,,,
0.7519999989,5,-5291.4360351563,157235.2500000000,191454.6562500000,163340.6718750000,122453.6953125000,140230.9531250000,153011.0312500000,156461.3437500000,,,
0.7559999989,5,-5452.9047851563,157142.2031250000,191323.5000000000,163178.1093750000,122287.3203125000,140082.4687500000,152855.3281250000,156292.1562500000,,,
0.7599999988,5,-5542.4907226563,157070.0937500000,191240.4062500000,163088.7343750000,122193.0625000000,140007.0937500000,152762.6875000000,156204.4375000000,,,
0.7639999988,5,-5443.3027343750,157100.5937500000,191306.1406250000,163194.7343750000,122283.6171875000,140086.1093750000,152847.7343750000,156300.2500000000,,,
0.7679999988,6,-5273.4116210938,157211.9062500000,191445.5312500000,163366.1093750000,122445.2187500000,140226.0625000000,153002.3750000000,156468.7187500000,,,
0.7719999987,6,-5263.2456054688,157248.3593750000,191461.9062500000,163365.9687500000,122446.0468750000,140234.7031250000,153006.9218750000,156472.6093750000,,,
0.7759999987,6,-5411.8134765625,157164.4375000000,191337.2343750000,163205.2500000000,122284.8515625000,140109.3437500000,152865.5781250000,156313.5625000000,,,
0.7799999986,6,-5509.0166015625,157078.4687500000,191242.0937500000,163114.2500000000,122180.3750000000,140020.5781250000,152769.1718750000,156211.4218750000,,,
0.7839999986,6,-5410.2578125000,157103.9531250000,191305.7968750000,163182.2656250000,122273.5312500000,140099.2187500000,152854.6093750000,156305.9375000000,,,
0.7879999985,6,-5251.4975585938,157205.6562500000,191433.6875000000,163332.1406250000,122427.3515625000,140231.0000000000,153001.8906250000,156462.4218750000,,,
0.7919999987,6,-5251.8466796875,157233.6093750000,191439.0468750000,163316.5156250000,122419.8984375000,140229.2656250000,153004.8437500000,156453.4687500000,,,
0.7959999987,6,-5401.0307617188,157152.4687500000,191318.5156250000,163155.8750000000,122264.3281250000,140095.0156250000,152861.7187500000,156298.1093750000,,,
0.7999999986,6,-5478.5200195313,157082.2812500000,191246.4375000000,163066.1250000000,122184.8828125000,140021.0468750000,152780.3125000000,156219.6875000000,,,
0.8039999986,6,-5369.0053710938,157112.6718750000,191321.7031250000,163183.1562500000,122294.2343750000,140109.5312500000,152872.9062500000,156323.5937500000,,,
0.8079999986,6,-5203.8081054688,157212.1718750000,191457.7500000000,163365.1406250000,122458.3046875000,140247.4687500000,153023.1562500000,156482.4843750000,,,
0.8119999988,6,-5230.1474609375,157215.1562500000,191440.5156250000,163339.5312500000,122424.9375000000,140221.5312500000,153002.2031250000,156445.0468750000,,,
0.8159999987,6,-5388.5317382813,157129.4062500000,191312.8437500000,163174.0312500000,122263.0156250000,140089.9218750000,152857.5781250000,156289.6875000000,,,
0.8199999987,6,-5479.4853515625,157052.1250000000,191228.5156250000,163085.5156250000,122172.9218750000,140008.9687500000,152763.4687500000,156201.1406250000,,,
0.8239999986,6,-5386.9760742188,157074.9843750000,191291.1250000000,163194.3906250000,122265.4609375000,140083.8593750000,152839.2187500000,156289.8750000000,,,
0.8279999986,6,-5223.4956054688,157183.5781250000,191430.9218750000,163362.3437500000,122429.2890625000,140226.2812500000,152991.5937500000,156455.4218750000,,,
0.8319999985,6,-5212.0961914063,157228.9687500000,191454.7343750000,163365.9218750000,122439.8515625000,140237.5937500000,153007.8125000000,156469.1562500000,,,
0.8359999987,6,-5365.6791992188,157159.3437500000,191333.6093750000,163211.0781250000,122281.7656250000,140111.4843750000,152867.2343750000,156319.5625000000,,,
0.8399999987,6,-5460.1469726563,157082.0937500000,191245.0625000000,163102.9062500000,122186.0390625000,140027.3125000000,152773.2812500000,156224.7187500000,,,
0.8439999986,6,-5364.6870117188,157101.5312500000,191309.1718750000,163217.6406250000,122283.1875000000,140096.1093750000,152855.6562500000,156308.6250000000,,,
0.8479999986,6,-5221.4838867188,157190.5000000000,191428.1562500000,163357.3906250000,122426.0156250000,140215.7968750000,152991.7500000000,156450.3437500000,,,
0.8519999986,6,-5222.1005859375,157223.2343750000,191439.2656250000,163332.5000000000,122422.1796875000,140220.3593750000,152996.5000000000,156451.1875000000,,,
0.8559999987,6,-5378.7148437500,157145.3906250000,191314.2500000000,163173.6250000000,122260.3593750000,140084.2343750000,152853.3125000000,156295.0156250000,,,
0.8599999987,6,-5469.8295898438,157066.9687500000,191228.9531250000,163080.2343750000,122169.4375000000,140002.5000000000,152767.0000000000,156203.9062500000,,,
0.8639999987,6,-5364.2578125000,157102.0468750000,191307.2187500000,163189.2187500000,122278.3828125000,140087.7187500000,152861.2812500000,156306.7656250000,,,
0.8679999986,6,-5208.4213867188,157205.7187500000,191446.3906250000,163365.5625000000,122436.1562500000,140220.3750000000,153006.6093750000,156466.4687500000,,,
0.8719999986,6,-5206.1416015625,157238.3593750000,191460.6875000000,163365.2500000000,122436.9296875000,140227.4843750000,153016.3750000000,156469.3437500000,,,
0.8759999985,6,-5360.7172851563,157159.7968750000,191334.9843750000,163185.7031250000,122282.1406250000,140098.2343750000,152878.2656250000,156313.4218750000,,,
0.8799999987,6,-5457.2768554688,157076.1875000000,191245.5000000000,163091.2343750000,122185.4453125000,140021.4218750000,152786.4843750000,156217.3750000000,,,
0.8839999987,6,-5363.5068359375,157100.9218750000,191315.1093750000,163191.7343750000,122281.8203125000,140108.4843750000,152870.5937500000,156314.3593750000,,,
0.8879999986,6,-5218.0239257813,157185.9531250000,191435.1562500000,163347.1406250000,122429.1250000000,140232.4218750000,153009.2031250000,156452.0468750000,,,
0.8919999986,6,-5208.5288085938,157223.1250000000,191453.8281250000,163364.3125000000,122436.7187500000,140245.2656250000,153024.1250000000,156462.9531250000,,,
0.8959999986,7,-5342.3173828125,157169.5312500000,191352.0625000000,163219.0468750000,122297.6953125000,140138.3125000000,152897.0937500000,156339.6250000000,,,
0.8999999985,7,-5449.0961914063,157074.0937500000,191250.3593750000,163114.3281250000,122187.6171875000,140039.0625000000,152794.3125000000,156224.8281250000,,,
0.9039999985,7,-5378.2055664063,157076.3437500000,191297.7968750000,163193.2968750000,122260.5468750000,140088.4687500000,152857.9375000000,156289.6875000000,,,
0.9079999984,7,-5219.4453125000,157179.8593750000,191436.4531250000,163344.5468750000,122426.9531250000,140226.3593750000,153006.7343750000,156452.1250000000,,,
0.9119999984,7,-5207.3486328125,157224.6562500000,191461.1562500000,163351.8593750000,122448.5468750000,140238.2656250000,153023.0000000000,156467.7031250000,,,
0.9159999983,7,-5367.0205078125,157147.2187500000,191334.6250000000,163210.8281250000,122293.8906250000,140109.5000000000,152880.0312500000,156314.2343750000,,,
0.9199999985,7,-5468.0595703125,157065.3750000000,191242.9218750000,163105.3906250000,122201.1406250000,140026.2968750000,152783.5781250000,156215.9843750000,,,
0.9239999985,7,-5381.9604492188,157087.7187500000,191306.8437500000,163197.6562500000,122293.7265625000,140096.5937500000,152861.3906250000,156301.5937500000,,,
0.9279999984,7,-5232.0786132813,157181.9687500000,191436.4687500000,163354.0312500000,122442.4296875000,140225.7968750000,153001.7031250000,156453.6250000000,,,
0.9319999984,7,-5233.2856445313,157213.5468750000,191446.7968750000,163335.1250000000,122435.3515625000,140233.5781250000,153008.6718750000,156458.0468750000,,,
0.9359999984,7,-5386.3056640625,157139.2968750000,191322.1562500000,163170.6250000000,122277.3125000000,140100.4843750000,152870.0625000000,156306.0156250000,,,
0.9399999985,7,-5492.1992187500,157054.9531250000,191227.0468750000,163074.7968750000,122170.6953125000,140007.0156250000,152768.9687500000,156207.0156250000,,,
0.9439999985,7,-5400.3603515625,157078.9843750000,191299.5468750000,163201.8125000000,122268.2500000000,140079.5937500000,152849.9687500000,156297.2500000000,,,
0.9479999985,7,-5215.6904296875,157201.6875000000,191465.6250000000,163394.3281250000,122459.8671875000,140240.7343750000,153019.7812500000,156485.0625000000,,,
0.9519999984,7,-5214.9394531250,157228.8593750000,191474.4843750000,163374.7968750000,122460.3203125000,140242.4218750000,153025.1718750000,156479.8281250000,,,
0.9559999984,7,-5387.6464843750,157144.2968750000,191333.7500000000,163186.2968750000,122283.6406250000,140107.9687500000,152877.4375000000,156315.6250000000,,,
0.9599999983,7,-5479.5122070313,157071.3593750000,191251.0468750000,163100.1875000000,122196.8750000000,140033.1875000000,152792.8281250000,156231.4218750000,,,
0.9639999985,7,-5409.7211914063,157081.0156250000,191303.7343750000,163192.7031250000,122270.8984375000,140086.1875000000,152852.0312500000,156301.9218750000,,,
0.9679999985,7,-5275.4228515625,157157.1406250000,191420.1875000000,163337.7812500000,122409.2265625000,140201.4687500000,152979.8906250000,156437.6093750000,,,
0.9719999984,7,-5256.8354492188,157205.7968750000,191454.7968750000,163366.4843750000,122430.7656250000,140225.3125000000,153005.1875000000,156465.5312500000,,,
0.9759999984,7,-5395.6933593750,157144.5625000000,191345.1406250000,163194.8750000000,122291.0156250000,140112.1875000000,152884.0781250000,156329.9218750000,,,
0.9799999984,7,-5499.0922851563,157062.0312500000,191248.4531250000,163055.0781250000,122189.4687500000,140032.3906250000,152791.0156250000,156230.1093750000,,,
0.9839999985,7,-5400.2529296875,157097.6250000000,191326.7500000000,163176.7656250000,122295.8203125000,140120.2343750000,152879.7343750000,156332.5937500000,,,
0.9879999985,7,-5241.6274414063,157198.2343750000,191465.5000000000,163354.8906250000,122460.0000000000,140256.1406250000,153030.2968750000,156488.7812500000,,,
0.9919999985,7,-5250.2905273438,157227.4375000000,191470.4218750000,163354.6250000000,122450.7187500000,140259.2500000000,153028.8437500000,156487.5468750000,,,
0.9959999984,7,-5387.9418945313,157170.9218750000,191364.8906250000,163203.5312500000,122314.1953125000,140151.6093750000,152904.8906250000,156361.2187500000,,,
0.9999999984,7,-5480.9072265625,157095.8750000000,191281.0625000000,163115.9062500000,122227.7187500000,140072.2187500000,152816.8750000000,156271.3593750000,,,
1.0039999983,7,-5404.9736328125,157109.7656250000,191337.0625000000,163209.8906250000,122310.0625000000,140136.9062500000,152886.6250000000,156345.9531250000,,,
1.0079999985,7,-5263.4604492188,157201.7187500000,191465.8437500000,163380.5625000000,122454.5546875000,140268.7187500000,153020.2812500000,156496.2500000000,,,
1.0119999985,7,-5266.2231445313,157229.0781250000,191477.1875000000,163380.1406250000,122453.0234375000,140273.3593750000,153027.9531250000,156497.2812500000,,,
1.0159999984,7,-5413.1542968750,157156.6250000000,191359.0625000000,163214.0468750000,122307.3515625000,140149.6718750000,152899.6718750000,156355.0312500000,,,
1.0199999984,7,-5512.7182617188,157073.7968750000,191268.4062500000,163115.9687500000,122212.2656250000,140062.5000000000,152809.5937500000,156257.6406250000,,,
1.0239999983,8,-5425.6806640625,157102.3125000000,191338.0937500000,163220.1093750000,122305.9062500000,140141.7656250000,152887.2500000000,156351.8125000000,,,
1.0279999983,8,-5278.1054687500,157191.4375000000,191466.5468750000,163393.1093750000,122459.5390625000,140271.1093750000,153028.7031250000,156497.8593750000,,,
1.0319999983,8,-5274.4843750000,157215.5000000000,191477.9062500000,163395.0937500000,122467.0234375000,140270.2656250000,153040.4062500000,156493.3125000000,,,
1.0359999982,8,-5413.2080078125,157150.2187500000,191366.8125000000,163247.6562500000,122326.9609375000,140158.9375000000,152911.9531250000,156364.4687500000,,,
1.0399999982,8,-5514.5688476563,157058.8593750000,191270.2500000000,163171.1562500000,122220.7968750000,140074.9218750000,152813.9375000000,156266.9687500000,,,
1.0439999981,8,-5442.7124023438,157048.8906250000,191321.2968750000,163316.2968750000,122281.0703125000,140132.1093750000,152883.9531250000,156333.2187500000,,,
1.0479999983,8,-5304.0424804688,157116.4218750000,191444.5156250000,163471.5156250000,122413.2500000000,140259.1406250000,153016.9375000000,156475.6718750000,,,
1.0519999983,8,-5296.5859375000,157138.8750000000,191466.0625000000,163438.6250000000,122433.1718750000,140269.5468750000,153031.6875000000,156486.4218750000,,,
1.0559999982,8,-5448.2109375000,157058.4843750000,191345.1406250000,163245.5468750000,122294.6640625000,140143.9062500000,152901.7656250000,156339.5781250000,,,
1.0599999982,8,-5541.4179687500,157003.2343750000,191266.4687500000,163131.9531250000,122214.7109375000,140068.4062500000,152821.2968750000,156254.4375000000,,,
1.0639999982,8,-5455.9355468750,157025.5000000000,191344.5468750000,163212.5000000000,122311.4062500000,140138.4375000000,152898.1875000000,156345.1562500000,,,
1.0679999983,8,-5296.2099609375,157086.5468750000,191495.4062500000,163371.3906250000,122477.5937500000,140271.5781250000,153047.9687500000,156503.6718750000,,,
1.0719999983,8,-5305.5712890625,157122.0781250000,191494.1718750000,163390.6406250000,122467.0000000000,140262.0937500000,153050.2500000000,156489.9062500000,,,
1.0759999983,8,-5449.9008789063,157100.8437500000,191374.6406250000,163259.2656250000,122322.1093750000,140147.0000000000,152921.5625000000,156353.8437500000,,,
1.0799999982,8,-5540.8544921875,157052.4843750000,191288.2812500000,163156.4843750000,122230.1093750000,140073.9843750000,152838.2187500000,156266.8906250000,,,
1.0839999982,8,-5477.3129882813,157055.0468750000,191327.1718750000,163228.4531250000,122297.6953125000,140124.8125000000,152898.6718750000,156332.5937500000,,,
1.0879999981,8,-5330.1669921875,157130.7500000000,191451.1406250000,163379.4375000000,122452.1406250000,140237.0156250000,153044.0000000000,156479.6093750000,,,
1.0919999983,8,-5310.9892578125,157171.5468750000,191483.3593750000,163387.6093750000,122471.2656250000,140249.3437500000,153070.1718750000,156506.0937500000,,,
1.0959999983,8,-5454.9165039063,157110.7968750000,191370.0312500000,163230.6562500000,122320.9218750000,140128.7343750000,152941.2656250000,156370.2812500000,,,
1.0999999982,8,-5549.6523437500,157049.8750000000,191281.2031250000,163132.4062500000,122226.2968750000,140047.6718750000,152849.1093750000,156273.7812500000,,,
1.1039999982,8,-5464.1166992188,157084.9531250000,191340.7500000000,163228.7031250000,122315.8828125000,140126.4843750000,152918.3593750000,156355.0000000000,,,
1.1079999981,8,-5310.1040039063,157185.5937500000,191472.4062500000,163405.3125000000,122471.7734375000,140269.0312500000,153062.5000000000,156503.3437500000,,,
1.1119999983,8,-5305.6245117188,157238.8593750000,191492.7500000000,163402.0468750000,122478.5625000000,140292.4843750000,153081.1718750000,156517.2187500000,,,
1.1159999983,8,-5460.2270507813,157177.5781250000,191373.7343750000,163229.3437500000,122326.6640625000,140178.2968750000,152946.2812500000,156377.1250000000,,,
1.1199999982,8,-5574.8916015625,157085.0156250000,191270.7656250000,163126.1562500000,122212.9375000000,140091.5000000000,152843.2031250000,156263.8593750000,,,
1.1239999982,8,-5500.2724609375,157089.2031250000,191328.2968750000,163211.3437500000,122288.9296875000,140159.3281250000,152914.5312500000,156335.7343750000,,,
1.1279999982,8,-5345.6699218750,157167.8437500000,191471.9375000000,163380.6093750000,122449.0546875000,140293.9218750000,153057.9687500000,156492.5937500000,,,
1.1319999981,8,-5326.6264648438,157202.1718750000,191506.0468750000,163402.8437500000,122471.5312500000,140323.4843750000,153080.0781250000,156522.1562500000,,,
1.1359999983,8,-5471.2778320313,157130.9531250000,191387.5156250000,163256.0000000000,122326.4765625000,140203.4375000000,152952.7812500000,156382.4375000000,,,
1.1399999983,8,-5572.8798828125,157058.7500000000,191292.6562500000,163148.4687500000,122224.2890625000,140113.7343750000,152853.0781250000,156283.5937500000,,,
1.1439999982,8,-5495.6591796875,157082.6875000000,191345.0937500000,163231.2500000000,122306.2265625000,140172.5625000000,152921.3593750000,156359.0468750000,,,
1.1479999982,8,-5334.5390625000,157184.7343750000,191483.1406250000,163404.2656250000,122470.4609375000,140313.7031250000,153073.7968750000,156520.0937500000,,,
1.1519999981,9,-5316.6484375000,157230.0625000000,191508.9687500000,163416.5000000000,122485.5078125000,140334.6093750000,153096.0625000000,156539.2656250000,,,
1.1559999981,9,-5456.3110351563,157171.5156250000,191398.7343750000,163260.8750000000,122346.2421875000,140221.1562500000,152970.2968750000,156402.7656250000,,,
1.1599999981,9,-5566.3891601563,157091.5781250000,191299.7656250000,163149.9218750000,122239.8671875000,140125.4062500000,152863.0781250000,156294.2968750000,,,
1.1639999980,9,-5496.6787109375,157108.6406250000,191352.0156250000,163243.0781250000,122314.4609375000,140183.5000000000,152922.5156250000,156368.0937500000,,,
1.1679999980,9,-5337.9721679688,157215.7968750000,191491.1562500000,163400.1093750000,122471.7421875000,140330.9687500000,153073.4218750000,156531.6718750000,,,
1.1719999979,9,-5325.1782226563,157255.9531250000,191508.4843750000,163412.0781250000,122480.3593750000,140342.1562500000,153093.0625000000,156541.9531250000,,,
1.1759999981,9,-5484.7426757813,157167.7812500000,191370.7343750000,163230.8437500000,122316.6093750000,140195.0937500000,152946.2031250000,156377.0156250000,,,
1.1799999981,9,-5596.2690429688,157078.1250000000,191263.8750000000,163109.7343750000,122204.8359375000,140091.0937500000,152837.6250000000,156260.7500000000,,,
1.1839999980,9,-5519.0214843750,157096.3593750000,191316.6562500000,163218.5781250000,122283.5390625000,140152.3906250000,152895.6250000000,156334.9843750000,,,
1.1879999980,9,-5352.7241210938,157200.0000000000,191460.6718750000,163398.3750000000,122453.2656250000,140286.3125000000,153045.4218750000,156498.8906250000,33029,1.1892857556,0.0000000000
1.1919999979,9,-5360.6635742188,157223.7968750000,191468.5000000000,163357.5156250000,122442.6953125000,140283.4062500000,153054.9375000000,156495.8906250000,,,
1.1959999981,9,-5519.5039062500,157146.8593750000,191342.9218750000,163188.9687500000,122281.2265625000,140149.8437500000,152917.7500000000,156347.5468750000,,,
1.1999999981,9,-5617.1904296875,157072.4375000000,191255.2812500000,163101.1250000000,122186.2812500000,140061.8437500000,152831.0000000000,156249.1250000000,,,
1.2039999980,9,-5533.6928710938,157103.3906250000,191321.8281250000,163203.1562500000,122271.9453125000,140132.7500000000,152906.9062500000,156330.1875000000,,,
1.2079999980,9,-5369.9711914063,157201.6562500000,191464.7968750000,163375.3281250000,122439.3437500000,140270.1406250000,153055.9531250000,156484.9218750000,,,
1.2119999980,9,-5334.4853515625,157247.1875000000,191503.1718750000,163396.9531250000,122474.3203125000,140303.0468750000,153091.4687500000,156514.8593750000,,,
1.2159999979,9,-5453.8437500000,157192.7343750000,191403.8906250000,163265.9843750000,122350.2187500000,140203.4531250000,152984.5937500000,156395.3125000000,,,
1.2199999981,9,-5576.9570312500,157095.0781250000,191289.8281250000,163140.2343750000,122221.1484375000,140097.7031250000,152863.0781250000,156274.7968750000,,,
1.2239999981,9,-5507.7290039063,157102.8750000000,191335.4843750000,163217.0312500000,122290.2656250000,140150.7812500000,152925.3125000000,156345.8437500000,,,
1.2279999980,9,-5343.4975585938,157200.5156250000,191470.8906250000,163386.9687500000,122457.0234375000,140290.2031250000,153078.2187500000,156509.1718750000,,,
1.2319999980,9,-5318.5263671875,157247.3125000000,191501.2812500000,163402.8281250000,122483.3046875000,140321.5468750000,153102.0937500000,156543.7968750000,,,
1.2359999979,9,-5456.2578125000,157182.3281250000,191387.6093750000,163258.4687500000,122343.1875000000,140206.0000000000,152977.2031250000,156405.8750000000,,,
1.2399999981,9,-5579.2368164063,157080.8593750000,191270.0625000000,163148.5781250000,122217.6093750000,140094.9843750000,152857.0000000000,156275.9218750000,,,
1.2439999981,9,-5510.1967773438,157089.3906250000,191317.4687500000,163225.0000000000,122291.9296875000,140154.2656250000,152911.9843750000,156345.6406250000,,,
1.2479999980,9,-5364.5795898438,157175.0781250000,191441.2500000000,163379.8906250000,122440.3906250000,140284.1406250000,153046.7031250000,156488.4843750000,,,
1.2519999980,9,-5344.9458007813,157214.5156250000,191465.7343750000,163394.3437500000,122453.6640625000,140306.3750000000,153066.5781250000,156504.3125000000,,,
1.2559999980,9,-5492.0917968750,157140.4062500000,191342.3281250000,163234.6718750000,122301.1328125000,140174.6718750000,152928.9843750000,156353.7031250000,,,
1.2599999979,9,-5616.3857421875,157040.2187500000,191226.7187500000,163104.1093750000,122176.0625000000,140061.7500000000,152815.6875000000,156230.0625000000,,,
1.2639999981,9,-5550.3764648438,157050.6250000000,191273.3125000000,163168.6093750000,122244.8281250000,140113.0468750000,152876.6875000000,156295.1250000000,,,
1.2679999981,9,-5388.6660156250,157147.8125000000,191413.5156250000,163324.1875000000,122411.4218750000,140245.4531250000,153025.3906250000,156451.7500000000,,,
1.2719999980,9,-5343.2563476563,157212.8750000000,191467.2656250000,163355.2187500000,122457.1796875000,140281.2968750000,153067.8437500000,156498.9531250000,,,
1.2759999980,9,-5479.7807617188,157155.4218750000,191359.1250000000,163209.2031250000,122314.8671875000,140160.6718750000,152939.5312500000,156369.2968750000,,,
1.2799999979,10,-5590.9580078125,157073.3750000000,191259.0468750000,163097.2343750000,122204.0625000000,140058.7812500000,152827.8593750000,156264.3437500000,,,
1.2839999979,10,-5520.3085937500,157084.8593750000,191308.0781250000,163179.3750000000,122279.8046875000,140113.3593750000,152889.1562500000,156327.6718750000,,,
1.2879999978,10,-5354.0385742188,157191.2343750000,191450.5781250000,163361.1718750000,122447.0703125000,140262.5468750000,153048.1250000000,156491.0156250000,,,
1.2919999978,10,-5307.6093750000,157260.9062500000,191503.0156250000,163415.4843750000,122488.3515625000,140313.3437500000,153098.1562500000,156540.5000000000,,,
1.2959999978,10,-5439.9765625000,157210.7031250000,191400.3906250000,163257.1875000000,122352.6796875000,140208.2031250000,152975.5781250000,156416.2656250000,,,
1.2999999977,10,-5555.4458007813,157120.3906250000,191296.6718750000,163133.7187500000,122240.5156250000,140108.3437500000,152863.2500000000,156297.9218750000,,,
1.3039999979,10,-5501.6674804688,157113.3906250000,191330.0156250000,163215.3593750000,122298.2031250000,140148.7656250000,152909.0312500000,156341.4843750000,,,
1.3079999979,10,-5348.9692382813,157205.1250000000,191461.1250000000,163376.4062500000,122452.5937500000,140282.1562500000,153052.3437500000,156495.0937500000,,,
1.3119999978,10,-5309.4873046875,157261.6875000000,191507.7343750000,163408.6718750000,122488.4296875000,140322.0312500000,153096.0625000000,156535.9687500000,,,
1.3159999978,10,-5434.4243164063,157207.5937500000,191409.0312500000,163271.5000000000,122360.0625000000,140219.8125000000,152983.5937500000,156414.4843750000,,,
1.3199999977,10,-5550.5639648438,157120.1250000000,191303.2968750000,163166.8750000000,122241.7187500000,140113.7656250000,152871.0781250000,156300.2343750000,,,
1.3239999979,10,-5492.8159179688,157125.1718750000,191340.7968750000,163233.9843750000,122299.4375000000,140158.5312500000,152920.7031250000,156352.8750000000,,,
1.3279999979,10,-5344.9995117188,157212.6406250000,191465.7343750000,163369.2500000000,122449.0546875000,140284.6250000000,153057.7031250000,156491.8750000000,,,
1.3319999978,10,-5300.5019531250,157269.5000000000,191512.9375000000,163387.9062500000,122491.9140625000,140327.1406250000,153100.3750000000,156537.3125000000,,,
1.3359999978,10,-5432.0639648438,157201.5000000000,191399.2656250000,163247.1250000000,122356.2734375000,140217.4062500000,152981.6406250000,156401.7500000000,,,
1.3399999978,10,-5559.5761718750,157101.8593750000,191278.6562500000,163123.9531250000,122227.1562500000,140109.4687500000,152864.7656250000,156274.2656250000,,,
1.3439999977,10,-5495.1762695313,157123.9062500000,191325.8281250000,163197.8437500000,122293.5703125000,140175.0000000000,152925.2812500000,156344.4062500000,,,
1.3479999979,10,-5351.6782226563,157211.9843750000,191448.2968750000,163358.4062500000,122441.0312500000,140296.1562500000,153061.3281250000,156484.5468750000,,,
1.3519999979,10,-5325.2583007813,157253.3750000000,191481.0312500000,163387.6718750000,122468.0156250000,140323.4531250000,153090.7812500000,156511.2343750000,,,
1.3559999978,10,-5454.5410156250,157190.6406250000,191374.8125000000,163240.4218750000,122335.4921875000,140214.9687500000,152973.5625000000,156384.7656250000,,,
1.3599999978,10,-5566.4428710938,157102.0468750000,191270.7343750000,163121.7812500000,122222.8125000000,140112.4687500000,152856.8906250000,156269.1718750000,,,
1.3639999977,10,-5504.5107421875,157110.9218750000,191311.4218750000,163189.3281250000,122283.3203125000,140159.7656250000,152913.0781250000,156324.3437500000,,,
1.3679999979,10,-5336.3896484375,157217.6718750000,191450.6875000000,163370.2968750000,122450.0234375000,140309.4375000000,153083.9375000000,156489.8593750000,,,
1.3719999979,10,-5287.3051757813,157280.8437500000,191501.4062500000,163425.5156250000,122496.8515625000,140354.3593750000,153138.2500000000,156538.1875000000,,,
1.3759999978,10,-5421.3085937500,157208.7968750000,191387.5156250000,163293.5781250000,122357.0781250000,140237.7343750000,153018.0000000000,156393.2968750000,,,
1.3799999978,10,-5529.9648437500,157126.6718750000,191286.1093750000,163145.6250000000,122242.8437500000,140151.1250000000,152923.3281250000,156286.5937500000,,,
1.3839999977,10,-5464.3041992188,157142.6875000000,191330.2031250000,163195.8437500000,122306.1484375000,140208.7187500000,152992.5781250000,156349.4375000000,,,
1.3879999977,10,-5306.9121093750,157239.5937500000,191459.6406250000,163342.4218750000,122462.6562500000,140343.1406250000,153145.9687500000,156500.0312500000,,,
1.3919999979,10,-5256.7548828125,157296.9062500000,191509.7812500000,163375.1406250000,122513.2421875000,140381.4531250000,153196.2343750000,156543.3437500000,,,
1.3959999979,10,-5372.5727539063,157243.2968750000,191412.2500000000,163228.5625000000,122392.6718750000,140292.1093750000,153098.5000000000,156424.3281250000,,,
1.3999999978,10,-5488.5512695313,157147.6406250000,191302.3906250000,163102.4375000000,122272.2421875000,140199.8593750000,152990.2500000000,156303.5000000000,,,
1.4039999978,10,-5428.0410156250,157166.6406250000,191350.0312500000,163185.5312500000,122330.5000000000,140260.1562500000,153040.4531250000,156370.1718750000,,,
1.4079999977,11,-5265.1503906250,157271.8593750000,191491.4531250000,163348.9375000000,122492.5625000000,140402.3750000000,153194.3593750000,156532.5625000000,,,
1.4119999977,11,-5221.0546875000,157319.9218750000,191534.7812500000,163393.3593750000,122531.3203125000,140435.5468750000,153240.1718750000,156564.2968750000,,,
1.4159999976,11,-5336.4970703125,157261.2656250000,191438.5312500000,163264.7187500000,122409.9453125000,140331.6093750000,153127.6093750000,156441.0156250000,,,
1.4199999976,11,-5456.0429687500,157157.8906250000,191319.5625000000,163140.7187500000,122285.5703125000,140215.3437500000,153011.8437500000,156309.0000000000,,,
1.4239999976,11,-5382.2285156250,157181.1718750000,191371.0312500000,163218.0468750000,122358.9609375000,140284.3281250000,153080.0000000000,156382.6250000000,,,
1.4279999975,11,-5212.2299804688,157300.3437500000,191522.0312500000,163389.3125000000,122532.3359375000,140441.9843750000,153237.0156250000,156561.1718750000,,,
1.4319999977,11,-5158.3715820313,157363.7031250000,191579.1718750000,163453.6562500000,122589.0625000000,140486.9687500000,153288.7500000000,156614.5781250000,,,
1.4359999977,11,-5295.7543945313,157289.2968750000,191461.0156250000,163308.8125000000,122451.2265625000,140366.0781250000,153164.8281250000,156468.5937500000,,,
1.4399999976,11,-5431.7958984375,157183.5000000000,191335.0312500000,163159.7031250000,122309.2578125000,140261.6875000000,153038.1250000000,156334.6093750000,,,
1.4439999976,11,-5367.1279296875,157195.7656250000,191382.3750000000,163205.6875000000,122378.2734375000,140315.3906250000,153090.4843750000,156396.6718750000,,,
1.4479999975,11,-5199.4360351563,157298.8125000000,191523.2968750000,163378.2343750000,122547.7343750000,140451.5937500000,153243.5000000000,156555.5000000000,,,
1.4519999977,11,-5145.2016601563,157361.2812500000,191574.9843750000,163425.4843750000,122600.6015625000,140490.5000000000,153294.0625000000,156606.0468750000,,,
1.4559999977,11,-5275.5034179688,157295.2500000000,191462.5937500000,163269.0156250000,122466.4375000000,140373.5937500000,153168.0468750000,156470.9218750000,,,
1.4599999976,11,-5389.0683593750,157207.2656250000,191353.7500000000,163136.5156250000,122349.0859375000,140279.5000000000,153055.6875000000,156353.8750000000,,,
1.4639999976,11,-5323.4345703125,157230.4687500000,191404.1718750000,163208.7656250000,122419.1718750000,140340.5781250000,153109.7968750000,156423.3125000000,,,
1.4679999975,11,-5175.1352539063,157322.3906250000,191531.4218750000,163386.0000000000,122569.4062500000,140466.3125000000,153250.3906250000,156570.5625000000,,,
1.4719999975,11,-5146.5429687500,157353.5000000000,191557.7031250000,163404.6406250000,122593.0078125000,140479.1406250000,153280.7343750000,156587.9531250000,,,
1.4759999977,11,-5259.0078125000,157292.1406250000,191461.8437500000,163269.2812500000,122474.1562500000,140374.7656250000,153172.3906250000,156467.7812500000,,,
1.4799999977,11,-5357.8740234375,157213.5781250000,191363.8906250000,163168.2187500000,122372.2109375000,140291.4375000000,153075.8593750000,156361.2812500000,,,
1.4839999976,11,-5303.9619140625,157217.7343750000,191393.4531250000,163238.2968750000,122423.7109375000,140340.9218750000,153118.4218750000,156410.8750000000,,,
1.4879999976,11,-5149.0375976563,157310.2656250000,191526.7343750000,163403.6093750000,122575.7109375000,140467.4687500000,153261.8437500000,156564.0781250000,,,
1.4919999975,11,-5085.1738281250,157382.5000000000,191596.2187500000,163463.3281250000,122630.9921875000,140528.8281250000,153326.0625000000,156634.4062500000,,,
1.4959999977,11,-5205.7929687500,157333.4687500000,191499.4843750000,163325.9531250000,122497.4453125000,140441.8437500000,153211.7187500000,156522.8437500000,,,
1.4999999977,11,-5343.8730468750,157216.9843750000,191361.2031250000,163165.8750000000,122347.4531250000,140316.4531250000,153074.3125000000,156372.2968750000,,,
1.5039999976,11,-5274.5380859375,157232.2968750000,191409.1406250000,163228.4843750000,122410.6171875000,140361.5937500000,153130.8281250000,156430.6562500000,,,
1.5079999976,11,-5119.6938476563,157320.7343750000,191537.8593750000,163393.3281250000,122561.6562500000,140476.1562500000,153274.5625000000,156568.8281250000,,,
1.5119999975,11,-5056.1791992188,157384.9687500000,191596.8750000000,163434.2343750000,122619.7265625000,140528.7812500000,153332.1250000000,156624.2656250000,,,
1.5159999975,11,-5168.3759765625,157333.7343750000,191505.3281250000,163305.9218750000,122500.5546875000,140434.3437500000,153225.4687500000,156509.2500000000,,,
1.5199999977,11,-5287.4663085938,157244.9531250000,191399.5312500000,163191.2031250000,122374.0859375000,140334.5937500000,153101.7500000000,156392.8750000000,,,
1.5239999976,11,-5237.3090820313,157244.6562500000,191431.1093750000,163249.4062500000,122421.8593750000,140372.4687500000,153143.1093750000,156436.0312500000,,,
1.5279999976,11,-5059.4785156250,157352.6718750000,191575.0625000000,163416.0937500000,122596.1484375000,140515.9375000000,153296.8750000000,156607.5000000000,,,
1.5319999976,11,-5020.6132812500,157391.3750000000,191604.2500000000,163456.3593750000,122624.6015625000,140533.9375000000,153326.4375000000,156630.3593750000,,,
1.5359999975,12,-5154.6699218750,157322.4687500000,191495.5937500000,163313.0468750000,122483.3593750000,140423.1562500000,153212.7343750000,156500.0781250000,,,
1.5399999975,12,-5275.4765625000,157232.5625000000,191389.1562500000,163184.4062500000,122358.8515625000,140325.1718750000,153100.2968750000,156383.5937500000,,,
1.5439999974,12,-5234.4389648438,157222.6875000000,191409.5468750000,163231.3281250000,122396.8828125000,140359.3125000000,153132.2656250000,156414.4687500000,,,
1.5479999974,12,-5084.3154296875,157305.8437500000,191528.9843750000,163384.7187500000,122544.7265625000,140481.8906250000,153268.4375000000,156555.7031250000,,,
1.5519999973,12,-5031.9589843750,157361.4687500000,191576.2968750000,163426.1875000000,122590.8359375000,140520.3906250000,153319.2968750000,156602.9375000000,,,
1.5559999973,12,-5142.1708984375,157311.1250000000,191485.3125000000,163295.8281250000,122472.7656250000,140410.0156250000,153205.8906250000,156490.2031250000,,,
1.5599999975,12,-5242.5122070313,157231.4062500000,191390.6093750000,163184.3906250000,122366.8437500000,140308.4375000000,153096.9218750000,156382.9531250000,,,
1.5639999975,12,-5174.7597656250,157250.4062500000,191437.8906250000,163266.0781250000,122428.9140625000,140368.2187500000,153144.1250000000,156445.2500000000,,,
1.5679999974,12,-5024.7705078125,157340.8125000000,191565.3593750000,163427.1250000000,122577.4218750000,140503.4062500000,153285.6718750000,156592.8593750000,,,
1.5719999974,12,-4981.0776367188,157388.3125000000,191606.1250000000,163443.8906250000,122620.2343750000,140539.4843750000,153332.8750000000,156629.9843750000,,,
1.5759999973,12,-5101.0527343750,157320.0625000000,191493.0156250000,163293.1250000000,122493.3906250000,140426.3437500000,153207.7500000000,156496.3437500000,,,
1.5799999975,12,-5222.2617187500,157223.0468750000,191376.9531250000,163165.4687500000,122369.7421875000,140321.8281250000,153103.0312500000,156369.8593750000,,,
1.5839999975,12,-5170.2270507813,157228.6406250000,191415.2031250000,163224.9687500000,122424.2421875000,140361.9218750000,153144.5312500000,156420.1250000000,,,
1.5879999974,12,-5014.0151367188,157321.8593750000,191546.5156250000,163393.5781250000,122579.6796875000,140486.3281250000,153278.4531250000,156568.1718750000,,,
1.5919999974,12,-4946.2622070313,157385.2656250000,191604.7812500000,163440.4218750000,122641.2109375000,140536.2187500000,153332.0625000000,156625.5000000000,,,
1.5959999973,12,-5055.7231445313,157332.0781250000,191508.2500000000,163305.4531250000,122521.0703125000,140443.0312500000,153226.4375000000,156513.1093750000,,,
1.5999999973,12,-5183.1552734375,157224.2968750000,191384.7031250000,163174.6718750000,122386.6640625000,140327.3437500000,153100.7500000000,156375.8593750000,,,
1.6039999975,12,-5124.2001953125,157232.0312500000,191423.0625000000,163243.4218750000,122441.2500000000,140367.4218750000,153143.3125000000,156424.5468750000,,,
1.6079999974,12,-4960.1831054688,157333.3125000000,191558.7812500000,163411.4843750000,122601.6718750000,140494.9062500000,153288.5625000000,156580.5156250000,,,
1.6119999974,12,-4911.4741210938,157386.5468750000,191603.9687500000,163452.9062500000,122646.5703125000,140532.5625000000,153337.9218750000,156627.2343750000,,,
1.6159999974,12,-5032.8710937500,157318.8750000000,191494.8125000000,163316.5937500000,122515.0625000000,140427.2343750000,153226.3125000000,156499.5625000000,,,
1.6199999973,12,-5143.8339843750,157232.3750000000,191389.8750000000,163187.8437500000,122398.8203125000,140328.7968750000,153113.3593750000,156385.2812500000,,,
1.6239999975,12,-5100.1137695313,157235.7812500000,191416.8906250000,163235.4218750000,122434.2187500000,140359.5312500000,153132.5312500000,156425.2500000000,,,
1.6279999975,12,-4943.0434570313,157333.0625000000,191548.0781250000,163398.9062500000,122580.2421875000,140492.3281250000,153265.6250000000,156576.6562500000,,,
1.6319999974,12,-4889.0507812500,157383.8906250000,191596.2812500000,163445.0937500000,122623.1562500000,140533.1875000000,153314.5312500000,156622.9531250000,,,
1.6359999974,12,-5000.2285156250,157326.0937500000,191497.7812500000,163286.0468750000,122495.0546875000,140435.4687500000,153210.2968750000,156509.5937500000,,,
1.6399999973,12,-5123.9853515625,157221.6406250000,191375.1875000000,163148.7343750000,122358.1562500000,140315.2031250000,153087.9062500000,156371.9687500000,,,
1.6439999973,12,-5054.5966796875,157230.8750000000,191415.6875000000,163229.2343750000,122419.3906250000,140353.3593750000,153134.7343750000,156421.1406250000,,,
1.6479999975,12,-4873.8696289063,157334.5937500000,191558.9375000000,163404.2187500000,122589.0625000000,140496.2500000000,153274.6875000000,156581.2343750000,,,
1.6519999974,12,-4789.4067382813,157417.2812500000,191635.0312500000,163475.5156250000,122661.8046875000,140577.5781250000,153344.6250000000,156665.1718750000,,,
1.6559999974,12,-4917.2675781250,157361.4375000000,191533.2968750000,163342.7500000000,122529.4375000000,140474.5156250000,153247.0937500000,156546.2656250000,,,
1.6599999974,12,-5048.3471679688,157253.8593750000,191408.0468750000,163206.4375000000,122389.9921875000,140341.7031250000,153123.8125000000,156405.4531250000,,,
1.6639999973,13,-4993.8715820313,157257.8593750000,191439.3125000000,163254.0937500000,122437.0625000000,140369.2500000000,153162.3437500000,156445.9843750000,,,
1.6679999973,13,-4829.9619140625,157351.4062500000,191569.3281250000,163390.7343750000,122595.4765625000,140502.2812500000,153302.0312500000,156595.4531250000,,,
1.6719999972,13,-4765.2666015625,157421.7968750000,191628.0937500000,163458.3125000000,122645.9296875000,140568.8750000000,153351.5156250000,156663.2031250000,,,
1.6759999972,13,-4875.1567382813,157369.4062500000,191531.6562500000,163331.9062500000,122521.5781250000,140472.2187500000,153245.0312500000,156553.8906250000,,,
1.6799999971,13,-4995.0517578125,157268.6875000000,191411.9375000000,163185.1093750000,122392.6718750000,140345.3437500000,153125.9375000000,156420.2500000000,,,
1.6839999971,13,-4955.3012695313,157248.4375000000,191423.4687500000,163223.0312500000,122425.2343750000,140351.1406250000,153154.1250000000,156432.1875000000,,,
1.6879999973,13,-4789.8090820313,157339.8750000000,191556.8750000000,163387.3437500000,122582.7109375000,140481.0937500000,153294.6562500000,156580.4375000000,,,
1.6919999972,13,-4715.2973632813,157412.0000000000,191623.7500000000,163447.4531250000,122643.5703125000,140551.7656250000,153358.8593750000,156650.1250000000,,,
1.6959999972,13,-4822.1298828125,157356.7187500000,191529.3593750000,163326.8125000000,122523.9453125000,140460.8437500000,153255.3593750000,156534.2500000000,,,
1.6999999972,13,-4956.4277343750,157244.1250000000,191401.2812500000,163184.3593750000,122380.7890625000,140330.3281250000,153119.9062500000,156391.2656250000,,,
1.7039999971,13,-4907.3969726563,157244.9531250000,191427.6406250000,163230.8437500000,122423.2500000000,140361.7812500000,153158.3437500000,156433.9062500000,,,
1.7079999973,13,-4726.6430664063,157362.2968750000,191577.2343750000,163420.7187500000,122598.4531250000,140509.2500000000,153318.1250000000,156607.9375000000,,,
1.7119999973,13,-4674.3129882813,157413.0468750000,191618.9218750000,163450.7031250000,122639.2500000000,140542.0781250000,153359.6406250000,156651.5156250000,,,
1.7159999972,13,-4796.4340820313,157340.5156250000,191509.9843750000,163318.0468750000,122506.6406250000,140431.2812500000,153244.4375000000,156524.1093750000,,,
1.7199999972,13,-4899.5112304688,157255.7656250000,191413.4843750000,163238.1406250000,122395.8671875000,140331.5625000000,153135.8906250000,156416.6093750000,,,
1.7239999971,13,-4840.1542968750,157268.1250000000,191454.3125000000,163304.2812500000,122449.4062500000,140366.4062500000,153176.8281250000,156464.3437500000,,,
1.7279999971,13,-4681.2602539063,157366.9375000000,191585.0937500000,163404.8437500000,122600.5703125000,140501.0781250000,153318.5156250000,156614.9062500000,,,
1.7319999973,13,-4629.3325195313,157416.3437500000,191625.5625000000,163406.6093750000,122637.9375000000,140552.5937500000,153368.9687500000,156655.4531250000,,,
1.7359999972,13,-4734.6362304688,157353.0937500000,191528.5468750000,163280.3593750000,122521.2890625000,140454.9062500000,153267.1562500000,156538.2968750000,,,
1.7399999972,13,-4856.2475585938,157259.2968750000,191414.2343750000,163166.0312500000,122389.1875000000,140345.6406250000,153145.8125000000,156415.0000000000,,,
1.7439999972,13,-4799.4111328125,157271.5937500000,191454.4218750000,163222.3437500000,122444.3906250000,140382.2187500000,153188.4687500000,156466.8437500000,,,
1.7479999971,13,-4654.4648437500,157357.5468750000,191570.6562500000,163385.0156250000,122584.7187500000,140494.7500000000,153313.3125000000,156602.5156250000,,,
1.7519999973,13,-4599.3452148438,157407.9843750000,191619.1562500000,163443.4062500000,122628.8437500000,140539.1406250000,153350.8125000000,156654.0625000000,,,
1.7559999973,13,-4697.1923828125,157355.6250000000,191534.0781250000,163325.2500000000,122520.1328125000,140448.7656250000,153254.9062500000,156548.2031250000,,,
1.7599999972,13,-4805.6875000000,157266.0156250000,191427.9687500000,163210.1406250000,122404.7187500000,140336.8437500000,153149.8437500000,156425.0625000000,,,
1.7639999972,13,-4749.7099609375,157278.7812500000,191459.7343750000,163261.3593750000,122450.7187500000,140374.3437500000,153189.9062500000,156466.7968750000,,,
1.7679999971,13,-4588.4287109375,157380.1406250000,191592.3593750000,163422.9375000000,122604.5937500000,140506.8750000000,153332.6250000000,156617.1250000000,,,
1.7719999971,13,-4523.1704101563,157444.8593750000,191651.2656250000,163480.1562500000,122662.3671875000,140562.3125000000,153387.5625000000,156677.3125000000,,,
1.7759999973,13,-4648.3491210938,157370.2656250000,191540.3593750000,163338.5781250000,122528.9609375000,140454.5156250000,153261.3906250000,156544.0468750000,,,
1.7799999972,13,-4781.3598632813,157261.3437500000,191412.4375000000,163191.2812500000,122385.2187500000,140342.0781250000,153131.4375000000,156409.0781250000,,,
1.7839999972,13,-4720.7421875000,157274.6718750000,191449.3750000000,163238.3437500000,122439.7500000000,140388.4218750000,153187.0625000000,156464.2500000000,,,
1.7879999971,13,-4549.3222656250,157386.7968750000,191590.8281250000,163398.6406250000,122609.2656250000,140524.2500000000,153338.3906250000,156629.3281250000,,,
1.7919999971,14,-4506.4067382813,157431.6406250000,191629.5937500000,163467.4687500000,122641.0468750000,140560.0000000000,153370.6875000000,156672.0937500000,,,
1.7959999971,14,-4605.6752929688,157384.2343750000,191548.4062500000,163346.0937500000,122532.6562500000,140473.6093750000,153272.7343750000,156569.2187500000,,,
1.7999999970,14,-4732.5170898438,157267.4375000000,191424.8906250000,163214.8750000000,122401.5000000000,140341.4062500000,153147.4843750000,156413.5000000000,,,
1.8039999970,14,-4683.1914062500,157272.5312500000,191455.7343750000,163239.6875000000,122447.3906250000,140369.3750000000,153179.0781250000,156454.1093750000,,,
1.8079999969,14,-4521.9638671875,157372.1250000000,191585.7343750000,163397.6406250000,122600.3828125000,140503.1093750000,153323.1562500000,156606.7187500000,,,
1.8119999969,14,-4453.1113281250,157439.1406250000,191646.6250000000,163452.9531250000,122660.4687500000,140567.7812500000,153387.9843750000,156672.7031250000,,,
1.8159999971,14,-4564.0205078125,157383.2968750000,191554.7500000000,163332.7968750000,122542.0468750000,140475.0781250000,153283.0625000000,156559.9687500000,,,
1.8199999970,14,-4689.1992187500,157291.5468750000,191444.0625000000,163215.5468750000,122411.3671875000,140366.2656250000,153152.6562500000,156436.5937500000,,,
1.8239999970,14,-4651.7827148438,157285.4218750000,191464.3125000000,163272.5781250000,122446.3750000000,140390.1406250000,153177.5781250000,156465.6718750000,,,
1.8279999970,14,-4494.8999023438,157375.0468750000,191590.6406250000,163443.8281250000,122600.6796875000,140509.9062500000,153322.1718750000,156611.6250000000,,,
1.8319999969,14,-4424.5458984375,157436.6562500000,191652.9843750000,163497.7500000000,122665.7265625000,140558.4531250000,153386.1875000000,156676.5937500000,,,
1.8359999971,14,-4524.1362304688,157385.4687500000,191568.3593750000,163377.7187500000,122556.5312500000,140464.7031250000,153287.6562500000,156572.6093750000,,,
1.8399999971,14,-4661.1166992188,157280.5000000000,191438.3281250000,163208.6875000000,122410.0312500000,140343.7343750000,153157.2656250000,156431.5781250000,,,
1.8439999970,14,-4642.9311523438,157265.1250000000,191440.0937500000,163218.1562500000,122420.6796875000,140360.1718750000,153163.3593750000,156447.4531250000,,,
1.8479999970,14,-4494.0688476563,157351.3906250000,191561.6562500000,163385.7968750000,122566.9375000000,140478.1406250000,153291.9218750000,156587.2812500000,,,
1.8519999969,14,-4411.2958984375,157425.0156250000,191637.9375000000,163477.2031250000,122641.5000000000,140543.0781250000,153367.9218750000,156664.1250000000,,,
1.8559999969,14,-4520.6494140625,157368.1406250000,191543.7656250000,163344.4843750000,122521.8203125000,140446.7343750000,153265.6250000000,156550.7968750000,,,
1.8599999971,14,-4655.9399414063,157260.9062500000,191413.7031250000,163165.0000000000,122380.0156250000,140326.4375000000,153137.0937500000,156408.5937500000,,,
1.8639999970,14,-4609.3500976563,157269.2812500000,191443.9062500000,163203.4218750000,122424.5390625000,140360.4687500000,153171.1562500000,156452.5156250000,,,
1.8679999970,14,-4465.4497070313,157353.1875000000,191561.1875000000,163368.6250000000,122563.7187500000,140478.8437500000,153298.0781250000,156587.1406250000,,,
1.8719999969,14,-4400.3789062500,157405.4843750000,191615.5937500000,163426.9843750000,122621.7890625000,140532.3281250000,153358.7500000000,156637.6250000000,,,
1.8759999969,14,-4502.4101562500,157356.0312500000,191525.7656250000,163295.2656250000,122510.2890625000,140449.7031250000,153260.9843750000,156533.0156250000,,,
1.8799999971,14,-4627.3208007813,157263.4843750000,191408.0468750000,163152.3906250000,122376.9843750000,140342.9531250000,153140.9062500000,156404.2656250000,,,
1.8839999971,14,-4621.3393554688,157235.1718750000,191399.0312500000,163161.0468750000,122378.3281250000,140339.7187500000,153139.3437500000,156404.9687500000,,,
1.8879999970,14,-4459.8168945313,157330.9687500000,191530.8593750000,163315.1093750000,122537.8593750000,140470.4687500000,153281.5312500000,156558.9218750000,,,
1.8919999970,14,-4358.7509765625,157421.7656250000,191620.6562500000,163400.1406250000,122635.4375000000,140557.5312500000,153375.0156250000,156655.1875000000,,,
1.8959999969,14,-4447.4248046875,157385.3750000000,191550.0312500000,163289.0781250000,122540.3281250000,140488.9218750000,153290.3593750000,156566.0625000000,,,
1.8999999969,14,-4574.1860351563,157297.0468750000,191441.5625000000,163162.9062500000,122407.2890625000,140386.9218750000,153166.7968750000,156443.1875000000,,,
1.9039999971,14,-4572.7915039063,157261.6718750000,191432.2031250000,163201.5312500000,122410.0781250000,140372.6250000000,153159.1718750000,156430.9062500000,,,
1.9079999970,14,-4428.4887695313,157337.4687500000,191548.8906250000,163357.7968750000,122554.4687500000,140483.0781250000,153284.7187500000,156566.6562500000,,,
1.9119999970,14,-4352.7431640625,157401.8437500000,191616.4531250000,163423.9843750000,122624.2578125000,140541.3281250000,153348.8593750000,156639.5000000000,,,
1.9159999969,14,-4455.2836914063,157354.9531250000,191532.7968750000,163306.9375000000,122514.7421875000,140452.7656250000,153251.7656250000,156539.7812500000,,,
1.9199999969,15,-4587.0341796875,157253.9062500000,191410.4531250000,163164.5156250000,122378.2734375000,140329.6562500000,153126.0937500000,156400.1875000000,,,
1.9239999969,15,-4566.2202148438,157235.0312500000,191413.4531250000,163204.7500000000,122395.8671875000,140336.0937500000,153135.3593750000,156411.5312500000,,,
1.9279999968,15,-4406.7626953125,157330.6562500000,191539.6875000000,163369.5625000000,122552.2656250000,140471.4687500000,153281.3750000000,156562.1406250000,,,
1.9319999968,15,-4326.9667968750,157404.5156250000,191609.3750000000,163443.5468750000,122625.1406250000,140541.9843750000,153358.3281250000,156636.9218750000,,,
1.9359999967,15,-4440.1831054688,157343.1250000000,191512.0000000000,163315.3906250000,122504.1484375000,140437.9687500000,153251.3125000000,156516.9531250000,,,
1.9399999967,15,-4562.8134765625,157253.6250000000,191399.6718750000,163173.9218750000,122375.0781250000,140333.7031250000,153132.6406250000,156394.4843750000,,,
1.9439999969,15,-4548.4638671875,157232.4062500000,191394.7968750000,163196.2968750000,122385.8906250000,140336.3906250000,153138.3593750000,156396.5781250000,,,
1.9479999968,15,-4424.4921875000,157304.7968750000,191496.2656250000,163340.9687500000,122503.9062500000,140438.3437500000,153240.7968750000,156522.0156250000,,,
1.9519999968,15,-4341.4511718750,157384.3750000000,191574.0937500000,163423.2968750000,122580.0781250000,140513.5468750000,153314.6093750000,156609.0625000000,,,
1.9559999967,15,-4430.4736328125,157343.3437500000,191497.8750000000,163314.8437500000,122482.1796875000,140431.7187500000,153231.5156250000,156511.5625000000,,,
1.9599999967,15,-4571.5844726563,157233.0156250000,191364.2656250000,163117.6562500000,122332.8359375000,140299.9687500000,153096.7812500000,156362.1875000000,,,
1.9639999969,15,-4549.9389648438,157220.3593750000,191370.7812500000,163110.7343750000,122350.9140625000,140298.0312500000,153105.5000000000,156374.5781250000,,,
1.9679999969,15,-4392.5468750000,157316.4843750000,191501.4843750000,163268.6562500000,122506.6718750000,140416.7187500000,153237.1093750000,156523.1718750000,,,
1.9719999968,15,-4325.9208984375,157370.5312500000,191555.9062500000,163328.8281250000,122563.8828125000,140470.9843750000,153295.3437500000,156575.3437500000,,,
1.9759999968,15,-4398.7163085938,157346.0000000000,191498.1093750000,163233.4375000000,122479.3671875000,140417.3437500000,153221.2343750000,156502.3281250000,,,
1.9799999967,15,-4514.9360351563,157257.4843750000,191390.2812500000,163103.3750000000,122353.7812500000,140310.0937500000,153105.0937500000,156379.4531250000,,,
1.9839999967,15,-4482.5351562500,157248.3281250000,191403.5312500000,163135.8437500000,122381.7343750000,140321.8437500000,153132.1875000000,156402.1718750000,,,
1.9879999969,15,-4335.0405273438,157333.3593750000,191523.5156250000,163299.3750000000,122525.4687500000,140435.3281250000,153262.1093750000,156543.1562500000,,,
1.9919999968,15,-4264.9541015625,157391.1875000000,191586.4687500000,163394.2656250000,122588.3671875000,140486.2968750000,153318.2343750000,156608.1406250000,,,
1.9959999968,15,-4363.0424804688,157338.7031250000,191504.2500000000,163284.1875000000,122481.3203125000,140403.3125000000,153220.2187500000,156508.3125000000,,,
1.9999999967,15,-4504.9047851563,157223.9531250000,191368.2031250000,163112.0156250000,122329.4296875000,140278.5781250000,153083.6875000000,156358.3750000000,,,
2.0039999967,15,-4479.9335937500,157206.2031250000,191372.2656250000,163126.8281250000,122348.0156250000,140296.4531250000,153102.9062500000,156373.5000000000,,,
2.0079999969,15,-4303.3100585938,157317.1093750000,191517.2656250000,163295.7812500000,122520.2109375000,140443.5156250000,153257.2343750000,156546.1093750000,,,
2.0119999968,15,-4211.4980468750,157395.6718750000,191596.2031250000,163395.6562500000,122604.9453125000,140509.7968750000,153337.0000000000,156627.7031250000,,,
2.0159999968,15,-4318.5449218750,157328.9687500000,191501.1875000000,163287.4062500000,122490.2500000000,140405.4843750000,153238.1406250000,156506.5468750000,,,
2.0199999968,15,-4455.3105468750,157220.9218750000,191369.1718750000,163136.5937500000,122340.2656250000,140287.9687500000,153099.3593750000,156365.1875000000,,,
2.0239999967,15,-4407.2456054688,157223.0625000000,191390.5312500000,163151.4531250000,122381.6796875000,140318.9531250000,153126.3906250000,156401.5937500000,,,
2.0279999967,15,-4232.3120117188,157334.5156250000,191533.0000000000,163328.8750000000,122551.4375000000,140457.8437500000,153278.3906250000,156566.8125000000,,,
2.0319999969,15,-4210.2910156250,157356.1250000000,191548.5156250000,163396.3281250000,122557.8984375000,140474.3593750000,153298.0781250000,156583.2343750000,,,
2.0359999968,15,-4294.5390625000,157312.5937500000,191479.4375000000,163284.2500000000,122465.9531250000,140405.5312500000,153220.9218750000,156501.7656250000,,,
2.0399999968,15,-4404.7509765625,157227.4687500000,191374.4062500000,163159.7031250000,122346.9140625000,140305.3281250000,153112.2656250000,156382.5781250000,,,
2.0439999967,15,-4384.0712890625,157206.8906250000,191374.1875000000,163175.9062500000,122361.3203125000,140313.9687500000,153126.5625000000,156386.5937500000,,,
2.0479999967,16,-4227.8325195313,157293.2343750000,191497.2031250000,163325.3906250000,122512.9453125000,140434.0000000000,153264.6562500000,156526.9218750000,,,
2.0519999966,16,-4123.0117187500,157380.3593750000,191588.6562500000,163407.8125000000,122611.8671875000,140511.7968750000,153351.9687500000,156620.1093750000,,,
2.0559999966,16,-4206.4819335938,157344.4062500000,191517.4218750000,163288.1562500000,122516.6718750000,140437.1875000000,153267.2968750000,156531.2187500000,,,
2.0599999966,16,-4333.0288085938,157254.8281250000,191404.4531250000,163146.3750000000,122378.5937500000,140327.1093750000,153143.0468750000,156404.9687500000,,,
2.0639999965,16,-4306.5820312500,157255.8750000000,191418.5625000000,163185.6250000000,122397.2890625000,140346.4218750000,153156.7031250000,156431.1718750000,,,
2.0679999965,16,-4143.0478515625,157362.2187500000,191554.5625000000,163349.1875000000,122554.6015625000,140479.9375000000,153297.7343750000,156588.3437500000,,,
2.0719999967,16,-4049.6533203125,157444.6406250000,191639.1406250000,163446.9687500000,122642.6562500000,140559.9687500000,153372.4843750000,156679.3593750000,,,
2.0759999966,16,-4135.0283203125,157400.3281250000,191565.8281250000,163372.0937500000,122551.1406250000,140488.1250000000,153285.7500000000,156582.5000000000,,,
2.0799999966,16,-4273.1352539063,157288.4843750000,191438.2187500000,163207.5000000000,122402.7890625000,140364.2031250000,153153.3281250000,156434.7187500000,,,
2.0839999965,16,-4261.6552734375,157270.1875000000,191436.0468750000,163172.4531250000,122409.1718750000,140374.1562500000,153160.6250000000,156445.1250000000,,,
2.0879999965,16,-4129.9321289063,157337.9531250000,191535.8437500000,163309.9687500000,122533.9453125000,140475.3750000000,153279.1718750000,156559.1093750000,,,
2.0919999967,16,-4049.3583984375,157398.1562500000,191604.2968750000,163398.6093750000,122607.3046875000,140523.2343750000,153345.3125000000,156629.2031250000,,,
2.0959999966,16,-4119.4980468750,157363.4843750000,191548.0781250000,163327.1093750000,122530.5156250000,140457.0625000000,153274.3437500000,156552.9687500000,,,
2.0999999966,16,-4223.5141601563,157285.3750000000,191453.5781250000,163206.5156250000,122421.4843750000,140377.1875000000,153180.6875000000,156441.6250000000,,,
2.1039999966,16,-4201.0639648438,157275.4843750000,191457.6875000000,163220.4375000000,122438.2968750000,140396.8750000000,153197.6406250000,156459.0468750000,,,
2.1079999965,16,-4069.9577636719,157348.6718750000,191557.2187500000,163377.9375000000,122563.8828125000,140494.2031250000,153315.3281250000,156579.9843750000,,,
2.1119999965,16,-3988.3649902344,157415.8593750000,191623.7500000000,163452.2031250000,122639.9765625000,140549.1406250000,153390.2187500000,156652.0468750000,,,
2.1159999967,16,-4077.4677734375,157377.1093750000,191549.0781250000,163336.3281250000,122541.7812500000,140476.2343750000,153304.5781250000,156563.7031250000,,,
2.1199999966,16,-4212.7851562500,157279.9062500000,191426.7656250000,163192.6250000000,122397.4218750000,140371.1250000000,153169.6093750000,156429.7031250000,,,
2.1239999966,16,-4195.1630859375,157268.0000000000,191428.1093750000,163219.5156250000,122409.2265625000,140381.7500000000,153175.0781250000,156442.4687500000,,,
2.1279999965,16,-4064.6469726563,157345.8125000000,191527.7187500000,163360.9062500000,122532.5781250000,140477.9218750000,153289.1562500000,156568.0937500000,,,
2.1319999965,16,-3994.8559570313,157398.3281250000,191580.1875000000,163426.5156250000,122593.8906250000,140523.6562500000,153354.3281250000,156620.9687500000,,,
2.1359999967,16,-4072.4521484375,157359.2500000000,191515.3593750000,163332.5781250000,122508.1406250000,140463.0625000000,153278.0937500000,156536.9062500000,,,
2.1399999966,16,-4183.8173828125,157278.2343750000,191416.5156250000,163202.1718750000,122390.8515625000,140372.0937500000,153163.5937500000,156424.5000000000,,,
2.1439999966,16,-4178.1582031250,157255.0937500000,191409.3750000000,163203.3750000000,122395.6796875000,140366.9687500000,153159.9531250000,156421.3593750000,,,
2.1479999966,16,-4032.9431152344,157339.0937500000,191526.7343750000,163364.2031250000,122540.1171875000,140474.1718750000,153295.0468750000,156559.1718750000,,,
2.1519999965,16,-3943.4111328125,157410.3437500000,191605.2031250000,163448.8437500000,122626.9687500000,140537.6562500000,153380.3437500000,156638.7187500000,,,
2.1559999965,16,-4018.9956054688,157382.7187500000,191546.6250000000,163341.8593750000,122544.1406250000,140479.4062500000,153304.9843750000,156564.8281250000,,,
2.1599999967,16,-4158.5244140625,157286.5781250000,191422.1250000000,163181.6250000000,122398.0156250000,140370.3437500000,153169.5000000000,156428.3593750000,,,
2.1639999966,16,-4159.0605468750,157255.2500000000,191406.9687500000,163196.1562500000,122393.7734375000,140360.6562500000,153159.0312500000,156418.5625000000,,,
2.1679999966,16,-3993.2465820313,157358.5000000000,191543.7031250000,163364.6250000000,122556.9609375000,140492.0156250000,153303.2343750000,156577.4531250000,,,
2.1719999965,16,-3893.8706054688,157446.3281250000,191633.3125000000,163450.8593750000,122652.2031250000,140570.7343750000,153388.4218750000,156672.0625000000,,,
2.1759999965,17,-3976.8581542969,157409.6093750000,191566.7812500000,163345.8593750000,122565.3281250000,140501.0156250000,153308.5156250000,156588.3437500000,,,
2.1799999964,17,-4111.6660156250,157313.5625000000,191447.0937500000,163201.5000000000,122426.3906250000,140387.2343750000,153178.7187500000,156453.7812500000,,,
2.1839999964,17,-4120.8930664063,157286.5312500000,191431.4843750000,163214.4843750000,122414.5312500000,140380.8281250000,153166.8125000000,156449.9531250000,,,
2.1879999964,17,-3987.9626464844,157362.3281250000,191537.0625000000,163369.3281250000,122546.4218750000,140483.5625000000,153287.1406250000,156575.9843750000,,,
2.1919999963,17,-3891.7517089844,157441.1562500000,191626.7812500000,163477.5312500000,122642.1484375000,140565.9531250000,153375.5156250000,156667.6406250000,,,
2.1959999963,17,-3977.4482421875,157404.1406250000,191563.2031250000,163373.0468750000,122555.1328125000,140494.5312500000,153292.3750000000,156581.7812500000,,,
2.1999999965,17,-4111.8002929688,157306.2656250000,191442.9062500000,163191.5937500000,122415.8750000000,140378.6250000000,153162.6562500000,156447.3125000000,,,
2.2039999964,17,-4110.2177734375,157275.0156250000,191427.4375000000,163184.3281250000,122414.5078125000,140361.5781250000,153160.1093750000,156435.5937500000,,,
2.2079999964,17,-3973.5322265625,157354.9843750000,191534.2343750000,163345.2343750000,122546.6328125000,140465.1406250000,153288.0781250000,156566.1718750000,,,
2.2119999963,17,-3890.8129882813,157428.7187500000,191605.2031250000,163436.5156250000,122624.6562500000,140537.2343750000,153368.6718750000,156646.9531250000,,,
2.2159999963,17,-3964.4128417969,157403.4687500000,191546.2500000000,163345.8593750000,122545.8281250000,140486.7187500000,153301.1718750000,156576.5000000000,,,
2.2199999965,17,-4101.2055664063,157304.6406250000,191422.3125000000,163208.4687500000,122403.7265625000,140375.1250000000,153168.8750000000,156436.8125000000,,,
2.2239999964,17,-4107.4013671875,157268.8750000000,191403.5156250000,163205.2812500000,122395.8671875000,140357.8906250000,153152.5000000000,156419.1093750000,,,
2.2279999964,17,-3978.2260742188,157348.4375000000,191511.1718750000,163354.7031250000,122522.6796875000,140464.7343750000,153263.8281250000,156547.3906250000,,,
2.2319999964,17,-3893.0390625000,157421.0468750000,191587.8281250000,163440.1093750000,122604.8359375000,140541.8125000000,153344.8125000000,156628.2031250000,,,
2.2359999963,17,-3973.9345703125,157388.7968750000,191528.6562500000,163347.8906250000,122527.0546875000,140478.9218750000,153270.7812500000,156551.5156250000,,,
2.2399999963,17,-4097.4501953125,157299.6718750000,191425.7500000000,163218.0937500000,122408.2812500000,140369.0312500000,153153.1093750000,156426.2031250000,,,
2.2439999965,17,-4092.3005371094,157273.4062500000,191420.5937500000,163216.4843750000,122413.8671875000,140362.7500000000,153151.8437500000,156422.1406250000,,,
2.2479999964,17,-3949.9020996094,157353.2656250000,191531.2656250000,163340.4375000000,122549.9843750000,140474.3906250000,153278.0937500000,156554.6875000000,,,
2.2519999964,17,-3857.4462890625,157432.8750000000,191613.2500000000,163422.8281250000,122634.5312500000,140554.2343750000,153362.6718750000,156644.7500000000,,,
2.2559999963,17,-3938.9318847656,157399.9375000000,191549.3437500000,163317.0000000000,122546.6328125000,140498.9843750000,153286.0937500000,156564.9375000000,,,
2.2599999963,17,-4071.1647949219,157299.2968750000,191432.6093750000,163195.8437500000,122409.7578125000,140383.7343750000,153155.4375000000,156424.0156250000,,,
2.2639999965,17,-4054.0522460938,157289.8750000000,191442.2343750000,163201.3125000000,122422.5000000000,140393.1718750000,153161.2343750000,156440.4843750000,,,
2.2679999964,17,-3920.8537597656,157361.1718750000,191545.5312500000,163313.1562500000,122553.0468750000,140492.5156250000,153284.4375000000,156559.0312500000,,,
2.2719999964,17,-3819.8417968750,157449.0156250000,191639.7343750000,163409.3906250000,122651.7734375000,140576.8437500000,153376.8593750000,156662.1406250000,,,
2.2759999963,17,-3883.0881347656,157436.9218750000,191594.7500000000,163325.3125000000,122585.9843750000,140528.0312500000,153317.6406250000,156607.3125000000,,,
2.2799999963,17,-4028.4638671875,157332.5625000000,191460.9375000000,163186.0000000000,122437.2812500000,140406.0781250000,153182.8750000000,156462.2343750000,,,
2.2839999963,17,-4037.8515625000,157295.3750000000,191435.1562500000,163192.1562500000,122428.1562500000,140393.1718750000,153167.9218750000,156445.9218750000,,,
2.2879999964,17,-3902.0515136719,157380.7500000000,191549.4687500000,163347.5468750000,122564.8750000000,140503.5937500000,153283.8750000000,156587.3906250000,,,
2.2919999964,17,-3803.3193359375,157465.5937500000,191641.1250000000,163446.5781250000,122660.3828125000,140579.2031250000,153376.1875000000,156681.5000000000,,,
2.2959999964,17,-3875.7924804688,157436.2031250000,191582.4062500000,163347.8437500000,122579.1953125000,140518.5156250000,153316.9687500000,156602.6250000000,,,
2.2999999963,17,-4009.0178222656,157336.0156250000,191461.6250000000,163205.7656250000,122440.7421875000,140397.0625000000,153192.9687500000,156459.7968750000,,,
2.3039999963,18,-4016.0185546875,157307.6718750000,191446.7656250000,163220.4843750000,122431.6171875000,140386.1718750000,153182.7812500000,156452.2812500000,,,
2.3079999962,18,-3886.5214843750,157386.0937500000,191553.8125000000,163373.7812500000,122563.6093750000,140489.3750000000,153298.7031250000,156581.6718750000,,,
2.3119999962,18,-3788.4865722656,157472.5468750000,191643.7031250000,163488.1406250000,122663.5234375000,140582.6718750000,153389.7343750000,156681.7500000000,,,
2.3159999961,18,-3880.2719726563,157433.2968750000,191566.7187500000,163381.0937500000,122567.5312500000,140516.2343750000,153308.4843750000,156593.6406250000,,,
2.3199999961,18,-4033.6674804688,157322.8125000000,191426.6875000000,163202.8906250000,122409.4375000000,140388.8750000000,153162.5781250000,156440.8750000000,,,
2.3239999961,18,-4044.1013183594,157289.1093750000,191405.8906250000,163204.9062500000,122399.7265625000,140376.3281250000,153143.9687500000,156426.3906250000,,,
2.3279999963,18,-3905.8063964844,157367.3125000000,191519.9687500000,163355.8281250000,122538.4531250000,140486.2968750000,153271.5625000000,156557.9375000000,,,
2.3319999962,18,-3809.9174804688,157448.8281250000,191608.4062500000,163439.0312500000,122631.6093750000,140569.5312500000,153365.0781250000,156650.8125000000,,,
2.3359999962,18,-3884.4291992188,157420.5781250000,191553.6250000000,163343.5156250000,122551.1953125000,140511.3750000000,153302.5312500000,156578.4218750000,,,
2.3399999961,18,-4029.9392089844,157312.8125000000,191427.6718750000,163199.1093750000,122401.5781250000,140387.3437500000,153164.4062500000,156427.7187500000,,,
2.3439999961,18,-4033.5065917969,157276.0625000000,191414.7656250000,163200.9375000000,122398.6796875000,140379.7031250000,153153.4531250000,156411.1875000000,,,
2.3479999963,18,-3893.7365722656,157349.8593750000,191528.3906250000,163349.9531250000,122539.4218750000,140491.3906250000,153280.2968750000,156541.0625000000,,,
2.3519999962,18,-3789.4521484375,157438.7968750000,191624.2812500000,163447.4843750000,122644.2890625000,140582.0000000000,153375.0312500000,156647.8906250000,,,
2.3559999962,18,-3887.4870605469,157392.7500000000,191541.9375000000,163329.9687500000,122540.5156250000,140503.1406250000,153287.7031250000,156553.9843750000,,,
2.3599999961,18,-4030.1000976563,157291.2500000000,191413.9687500000,163180.3593750000,122393.6093750000,140385.6093750000,153154.7656250000,156415.5312500000,,,
2.3639999961,18,-4027.8203125000,157274.0312500000,191404.5468750000,163182.2656250000,122394.9296875000,140383.3593750000,153152.6562500000,156417.3593750000,,,
2.3679999961,18,-3876.0339355469,157373.9687500000,191531.7187500000,163332.7656250000,122547.8671875000,140505.9062500000,153291.5625000000,156567.6406250000,,,
2.3719999962,18,-3770.4621582031,157473.8281250000,191633.2343750000,163427.9843750000,122652.9062500000,140597.3437500000,153388.6562500000,156680.2343750000,,,
2.3759999962,18,-3847.6562500000,157447.7343750000,191575.6718750000,163342.5625000000,122572.2500000000,140534.8750000000,153318.0625000000,156607.4218750000,,,
2.3799999962,18,-3998.9328613281,157341.9687500000,191443.4687500000,163179.0781250000,122417.1875000000,140407.7343750000,153174.6250000000,156461.7187500000,,,
2.3839999961,18,-4013.7653808594,157312.2812500000,191422.7968750000,163171.7812500000,122401.6328125000,140392.8750000000,153155.8437500000,156451.2031250000,,,
2.3879999961,18,-3874.6123046875,157397.9218750000,191540.0000000000,163324.9531250000,122541.9375000000,140507.4843750000,153283.8125000000,156591.1093750000,,,
2.3919999963,18,-3783.7927246094,157466.6406250000,191618.3750000000,163425.0937500000,122634.7734375000,140571.5625000000,153369.2500000000,156672.7812500000,,,
2.3959999962,18,-3847.7097167969,157438.8281250000,191564.6875000000,163351.2656250000,122566.3437500000,140525.6718750000,153315.0937500000,156603.2968750000,,,
2.3999999962,18,-4003.2243652344,157320.4843750000,191425.5781250000,163213.6250000000,122407.1562500000,140398.7187500000,153170.3281250000,156444.0781250000,,,
2.4039999961,18,-4014.5163574219,157283.2812500000,191409.8593750000,163213.8593750000,122401.5234375000,140380.8281250000,153161.4843750000,156427.8750000000,,,
2.4079999961,18,-3877.4018554688,157361.3125000000,191527.1250000000,163376.6718750000,122544.4609375000,140486.0468750000,153289.5312500000,156559.7031250000,,,
2.4119999961,18,-3774.3513183594,157453.0625000000,191625.8125000000,163479.2187500000,122647.8828125000,140582.5937500000,153387.0312500000,156666.3437500000,,,
2.4159999962,18,-3861.9523925781,157417.0156250000,191557.7343750000,163375.7656250000,122556.3125000000,140521.4062500000,153308.2812500000,156582.2812500000,,,
2.4199999962,18,-4013.7653808594,157312.2500000000,191426.9218750000,163219.8437500000,122401.4453125000,140397.1718750000,153157.5156250000,156434.6093750000,,,
2.4239999962,18,-4037.6369628906,157277.4062500000,191400.3906250000,163206.0781250000,122375.8593750000,140376.1875000000,153128.4375000000,156413.5156250000,,,
2.4279999961,18,-3898.8327636719,157359.5156250000,191516.7968750000,163356.6406250000,122519.4062500000,140485.4687500000,153264.1562500000,156544.6093750000,,,
2.4319999961,19,-3816.1401367188,157424.0781250000,191590.5937500000,163453.1406250000,122602.2890625000,140548.7031250000,153350.7031250000,156621.8750000000,,,
2.4359999960,19,-3897.8940429688,157386.2031250000,191523.5937500000,163358.2656250000,122515.9218750000,140486.4375000000,153281.4531250000,156546.9687500000,,,
2.4399999960,19,-4015.1601562500,157309.5468750000,191417.0312500000,163214.5625000000,122395.2187500000,140400.5156250000,153169.0625000000,156437.9062500000,,,
2.4439999959,19,-4032.4873046875,157270.0937500000,191385.3281250000,163197.5312500000,122376.6328125000,140377.8281250000,153145.5000000000,156408.0468750000,,,
2.4479999959,19,-3925.0109863281,157314.8593750000,191466.6718750000,163326.0625000000,122484.4296875000,140462.6406250000,153244.2500000000,156502.6562500000,,,
2.4519999959,19,-3817.3471679688,157410.7187500000,191569.5156250000,163432.9531250000,122594.1640625000,140566.4687500000,153345.2031250000,156618.4375000000,,,
2.4559999960,19,-3875.2829589844,157403.8750000000,191533.1875000000,163359.1875000000,122534.8828125000,140524.4687500000,153291.0312500000,156572.9531250000,,,
2.4599999960,19,-4003.4926757813,157319.9218750000,191425.9531250000,163213.5937500000,122405.2031250000,140414.2187500000,153173.6250000000,156450.1562500000,,,
2.4639999960,19,-4006.2819824219,157295.4531250000,191416.7656250000,163200.0468750000,122404.5312500000,140395.9375000000,153167.1875000000,156440.2968750000,,,
2.4679999959,19,-3872.6274414063,157376.6562500000,191530.6250000000,163351.7343750000,122537.2187500000,140499.3281250000,153288.0781250000,156568.1718750000,,,
2.4719999959,19,-3774.1635742188,157456.9218750000,191618.6250000000,163448.1250000000,122633.4062500000,140573.0937500000,153375.7031250000,156663.5000000000,,,
2.4759999961,19,-3847.4953613281,157427.8750000000,191556.0156250000,163339.5312500000,122552.8281250000,140515.6406250000,153302.5937500000,156588.7500000000,,,
2.4799999960,19,-3989.4377441406,157329.4375000000,191427.0781250000,163189.1875000000,122404.6093750000,140404.2500000000,153165.9062500000,156448.7968750000,,,
2.4839999960,19,-3994.1047363281,157308.5781250000,191414.7500000000,163191.4375000000,122399.3281250000,140396.0156250000,153158.7968750000,156443.5156250000,,,
2.4879999959,19,-3855.3273925781,157395.4531250000,191531.0468750000,163319.1406250000,122541.1875000000,140508.9062500000,153287.7343750000,156581.9062500000,,,
2.4919999959,19,-3742.4868164063,157489.7656250000,191635.8437500000,163437.2031250000,122656.7109375000,140601.2343750000,153392.5468750000,156693.8125000000,,,
2.4959999959,19,-3824.1867675781,157443.2500000000,191567.0937500000,163353.7656250000,122574.5312500000,140525.1406250000,153322.7343750000,156600.8750000000,,,
2.4999999960,19,-3973.7468261719,157333.1406250000,191434.2187500000,163196.2343750000,122421.8281250000,140398.6406250000,153179.4218750000,156451.4218750000,,,
2.5039999960,19,-4003.2243652344,157285.1875000000,191400.3750000000,163182.5625000000,122392.8593750000,140372.0312500000,153145.4062500000,156418.6718750000,,,
2.5079999960,19,-3862.6496582031,157370.4843750000,191522.2968750000,163341.0781250000,122538.5078125000,140490.7968750000,153273.4062500000,156558.3906250000,,,
2.5119999959,19,-3741.4943847656,157480.0000000000,191637.4531250000,163472.5937500000,122659.2578125000,140599.8281250000,153385.4375000000,156685.2812500000,,,
2.5159999959,19,-3809.2470703125,157453.5781250000,191582.2187500000,163409.8281250000,122583.5703125000,140539.7187500000,153324.6093750000,156610.4531250000,,,
2.5199999961,19,-3981.3107910156,157320.2656250000,191423.6250000000,163230.6250000000,122405.1484375000,140385.0468750000,153169.9843750000,156426.0781250000,,,
2.5239999960,19,-4003.4926757813,157279.3437500000,191393.7968750000,163198.5000000000,122381.0625000000,140362.4062500000,153147.9531250000,156403.0625000000,,,
2.5279999960,19,-3857.2854003906,157369.7343750000,191516.0312500000,163352.5937500000,122528.3906250000,140482.0625000000,153277.5312500000,156546.5937500000,,,
2.5319999959,19,-3765.3659667969,157443.4062500000,191598.6093750000,163451.4843750000,122618.9218750000,140564.7500000000,153362.6718750000,156636.2812500000,,,
2.5359999959,19,-3838.6171875000,157414.3125000000,191541.1562500000,163372.0000000000,122540.7578125000,140515.0781250000,153295.0781250000,156568.1562500000,,,
2.5399999958,19,-4000.6225585938,157293.8281250000,191395.0312500000,163212.5781250000,122377.5234375000,140378.5468750000,153140.8281250000,156406.3593750000,,,
2.5439999960,19,-4015.2941894531,157255.5468750000,191373.8906250000,163205.7968750000,122364.8828125000,140359.7031250000,153123.7656250000,156392.1406250000,,,
2.5479999960,19,-3883.7050781250,157326.6250000000,191479.1250000000,163344.8906250000,122497.6328125000,140465.7187500000,153248.9375000000,156517.1406250000,,,
2.5519999960,19,-3771.3474121094,157419.7500000000,191577.2812500000,163455.7656250000,122606.7968750000,140565.9062500000,153356.2812500000,156630.0625000000,,,
2.5559999959,19,-3832.4211425781,157401.7343750000,191526.5937500000,163367.2812500000,122537.8359375000,140514.5156250000,153297.1250000000,156567.5156250000,,,
2.5599999959,20,-3977.2336425781,157304.6406250000,191401.1250000000,163208.5781250000,122387.1796875000,140392.0937500000,153160.2500000000,156425.2656250000,,,
2.5639999958,20,-4000.2739257813,157266.2812500000,191374.6406250000,163186.3437500000,122362.8750000000,140361.3593750000,153130.7187500000,156398.2031250000,,,
2.5679999958,20,-3861.5500488281,157348.3750000000,191493.0156250000,163328.2031250000,122503.5859375000,140476.2343750000,153257.2343750000,156532.2187500000,,,
2.5719999957,20,-3753.6984863281,157438.9843750000,191593.4375000000,163438.5468750000,122611.0625000000,140575.7812500000,153358.6250000000,156640.0312500000,,,
2.5759999957,20,-3815.0673828125,157421.1250000000,191548.5312500000,163358.7812500000,122547.9218750000,140527.9531250000,153297.1406250000,156582.4531250000,,,
2.5799999957,20,-3959.8261718750,157318.5781250000,191421.6875000000,163191.8906250000,122399.7031250000,140405.2343750000,153155.4687500000,156439.7031250000,,,
2.5839999958,20,-3971.8962402344,157287.4375000000,191405.6250000000,163180.2500000000,122388.0312500000,140391.6093750000,153136.4218750000,156427.0156250000,,,
2.5879999958,20,-3836.6054687500,157363.9687500000,191515.5937500000,163318.1250000000,122525.9765625000,140493.0312500000,153257.5312500000,156553.2187500000,,,
2.5919999958,20,-3730.4436035156,157450.1718750000,191610.3125000000,163428.8437500000,122630.6640625000,140578.7187500000,153360.6562500000,156657.5000000000,,,
2.5959999957,20,-3798.7058105469,157421.7656250000,191557.2500000000,163359.6406250000,122558.5703125000,140524.0625000000,153308.0937500000,156587.0937500000,,,
2.5999999957,20,-3944.4304199219,157320.3437500000,191431.2343750000,163210.7187500000,122410.5078125000,140407.3906250000,153179.2031250000,156444.7187500000,,,
2.6039999959,20,-3969.4553222656,157278.7812500000,191399.8906250000,163213.2187500000,122387.8750000000,140381.3750000000,153152.9531250000,156415.5937500000,,,
2.6079999958,20,-3845.1884765625,157348.1875000000,191500.9843750000,163369.3437500000,122517.3203125000,140483.2187500000,153264.6406250000,156536.6093750000,,,
2.6119999958,20,-3743.3986816406,157428.5000000000,191588.6562500000,163444.7968750000,122618.0078125000,140575.7187500000,153357.1718750000,156633.7656250000,,,
2.6159999957,20,-3808.2812500000,157401.6718750000,191534.7968750000,163366.8906250000,122544.4609375000,140524.1093750000,153290.5000000000,156563.6250000000,,,
2.6199999957,20,-3947.1394042969,157294.2031250000,191405.4375000000,163218.0156250000,122396.9375000000,140395.7656250000,153144.6875000000,156413.5156250000,,,
2.6239999956,20,-3976.2949218750,157249.5937500000,191376.3906250000,163195.9687500000,122369.4765625000,140364.0468750000,153116.5000000000,156388.4687500000,,,
2.6279999958,20,-3841.6479492188,157333.4375000000,191494.5625000000,163322.7031250000,122507.2031250000,140474.5781250000,153253.1562500000,156529.1562500000,,,
2.6319999958,20,-3760.1357421875,157400.5468750000,191568.9531250000,163418.3281250000,122588.7734375000,140541.5781250000,153340.8437500000,156610.1562500000,,,
2.6359999957,20,-3809.1665039063,157382.6093750000,191524.9062500000,163355.8281250000,122531.8515625000,140506.0312500000,153282.3906250000,156553.3125000000,,,
2.6399999957,20,-3957.5732421875,157284.0625000000,191396.0000000000,163211.9843750000,122382.1875000000,140392.2500000000,153153.0625000000,156414.5156250000,,,
2.6439999957,20,-4005.1286621094,157234.4062500000,191349.6562500000,163188.4687500000,122338.3359375000,140361.3906250000,153118.7968750000,156381.8125000000,,,
2.6479999959,20,-3877.5895996094,157313.9218750000,191457.2812500000,163322.1093750000,122469.6796875000,140470.9218750000,153239.8750000000,156516.8125000000,,,
2.6519999958,20,-3735.0571289063,157431.5312500000,191586.5156250000,163438.0468750000,122612.8281250000,140588.6562500000,153371.3906250000,156657.9531250000,,,
2.6559999958,20,-3802.4340820313,157407.7187500000,191530.6250000000,163376.0781250000,122536.2812500000,140527.1250000000,153303.4531250000,156585.5937500000,,,
2.6599999957,20,-3956.7954101563,157292.1562500000,191394.2500000000,163210.3281250000,122377.3828125000,140391.9687500000,153144.7656250000,156421.5468750000,,,
2.6639999957,20,-3977.1533203125,157259.0312500000,191376.5000000000,163174.7343750000,122358.6406250000,140373.0000000000,153119.7968750000,156403.2187500000,,,
2.6679999956,20,-3845.9663085938,157332.2031250000,191487.2500000000,163307.9218750000,122491.4843750000,140472.3281250000,153239.6875000000,156525.0468750000,,,
2.6719999958,20,-3726.5544433594,157423.9687500000,191594.7500000000,163430.4843750000,122611.3515625000,140561.2031250000,153349.6562500000,156636.5781250000,,,
2.6759999958,20,-3773.6271972656,157413.3437500000,191562.6406250000,163382.5468750000,122561.7890625000,140520.0937500000,153299.6406250000,156587.8125000000,,,
2.6799999957,20,-3906.9331054688,157328.8281250000,191450.7656250000,163236.7187500000,122426.2812500000,140416.1875000000,153176.9218750000,156462.4531250000,,,
2.6839999957,20,-3935.4985351563,157291.6718750000,191423.6250000000,163214.9687500000,122402.7578125000,140394.4843750000,153153.4531250000,156441.1562500000,,,
2.6879999957,21,-3825.1791992188,157345.1406250000,191508.7656250000,163340.6562500000,122517.1796875000,140480.1875000000,153253.2968750000,156541.4062500000,,,
2.6919999956,21,-3726.2592773438,157421.5781250000,191593.0625000000,163451.1250000000,122614.7343750000,140569.7656250000,153345.2031250000,156638.6406250000,,,
2.6959999956,21,-3778.4819335938,157407.4375000000,191552.2968750000,163393.6562500000,122559.5312500000,140537.0937500000,153296.9375000000,156586.2343750000,,,
2.6999999955,21,-3928.1225585938,157298.7343750000,191417.0000000000,163226.9843750000,122407.9609375000,140414.8437500000,153158.2656250000,156427.9531250000,,,
2.7039999955,21,-3939.8168945313,157266.9531250000,191400.1250000000,163209.4687500000,122399.5156250000,140400.6718750000,153143.1875000000,156410.7812500000,,,
2.7079999954,21,-3819.5466308594,157330.4062500000,191499.2656250000,163341.1562500000,122522.4687500000,140489.3281250000,153248.0625000000,156520.2500000000,,,
2.7119999956,21,-3704.8820800781,157421.4218750000,191602.3125000000,163462.3125000000,122635.9218750000,140584.1718750000,153355.4843750000,156630.0000000000,,,
2.7159999956,21,-3761.0476074219,157408.8125000000,191562.0000000000,163391.5937500000,122577.7968750000,140536.0781250000,153306.1875000000,156575.9375000000,,,
2.7199999955,21,-3912.9948730469,157307.0781250000,191429.9843750000,163224.1875000000,122422.4453125000,140411.3281250000,153165.3125000000,156433.2968750000,,,
2.7239999955,21,-3962.9912109375,157256.8437500000,191380.2031250000,163201.8125000000,122371.5937500000,140378.1562500000,153119.6875000000,156393.4531250000,,,
2.7279999955,21,-3846.0200195313,157328.8593750000,191478.0937500000,163349.9375000000,122492.5859375000,140492.6250000000,153228.4218750000,156522.6093750000,,,
2.7319999957,21,-3738.7585449219,157423.9062500000,191578.2343750000,163470.1250000000,122604.5156250000,140592.5625000000,153327.3125000000,156638.7500000000,,,
2.7359999956,21,-3798.7058105469,157405.9375000000,191534.6093750000,163397.0000000000,122545.0468750000,140541.8125000000,153275.2812500000,156582.3125000000,,,
2.7399999956,21,-3931.5825195313,157318.5468750000,191420.2187500000,163238.1406250000,122409.2734375000,140439.2500000000,153155.1718750000,156452.0468750000,,,
2.7439999955,21,-3978.1992187500,157247.4218750000,191362.4687500000,163191.2031250000,122362.5000000000,140381.3125000000,153106.6875000000,156386.8593750000,,,
2.7479999955,21,-3848.8898925781,157306.3281250000,191463.1406250000,163324.2343750000,122494.0078125000,140472.3437500000,153219.7343750000,156501.8437500000,,,
2.7519999954,21,-3715.3159179688,157410.2031250000,191585.1718750000,163442.6875000000,122627.9843750000,140582.7968750000,153339.3906250000,156630.3750000000,,,
2.7559999956,21,-3748.9509277344,157414.2812500000,191566.8281250000,163384.9843750000,122591.4765625000,140555.6562500000,153306.5937500000,156597.1250000000,,,
2.7599999956,21,-3893.3342285156,157317.9375000000,191443.1562500000,163224.3281250000,122444.8203125000,140428.2187500000,153169.5468750000,156452.6875000000,,,
2.7639999955,21,-3938.2880859375,157267.6718750000,191397.4531250000,163185.8125000000,122399.5703125000,140386.7343750000,153120.5156250000,156408.7812500000,,,
2.7679999955,21,-3820.0026855469,157336.8125000000,191496.8437500000,163307.5000000000,122523.6718750000,140482.3750000000,153225.0781250000,156528.2968750000,,,
2.7719999955,21,-3690.7202148438,157448.9843750000,191618.5156250000,163443.4375000000,122656.5234375000,140600.5781250000,153349.8750000000,156664.2500000000,,,
2.7759999956,21,-3732.1870117188,157450.2812500000,191591.0000000000,163397.0781250000,122614.0390625000,140568.2656250000,153322.2968750000,156624.2968750000,,,
2.7799999956,21,-3906.2087402344,157331.2343750000,191437.5781250000,163236.4687500000,122436.3671875000,140426.4531250000,153165.4218750000,156452.5468750000,,,
2.7839999956,21,-3950.9748535156,157280.9218750000,191390.4687500000,163190.5781250000,122392.0312500000,140389.2187500000,153122.4218750000,156410.4687500000,,,
2.7879999955,21,-3826.6276855469,157353.0000000000,191490.1093750000,163313.1875000000,122518.5000000000,140487.6562500000,153235.9062500000,156529.7500000000,,,
2.7919999955,21,-3715.3427734375,157440.1093750000,191586.7031250000,163439.7031250000,122627.2343750000,140576.3906250000,153340.3281250000,156634.1562500000,,,
2.7959999954,21,-3768.6918945313,157430.3281250000,191548.7500000000,163390.8281250000,122567.7187500000,140546.1406250000,153293.2031250000,156586.0156250000,,,
2.7999999956,21,-3911.4926757813,157341.4531250000,191429.0156250000,163251.8750000000,122418.7968750000,140442.0468750000,153160.6406250000,156454.8906250000,,,
2.8039999956,21,-3963.3935546875,157282.8281250000,191378.2656250000,163225.0000000000,122368.1875000000,140384.4062500000,153103.0937500000,156404.0000000000,,,
2.8079999955,21,-3817.5080566406,157374.3125000000,191503.1718750000,163392.3906250000,122519.5156250000,140497.4062500000,153230.8125000000,156551.9218750000,,,
2.8119999955,21,-3713.0361328125,157461.0937500000,191596.3593750000,163493.0312500000,122621.5703125000,140589.5937500000,153332.2812500000,156652.8281250000,,,
2.8159999955,22,-3775.1025390625,157439.9531250000,191548.3281250000,163404.6718750000,122556.4765625000,140549.4375000000,153280.7500000000,156592.6406250000,,,
2.8199999954,22,-3925.3598632813,157335.0156250000,191417.3750000000,163235.0000000000,122403.2421875000,140420.5312500000,153136.7187500000,156441.7343750000,,,
2.8239999954,22,-3963.5544433594,157288.0781250000,191378.9687500000,163193.5000000000,122363.4140625000,140384.7968750000,153092.0937500000,156408.0468750000,,,
2.8279999953,22,-3840.8166503906,157356.8906250000,191480.2500000000,163326.7500000000,122487.7031250000,140483.0781250000,153200.1250000000,156526.8125000000,,,
2.8319999953,22,-3728.3247070313,157442.6406250000,191580.1093750000,163439.3906250000,122600.2812500000,140575.1093750000,153305.1406250000,156633.2968750000,,,
2.8359999952,22,-3773.1176757813,157431.3906250000,191546.6250000000,163385.5468750000,122553.8515625000,140538.0156250000,153263.5937500000,156585.4843750000,,,
2.8399999954,22,-3907.8718261719,157335.3437500000,191426.1406250000,163226.4218750000,122419.3593750000,140415.6250000000,153137.0156250000,156444.1562500000,,,
2.8439999954,22,-3927.4519042969,157300.6562500000,191401.2031250000,163202.2187500000,122401.2343750000,140391.1875000000,153118.7500000000,156419.9531250000,,,
2.8479999953,22,-3818.2324218750,157353.7968750000,191487.7500000000,163351.5937500000,122508.9453125000,140479.3437500000,153218.6406250000,156523.1250000000,,,
2.8519999953,22,-3684.0415039063,157455.8593750000,191607.5781250000,163484.0156250000,122642.9765625000,140588.9218750000,153341.1093750000,156652.7968750000,,,
2.8559999953,22,-3730.6044921875,157446.0937500000,191571.8437500000,163409.2031250000,122593.2734375000,140546.9062500000,153300.9531250000,156603.2968750000,,,
2.8599999954,22,-3888.5598144531,157333.1250000000,191429.7656250000,163235.4218750000,122430.2812500000,140409.1250000000,153154.8281250000,156439.1406250000,,,
2.8639999954,22,-3928.3371582031,157281.0781250000,191385.0781250000,163197.4218750000,122387.3125000000,140370.2343750000,153108.4531250000,156396.4687500000,,,
2.8679999954,22,-3805.1164550781,157344.9531250000,191482.5312500000,163323.2968750000,122510.0468750000,140468.3750000000,153215.9218750000,156513.7812500000,,,
2.8719999953,22,-3675.7534179688,157445.9062500000,191597.5625000000,163455.6406250000,122636.7812500000,140578.0468750000,153332.5781250000,156640.5468750000,,,
2.8759999953,22,-3711.0781250000,157449.4687500000,191574.0937500000,163393.4062500000,122597.3281250000,140550.2187500000,153300.8437500000,156602.8906250000,,,
2.8799999952,22,-3865.0905761719,157336.7343750000,191435.9375000000,163234.5156250000,122437.5468750000,140408.4531250000,153157.6406250000,156433.9062500000,,,
2.8839999954,22,-3905.7260742188,157291.9531250000,191394.0156250000,163198.6562500000,122392.5390625000,140379.2500000000,153112.1718750000,156400.7031250000,,,
2.8879999954,22,-3789.8813476563,157364.8437500000,191490.7343750000,163331.2031250000,122507.0156250000,140484.0937500000,153217.9687500000,156523.4062500000,,,
2.8919999953,22,-3678.1406250000,157453.6250000000,191589.2968750000,163460.7656250000,122617.7656250000,140582.8281250000,153324.8593750000,156639.2656250000,,,
2.8959999953,22,-3738.1684570313,157430.5937500000,191538.7656250000,163390.4843750000,122554.6562500000,140535.1406250000,153272.1406250000,156579.3125000000,,,
2.8999999953,22,-3892.3149414063,157316.3593750000,191395.9687500000,163219.6250000000,122396.9375000000,140402.8281250000,153129.1875000000,156420.3125000000,,,
2.9039999954,22,-3934.9353027344,157263.2187500000,191349.0625000000,163178.0625000000,122354.7734375000,140360.8750000000,153078.9687500000,156380.0000000000,,,
2.9079999954,22,-3806.1088867188,157332.5000000000,191455.6718750000,163320.7812500000,122488.0000000000,140460.0312500000,153189.1093750000,156506.1093750000,,,
2.9119999954,22,-3681.6542968750,157431.6562500000,191570.1250000000,163460.9687500000,122611.2187500000,140567.7500000000,153307.8125000000,156631.8593750000,,,
2.9159999953,22,-3716.0668945313,157438.3437500000,191553.7343750000,163417.8437500000,122573.8281250000,140547.3906250000,153274.1250000000,156605.9687500000,,,
2.9199999953,22,-3858.1704101563,157347.7656250000,191433.7343750000,163259.8125000000,122428.0000000000,140429.7500000000,153136.0468750000,156463.1406250000,,,
2.9239999952,22,-3912.6462402344,157287.5468750000,191379.3906250000,163221.2343750000,122375.0781250000,140382.8125000000,153082.7343750000,156407.8437500000,,,
2.9279999954,22,-3796.4260253906,157346.1250000000,191471.6875000000,163348.4843750000,122491.7031250000,140477.7968750000,153192.4531250000,156517.7343750000,,,
2.9319999954,22,-3671.3010253906,157438.7187500000,191582.2812500000,163453.1406250000,122616.7500000000,140571.5937500000,153313.9843750000,156636.4218750000,,,
2.9359999953,22,-3699.7592773438,157441.3437500000,191563.7500000000,163402.7187500000,122583.3281250000,140545.0625000000,153293.1250000000,156602.7500000000,,,
2.9399999953,22,-3841.8090820313,157340.9843750000,191437.2812500000,163246.1250000000,122436.9843750000,140422.1406250000,153156.1406250000,156453.2812500000,,,
2.9439999952,23,-3900.9785156250,157268.2656250000,191371.6718750000,163198.0312500000,122379.6406250000,140356.4843750000,153092.9531250000,156383.2968750000,,,
2.9479999952,23,-3776.2021484375,157329.5000000000,191471.1875000000,163337.4062500000,122506.1875000000,140455.9531250000,153206.7031250000,156498.7656250000,,,
2.9519999952,23,-3647.6975097656,157431.5000000000,191586.8437500000,163452.0937500000,122635.7109375000,140573.2812500000,153326.7031250000,156629.5156250000,,,
2.9559999951,23,-3691.1225585938,157417.0156250000,191552.2343750000,163401.3437500000,122589.7343750000,140531.5468750000,153291.3437500000,156575.7968750000,,,
2.9599999951,23,-3840.6020507813,157313.2968750000,191421.9687500000,163245.0000000000,122436.6875000000,140397.3281250000,153154.6718750000,156422.5156250000,,,
