Time:250Hz,Epoch,Channel 1,Channel 2,Channel 3,Channel 4,Channel 5,Channel 6,Channel 7,Channel 8,Event Id,Event Date,Event Duration
0.0000000000,0,175245.6093750000,203012.1406250000,164830.7031250000,163952.1718750000,131170.3125000000,119266.3984375000,132770.1406250000,153698.3281250000,,,
0.0040000000,0,175335.0156250000,213373.4531250000,165009.0937500000,164171.8125000000,131416.3437500000,119482.4531250000,133007.5937500000,154289.5156250000,,,
0.0079999999,0,175697.7031250000,205975.1250000000,165578.8437500000,164983.9843750000,132197.3906250000,120233.9765625000,133844.3750000000,151655.0468750000,,,
0.0119999999,0,175860.1093750000,189008.5156250000,165835.4843750000,165416.7656250000,132576.8906250000,120613.3515625000,134274.0000000000,148823.5625000000,,,
0.0159999998,0,175564.0156250000,186206.0312500000,165341.7968750000,164758.8906250000,131901.3750000000,119985.0703125000,133569.8750000000,149993.0156250000,,,
0.0199999998,0,175246.3906250000,202935.4218750000,164827.8750000000,163979.0156250000,131165.8125000000,119273.9609375000,132761.3437500000,153689.4687500000,,,
0.0240000000,0,175329.5312500000,213379.6562500000,164997.6875000000,164184.7656250000,131399.8593750000,119481.1328125000,132989.2187500000,154304.4218750000,,,
0.0279999999,0,175687.4531250000,206130.3437500000,165561.9531250000,164986.4062500000,132173.0781250000,120223.9765625000,133821.0781250000,151688.6250000000,,,
0.0319999999,0,175856.1875000000,189128.0781250000,165826.6250000000,165428.8593750000,132565.2812500000,120612.0625000000,134259.4062500000,148835.4218750000,,,
0.0359999998,0,175562.9375000000,186174.2187500000,165337.2343750000,164765.5468750000,131896.6250000000,119989.0937500000,133562.2187500000,149974.0156250000,,,
0.0399999998,0,175235.3125000000,202862.3593750000,164812.7343750000,163966.2500000000,131149.6875000000,119271.6250000000,132746.0781250000,153665.5156250000,,,
0.0440000000,0,175311.8281250000,213383.3593750000,164977.5781250000,164158.6718750000,131377.1406250000,119476.0937500000,132966.4843750000,154294.5000000000,,,
0.0480000000,0,175666.8750000000,206254.7343750000,165537.9687500000,164961.1875000000,132147.1406250000,120214.8046875000,133793.5468750000,151696.6406250000,,,
0.0519999999,0,175837.5000000000,189215.8750000000,165805.9843750000,165408.6562500000,132547.7031250000,120608.2031250000,134244.3437500000,148825.6875000000,,,
0.0559999999,0,175551.5625000000,186134.0468750000,165324.5781250000,164756.7500000000,131888.4687500000,119987.9687500000,133557.2031250000,149951.1406250000,,,
0.0599999998,0,175222.8125000000,202792.7812500000,164798.1406250000,163954.1562500000,131138.9843750000,119262.2109375000,132738.1093750000,153651.2031250000,,,
0.0639999998,0,175300.4375000000,213376.5625000000,164962.0156250000,164156.4375000000,131365.1718750000,119464.5078125000,132959.2187500000,154296.8593750000,,,
0.0680000000,0,175658.0312500000,206331.9687500000,165522.6562500000,164965.3750000000,132135.0000000000,120206.9140625000,133787.1250000000,151710.0000000000,,,
0.0719999999,0,175833.7187500000,189286.6250000000,165795.2812500000,165415.4218750000,132538.9843750000,120605.5156250000,134237.6875000000,148828.5781250000,,,
0.0759999999,0,175546.6406250000,186076.5625000000,165315.9062500000,164753.2343750000,131882.5937500000,119987.1328125000,133550.7656250000,149923.0625000000,,,
0.0799999998,0,175219.0625000000,202688.2812500000,164790.3281250000,163944.7968750000,131133.0312500000,119263.4453125000,132729.3437500000,153626.5937500000,,,
0.0839999998,0,175302.2031250000,213340.0937500000,164960.5937500000,164147.4843750000,131363.8593750000,119466.0078125000,132948.0468750000,154295.1406250000,,,
0.0880000000,0,175666.0781250000,206329.3125000000,165529.5468750000,164956.5468750000,132141.5937500000,120207.1562500000,133776.2343750000,151716.3593750000,,,
0.0919999999,0,175844.2031250000,189331.2343750000,165806.9687500000,165406.1406250000,132551.2500000000,120602.4375000000,134236.0312500000,148839.6875000000,,,
0.0959999999,0,175567.8281250000,186037.7500000000,165342.3593750000,164777.5156250000,131909.9531250000,119992.3671875000,133570.5156250000,149915.6250000000,,,
0.0999999999,0,175246.8750000000,202606.1562500000,164825.5468750000,163982.8281250000,131164.2187500000,119266.4218750000,132755.2500000000,153623.7500000000,,,
0.1039999998,0,175333.4843750000,213322.0156250000,164997.7187500000,164183.4062500000,131393.9218750000,119465.5546875000,132974.4531250000,154312.7656250000,,,
0.1079999998,0,175697.4218750000,206313.6093750000,165567.3906250000,164996.3593750000,132170.4531250000,120203.2421875000,133802.9218750000,151728.7968750000,,,
0.1120000000,0,175873.1718750000,189345.9843750000,165842.9843750000,165453.1250000000,132575.4218750000,120597.8437500000,134257.5625000000,148855.3281250000,,,
0.1159999999,0,175588.2343750000,185990.9687500000,165366.7656250000,164814.7656250000,131927.4687500000,119995.3125000000,133588.1406250000,149913.1406250000,,,
0.1199999999,0,175256.0468750000,202512.7656250000,164834.6406250000,164001.6562500000,131169.5000000000,119270.2109375000,132762.2343750000,153618.2812500000,,,
0.1239999998,0,175329.8281250000,213316.4843750000,164993.3281250000,164181.5781250000,131387.5781250000,119462.2265625000,132973.7812500000,154322.7656250000,,,
0.1279999998,1,175687.8593750000,206538.2812500000,165553.0156250000,164983.7187500000,132157.0937500000,120198.8125000000,133797.0000000000,151774.4062500000,,,
0.1319999998,1,175869.8437500000,189499.7500000000,165836.6562500000,165444.8125000000,132576.5937500000,120613.5078125000,134260.7500000000,148868.3593750000,,,
0.1359999997,1,175588.5000000000,185947.3593750000,165368.0000000000,164810.1875000000,131935.6250000000,120020.4218750000,133594.1718750000,149898.1875000000,,,
0.1399999997,1,175261.7031250000,202424.4843750000,164841.8281250000,163992.2656250000,131181.7656250000,119294.6718750000,132775.0000000000,153617.4062500000,,,
0.1439999996,1,175333.8593750000,213304.5468750000,164995.3906250000,164166.3750000000,131392.7968750000,119476.3593750000,132977.0781250000,154342.7187500000,,,
0.1479999996,1,175684.8281250000,206588.0781250000,165550.8750000000,164961.7500000000,132155.6250000000,120211.1015625000,133797.7187500000,151795.6406250000,,,
0.1519999998,1,175858.8125000000,189548.0937500000,165829.4531250000,165432.2031250000,132570.4218750000,120627.5156250000,134267.2187500000,148874.2031250000,,,
0.1559999997,1,175574.2031250000,185883.9218750000,165359.9531250000,164800.6093750000,131930.1875000000,120033.6718750000,133603.2343750000,149875.9062500000,,,
0.1599999997,1,175241.9062500000,202319.5312500000,164825.7968750000,163978.4843750000,131167.9218750000,119299.6875000000,132772.0000000000,153589.9687500000,,,
0.1639999996,1,175318.7500000000,213262.5468750000,164978.5625000000,164148.3125000000,131377.9375000000,119484.3515625000,132969.6250000000,154333.4375000000,,,
0.1679999996,1,175680.6093750000,206582.8281250000,165542.0781250000,164948.0156250000,132149.1875000000,120222.0937500000,133792.8125000000,151802.2968750000,,,
0.1719999998,1,175862.2968750000,189587.7031250000,165827.9375000000,165411.0000000000,132570.3437500000,120636.2031250000,134261.9843750000,148894.8593750000,,,
0.1759999997,1,175588.7656250000,185846.5000000000,165371.9687500000,164782.8750000000,131946.2187500000,120047.4609375000,133609.2500000000,149880.2187500000,,,
0.1799999997,1,175262.9687500000,202251.7812500000,164842.8281250000,163973.0156250000,131187.7656250000,119309.3906250000,132777.2812500000,153602.9218750000,,,
0.1839999997,1,175337.4687500000,213279.9218750000,164996.0000000000,164154.1875000000,131396.0156250000,119488.6718750000,132969.4843750000,154366.4062500000,,,
0.1879999996,1,175697.1093750000,206618.2031250000,165559.9843750000,164955.4531250000,132167.1875000000,120231.2734375000,133793.4062500000,151826.1875000000,,,
0.1919999996,1,175872.3125000000,189597.2812500000,165840.2343750000,165424.1093750000,132583.8906250000,120641.0546875000,134262.4687500000,148899.6875000000,,,
0.1959999998,1,175576.7031250000,185773.4687500000,165359.6562500000,164782.7656250000,131936.0781250000,120030.1015625000,133589.9531250000,149852.0312500000,,,
0.1999999997,1,175240.0781250000,202169.4687500000,164815.3906250000,163967.5312500000,131159.8437500000,119280.7500000000,132741.0468750000,153573.2812500000,,,
0.2039999997,1,175315.7187500000,213262.6875000000,164967.8125000000,164150.4843750000,131366.2968750000,119460.7500000000,132934.4843750000,154350.5781250000,,,
0.2079999996,1,175678.3281250000,206668.0156250000,165536.1406250000,164957.8593750000,132141.8125000000,120201.0156250000,133765.5156250000,151820.1250000000,,,
0.2119999996,1,175874.7812500000,189676.8281250000,165835.2656250000,165439.9687500000,132575.6875000000,120629.6015625000,134249.6250000000,148907.5156250000,,,
0.2159999998,1,175610.0468750000,185757.5937500000,165387.2031250000,164833.1718750000,131959.2500000000,120054.7812500000,133607.7187500000,149863.3750000000,,,
0.2199999997,1,175269.7500000000,202106.9687500000,164845.0781250000,164006.6718750000,131185.2812500000,119308.5390625000,132766.5156250000,153587.0312500000,,,
0.2239999997,1,175331.2812500000,213278.9375000000,164986.6406250000,164172.2500000000,131381.9843750000,119481.3750000000,132957.7031250000,154376.4687500000,,,
0.2279999997,1,175684.9843750000,206812.3125000000,165548.3750000000,164976.0937500000,132152.0000000000,120221.5625000000,133783.3125000000,151863.5000000000,,,
0.2319999996,1,175864.8593750000,189801.4531250000,165834.3593750000,165455.7812500000,132577.6093750000,120645.1328125000,134260.9687500000,148923.1875000000,,,
0.2359999996,1,175580.1406250000,185736.9375000000,165367.2968750000,164834.9375000000,131945.6250000000,120053.2500000000,133608.0625000000,149829.3906250000,,,
0.2399999998,1,175240.3593750000,202019.3750000000,164821.1250000000,163995.7343750000,131164.4843750000,119302.0156250000,132757.6093750000,153548.0312500000,,,
0.2439999997,1,175304.6718750000,213255.9531250000,164958.6718750000,164152.4531250000,131352.5625000000,119468.6406250000,132935.9062500000,154358.1718750000,,,
0.2479999997,1,175664.6718750000,206897.5625000000,165519.7812500000,164950.0781250000,132120.3437500000,120208.7421875000,133760.1250000000,151866.2343750000,,,
0.2519999996,1,175858.2812500000,189890.2031250000,165819.5156250000,165435.2968750000,132560.6406250000,120643.7968750000,134251.6562500000,148920.6093750000,,,
0.2559999996,2,175585.7968750000,185693.9687500000,165369.0468750000,164828.0468750000,131944.9375000000,120061.0000000000,133613.0000000000,149805.7187500000,,,
0.2599999995,2,175245.2812500000,201921.9843750000,164824.9375000000,163987.8125000000,131167.3906250000,119307.6796875000,132766.0312500000,153530.7656250000,,,
0.2639999995,2,175302.0156250000,213225.3437500000,164960.2812500000,164134.6093750000,131356.0781250000,119468.3984375000,132941.7812500000,154360.1093750000,,,
0.2679999995,2,175652.5000000000,206947.7187500000,165516.0000000000,164924.5781250000,132120.8906250000,120199.1093750000,133760.0937500000,151873.4531250000,,,
0.2719999994,2,175844.2031250000,189950.1562500000,165814.5312500000,165415.1718750000,132561.2500000000,120637.4921875000,134252.5781250000,148918.2031250000,,,
0.2759999994,2,175577.1875000000,185635.5468750000,165365.2656250000,164815.5468750000,131949.1718750000,120069.8281250000,133617.6875000000,149780.0156250000,,,
0.2799999996,2,175240.7031250000,201812.7656250000,164818.0625000000,163978.0000000000,131163.9531250000,119316.3671875000,132762.4218750000,153509.1250000000,,,
0.2839999995,2,175302.9062500000,213190.6875000000,164955.2343750000,164117.1250000000,131348.9687500000,119479.1796875000,132935.3125000000,154364.5312500000,,,
0.2879999995,2,175657.5781250000,206995.0312500000,165514.3437500000,164914.9218750000,132113.2500000000,120212.8671875000,133752.0781250000,151893.7812500000,,,
0.2919999994,2,175847.5781250000,190018.1250000000,165815.6250000000,165406.8593750000,132556.5625000000,120651.6484375000,134246.2968750000,148934.7968750000,,,
0.2959999994,2,175573.1093750000,185595.2968750000,165365.2031250000,164803.0156250000,131945.0156250000,120080.8515625000,133614.2656250000,149767.5781250000,,,
0.2999999996,2,175233.0000000000,201705.8437500000,164816.7812500000,163967.7031250000,131160.7656250000,119320.5546875000,132758.6562500000,153492.2812500000,,,
0.3039999995,2,175301.1875000000,213169.7656250000,164955.5781250000,164124.4531250000,131346.7500000000,119473.3046875000,132931.6093750000,154376.7656250000,,,
0.3079999995,2,175661.7343750000,207218.3437500000,165514.7656250000,164915.0781250000,132110.2656250000,120195.9218750000,133745.5312500000,151953.6250000000,,,
0.3119999995,2,175859.6718750000,190216.2031250000,165825.7968750000,165420.6250000000,132567.7656250000,120637.7578125000,134249.6718750000,148961.3593750000,,,
0.3159999994,2,175594.1406250000,185618.2500000000,165387.0156250000,164832.3281250000,131967.9531250000,120073.5000000000,133626.6250000000,149756.1718750000,,,
0.3199999994,2,175257.4375000000,201630.0156250000,164842.1250000000,164001.9687500000,131184.3437500000,119319.1015625000,132770.5937500000,153476.1875000000,,,
0.3239999996,2,175313.3125000000,213120.3437500000,164968.5156250000,164137.7812500000,131357.2656250000,119471.8828125000,132929.4687500000,154374.6406250000,,,
0.3279999995,2,175664.1093750000,207201.2343750000,165521.6093750000,164923.1250000000,132115.3593750000,120201.9765625000,133739.2187500000,151955.2343750000,,,
0.3319999995,2,175859.5156250000,190262.5000000000,165830.7343750000,165425.7187500000,132568.8437500000,120652.9921875000,134243.5937500000,148976.2187500000,,,
0.3359999994,2,175599.2343750000,185590.7343750000,165395.7343750000,164838.6875000000,131973.5312500000,120100.8593750000,133627.6718750000,149756.6250000000,,,
0.3399999994,2,175254.3281250000,201546.6093750000,164839.9843750000,163995.8281250000,131178.5781250000,119337.3984375000,132762.8437500000,153468.5312500000,,,
0.3439999996,2,175307.6562500000,213079.8906250000,164963.8125000000,164133.8906250000,131348.4843750000,119482.7187500000,132918.4375000000,154373.5937500000,,,
0.3479999995,2,175660.6250000000,207126.8281250000,165517.2968750000,164919.2187500000,132106.7812500000,120208.6562500000,133730.2968750000,151947.5937500000,,,
0.3519999995,2,175845.9375000000,190237.3125000000,165811.7968750000,165409.2500000000,132545.2656250000,120643.8984375000,134221.9218750000,148978.4062500000,,,
0.3559999994,2,175577.0468750000,185532.1562500000,165372.0468750000,164823.5937500000,131949.3125000000,120089.8671875000,133607.2656250000,149740.2187500000,,,
0.3599999994,2,175236.7343750000,201447.8437500000,164824.0000000000,163986.9062500000,131162.5937500000,119330.0468750000,132754.3125000000,153452.3593750000,,,
0.3639999994,2,175289.3593750000,213037.5312500000,164949.6875000000,164121.5468750000,131334.7343750000,119472.4687500000,132913.2343750000,154372.7656250000,,,
0.3679999996,2,175635.8437500000,207107.5000000000,165500.3437500000,164907.1718750000,132092.7968750000,120192.8359375000,133724.3437500000,151940.9687500000,,,
0.3719999995,2,175826.1718750000,190255.7031250000,165800.9375000000,165400.7500000000,132537.1718750000,120625.1015625000,134222.5312500000,148974.3593750000,,,
0.3759999995,2,175572.4843750000,185463.4531250000,165376.0156250000,164836.4062500000,131957.6718750000,120080.4765625000,133625.1718750000,149716.3906250000,,,
0.3799999994,2,175233.0625000000,201326.6093750000,164826.0312500000,163996.8281250000,131168.1718750000,119317.9765625000,132765.3125000000,153425.7031250000,,,
0.3839999994,3,175282.9531250000,213016.8281250000,164945.3593750000,164115.9218750000,131331.8593750000,119451.3125000000,132913.9687500000,154367.1562500000,,,
0.3879999993,3,175630.9687500000,207256.5156250000,165492.4843750000,164892.3125000000,132085.2343750000,120168.5078125000,133721.7656250000,151963.2031250000,,,
0.3919999993,3,175825.0156250000,190374.1250000000,165799.1562500000,165395.3281250000,132537.1718750000,120612.5468750000,134227.2500000000,148972.5312500000,,,
0.3959999993,3,175566.3437500000,185420.5468750000,165371.7343750000,164828.1718750000,131954.4843750000,120072.1875000000,133626.9687500000,149683.5156250000,,,
0.3999999992,3,175220.9531250000,201230.7812500000,164815.4062500000,163986.7343750000,131157.1406250000,119304.4062500000,132762.0156250000,153400.1406250000,,,
0.4039999992,3,175269.3437500000,213000.3593750000,164932.2500000000,164109.7968750000,131316.4375000000,119435.9140625000,132905.9218750000,154371.5781250000,,,
0.4079999994,3,175618.1406250000,207374.5625000000,165482.7500000000,164881.5312500000,132071.5937500000,120156.0625000000,133714.5468750000,151992.5156250000,,,
0.4119999993,3,175816.5937500000,190484.0156250000,165798.0625000000,165393.0781250000,132535.0468750000,120609.9687500000,134233.9531250000,148988.2500000000,,,
0.4159999993,3,175562.9687500000,185390.3437500000,165376.8281250000,164833.4843750000,131963.6093750000,120076.5859375000,133643.6562500000,149670.7968750000,,,
0.4199999992,3,175227.2656250000,201145.3437500000,164825.6875000000,163988.8281250000,131170.3906250000,119309.1796875000,132776.5312500000,153392.0937500000,,,
0.4239999992,3,175274.4218750000,212992.5781250000,164938.3906250000,164097.0312500000,131323.4687500000,119433.3359375000,132910.0937500000,154381.2968750000,,,
0.4279999994,3,175620.0156250000,207443.6250000000,165484.7031250000,164866.6093750000,132074.7031250000,120146.6718750000,133709.1093750000,152006.9218750000,,,
0.4319999993,3,175827.4687500000,190571.8125000000,165809.8906250000,165389.5312500000,132548.5937500000,120607.7421875000,134232.6718750000,149000.2656250000,,,
0.4359999993,3,175584.1093750000,185370.3281250000,165398.6250000000,164842.1718750000,131986.7187500000,120085.0078125000,133653.2656250000,149663.5312500000,,,
0.4399999992,3,175243.0937500000,201072.5312500000,164839.1406250000,163991.3281250000,131184.8750000000,119319.2343750000,132784.8125000000,153384.7968750000,,,
0.4439999992,3,175292.6250000000,212989.3125000000,164952.1718750000,164103.5000000000,131336.8281250000,119453.9687500000,132922.8437500000,154400.7187500000,,,
0.4479999992,3,175644.8593750000,207535.2812500000,165500.8750000000,164884.1562500000,132087.3125000000,120178.4843750000,133727.6718750000,152054.2656250000,,,
0.4519999993,3,175849.3281250000,190676.1406250000,165820.5937500000,165406.7031250000,132555.9218750000,120643.9531250000,134250.4843750000,149044.8281250000,,,
0.4559999993,3,175595.0156250000,185354.7187500000,165403.0312500000,164854.0625000000,131990.6093750000,120116.1484375000,133667.8281250000,149672.4062500000,,,
0.4599999993,3,175247.5937500000,200994.6562500000,164839.8437500000,163989.6718750000,131185.3125000000,119341.1796875000,132792.1406250000,153384.0468750000,,,
0.4639999992,3,175288.3593750000,212988.1250000000,164945.7656250000,164099.8750000000,131328.9843750000,119456.9140625000,132916.0000000000,154409.3750000000,,,
0.4679999992,3,175636.2968750000,207623.7656250000,165493.5468750000,164884.6093750000,132078.9843750000,120170.8906250000,133716.0000000000,152064.0781250000,,,
0.4719999994,3,175841.9218750000,190764.3593750000,165817.0468750000,165410.4843750000,132552.9687500000,120636.8203125000,134248.7343750000,149035.4062500000,,,
0.4759999993,3,175594.0781250000,185334.0468750000,165405.9218750000,164870.0000000000,131995.3593750000,120115.9843750000,133675.8125000000,149640.7031250000,,,
0.4799999993,3,175246.9531250000,200920.6250000000,164841.4531250000,164012.5156250000,131185.5468750000,119336.0312500000,132796.2187500000,153352.9843750000,,,
0.4839999992,3,175285.4687500000,212995.4531250000,164941.6562500000,164104.8593750000,131320.4687500000,119447.7187500000,132914.9843750000,154401.3906250000,,,
0.4879999992,3,175629.6718750000,207786.2500000000,165484.5156250000,164875.5781250000,132063.4843750000,120159.1171875000,133709.5000000000,152078.4218750000,,,
0.4919999992,3,175841.5156250000,190896.3281250000,165815.2343750000,165409.9687500000,132548.8593750000,120637.7890625000,134248.3125000000,149033.6718750000,,,
0.4959999993,3,175599.6562500000,185299.3125000000,165409.9687500000,164869.2187500000,131999.0937500000,120128.6718750000,133679.0625000000,149620.1562500000,,,
0.4999999993,3,175258.4062500000,200834.7187500000,164848.1562500000,164014.0156250000,131193.3281250000,119354.5859375000,132798.2500000000,153351.9687500000,,,
0.5039999993,3,175301.4062500000,212975.9531250000,164950.2656250000,164110.8281250000,131333.7656250000,119467.3515625000,132921.3906250000,154426.1406250000,,,
0.5079999992,3,175649.8437500000,207862.8125000000,165497.5156250000,164880.0312500000,132083.8125000000,120181.1093750000,133723.8593750000,152125.0781250000,,,
0.5119999992,4,175862.3593750000,190990.0156250000,165834.4687500000,165412.9062500000,132575.5781250000,120661.3593750000,134273.6250000000,149073.8437500000,,,
0.5159999991,4,175615.6406250000,185277.9375000000,165428.8281250000,164879.7812500000,132025.7500000000,120148.6015625000,133710.8437500000,149623.8593750000,,,
0.5199999991,4,175264.8437500000,200753.0468750000,164860.9218750000,164020.6718750000,131209.6093750000,119364.4296875000,132829.7968750000,153340.7031250000,,,
0.5239999990,4,175302.3437500000,212959.7343750000,164959.1718750000,164108.4062500000,131340.2812500000,119472.8515625000,132947.9531250000,154428.8281250000,,,
0.5279999990,4,175638.1250000000,207953.2812500000,165492.9375000000,164873.7187500000,132071.4843750000,120175.9609375000,133731.4531250000,152133.4687500000,,,
0.5319999990,4,175845.6250000000,191066.9218750000,165826.0156250000,165414.8281250000,132558.9218750000,120654.7890625000,134277.6562500000,149055.4218750000,,,
0.5359999991,4,175599.2343750000,185215.4843750000,165420.6562500000,164886.4062500000,132010.8593750000,120146.3203125000,133716.2968750000,149577.1875000000,,,
0.5399999991,4,175246.5468750000,200629.3750000000,164848.7187500000,164008.0625000000,131193.1718750000,119361.5078125000,132830.9687500000,153300.7656250000,,,
0.5439999991,4,175283.8281250000,212912.5468750000,164941.4687500000,164093.7812500000,131321.9843750000,119466.4921875000,132941.1406250000,154416.5156250000,,,
0.5479999990,4,175631.2656250000,207920.8281250000,165481.8906250000,164869.9375000000,132065.7968750000,120182.6718750000,133738.0937500000,152131.2656250000,,,
0.5519999990,4,175842.3750000000,191079.9218750000,165812.2812500000,165420.4843750000,132550.7343750000,120665.6796875000,134278.6406250000,149067.2187500000,,,
0.5559999992,4,175594.6406250000,185178.5625000000,165405.0156250000,164888.2031250000,132003.4062500000,120158.6640625000,133720.2656250000,149572.5156250000,,,
0.5599999991,4,175239.2031250000,200549.1718750000,164831.6718750000,164006.9843750000,131184.5312500000,119362.7734375000,132835.3437500000,153287.9218750000,,,
0.5639999991,4,175272.3281250000,212900.1250000000,164923.1250000000,164092.1562500000,131309.0312500000,119462.3359375000,132941.4531250000,154415.0937500000,,,
0.5679999990,4,175612.1562500000,207951.9843750000,165463.5937500000,164861.2187500000,132051.2500000000,120176.9843750000,133739.0937500000,152129.9062500000,,,
0.5719999990,4,175826.3125000000,191137.9687500000,165806.3750000000,165404.1875000000,132549.1875000000,120667.5312500000,134296.1093750000,149071.0312500000,,,
0.5759999990,4,175597.4375000000,185165.0156250000,165424.7812500000,164895.8437500000,132028.6250000000,120175.7187500000,133766.3750000000,149568.9062500000,,,
0.5799999991,4,175249.0937500000,200477.5625000000,164855.1406250000,164018.1250000000,131212.5781250000,119393.1562500000,132884.5312500000,153292.7187500000,,,
0.5839999991,4,175273.7500000000,212885.5625000000,164936.7500000000,164088.6406250000,131327.8437500000,119487.3593750000,132986.3750000000,154432.5781250000,,,
0.5879999991,4,175608.4062500000,208014.0625000000,165470.2968750000,164838.5000000000,132064.9062500000,120192.2421875000,133779.9062500000,152150.1562500000,,,
0.5919999990,4,175823.5000000000,191210.5156250000,165809.8125000000,165380.9062500000,132561.6250000000,120682.6562500000,134335.6093750000,149079.1875000000,,,
0.5959999990,4,175595.4218750000,185120.5937500000,165424.0625000000,164873.5625000000,132038.6718750000,120204.0468750000,133801.3750000000,149554.8750000000,,,
0.5999999992,4,175248.7500000000,200369.5156250000,164850.1250000000,164010.3125000000,131216.0468750000,119422.3125000000,132911.6093750000,153280.7500000000,,,
0.6039999991,4,175293.0781250000,212852.5937500000,164947.5937500000,164101.7031250000,131341.9218750000,119530.6484375000,133020.6406250000,154462.0312500000,,,
0.6079999991,4,175644.6093750000,208109.2968750000,165494.7031250000,164875.1718750000,132089.1250000000,120250.5312500000,133820.9531250000,152221.5312500000,,,
0.6119999990,4,175860.2968750000,191317.5468750000,165836.6093750000,165421.5156250000,132587.9375000000,120739.5781250000,134373.2656250000,149143.1250000000,,,
0.6159999990,4,175625.2500000000,185099.9062500000,165449.9062500000,164910.5781250000,132063.8906250000,120244.9765625000,133833.3437500000,149574.9843750000,,,
0.6199999989,4,175267.4218750000,200283.7343750000,164874.3593750000,164034.9062500000,131238.1250000000,119440.4218750000,132936.1718750000,153281.4843750000,,,
0.6239999991,4,175290.9062500000,212837.3125000000,164952.8125000000,164103.1718750000,131346.1562500000,119521.9609375000,133024.4687500000,154461.9531250000,,,
0.6279999991,4,175639.0937500000,208166.6250000000,165497.6250000000,164881.0156250000,132090.7343750000,120234.0078125000,133815.9843750000,152221.3906250000,,,
0.6319999991,4,175857.0000000000,191379.0156250000,165841.3750000000,165429.7187500000,132593.1406250000,120726.1875000000,134373.1718750000,149136.0937500000,,,
0.6359999990,4,175617.5000000000,185062.5468750000,165449.9062500000,164911.0000000000,132067.9375000000,120235.0546875000,133831.7812500000,149546.9375000000,,,
0.6399999990,5,175256.0781250000,200208.6093750000,164865.3750000000,164025.1562500000,131231.4687500000,119428.5625000000,132922.7812500000,153258.4687500000,,,
0.6439999989,5,175278.0312500000,212839.3281250000,164938.8750000000,164082.9218750000,131332.5312500000,119505.6015625000,133001.7187500000,154458.6718750000,,,
0.6479999989,5,175621.2031250000,208259.4843750000,165476.5937500000,164845.2031250000,132070.8437500000,120214.1875000000,133789.8906250000,152228.6406250000,,,
0.6519999988,5,175849.0781250000,191478.3437500000,165832.3125000000,165410.5937500000,132584.7812500000,120717.2343750000,134358.8437500000,149141.5781250000,,,
0.6559999988,5,175619.7812500000,185041.3906250000,165451.8906250000,164921.9531250000,132069.7343750000,120233.2812500000,133827.0468750000,149531.6250000000,,,
0.6599999988,5,175261.9687500000,200120.3906250000,164869.5312500000,164035.8750000000,131232.9687500000,119424.2500000000,132920.1875000000,153246.2968750000,,,
0.6639999989,5,175279.3593750000,212822.6718750000,164937.9843750000,164081.3125000000,131325.4843750000,119493.3671875000,132992.3593750000,154467.6562500000,,,
0.6679999989,5,175618.0156250000,208335.4687500000,165471.7500000000,164837.0000000000,132056.1406250000,120189.5859375000,133766.3125000000,152248.3125000000,,,
0.6719999989,5,175844.9218750000,191564.0156250000,165826.6562500000,165401.0156250000,132569.8125000000,120689.3125000000,134330.1718750000,149147.9062500000,,,
0.6759999988,5,175619.9062500000,185005.4531250000,165449.7031250000,164909.7656250000,132062.2343750000,120218.3671875000,133810.6718750000,149513.4375000000,,,
0.6799999988,5,175257.8906250000,200015.6250000000,164860.6875000000,164023.1093750000,131219.6875000000,119405.3359375000,132898.3593750000,153222.9843750000,,,
0.6839999990,5,175277.5312500000,212778.8437500000,164933.1250000000,164084.7812500000,131314.9062500000,119472.7968750000,132968.0937500000,154467.0468750000,,,
0.6879999989,5,175613.9375000000,208391.5156250000,165469.7343750000,164843.3125000000,132048.8125000000,120169.4453125000,133747.7500000000,152263.3750000000,,,
0.6919999989,5,175837.3593750000,191623.0468750000,165826.7343750000,165406.5625000000,132567.7187500000,120674.6953125000,134321.2343750000,149148.0312500000,,,
0.6959999988,5,175607.0937500000,184953.7343750000,165448.5468750000,164922.5937500000,132061.0468750000,120198.9453125000,133800.1875000000,149480.8125000000,,,
0.6999999988,5,175246.7656250000,199916.3281250000,164862.8906250000,164038.7187500000,131221.6718750000,119392.6484375000,132890.5156250000,153196.0000000000,,,
0.7039999987,5,175263.4218750000,212757.3593750000,164931.8906250000,164088.2031250000,131313.2187500000,119463.6484375000,132958.7500000000,154460.8281250000,,,
0.7079999989,5,175603.7343750000,208469.9843750000,165467.1875000000,164839.9062500000,132045.3750000000,120160.7812500000,133733.1562500000,152271.6562500000,,,
0.7119999989,5,175827.2500000000,191717.9218750000,165818.0781250000,165401.5468750000,132558.7500000000,120666.8046875000,134297.0468750000,149142.4531250000,,,
0.7159999989,5,175596.2812500000,184929.4062500000,165438.8906250000,164917.8437500000,132051.9843750000,120199.5156250000,133779.7031250000,149451.8437500000,,,
0.7199999988,5,175235.1718750000,199826.3125000000,164847.5468750000,164036.1406250000,131206.5468750000,119389.8046875000,132864.8437500000,153168.9375000000,,,
0.7239999988,5,175255.9843750000,212736.5156250000,164914.7031250000,164085.0781250000,131295.8437500000,119453.4296875000,132928.4218750000,154457.0625000000,,,
0.7279999990,5,175594.8593750000,208551.5937500000,165450.5000000000,164839.6875000000,132027.7343750000,120150.4843750000,133704.5781250000,152283.0000000000,,,
0.7319999989,5,175826.5468750000,191809.6406250000,165814.4062500000,165414.7812500000,132555.3281250000,120666.8359375000,134288.5625000000,149154.0625000000,,,
0.7359999989,5,175589.0625000000,184895.1875000000,165430.6562500000,164912.7187500000,132046.4531250000,120188.4921875000,133768.5468750000,149426.2343750000,,,
0.7399999988,5,175221.6250000000,199710.9062500000,164835.2656250000,164013.3281250000,131195.0156250000,119366.9531250000,132846.0468750000,153131.2968750000,,,
0.7439999988,5,175237.1093750000,212679.8593750000,164900.3281250000,164051.1093750000,131279.1562500000,119424.2500000000,132905.0625000000,154434.0000000000,,,
0.7479999987,5,175573.9687500000,208532.1562500000,165435.5625000000,164802.5312500000,132009.5156250000,120121.0859375000,133682.5468750000,152263.0937500000,,,
0.7519999989,5,175805.7031250000,191811.9531250000,165799.4843750000,165385.8906250000,132535.5312500000,120636.2265625000,134265.7656250000,149131.9375000000,,,
0.7559999989,5,175585.3437500000,184837.8906250000,165430.6875000000,164916.8750000000,132041.6562500000,120179.3671875000,133759.4687500000,149404.4843750000,,,
0.7599999988,5,175215.4843750000,199612.2500000000,164825.8750000000,164019.9531250000,131182.3281250000,119359.0156250000,132827.7812500000,153114.3593750000,,,
0.7639999988,5,175230.2343750000,212664.5468750000,164882.1406250000,164058.5781250000,131258.8593750000,119414.6953125000,132880.0000000000,154441.1875000000,,,
0.7679999988,6,175576.5937500000,208598.2187500000,165424.7343750000,164819.1406250000,131997.6406250000,120117.9453125000,133665.0312500000,152287.1093750000,,,
0.7719999987,6,175813.2187500000,191887.9218750000,165799.7500000000,165403.1093750000,132536.0937500000,120640.4921875000,134256.7500000000,149156.2187500000,,,
0.7759999987,6,175594.4843750000,184811.0468750000,165442.1093750000,164928.1406250000,132054.8437500000,120187.2031250000,133762.6718750000,149404.8593750000,,,
0.7799999986,6,175225.4687500000,199521.5625000000,164842.1718750000,164026.5781250000,131198.0781250000,119359.2812500000,132833.5000000000,153108.0000000000,,,
0.7839999986,6,175231.7187500000,212644.8437500000,164890.3437500000,164053.6562500000,131264.2187500000,119401.6328125000,132873.3750000000,154443.3125000000,,,
0.7879999985,6,175572.2031250000,208674.8437500000,165427.6718750000,164807.5312500000,131996.0312500000,120097.3984375000,133650.1562500000,152293.5156250000,,,
0.7919999987,6,175809.7812500000,191978.5781250000,165802.5781250000,165390.6093750000,132534.1406250000,120625.0703125000,134244.9218750000,149151.6093750000,,,
0.7959999987,6,175592.7343750000,184778.4843750000,165444.6093750000,164930.1562500000,132054.1875000000,120180.9765625000,133755.3750000000,149370.1250000000,,,
0.7999999986,6,175233.6250000000,199425.8281250000,164850.9687500000,164046.3593750000,131205.5312500000,119362.4218750000,132834.7812500000,153080.5625000000,,,
0.8039999986,6,175238.5000000000,212627.0468750000,164898.5781250000,164072.9531250000,131271.9062500000,119404.0781250000,132874.7500000000,154446.6875000000,,,
0.8079999986,6,175571.7343750000,208748.3906250000,165427.1093750000,164814.7343750000,131995.6875000000,120097.1562500000,133647.5468750000,152315.0000000000,,,
0.8119999988,6,175806.3281250000,192064.7031250000,165794.2812500000,165394.0937500000,132527.1406250000,120623.8906250000,134239.6406250000,149164.3125000000,,,
0.8159999987,6,175586.5000000000,184751.7031250000,165432.2031250000,164937.7968750000,132045.0312500000,120181.4375000000,133750.8593750000,149356.3125000000,,,
0.8199999987,6,175216.1562500000,199335.4375000000,164828.5781250000,164033.5156250000,131184.7500000000,119356.8671875000,132821.8750000000,153059.3593750000,,,
0.8239999986,6,175227.7812500000,212602.7500000000,164882.3906250000,164059.8906250000,131254.3125000000,119401.1250000000,132862.8906250000,154448.5312500000,,,
0.8279999986,6,175559.6718750000,208839.7500000000,165410.7500000000,164802.7500000000,131977.6093750000,120090.9921875000,133629.5000000000,152332.9375000000,,,
0.8319999985,6,175792.8281250000,192172.1562500000,165783.7968750000,165382.9687500000,132518.3437500000,120620.7265625000,134223.6093750000,149171.4531250000,,,
0.8359999987,6,175577.3125000000,184734.7343750000,165428.7187500000,164924.0625000000,132046.0468750000,120182.2656250000,133739.8750000000,149336.9375000000,,,
0.8399999987,6,175214.4218750000,199243.6562500000,164827.8593750000,164030.1406250000,131188.4687500000,119359.7421875000,132810.3281250000,153045.0781250000,,,
0.8439999986,6,175220.8281250000,212583.8437500000,164872.8125000000,164053.9375000000,131246.8906250000,119394.9062500000,132840.8750000000,154453.1718750000,,,
0.8479999986,6,175553.1718750000,208892.6718750000,165402.4375000000,164786.8750000000,131970.4218750000,120086.0546875000,133614.9531250000,152347.3750000000,,,
0.8519999986,6,175795.2968750000,192242.1562500000,165785.5156250000,165385.1406250000,132517.8593750000,120619.0625000000,134223.7343750000,149183.6250000000,,,
0.8559999987,6,175591.9843750000,184709.1718750000,165443.7968750000,164953.5468750000,132057.2656250000,120186.5859375000,133753.5468750000,149331.4218750000,,,
0.8599999987,6,175226.8281250000,199146.2656250000,164841.3750000000,164050.5781250000,131195.0625000000,119353.2187500000,132820.1875000000,153031.6093750000,,,
0.8639999987,6,175225.8125000000,212549.9687500000,164882.4843750000,164048.2968750000,131248.2343750000,119378.1093750000,132848.2968750000,154456.0000000000,,,
0.8679999986,6,175563.4062500000,208951.5468750000,165415.0468750000,164794.2187500000,131974.4687500000,120067.9218750000,133618.6562500000,152370.2500000000,,,
0.8719999986,6,175816.8437500000,192314.0937500000,165807.3125000000,165404.0937500000,132534.1093750000,120610.4296875000,134230.9531250000,149207.2343750000,,,
0.8759999985,6,175612.0468750000,184676.5312500000,165468.1562500000,164967.1718750000,132082.1875000000,120185.4843750000,133768.2968750000,149330.7500000000,,,
0.8799999987,6,175247.5468750000,199052.8750000000,164867.3437500000,164063.9687500000,131224.3125000000,119358.7500000000,132837.8906250000,153030.1562500000,,,
0.8839999987,6,175242.7187500000,212534.6718750000,164900.5625000000,164066.2656250000,131268.4843750000,119380.4218750000,132853.6093750000,154474.6562500000,,,
0.8879999986,6,175576.3750000000,209017.3906250000,165430.4687500000,164810.5781250000,131992.2968750000,120075.0859375000,133625.8281250000,152392.3750000000,,,
0.8919999986,6,175816.7656250000,192386.5312500000,165812.0625000000,165410.7500000000,132543.8906250000,120619.9218750000,134239.4843750000,149213.7968750000,,,
0.8959999986,7,175596.7656250000,184637.7656250000,165457.5312500000,164966.8437500000,132074.8281250000,120194.1718750000,133769.6875000000,149302.2031250000,,,
0.8999999985,7,175220.3906250000,198947.3593750000,164841.4062500000,164059.3750000000,131199.3906250000,119361.8046875000,132829.7187500000,152995.3437500000,,,
0.9039999985,7,175213.1250000000,212493.0156250000,164869.3437500000,164064.2500000000,131237.4531250000,119377.6796875000,132840.1718750000,154460.7343750000,,,
0.9079999984,7,175541.8906250000,209075.0781250000,165394.0625000000,164789.3906250000,131954.3750000000,120061.9921875000,133601.6250000000,152393.3437500000,,,
0.9119999984,7,175786.6875000000,192466.2812500000,165781.0781250000,165386.9843750000,132511.1718750000,120607.6406250000,134218.8906250000,149208.3281250000,,,
0.9159999983,7,175577.1562500000,184587.0781250000,165436.2656250000,164947.8593750000,132054.9843750000,120190.2343750000,133757.2031250000,149272.8593750000,,,
0.9199999985,7,175204.2812500000,198818.2343750000,164821.1718750000,164036.8750000000,131180.1875000000,119352.1718750000,132809.5156250000,152964.2812500000,,,
0.9239999985,7,175201.3281250000,212444.5312500000,164850.4375000000,164034.4843750000,131219.2812500000,119369.3984375000,132819.3125000000,154455.4531250000,,,
0.9279999984,7,175541.0625000000,209136.9843750000,165384.7343750000,164773.8906250000,131945.0625000000,120060.4687500000,133588.9375000000,152412.4218750000,,,
0.9319999984,7,175795.6250000000,192548.2187500000,165784.2500000000,165390.2812500000,132514.1562500000,120614.6953125000,134217.4843750000,149226.6718750000,,,
0.9359999984,7,175588.6875000000,184569.4843750000,165446.1562500000,164967.8906250000,132066.7031250000,120198.6015625000,133762.4218750000,149268.5156250000,,,
0.9399999985,7,175220.7656250000,198743.4531250000,164837.5312500000,164061.3281250000,131196.8906250000,119357.5390625000,132818.6093750000,152960.1718750000,,,
0.9439999985,7,175223.0000000000,212435.8437500000,164871.3593750000,164063.0468750000,131237.9375000000,119371.6250000000,132829.6562500000,154474.1718750000,,,
0.9479999985,7,175554.7031250000,209205.2187500000,165398.8750000000,164794.7031250000,131957.4375000000,120056.2812500000,133595.0625000000,152437.9531250000,,,
0.9519999984,7,175804.3750000000,192638.9375000000,165795.0625000000,165395.7656250000,132525.3906250000,120611.5781250000,134221.5937500000,149241.2968750000,,,
0.9559999984,7,175603.6562500000,184549.8437500000,165463.3437500000,164967.9218750000,132086.2031250000,120202.9687500000,133774.0625000000,149260.2812500000,,,
0.9599999983,7,175232.2031250000,198652.1562500000,164849.1562500000,164048.2968750000,131209.2500000000,119359.5546875000,132827.8593750000,152950.0937500000,,,
0.9639999985,7,175230.5937500000,212404.9375000000,164881.0156250000,164036.9531250000,131245.3906250000,119370.8671875000,132835.8281250000,154479.9218750000,,,
0.9679999985,7,175567.2812500000,209268.4687500000,165412.9062500000,164780.1093750000,131966.7656250000,120057.5156250000,133600.1250000000,152461.4531250000,,,
0.9719999984,7,175820.5625000000,192724.9531250000,165811.7187500000,165401.4531250000,132536.8750000000,120614.8281250000,134227.9843750000,149263.5000000000,,,
0.9759999984,7,175626.5312500000,184545.1718750000,165489.1875000000,164995.6250000000,132108.5000000000,120216.6015625000,133790.5937500000,149264.9843750000,,,
0.9799999984,7,175250.4843750000,198570.2656250000,164873.8750000000,164077.9062500000,131230.6875000000,119372.3984375000,132842.4843750000,152945.4062500000,,,
0.9839999985,7,175236.0312500000,212384.7968750000,164891.3125000000,164054.5156250000,131252.8437500000,119377.2031250000,132839.4843750000,154489.9218750000,,,
0.9879999985,7,175566.3437500000,209344.0625000000,165412.0468750000,164791.4062500000,131963.9531250000,120062.8515625000,133598.7812500000,152483.0937500000,,,
0.9919999985,7,175818.8593750000,192822.3750000000,165809.4843750000,165412.1718750000,132535.9843750000,120621.7187500000,134231.8593750000,149273.8906250000,,,
0.9959999984,7,175613.6406250000,184515.7500000000,165476.2031250000,164989.4375000000,132099.5937500000,120222.6875000000,133790.4062500000,149237.2500000000,,,
0.9999999984,7,175226.6718750000,198464.2031250000,164843.7656250000,164054.4687500000,131206.6562500000,119371.4609375000,132826.2343750000,152907.6093750000,,,
1.0039999983,7,175212.7187500000,212348.5937500000,164857.7812500000,164031.7968750000,131225.1406250000,119368.9375000000,132819.1406250000,154472.4687500000,,,
1.0079999985,7,175542.7656250000,209459.1250000000,165381.0312500000,164765.8125000000,131936.9687500000,120048.4765625000,133582.0781250000,152493.0937500000,,,
1.0119999985,7,175797.2656250000,192961.0937500000,165785.8593750000,165392.0625000000,132515.4375000000,120615.2812500000,134217.6562500000,149274.5000000000,,,
1.0159999984,7,175600.2500000000,184497.3750000000,165463.2500000000,164993.4531250000,132091.3750000000,120226.0937500000,133786.1562500000,149210.0468750000,,,
1.0199999984,7,175218.7812500000,198362.1562500000,164834.6093750000,164061.6562500000,131202.9218750000,119376.9062500000,132827.8125000000,152883.5937500000,,,
1.0239999983,8,175199.9062500000,212314.1250000000,164841.1093750000,164021.0468750000,131212.0781250000,119368.0781250000,132806.4531250000,154474.9531250000,,,
1.0279999983,8,175528.0468750000,209589.8281250000,165361.2656250000,164741.0000000000,131920.5781250000,120038.8515625000,133554.9531250000,152524.0000000000,,,
1.0319999983,8,175783.2656250000,193091.4218750000,165770.1406250000,165368.5625000000,132506.6406250000,120605.1718750000,134198.5000000000,149285.1718750000,,,
1.0359999982,8,175594.8281250000,184466.9375000000,165459.1718750000,164979.7187500000,132093.5000000000,120219.4921875000,133779.7187500000,149191.7812500000,,,
1.0399999982,8,175222.7031250000,198265.7812500000,164840.8906250000,164058.0312500000,131211.0312500000,119367.1953125000,132825.2343750000,152867.5156250000,,,
1.0439999981,8,175205.4843750000,212282.5000000000,164851.2656250000,164027.4062500000,131221.1718750000,119354.2656250000,132808.4218750000,154476.6406250000,,,
1.0479999983,8,175534.1562500000,209496.0625000000,165377.7656250000,164760.9687500000,131933.0781250000,120034.7734375000,133570.5468750000,152512.0312500000,,,
1.0519999983,8,175793.9687500000,193028.6875000000,165787.3125000000,165400.0781250000,132512.6562500000,120606.6953125000,134215.0468750000,149295.7968750000,,,
1.0559999982,8,175596.4218750000,184445.7031250000,165466.8125000000,164997.0156250000,132090.4687500000,120220.6250000000,133790.5312500000,149194.7812500000,,,
1.0599999982,8,175218.7656250000,198182.1718750000,164842.0468750000,164066.5312500000,131202.6250000000,119368.0781250000,132833.2031250000,152853.0468750000,,,
1.0639999982,8,175204.2812500000,212243.2031250000,164851.2187500000,164025.3906250000,131210.9218750000,119350.5390625000,132809.8906250000,154473.7812500000,,,
1.0679999983,8,175540.3281250000,209470.9531250000,165380.9531250000,164756.4062500000,131927.6562500000,120031.5234375000,133571.8281250000,152509.3750000000,,,
1.0719999983,8,175805.3281250000,193057.8750000000,165797.7968750000,165388.9687500000,132516.7343750000,120603.5078125000,134221.1406250000,149305.4843750000,,,
1.0759999983,8,175620.4218750000,184458.6250000000,165490.9843750000,165004.3125000000,132116.7812500000,120228.9921875000,133813.2343750000,149202.4062500000,,,
1.0799999982,8,175242.9062500000,198123.3593750000,164869.7812500000,164076.4375000000,131240.4843750000,119379.5859375000,132862.3281250000,152856.5312500000,,,
1.0839999982,8,175219.9687500000,212223.5156250000,164874.7968750000,164032.1250000000,131248.0468750000,119360.7031250000,132841.1875000000,154490.9375000000,33029,1.0859527804,0.0000000000
1.0879999981,8,175541.1562500000,209535.7031250000,165389.5625000000,164746.0000000000,131950.9687500000,120031.2265625000,133593.0937500000,152534.4531250000,,,
1.0919999983,8,175795.8593750000,193150.8281250000,165793.3437500000,165374.2500000000,132526.4062500000,120597.3359375000,134234.9843750000,149318.0000000000,,,
1.0959999983,8,175608.7500000000,184441.4375000000,165487.9218750000,165000.9375000000,132123.5468750000,120227.8593750000,133833.0156250000,149182.7656250000,,,
1.0999999982,8,175227.7812500000,198018.5937500000,164858.4062500000,164076.4062500000,131232.6718750000,119373.9531250000,132871.7656250000,152824.0625000000,,,
1.1039999982,8,175203.8281250000,212183.1250000000,164857.2187500000,164029.1250000000,131227.2031250000,119352.0703125000,132831.8593750000,154477.3750000000,,,
1.1079999981,8,175528.4531250000,209641.6406250000,165374.3593750000,164756.9687500000,131928.8750000000,120025.8906250000,133576.1406250000,152549.0781250000,,,
1.1119999983,8,175791.0937500000,193291.9687500000,165789.2968750000,165390.4687500000,132517.9062500000,120605.1171875000,134224.2187500000,149333.2343750000,,,
1.1159999983,8,175605.8906250000,184451.0000000000,165483.4687500000,165011.6093750000,132117.9375000000,120241.7578125000,133821.2187500000,149173.8125000000,,,
1.1199999982,8,175225.6875000000,197920.9843750000,164853.1250000000,164074.6718750000,131227.2500000000,119393.3437500000,132864.5000000000,152807.6406250000,,,
1.1239999982,8,175195.0000000000,212117.5468750000,164840.7031250000,164011.0468750000,131212.8593750000,119363.3046875000,132820.2656250000,154476.1093750000,,,
1.1279999982,8,175513.4062500000,209773.0781250000,165348.4218750000,164724.2968750000,131904.0625000000,120024.5234375000,133557.6406250000,152587.8125000000,,,
1.1319999981,8,175779.1093750000,193464.8593750000,165772.0468750000,165374.5468750000,132503.0000000000,120608.6796875000,134217.3281250000,149357.8906250000,,,
1.1359999983,8,175593.5000000000,184441.6406250000,165470.5625000000,165007.8593750000,132107.2343750000,120237.8125000000,133816.7968750000,149150.9062500000,,,
1.1399999983,8,175214.5000000000,197818.7968750000,164845.4218750000,164077.6718750000,131219.8750000000,119381.6015625000,132858.8906250000,152774.0312500000,,,
1.1439999982,8,175187.4531250000,212060.0000000000,164840.8593750000,164007.4687500000,131209.2500000000,119349.1484375000,132814.5625000000,154461.6562500000,,,
1.1479999982,8,175504.7343750000,209794.6406250000,165352.1250000000,164713.7500000000,131902.8281250000,120005.6171875000,133549.3750000000,152585.4531250000,,,
1.1519999981,9,175767.0781250000,193550.3437500000,165771.9687500000,165362.1562500000,132497.9843750000,120585.8046875000,134203.8125000000,149360.2031250000,,,
1.1559999981,9,175588.9843750000,184462.8281250000,165478.5312500000,165007.8281250000,132111.5312500000,120233.4453125000,133812.9531250000,149138.0312500000,,,
1.1599999981,9,175212.3281250000,197739.1562500000,164850.4375000000,164077.5312500000,131218.7031250000,119379.0000000000,132849.0468750000,152747.3437500000,,,
1.1639999980,9,175183.4375000000,211996.7031250000,164839.0156250000,164004.6562500000,131198.5000000000,119344.7187500000,132796.5312500000,154447.1406250000,,,
1.1679999980,9,175497.9843750000,209706.9062500000,165342.2187500000,164711.5625000000,131883.1093750000,120003.5000000000,133523.9843750000,152567.6406250000,,,
1.1719999979,9,175761.3750000000,193507.6718750000,165758.3750000000,165359.5156250000,132472.2031250000,120583.2265625000,134173.7187500000,149359.3906250000,,,
1.1759999981,9,175589.1718750000,184434.7187500000,165469.3281250000,165003.7500000000,132094.3593750000,120233.7109375000,133792.5937500000,149132.4843750000,,,
1.1799999981,9,175216.8906250000,197609.9843750000,164848.3281250000,164080.0312500000,131215.0468750000,119386.0234375000,132842.1875000000,152725.0781250000,,,
1.1839999980,9,175186.9843750000,211895.3750000000,164838.0156250000,164012.8437500000,131198.7968750000,119346.3828125000,132794.5468750000,154436.6250000000,,,
1.1879999980,9,175511.8750000000,209641.0312500000,165355.8281250000,164727.1093750000,131900.8906250000,120012.3515625000,133543.4218750000,152571.5000000000,,,
1.1919999979,9,175791.8437500000,193481.6250000000,165789.8281250000,165383.9375000000,132510.2656250000,120602.8906250000,134210.8125000000,149384.1250000000,,,
1.1959999981,9,175622.3750000000,184367.0000000000,165507.7656250000,165039.6406250000,132140.2500000000,120256.3515625000,133833.9531250000,149147.1562500000,,,
1.1999999981,9,175240.7031250000,197456.5781250000,164879.3750000000,164097.0625000000,131253.3281250000,119404.7734375000,132876.8125000000,152724.3125000000,,,
1.2039999980,9,175205.1093750000,211780.3593750000,164860.0156250000,164016.6406250000,131227.1718750000,119360.7343750000,132818.4531250000,154452.3750000000,,,
1.2079999980,9,175524.2187500000,209643.2500000000,165368.7187500000,164712.6875000000,131917.8125000000,120018.5156250000,133550.0000000000,152610.2812500000,,,
1.2119999980,9,175789.8906250000,193549.0000000000,165786.7968750000,165354.8281250000,132508.8125000000,120600.1250000000,134202.8906250000,149412.8437500000,,,
1.2159999979,9,175614.0156250000,184327.4375000000,165499.3437500000,165015.5312500000,132134.4531250000,120259.9140625000,133832.2187500000,149134.4375000000,,,
1.2199999981,9,175236.2031250000,197289.5312500000,164873.0312500000,164092.4687500000,131248.6250000000,119415.6093750000,132881.2968750000,152692.7656250000,,,
1.2239999981,9,175203.9531250000,211660.8906250000,164855.9062500000,164016.9687500000,131221.5937500000,119371.1093750000,132820.9687500000,154443.6875000000,,,
1.2279999980,9,175519.8437500000,209658.2812500000,165360.0625000000,164722.8750000000,131904.5625000000,120021.2500000000,133546.6406250000,152624.6406250000,,,
1.2319999980,9,175787.8750000000,193609.0625000000,165781.1406250000,165372.4531250000,132498.1406250000,120604.3671875000,134199.8906250000,149423.0625000000,,,
1.2359999979,9,175623.1250000000,184261.4218750000,165506.5156250000,165038.9218750000,132138.4531250000,120278.1015625000,133839.2968750000,149123.2812500000,,,
1.2399999981,9,175244.0781250000,197130.1562500000,164880.4531250000,164119.2968750000,131251.6406250000,119428.4062500000,132886.2031250000,152671.3593750000,,,
1.2439999981,9,175197.7343750000,211527.3750000000,164848.0000000000,164020.5312500000,131207.8125000000,119366.0156250000,132808.6875000000,154426.0312500000,,,
1.2479999980,9,175504.8437500000,209623.1406250000,165343.5312500000,164703.5625000000,131879.4687500000,120002.3125000000,133519.2031250000,152620.9062500000,,,
1.2519999980,9,175775.7968750000,193634.6250000000,165771.2187500000,165358.7187500000,132480.4062500000,120587.8437500000,134175.5625000000,149422.2031250000,,,
1.2559999980,9,175607.7968750000,184181.2500000000,165495.7812500000,165023.8906250000,132123.1718750000,120258.5468750000,133818.6718750000,149087.2031250000,,,
1.2599999979,9,175224.9843750000,196911.9843750000,164864.9843750000,164093.2812500000,131232.7500000000,119406.2187500000,132862.0156250000,152608.5625000000,,,
1.2639999981,9,175179.0625000000,211315.8750000000,164832.5468750000,164003.9687500000,131190.8281250000,119345.7890625000,132788.2500000000,154378.6875000000,,,
1.2679999981,9,175496.4218750000,209467.4843750000,165338.6875000000,164709.9218750000,131877.1250000000,119989.7890625000,133517.8125000000,152599.2343750000,,,
1.2719999980,9,175770.8437500000,193529.5625000000,165767.6718750000,165367.1718750000,132482.0781250000,120577.2734375000,134179.7031250000,149414.2500000000,,,
1.2759999980,9,175602.5781250000,184027.0781250000,165493.9843750000,165039.4531250000,132128.2656250000,120263.8828125000,133830.4687500000,149064.3437500000,,,
1.2799999979,10,175221.3437500000,196640.5781250000,164865.8593750000,164115.1406250000,131242.4375000000,119418.6171875000,132883.9531250000,152567.8281250000,,,
1.2839999979,10,175175.8125000000,211053.2187500000,164832.6093750000,164008.3125000000,131197.2343750000,119347.5625000000,132806.7500000000,154353.5625000000,,,
1.2879999978,10,175496.9062500000,209316.5156250000,165338.0625000000,164700.5312500000,131881.3906250000,119989.6328125000,133530.7968750000,152605.8125000000,,,
1.2919999978,10,175778.9375000000,193475.9218750000,165774.7031250000,165354.8593750000,132492.2656250000,120577.8671875000,134199.2500000000,149435.4375000000,,,
1.2959999978,10,175627.5625000000,183887.9062500000,165521.0937500000,165048.4375000000,132158.4375000000,120266.0546875000,133863.9531250000,149062.6406250000,,,
1.2999999977,10,175252.8281250000,196369.4062500000,164901.0312500000,164136.3593750000,131279.9531250000,119421.2187500000,132917.3125000000,152548.3593750000,,,
1.3039999979,10,175202.1562500000,210800.3593750000,164861.9687500000,164036.0625000000,131226.1250000000,119349.6796875000,132829.4687500000,154346.1562500000,,,
1.3079999979,10,175508.3593750000,209370.2656250000,165348.9218750000,164708.6562500000,131887.9375000000,119978.3125000000,133533.7656250000,152660.0625000000,,,
1.3119999978,10,175785.2968750000,193658.8437500000,165782.1093750000,165368.0781250000,132501.4687500000,120576.2578125000,134209.3281250000,149490.8281250000,,,
1.3159999978,10,175634.4531250000,183846.9687500000,165531.1562500000,165062.8750000000,132173.2500000000,120278.5312500000,133886.5781250000,149081.1406250000,,,
1.3199999977,10,175260.7187500000,196195.6250000000,164912.1562500000,164151.7812500000,131294.7968750000,119442.6484375000,132946.3906250000,152553.9843750000,,,
1.3239999979,10,175212.2187500000,210614.6250000000,164868.2968750000,164039.4687500000,131235.4375000000,119372.5078125000,132853.4843750000,154362.7343750000,,,
1.3279999979,10,175514.0156250000,209201.8906250000,165347.8593750000,164704.2656250000,131887.1562500000,119993.9218750000,133543.7500000000,152686.2656250000,,,
1.3319999978,10,175784.4062500000,193587.9062500000,165774.0781250000,165357.4531250000,132487.8906250000,120582.4531250000,134203.7031250000,149540.9843750000,,,
1.3359999978,10,175641.9375000000,183832.0000000000,165531.8750000000,165066.6718750000,132166.1406250000,120294.2500000000,133884.6562500000,149128.2343750000,,,
1.3399999978,10,175270.2343750000,196079.2187500000,164915.5937500000,164154.2656250000,131290.2812500000,119460.8046875000,132944.8125000000,152560.5312500000,,,
1.3439999977,10,175214.3281250000,210490.0312500000,164869.4375000000,164035.0781250000,131228.9687500000,119383.0234375000,132849.4062500000,154357.6875000000,,,
1.3479999979,10,175514.7500000000,208994.0312500000,165352.0625000000,164711.6406250000,131886.1406250000,120004.4062500000,133540.3906250000,152666.6093750000,,,
1.3519999979,10,175781.4375000000,193466.6406250000,165770.9687500000,165354.0000000000,132476.9218750000,120579.4765625000,134185.3906250000,149568.0156250000,,,
1.3559999978,10,175628.2031250000,183869.6406250000,165522.5156250000,165051.6093750000,132153.6875000000,120287.8671875000,133866.7343750000,149168.9062500000,,,
1.3599999978,10,175250.4375000000,196026.3437500000,164905.5312500000,164143.1875000000,131282.9687500000,119458.0390625000,132936.5000000000,152552.6406250000,,,
1.3639999977,10,175185.1250000000,210461.6718750000,164846.9843750000,164019.0937500000,131211.4843750000,119371.6718750000,132831.1093750000,154336.5000000000,,,
1.3679999979,10,175484.0781250000,209012.6093750000,165326.5000000000,164686.5781250000,131864.5781250000,119994.3750000000,133522.3437500000,152653.2343750000,,,
1.3719999979,10,175759.3593750000,193558.2656250000,165752.3593750000,165333.9843750000,132459.1875000000,120572.9062500000,134174.7812500000,149584.8281250000,,,
1.3759999978,10,175622.8593750000,183953.8125000000,165517.8593750000,165053.0000000000,132148.7031250000,120294.3515625000,133867.5468750000,149191.0000000000,,,
1.3799999978,10,175254.7812500000,196027.3750000000,164908.1562500000,164155.0000000000,131284.7812500000,119473.2265625000,132941.7968750000,152545.9062500000,,,
1.3839999977,10,175200.8125000000,210512.7812500000,164857.9843750000,164038.5312500000,131217.4687500000,119385.3515625000,132837.9218750000,154335.8593750000,,,
1.3879999977,10,175502.9375000000,209234.9375000000,165337.0156250000,164702.5625000000,131869.5625000000,119998.8281250000,133523.0625000000,152693.4062500000,,,
1.3919999979,10,175774.2812500000,193862.4843750000,165760.7500000000,165348.5312500000,132467.2187500000,120578.6406250000,134176.6875000000,149640.0312500000,,,
1.3959999979,10,175632.6562500000,184149.3437500000,165527.7031250000,165066.9687500000,132163.0468750000,120298.9687500000,133875.7968750000,149220.7031250000,,,
1.3999999978,10,175262.5156250000,196155.1718750000,164918.1875000000,164160.1406250000,131299.4531250000,119470.1953125000,132947.0937500000,152553.0781250000,,,
1.4039999978,10,175201.7343750000,210715.3906250000,164863.5625000000,164031.8906250000,131225.4843750000,119376.9843750000,132836.5781250000,154351.9218750000,,,
1.4079999977,11,175501.9218750000,209616.9218750000,165338.5781250000,164692.4531250000,131869.0468750000,119984.6171875000,133514.2343750000,152741.2343750000,,,
1.4119999977,11,175776.1562500000,194299.1718750000,165765.0000000000,165333.7187500000,132467.4062500000,120567.0859375000,134168.7812500000,149681.1562500000,,,
1.4159999976,11,175626.8906250000,184410.7812500000,165523.3750000000,165050.0781250000,132156.9062500000,120286.3046875000,133866.3281250000,149207.0937500000,,,
1.4199999976,11,175256.5468750000,196315.3593750000,164912.5312500000,164151.5625000000,131292.9375000000,119460.5390625000,132941.7500000000,152524.2187500000,,,
1.4239999976,11,175191.9375000000,210918.4375000000,164850.5000000000,164018.4218750000,131212.9062500000,119361.3750000000,132825.8750000000,154333.8437500000,,,
1.4279999975,11,175496.6718750000,209849.5781250000,165331.0625000000,164681.1718750000,131861.3906250000,119973.5625000000,133510.2968750000,152728.5156250000,,,
1.4319999977,11,175781.0000000000,194445.5156250000,165770.9218750000,165344.5625000000,132472.8125000000,120567.7500000000,134177.4218750000,149659.9375000000,,,
1.4359999977,11,175642.9531250000,184361.4218750000,165542.8750000000,165074.0312500000,132176.4687500000,120299.6093750000,133886.7968750000,149171.8281250000,,,
1.4399999976,11,175274.4375000000,196118.2968750000,164932.8906250000,164167.1406250000,131313.7812500000,119472.6875000000,132961.2500000000,152483.3281250000,,,
1.4439999976,11,175210.6562500000,210738.4062500000,164869.4843750000,164025.4687500000,131231.4687500000,119371.8359375000,132839.5312500000,154310.6718750000,,,
1.4479999975,11,175503.2968750000,209706.0937500000,165340.7187500000,164681.7500000000,131871.7968750000,119980.1328125000,133511.5781250000,152709.8281250000,,,
1.4519999977,11,175787.7343750000,194299.0000000000,165784.8125000000,165354.0312500000,132488.6406250000,120583.6875000000,134184.0625000000,149644.5312500000,,,
1.4559999977,11,175653.1250000000,184127.4218750000,165559.4062500000,165089.2343750000,132195.9687500000,120323.5937500000,133896.5937500000,149148.8437500000,,,
1.4599999976,11,175271.2500000000,195837.0625000000,164931.0156250000,164164.9687500000,131315.6562500000,119487.3046875000,132957.6875000000,152455.0625000000,,,
1.4639999976,11,175206.7656250000,210538.6875000000,164866.9375000000,164024.1562500000,131231.1406250000,119385.0859375000,132836.5312500000,154300.4843750000,,,
1.4679999975,11,175506.5156250000,209575.7500000000,165343.4062500000,164685.2187500000,131876.6250000000,119999.3359375000,133515.5000000000,152715.3750000000,,,
1.4719999975,11,175777.9218750000,194216.8437500000,165772.2343750000,165342.4687500000,132477.8281250000,120586.9843750000,134175.2968750000,149644.3281250000,,,
1.4759999977,11,175634.0781250000,184025.0468750000,165538.8750000000,165072.3906250000,132179.0937500000,120314.2812500000,133883.3906250000,149123.1406250000,,,
1.4799999977,11,175258.2656250000,195696.6562500000,164915.9687500000,164164.8593750000,131301.7343750000,119481.0546875000,132944.7343750000,152423.1406250000,,,
1.4839999976,11,175193.8437500000,210475.9531250000,164847.8593750000,164025.9218750000,131208.9687500000,119382.7500000000,132812.5000000000,154289.4531250000,,,
1.4879999976,11,175493.4218750000,209590.3125000000,165322.4218750000,164682.9062500000,131851.7500000000,119999.7656250000,133491.2500000000,152713.0937500000,,,
1.4919999975,11,175773.9218750000,194239.6250000000,165757.1875000000,165335.3906250000,132460.9062500000,120592.8046875000,134158.2968750000,149636.1093750000,,,
1.4959999977,11,175646.7343750000,183946.7031250000,165541.3437500000,165081.3437500000,132180.9687500000,120336.8984375000,133884.8437500000,149108.2500000000,,,
1.4999999977,11,175273.9062500000,195546.2031250000,164922.2187500000,164170.1562500000,131308.0937500000,119497.8984375000,132950.5468750000,152414.6406250000,,,
1.5039999976,11,175205.8281250000,210384.6718750000,164853.7187500000,164021.3750000000,131214.0781250000,119385.8125000000,132816.2812500000,154297.5000000000,,,
1.5079999976,11,175497.0937500000,209637.5156250000,165324.2187500000,164669.7187500000,131851.3281250000,119990.4062500000,133488.2812500000,152734.5000000000,,,
1.5119999975,11,175784.4375000000,194317.0312500000,165774.2187500000,165353.0312500000,132477.8906250000,120597.6093750000,134168.8281250000,149647.3593750000,,,
1.5159999975,11,175654.7500000000,183869.3125000000,165556.3906250000,165106.1406250000,132198.0781250000,120341.9921875000,133894.2812500000,149079.1562500000,,,
1.5199999977,11,175272.4375000000,195376.9375000000,164928.8906250000,164169.9375000000,131316.5156250000,119495.2734375000,132953.4687500000,152375.8281250000,,,
1.5239999976,11,175201.8593750000,210252.1406250000,164859.0000000000,164002.5625000000,131221.9375000000,119375.1640625000,132820.0781250000,154272.5781250000,,,
1.5279999976,11,175493.6093750000,209782.3281250000,165325.9687500000,164636.2343750000,131852.2968750000,119968.2500000000,133484.1718750000,152757.9687500000,,,
1.5319999976,11,175794.4218750000,194550.8593750000,165790.5312500000,165342.5937500000,132497.8906250000,120595.3828125000,134189.5625000000,149646.7656250000,,,
1.5359999975,12,175673.2656250000,183743.5156250000,165582.7031250000,165113.4062500000,132232.1406250000,120354.7890625000,133929.3906250000,149017.8906250000,,,
1.5399999975,12,175302.9843750000,195101.3125000000,164960.1093750000,164201.1250000000,131352.2500000000,119515.5781250000,132989.3281250000,152335.5468750000,,,
1.5439999974,12,175230.1562500000,210006.7812500000,164883.6406250000,164028.5781250000,131246.2187500000,119396.9921875000,132848.3281250000,154268.5625000000,,,
1.5479999974,12,175514.3906250000,209640.4062500000,165343.7187500000,164651.3906250000,131867.5781250000,119984.7187500000,133507.9687500000,152775.4531250000,,,
1.5519999973,12,175792.7031250000,194469.8125000000,165789.5625000000,165328.1093750000,132498.4843750000,120600.3984375000,134197.6093750000,149642.4218750000,,,
1.5559999973,12,175661.1406250000,183574.4531250000,165576.0781250000,165084.3281250000,132231.8281250000,120363.5859375000,133941.1093750000,148974.9843750000,,,
1.5599999975,12,175291.7187500000,194844.8437500000,164957.1093750000,164175.1718750000,131354.7187500000,119529.5000000000,133007.5937500000,152297.0781250000,,,
1.5639999975,12,175208.5937500000,209799.5000000000,164867.7343750000,164009.8281250000,131234.0468750000,119397.7734375000,132854.5000000000,154248.2500000000,,,
1.5679999974,12,175493.9843750000,209372.6406250000,165328.0000000000,164648.9218750000,131858.2500000000,119991.4296875000,133521.7187500000,152725.3437500000,,,
1.5719999974,12,175786.8281250000,194206.8750000000,165783.0468750000,165335.8906250000,132495.8125000000,120615.2812500000,134222.9375000000,149599.3750000000,,,
1.5759999973,12,175667.6562500000,183427.0156250000,165581.0000000000,165104.6562500000,132239.6250000000,120390.5625000000,133983.3593750000,148949.2031250000,,,
1.5799999975,12,175290.7031250000,194609.2031250000,164952.3593750000,164182.2968750000,131355.0156250000,119553.8203125000,133041.9843750000,152262.7500000000,,,
1.5839999975,12,175213.0156250000,209616.3593750000,164866.5312500000,164009.6718750000,131235.7812500000,119421.7812500000,132886.3281250000,154250.0781250000,,,
1.5879999974,12,175507.8437500000,209098.2656250000,165341.1250000000,164657.9375000000,131876.5625000000,120028.8203125000,133563.2656250000,152711.4062500000,,,
1.5919999974,12,175795.8125000000,193941.7031250000,165791.9687500000,165335.5468750000,132505.7343750000,120643.9843750000,134261.2968750000,149589.8281250000,,,
1.5959999973,12,175672.8281250000,183359.0468750000,165589.1406250000,165104.2500000000,132248.0781250000,120418.5937500000,134015.3281250000,148951.7812500000,,,
1.5999999973,12,175290.7812500000,194448.5156250000,164961.7500000000,164177.0781250000,131365.4375000000,119577.0000000000,133076.5000000000,152241.5000000000,,,
1.6039999975,12,175208.9375000000,209498.9218750000,164873.6875000000,163995.8593750000,131244.4531250000,119435.6484375000,132922.8125000000,154249.5156250000,,,
1.6079999974,12,175506.1875000000,209098.0937500000,165349.7031250000,164645.7656250000,131888.2812500000,120041.5312500000,133603.2031250000,152729.1406250000,,,
1.6119999974,12,175807.7500000000,194046.9375000000,165811.1562500000,165332.0781250000,132529.2031250000,120667.6640625000,134302.0625000000,149613.3437500000,,,
1.6159999974,12,175691.3906250000,183451.7187500000,165613.4531250000,165113.8593750000,132278.1250000000,120443.4843750000,134058.6718750000,148954.9687500000,,,
1.6199999973,12,175306.8750000000,194474.7500000000,164979.6093750000,164196.2968750000,131388.2187500000,119593.3593750000,133110.5468750000,152242.9843750000,,,
1.6239999975,12,175222.9531250000,209613.0468750000,164883.0000000000,164010.3437500000,131254.1250000000,119442.4609375000,132939.5468750000,154286.2031250000,,,
1.6279999975,12,175514.4687500000,209403.8125000000,165349.7343750000,164650.8906250000,131886.8906250000,120041.2343750000,133612.2500000000,152793.1562500000,,,
1.6319999974,12,175808.5781250000,194404.6093750000,165805.8125000000,165338.9531250000,132524.9062500000,120665.3281250000,134309.9687500000,149645.7968750000,,,
1.6359999974,12,175691.3906250000,183584.9687500000,165610.4218750000,165119.1718750000,132276.9687500000,120440.9609375000,134061.0156250000,148931.2812500000,,,
1.6399999973,12,175307.9375000000,194470.0312500000,164975.7187500000,164199.2031250000,131382.4531250000,119584.8046875000,133099.0937500000,152229.4687500000,,,
1.6439999973,12,175217.6406250000,209660.5000000000,164872.8437500000,163992.5937500000,131240.1250000000,119425.8281250000,132920.5312500000,154309.6718750000,,,
1.6479999975,12,175508.4687500000,209650.6875000000,165339.8593750000,164625.9062500000,131872.1718750000,120016.4218750000,133586.3906250000,152857.2343750000,,,
1.6519999974,12,175805.8437500000,194700.2656250000,165806.0625000000,165326.4218750000,132524.7968750000,120652.0000000000,134297.2343750000,149690.3281250000,,,
1.6559999974,12,175691.5781250000,183630.8750000000,165614.5937500000,165117.3125000000,132285.4062500000,120442.6250000000,134061.9687500000,148928.3593750000,,,
1.6599999974,12,175304.1406250000,194478.6406250000,164969.9062500000,164179.6406250000,131378.0000000000,119580.5390625000,133087.6406250000,152246.8437500000,,,
1.6639999973,13,175213.6718750000,209840.5625000000,164863.7656250000,163983.8125000000,131228.1718750000,119421.8593750000,132895.7812500000,154367.9375000000,,,
1.6679999973,13,175495.9687500000,209950.0000000000,165323.7187500000,164617.8125000000,131850.7656250000,120014.3828125000,133551.6250000000,152908.7031250000,,,
1.6719999972,13,175801.5000000000,194987.2031250000,165796.9375000000,165329.7031250000,132511.3593750000,120658.8125000000,134268.8750000000,149721.0312500000,,,
1.6759999972,13,175691.9062500000,183802.1250000000,165612.4218750000,165136.8125000000,132279.6718750000,120451.6953125000,134041.9687500000,148931.2656250000,,,
1.6799999971,13,175304.3750000000,194514.4375000000,164969.1562500000,164209.3906250000,131372.7187500000,119592.1250000000,133073.9843750000,152230.5625000000,,,
1.6839999971,13,175209.6406250000,209856.4062500000,164856.3906250000,163998.7031250000,131212.3437500000,119420.6484375000,132872.8750000000,154355.4687500000,,,
1.6879999973,13,175503.1093750000,210022.7812500000,165324.6250000000,164633.2812500000,131841.8906250000,120015.0859375000,133531.3281250000,152923.1093750000,,,
1.6919999972,13,175805.6562500000,195180.5937500000,165793.1562500000,165329.7031250000,132496.7968750000,120649.3437500000,134239.4062500000,149754.5625000000,,,
1.6959999972,13,175703.6718750000,184036.7968750000,165617.6875000000,165139.3750000000,132274.9218750000,120451.4531250000,134023.3437500000,148963.3125000000,,,
1.6999999972,13,175340.5312500000,194668.0468750000,165004.6406250000,164234.9531250000,131400.4687500000,119615.7812500000,133086.7031250000,152264.1406250000,,,
1.7039999971,13,175241.3125000000,210029.9218750000,164888.5312500000,164021.0000000000,131239.9375000000,119436.1562500000,132883.6562500000,154402.9687500000,,,
1.7079999973,13,175507.5312500000,210272.7187500000,165330.2031250000,164633.2343750000,131847.1093750000,120002.6640625000,133519.2812500000,152965.1093750000,,,
1.7119999973,13,175804.7968750000,195491.0937500000,165793.2968750000,165328.2187500000,132501.3281250000,120630.0312500000,134227.1250000000,149789.0625000000,,,
1.7159999972,13,175700.6406250000,184284.4375000000,165617.8750000000,165134.0625000000,132284.9843750000,120429.5625000000,134018.0625000000,148965.8593750000,,,
1.7199999972,13,175309.8437500000,194765.2500000000,164979.0312500000,164197.4218750000,131384.6406250000,119572.5156250000,133061.2968750000,152223.2343750000,,,
1.7239999971,13,175208.8437500000,210153.0625000000,164859.8750000000,163976.8750000000,131218.7187500000,119394.5546875000,132855.9218750000,154381.6406250000,,,
1.7279999971,13,175499.0468750000,210489.7656250000,165319.6718750000,164607.7187500000,131841.6718750000,119984.4765625000,133509.3593750000,152980.0312500000,,,
1.7319999973,13,175807.7500000000,195755.9218750000,165792.6250000000,165321.7500000000,132502.4843750000,120623.9218750000,134225.7812500000,149812.3125000000,,,
1.7359999972,13,175704.0781250000,184486.3593750000,165619.5625000000,165137.7031250000,132286.8593750000,120431.2265625000,134017.4843750000,148973.7500000000,,,
1.7399999972,13,175317.8750000000,194915.7500000000,164983.2031250000,164206.4375000000,131389.3906250000,119579.7890625000,133063.4375000000,152239.7656250000,,,
1.7439999972,13,175221.9218750000,210407.0625000000,164865.9375000000,163978.4843750000,131224.7812500000,119405.2812500000,132859.5156250000,154434.1406250000,,,
1.7479999971,13,175501.7343750000,210854.9687500000,165319.2343750000,164600.5625000000,131843.9687500000,119985.6562500000,133511.6093750000,153039.8125000000,,,
1.7519999973,13,175807.6093750000,196096.3593750000,165796.7187500000,165311.2500000000,132516.9375000000,120634.2187500000,134243.9062500000,149846.7187500000,,,
1.7559999973,13,175717.5937500000,184654.6718750000,165640.0625000000,165136.6250000000,132323.4687500000,120465.9062500000,134061.8750000000,148984.7343750000,,,
1.7599999972,13,175345.0468750000,194989.0781250000,165012.7343750000,164219.1875000000,131430.2500000000,119619.6171875000,133114.1875000000,152263.5312500000,,,
1.7639999972,13,175243.3281250000,210565.6093750000,164885.3125000000,163987.2500000000,131249.5156250000,119430.1484375000,132894.9687500000,154478.8125000000,,,
1.7679999971,13,175518.1250000000,211082.8437500000,165333.0468750000,164589.2968750000,131861.8593750000,120010.8984375000,133538.9218750000,153082.7031250000,,,
1.7719999971,13,175825.4531250000,196286.0468750000,165812.7343750000,165306.2500000000,132533.6718750000,120665.1171875000,134270.6718750000,149867.2656250000,,,
1.7759999973,13,175734.5781250000,184680.3593750000,165652.2656250000,165149.3437500000,132334.6875000000,120492.7578125000,134088.3125000000,148972.1562500000,,,
1.7799999972,13,175347.5937500000,194951.1875000000,165009.1250000000,164210.1093750000,131425.5468750000,119636.2187500000,133127.9687500000,152252.6875000000,,,
1.7839999972,13,175237.2968750000,210627.8906250000,164877.4531250000,163962.1718750000,131238.9218750000,119443.0234375000,132907.3906250000,154496.5781250000,,,
1.7879999971,13,175513.7500000000,211250.1718750000,165333.5937500000,164598.4687500000,131856.2031250000,120024.2031250000,133559.3593750000,153110.3281250000,,,
1.7919999971,14,175829.0468750000,196433.2968750000,165825.6718750000,165335.0937500000,132541.5625000000,120685.5859375000,134306.4531250000,149878.5937500000,,,
1.7959999971,14,175734.3125000000,184683.2031250000,165663.9531250000,165174.4843750000,132344.2656250000,120509.2812500000,134122.7500000000,148949.5468750000,,,
1.7999999970,14,175338.3125000000,194885.5312500000,165009.6250000000,164232.7031250000,131425.0156250000,119640.5703125000,133144.5468750000,152228.1718750000,,,
1.8039999970,14,175227.4843750000,210678.7968750000,164870.4687500000,163980.2187500000,131232.5625000000,119439.9609375000,132907.8750000000,154505.0000000000,,,
1.8079999969,14,175504.2500000000,211391.6250000000,165321.9375000000,164603.9218750000,131847.0937500000,120018.3593750000,133550.7500000000,153126.9062500000,,,
1.8119999969,14,175810.4062500000,196560.4062500000,165804.4218750000,165329.4843750000,132524.2656250000,120680.0312500000,134285.3750000000,149870.9687500000,,,
1.8159999971,14,175715.1875000000,184685.9218750000,165644.3437500000,165169.2500000000,132327.9062500000,120511.4765625000,134101.0312500000,148912.7500000000,,,
1.8199999970,14,175329.4062500000,194802.8906250000,164996.5937500000,164226.2968750000,131410.3125000000,119638.7421875000,133124.0000000000,152197.2500000000,,,
1.8239999970,14,175224.6875000000,210686.5625000000,164860.3593750000,163985.1875000000,131215.2343750000,119433.7109375000,132885.2968750000,154508.1562500000,,,
1.8279999970,14,175510.8593750000,211479.5781250000,165324.6562500000,164620.0625000000,131839.6875000000,120019.3750000000,133537.1406250000,153143.3125000000,,,
1.8319999969,14,175821.0000000000,196614.8281250000,165816.3593750000,165343.7031250000,132526.7343750000,120680.5703125000,134284.0156250000,149865.6093750000,,,
1.8359999971,14,175729.0312500000,184574.2031250000,165661.4062500000,165191.3281250000,132338.3281250000,120508.9296875000,134107.8125000000,148875.0625000000,,,
1.8399999971,14,175348.8437500000,194623.8437500000,165015.5000000000,164264.5312500000,131423.9375000000,119632.6015625000,133125.1875000000,152177.3750000000,,,
1.8439999970,14,175234.5937500000,210622.8593750000,164866.4531250000,163975.9531250000,131218.4843750000,119415.7421875000,132870.6406250000,154520.9531250000,,,
1.8479999970,14,175506.0312500000,211492.3906250000,165318.5937500000,164567.4375000000,131834.5937500000,119990.2734375000,133518.0468750000,153147.3906250000,,,
1.8519999969,14,175823.1093750000,196541.5156250000,165820.0625000000,165317.9218750000,132534.1093750000,120663.3203125000,134275.4218750000,149838.5937500000,,,
1.8559999969,14,175729.9843750000,184308.3437500000,165666.1875000000,165175.1718750000,132348.3437500000,120496.4843750000,134098.3437500000,148812.5156250000,,,
1.8599999971,14,175335.9531250000,194214.3906250000,165008.5625000000,164224.8750000000,131420.4531250000,119607.4375000000,133104.7187500000,152104.1718750000,,,
1.8639999970,14,175227.2343750000,210266.0312500000,164865.5468750000,163963.8281250000,131212.9062500000,119384.5468750000,132850.6875000000,154478.2500000000,,,
1.8679999970,14,175501.8125000000,211199.7968750000,165318.9375000000,164583.8593750000,131826.1875000000,119967.7968750000,133498.2812500000,153116.3125000000,,,
1.8719999969,14,175815.9843750000,196240.9843750000,165817.5312500000,165333.3437500000,132523.8906250000,120650.0156250000,134257.4843750000,149796.4843750000,,,
1.8759999969,14,175720.9531250000,183879.8593750000,165658.3437500000,165186.2500000000,132334.6093750000,120483.4531250000,134075.5468750000,148744.8125000000,,,
1.8799999971,14,175317.6250000000,193693.9062500000,164982.8125000000,164223.9531250000,131386.5468750000,119582.2578125000,133058.4531250000,152031.5937500000,,,
1.8839999971,14,175197.0312500000,209815.3125000000,164823.7187500000,163955.0937500000,131162.1093750000,119351.6640625000,132785.5625000000,154429.3281250000,,,
1.8879999970,14,175465.5312500000,210854.9687500000,165275.3593750000,164574.0312500000,131774.7968750000,119927.1875000000,133429.7031250000,153079.1406250000,,,
1.8919999970,14,175780.2343750000,195958.3750000000,165780.5468750000,165319.0000000000,132479.9218750000,120607.1562500000,134197.9843750000,149754.4531250000,,,
1.8959999969,14,175698.3750000000,183535.3750000000,165639.2968750000,165189.9843750000,132312.2031250000,120459.2031250000,134039.2031250000,148689.2187500000,,,
1.8999999969,14,175308.0781250000,193220.5156250000,164980.7656250000,164236.7812500000,131386.6562500000,119576.0859375000,133047.2187500000,151969.1093750000,,,
1.9039999971,14,175188.3750000000,209339.3906250000,164826.6250000000,163960.5312500000,131169.6093750000,119346.7578125000,132780.3125000000,154377.0625000000,,,
1.9079999970,14,175470.8281250000,210421.2812500000,165288.0937500000,164586.9375000000,131792.6093750000,119930.7812500000,133432.7500000000,153045.6093750000,,,
1.9119999970,14,175791.3281250000,195583.8125000000,165795.0312500000,165346.2187500000,132498.7812500000,120613.2187500000,134202.6250000000,149734.6406250000,,,
1.9159999969,14,175709.0937500000,183125.2656250000,165654.1406250000,165215.1406250000,132331.6562500000,120462.7968750000,134046.9531250000,148654.1875000000,,,
1.9199999969,15,175314.9531250000,192698.6718750000,164992.4375000000,164255.8750000000,131400.0156250000,119577.6953125000,133051.4531250000,151917.4687500000,,,
1.9239999969,15,175201.9375000000,208858.6562500000,164840.4375000000,163977.8125000000,131181.0625000000,119349.3359375000,132785.2656250000,154356.5156250000,,,
1.9279999968,15,175476.5468750000,210122.8281250000,165292.1718750000,164586.4375000000,131793.6562500000,119922.9531250000,133427.1562500000,153062.7656250000,,,
1.9319999968,15,175787.3437500000,195481.7500000000,165787.3593750000,165327.2343750000,132490.4218750000,120596.1875000000,134186.2968750000,149768.8906250000,,,
1.9359999967,15,175699.8750000000,183062.6093750000,165643.2812500000,165188.5312500000,132322.3750000000,120448.0703125000,134031.7500000000,148669.9375000000,,,
1.9399999967,15,175306.6875000000,192582.2343750000,164982.8906250000,164236.1093750000,131392.3125000000,119565.4609375000,133040.0312500000,151913.1718750000,,,
1.9439999969,15,175183.7656250000,208829.7656250000,164817.7187500000,163950.2968750000,131157.2500000000,119325.2734375000,132757.9687500000,154365.5156250000,,,
1.9479999968,15,175451.6562500000,210282.7500000000,165260.5468750000,164552.8437500000,131758.0625000000,119891.7812500000,133393.4843750000,153095.8437500000,,,
1.9519999968,15,175774.2812500000,195791.6093750000,165770.0937500000,165307.9218750000,132466.2968750000,120576.0703125000,134165.0781250000,149818.4218750000,,,
1.9559999967,15,175701.4218750000,183338.7500000000,165641.0156250000,165189.5000000000,132311.8281250000,120441.0703125000,134021.8750000000,148702.4687500000,,,
1.9599999967,15,175307.2500000000,192778.9687500000,164981.0156250000,164237.0781250000,131380.9531250000,119557.5234375000,133029.5156250000,151927.8281250000,,,
1.9639999969,15,175182.5781250000,209080.1250000000,164816.3750000000,163949.6250000000,131144.8281250000,119315.8828125000,132748.2812500000,154396.6875000000,,,
1.9679999969,15,175452.4687500000,210661.5000000000,165257.4062500000,164555.9843750000,131741.2187500000,119880.3593750000,133373.2968750000,153154.5312500000,,,
1.9719999968,15,175769.9218750000,196261.2343750000,165756.5937500000,165295.4687500000,132441.1406250000,120557.9062500000,134134.4687500000,149873.8906250000,,,
1.9759999968,15,175689.4843750000,183745.3125000000,165626.2656250000,165167.3750000000,132292.0625000000,120427.2578125000,134000.3125000000,148726.6406250000,,,
1.9799999967,15,175292.5000000000,193104.4531250000,164965.2187500000,164219.4531250000,131365.2812500000,119545.7812500000,133010.8437500000,151936.8593750000,,,
1.9839999967,15,175168.9062500000,209475.4375000000,164799.5781250000,163937.0156250000,131127.2031250000,119301.0781250000,132725.4062500000,154424.6093750000,,,
1.9879999969,15,175431.0000000000,211138.2343750000,165233.6250000000,164533.9375000000,131717.2968750000,119862.8984375000,133346.3906250000,153182.7968750000,,,
1.9919999968,15,175751.1875000000,196732.5000000000,165741.2812500000,165291.2656250000,132426.3125000000,120555.2500000000,134118.6718750000,149893.4531250000,,,
1.9959999968,15,175681.7968750000,184100.9843750000,165623.2343750000,165187.0312500000,132289.8906250000,120437.9609375000,133993.0156250000,148727.7812500000,,,
1.9999999967,15,175281.4687500000,193345.1562500000,164953.7031250000,164236.4062500000,131354.0468750000,119544.7031250000,132988.2343750000,151930.8750000000,,,
2.0039999967,15,175150.9062500000,209791.5781250000,164776.7343750000,163931.1093750000,131104.7343750000,119286.5937500000,132691.6093750000,154443.7656250000,,,
2.0079999969,15,175421.5625000000,211520.2343750000,165222.8437500000,164528.5781250000,131708.3906250000,119857.6953125000,133330.8281250000,153213.1875000000,,,
2.0119999968,15,175745.5468750000,197054.7343750000,165739.5625000000,165283.5312500000,132427.5468750000,120553.1875000000,134115.1562500000,149902.0781250000,,,
2.0159999968,15,175673.4218750000,184247.1093750000,165618.0625000000,165170.7500000000,132290.0468750000,120433.3203125000,133991.4062500000,148702.6875000000,,,
2.0199999968,15,175281.0625000000,193347.2031250000,164954.3281250000,164210.8593750000,131359.8125000000,119547.2265625000,132998.0781250000,151907.2031250000,,,
2.0239999967,15,175152.7031250000,209836.1562500000,164777.8593750000,163903.8281250000,131107.1406250000,119287.8046875000,132695.8437500000,154449.7187500000,,,
2.0279999967,15,175446.2343750000,211626.8906250000,165248.7500000000,164541.1250000000,131733.6093750000,119876.1484375000,133351.0312500000,153245.0625000000,,,
2.0319999969,15,175791.5468750000,197125.4687500000,165786.2343750000,165333.4843750000,132473.2812500000,120586.6328125000,134154.6718750000,149928.7656250000,,,
2.0359999968,15,175719.4687500000,184126.1406250000,165668.3593750000,165229.8125000000,132340.0156250000,120471.2500000000,134036.5781250000,148688.5156250000,,,
2.0399999968,15,175317.8125000000,193060.7656250000,164998.0625000000,164268.9843750000,131402.3281250000,119576.7265625000,133034.4687500000,151873.3437500000,,,
2.0439999967,15,175174.0156250000,209541.6250000000,164804.5156250000,163935.9375000000,131132.3593750000,119299.3359375000,132715.2968750000,154421.3906250000,,,
2.0479999967,16,175438.2812500000,211367.4375000000,165246.0156250000,164514.3593750000,131729.9843750000,119861.6640625000,133346.8125000000,153205.4062500000,,,
2.0519999966,16,175773.5156250000,196877.4375000000,165773.6250000000,165292.0312500000,132460.4843750000,120568.7734375000,134143.4062500000,149881.7187500000,,,
2.0559999966,16,175704.7812500000,183788.6093750000,165656.2500000000,165202.1875000000,132329.8593750000,120459.2578125000,134028.9531250000,148629.3437500000,,,
2.0599999966,16,175304.0625000000,192635.9218750000,164983.9375000000,164239.2968750000,131390.0625000000,119564.8984375000,133027.3125000000,151815.1718750000,,,
2.0639999965,16,175166.1875000000,209183.2500000000,164797.6875000000,163924.0781250000,131124.7187500000,119287.3984375000,132711.0000000000,154392.9062500000,,,
2.0679999965,16,175437.2500000000,211129.7968750000,165243.0937500000,164530.5937500000,131725.8281250000,119849.7812500000,133342.5781250000,153204.6875000000,,,
2.0719999967,16,175768.5625000000,196728.4218750000,165764.9375000000,165308.0781250000,132452.8906250000,120552.4609375000,134134.5625000000,149881.4531250000,,,
2.0759999966,16,175704.8593750000,183605.0625000000,165657.4843750000,165219.4843750000,132332.9375000000,120447.9140625000,134028.7656250000,148608.7812500000,,,
2.0799999966,16,175303.3593750000,192355.9843750000,164986.2343750000,164252.0312500000,131394.3593750000,119553.1562500000,133028.6562500000,151769.7656250000,,,
2.0839999965,16,175164.2031250000,208930.6406250000,164795.4531250000,163923.8125000000,131122.9375000000,119275.1406250000,132709.7968750000,154362.9218750000,,,
2.0879999965,16,175432.9375000000,211004.5000000000,165235.4375000000,164524.1562500000,131717.2343750000,119836.8203125000,133335.2812500000,153206.7500000000,,,
2.0919999967,16,175764.9375000000,196739.0625000000,165754.3750000000,165303.3906250000,132441.5937500000,120546.3515625000,134122.0000000000,149907.1875000000,,,
2.0959999966,16,175701.6093750000,183619.4218750000,165646.4687500000,165222.9218750000,132322.7187500000,120452.3359375000,134020.7187500000,148621.5468750000,,,
2.0999999966,16,175306.6562500000,192274.6875000000,164984.6562500000,164278.4375000000,131392.5312500000,119568.3046875000,133029.7812500000,151764.3125000000,,,
2.1039999966,16,175156.6718750000,208883.4375000000,164778.2656250000,163928.0000000000,131106.3437500000,119277.3671875000,132699.2031250000,154364.1875000000,,,
2.1079999965,16,175411.9843750000,211073.5937500000,165206.0781250000,164496.7968750000,131687.2500000000,119826.0390625000,133315.4375000000,153220.3593750000,,,
2.1119999965,16,175749.6562500000,196924.5156250000,165737.2343750000,165280.9062500000,132421.2343750000,120537.3671875000,134116.6093750000,149936.6562500000,,,
2.1159999967,16,175691.9843750000,183826.9375000000,165638.1718750000,165206.3906250000,132312.8593750000,120449.3359375000,134024.2968750000,148641.2656250000,,,
2.1199999966,16,175294.5312500000,192379.8906250000,164974.7656250000,164250.9375000000,131383.7031250000,119569.0859375000,133034.2031250000,151753.9062500000,,,
2.1239999966,16,175151.7031250000,208982.3906250000,164777.3281250000,163920.4375000000,131104.0625000000,119283.6953125000,132705.0156250000,154363.8125000000,,,
2.1279999965,16,175411.3437500000,211319.9843750000,165205.4375000000,164505.4843750000,131681.5468750000,119827.3828125000,133312.0781250000,153256.7968750000,,,
2.1319999965,16,175743.5312500000,197301.3906250000,165730.9218750000,165266.4218750000,132412.5781250000,120532.6171875000,134107.8750000000,149976.4375000000,,,
2.1359999967,16,175689.7812500000,184019.2187500000,165640.1875000000,165189.4687500000,132317.0625000000,120452.7109375000,134028.6406250000,148634.0937500000,,,
2.1399999966,16,175307.8593750000,192388.5000000000,164992.6718750000,164252.3125000000,131404.0937500000,119583.3828125000,133055.2656250000,151734.2187500000,,,
2.1439999966,16,175166.6250000000,208998.1250000000,164794.1093750000,163923.5000000000,131120.5781250000,119292.2031250000,132724.2500000000,154367.4218750000,,,
2.1479999966,16,175423.5468750000,211417.8125000000,165220.6406250000,164498.4531250000,131696.1875000000,119831.0859375000,133332.1718750000,153277.8281250000,,,
2.1519999965,16,175756.6562500000,197470.8593750000,165746.9218750000,165273.2343750000,132426.0625000000,120534.3046875000,134128.9218750000,150005.5156250000,,,
2.1559999965,16,175700.7031250000,184171.1250000000,165654.2656250000,165212.5156250000,132327.6250000000,120449.4687500000,134049.6875000000,148644.6718750000,,,
2.1599999967,16,175312.9843750000,192434.6093750000,164998.0625000000,164261.5625000000,131407.4687500000,119575.2812500000,133069.9843750000,151720.7343750000,,,
2.1639999966,16,175161.7968750000,209054.8281250000,164786.7343750000,163909.0625000000,131111.4687500000,119274.6328125000,132721.8281250000,154358.5468750000,,,
2.1679999966,16,175417.2187500000,211511.2812500000,165211.7031250000,164485.0468750000,131688.1406250000,119815.7656250000,133325.2031250000,153278.6406250000,,,
2.1719999965,16,175751.2031250000,197586.0468750000,165736.3750000000,165261.0781250000,132419.0937500000,120520.1953125000,134118.0937500000,150011.8906250000,,,
2.1759999965,17,175711.3437500000,184301.9531250000,165659.6406250000,165213.8593750000,132338.7968750000,120455.8515625000,134056.6093750000,148658.1250000000,,,
2.1799999964,17,175333.4062500000,192469.3906250000,165016.3906250000,164284.2812500000,131431.8281250000,119592.7734375000,133090.8281250000,151725.5781250000,,,
2.1839999964,17,175181.3437500000,209126.9062500000,164802.4843750000,163932.4531250000,131131.1562500000,119290.4062500000,132738.8125000000,154387.5468750000,,,
2.1879999964,17,175429.8437500000,211645.7656250000,165218.6875000000,164501.2187500000,131696.4531250000,119824.0312500000,133331.7656250000,153313.1562500000,,,
2.1919999963,17,175759.4375000000,197726.4687500000,165739.8125000000,165266.5781250000,132421.5937500000,120527.9453125000,134120.6562500000,150037.4843750000,,,
2.1959999963,17,175721.8125000000,184396.5000000000,165665.5937500000,165221.3593750000,132344.5000000000,120469.3671875000,134061.5468750000,148671.5468750000,,,
2.1999999965,17,175337.6406250000,192489.0000000000,165016.1718750000,164285.9375000000,131431.6875000000,119602.6406250000,133087.5781250000,151723.4062500000,,,
2.2039999964,17,175181.1250000000,209215.7968750000,164799.6093750000,163926.6406250000,131126.2500000000,119291.8281250000,132730.7968750000,154401.0156250000,,,
2.2079999964,17,175429.8750000000,211838.6406250000,165216.3750000000,164493.1406250000,131691.4687500000,119824.8046875000,133322.1875000000,153342.6875000000,,,
2.2119999963,17,175760.0625000000,197971.9687500000,165738.0312500000,165273.2656250000,132417.0781250000,120532.0781250000,134111.0937500000,150067.7656250000,,,
2.2159999963,17,175711.6250000000,184561.7031250000,165655.7500000000,165224.8750000000,132334.9218750000,120469.1796875000,134047.3906250000,148669.9531250000,,,
2.2199999965,17,175321.5937500000,192530.7343750000,164998.4687500000,164289.2656250000,131417.6406250000,119602.7734375000,133071.6718750000,151704.6406250000,,,
2.2239999964,17,175166.2968750000,209300.2343750000,164777.1406250000,163923.3906250000,131107.4218750000,119290.8906250000,132710.4375000000,154406.9687500000,,,
2.2279999964,17,175418.4843750000,212025.1406250000,165197.8593750000,164485.8437500000,131676.4687500000,119823.2812500000,133305.8125000000,153371.8750000000,,,
2.2319999964,17,175751.8750000000,198195.4843750000,165728.5468750000,165268.8437500000,132411.9062500000,120533.1484375000,134104.4375000000,150094.6718750000,,,
2.2359999963,17,175711.4843750000,184660.4062500000,165655.9531250000,165224.3906250000,132339.0781250000,120477.1484375000,134050.4218750000,148668.2343750000,,,
2.2399999963,17,175321.7656250000,192531.0312500000,164998.2343750000,164275.3437500000,131418.6875000000,119605.8281250000,133072.7031250000,151686.6093750000,,,
2.2439999965,17,175161.5781250000,209360.0625000000,164771.4531250000,163900.1093750000,131101.0000000000,119284.5546875000,132704.3437500000,154405.1093750000,,,
2.2479999964,17,175417.4531250000,212188.5937500000,165195.6406250000,164475.7031250000,131671.7812500000,119818.0781250000,133299.9843750000,153389.7656250000,,,
2.2519999964,17,175757.7187500000,198404.8750000000,165734.7656250000,165259.2656250000,132415.2656250000,120530.9531250000,134103.7343750000,150110.4843750000,,,
2.2559999963,17,175720.9531250000,184747.7343750000,165668.7031250000,165226.6250000000,132351.4218750000,120478.8125000000,134057.5156250000,148654.1093750000,,,
2.2599999963,17,175327.2812500000,192511.1250000000,165007.7031250000,164282.7187500000,131428.4218750000,119602.8828125000,133076.9062500000,151664.4843750000,,,
2.2639999965,17,175160.6875000000,209388.1250000000,164773.3593750000,163900.9843750000,131101.2656250000,119273.2656250000,132698.8750000000,154407.4375000000,,,
2.2679999964,17,175410.2968750000,212306.9062500000,165190.0625000000,164458.4062500000,131665.5781250000,119801.4453125000,133288.7187500000,153409.9843750000,,,
2.2719999964,17,175757.1875000000,198550.4687500000,165733.6093750000,165247.6718750000,132416.2031250000,120524.3515625000,134102.5781250000,150135.8906250000,,,
2.2759999963,17,175719.7500000000,184824.9062500000,165669.2968750000,165225.5781250000,132354.7187500000,120477.0937500000,134062.8593750000,148660.9218750000,,,
2.2799999963,17,175328.0937500000,192490.7343750000,165010.0000000000,164287.7187500000,131431.6406250000,119602.2109375000,133082.0312500000,151656.9531250000,,,
2.2839999963,17,175171.0156250000,209420.8437500000,164783.2968750000,163909.0937500000,131109.3437500000,119279.8906250000,132709.0468750000,154430.8593750000,,,
2.2879999964,17,175422.9062500000,212439.8593750000,165200.3281250000,164480.4218750000,131673.4687500000,119810.8906250000,133298.0312500000,153454.8593750000,,,
2.2919999964,17,175758.5000000000,198726.7500000000,165733.2343750000,165258.3281250000,132415.0781250000,120528.9140625000,134102.6718750000,150168.1562500000,,,
2.2959999964,17,175719.4687500000,184904.8906250000,165667.0156250000,165226.6406250000,132356.7812500000,120485.7343750000,134063.9531250000,148658.8593750000,,,
2.2999999963,17,175329.0000000000,192452.6562500000,165008.0000000000,164287.9843750000,131437.7343750000,119614.2031250000,133086.2187500000,151641.2812500000,,,
2.3039999963,18,175158.0937500000,209447.8593750000,164766.5937500000,163897.9531250000,131100.0937500000,119274.7968750000,132694.4843750000,154428.6093750000,,,
2.3079999962,18,175402.3906250000,212532.5312500000,165180.5468750000,164451.4843750000,131658.4218750000,119798.5468750000,133281.0781250000,153449.8125000000,,,
2.3119999962,18,175744.7187500000,198806.1406250000,165723.0937500000,165246.9843750000,132407.5937500000,120521.2187500000,134094.8906250000,150149.5156250000,,,
2.3159999961,18,175722.0312500000,184874.9375000000,165675.6250000000,165242.9531250000,132366.4218750000,120492.8359375000,134072.3281250000,148628.2812500000,,,
2.3199999961,18,175335.5781250000,192291.1250000000,165019.2031250000,164298.2187500000,131448.8593750000,119623.8593750000,133095.0937500000,151604.2968750000,,,
2.3239999961,18,175166.3437500000,209304.8750000000,164774.4062500000,163900.9062500000,131107.9843750000,119283.6953125000,132699.8437500000,154418.2500000000,,,
2.3279999963,18,175404.1093750000,212550.1562500000,165181.1250000000,164443.3593750000,131658.2031250000,119801.6562500000,133278.2812500000,153478.7812500000,,,
2.3319999962,18,175740.4843750000,198952.7187500000,165722.4218750000,165230.9687500000,132408.4531250000,120528.4609375000,134096.8125000000,150185.3593750000,,,
2.3359999962,18,175715.6718750000,184792.0468750000,165674.8125000000,165228.7343750000,132371.2656250000,120505.9843750000,134083.3281250000,148602.0156250000,,,
2.3399999961,18,175335.2812500000,192064.3750000000,165019.7343750000,164301.1562500000,131453.1562500000,119635.0390625000,133105.8281250000,151570.1562500000,,,
2.3439999961,18,175166.7031250000,209107.7500000000,164771.4531250000,163905.1562500000,131104.4062500000,119288.6093750000,132702.2812500000,154404.0312500000,,,
2.3479999963,18,175399.2187500000,212438.6875000000,165169.0625000000,164442.5312500000,131644.6093750000,119795.7031250000,133266.9375000000,153474.5156250000,,,
2.3519999962,18,175739.9687500000,198895.7968750000,165716.7968750000,165242.0468750000,132401.4687500000,120522.4765625000,134087.4531250000,150188.6250000000,,,
2.3559999962,18,175716.7656250000,184717.5312500000,165675.3281250000,165245.4531250000,132370.8906250000,120503.3828125000,134079.0000000000,148601.2187500000,,,
2.3599999961,18,175327.2031250000,191919.2500000000,165014.7500000000,164299.6250000000,131448.7812500000,119629.7812500000,133101.3437500000,151549.3437500000,,,
2.3639999961,18,175164.3437500000,209022.6250000000,164773.9218750000,163893.1875000000,131107.6093750000,119285.8750000000,132708.0468750000,154403.8750000000,,,
2.3679999961,18,175407.8593750000,212405.2343750000,165183.7656250000,164442.7187500000,131660.6718750000,119801.0937500000,133283.4062500000,153489.0312500000,,,
2.3719999962,18,175752.6093750000,198871.0468750000,165731.0156250000,165245.0000000000,132414.4531250000,120528.5156250000,134102.6718750000,150206.6250000000,,,
2.3759999962,18,175732.0781250000,184757.9843750000,165689.1718750000,165257.8750000000,132382.0312500000,120514.0312500000,134096.7656250000,148626.7812500000,,,
2.3799999962,18,175347.7968750000,191878.8750000000,165033.8437500000,164328.8593750000,131466.4843750000,119647.3828125000,133124.5156250000,151557.3281250000,,,
2.3839999961,18,175170.3437500000,209011.2812500000,164776.9531250000,163906.2187500000,131107.8437500000,119288.3906250000,132710.1406250000,154414.9062500000,,,
2.3879999961,18,175406.7500000000,212442.9218750000,165178.9062500000,164440.1718750000,131653.4062500000,119798.1718750000,133280.7031250000,153502.1406250000,,,
2.3919999963,18,175745.0156250000,198925.8750000000,165719.9375000000,165232.7812500000,132401.7343750000,120517.5937500000,134095.2343750000,150213.7343750000,,,
2.3959999962,18,175720.4375000000,184817.0468750000,165676.7500000000,165242.0937500000,132368.2656250000,120498.4140625000,134084.0781250000,148623.2031250000,,,
2.3999999962,18,175341.4218750000,191838.4062500000,165030.1406250000,164319.9218750000,131461.8125000000,119639.0078125000,133119.0781250000,151535.5156250000,,,
2.4039999961,18,175179.9843750000,208979.5625000000,164788.1093750000,163914.7968750000,131116.7187500000,119288.2578125000,132715.0781250000,154413.9843750000,,,
2.4079999961,18,175418.6406250000,212502.5468750000,165189.1718750000,164456.3906250000,131661.6718750000,119795.3828125000,133281.1562500000,153524.2812500000,,,
2.4119999961,18,175763.3281250000,199065.1093750000,165734.6875000000,165255.6718750000,132417.0625000000,120522.0234375000,134099.6875000000,150248.8750000000,,,
2.4159999962,18,175745.0937500000,184929.1093750000,165701.3906250000,165271.5781250000,132396.2187500000,120512.7656250000,134100.1718750000,148645.9062500000,,,
2.4199999962,18,175361.8906250000,191820.8593750000,165054.7968750000,164342.5625000000,131489.7656250000,119655.1328125000,133137.7343750000,151534.0000000000,,,
2.4239999962,18,175182.5000000000,208963.6875000000,164793.9843750000,163912.0937500000,131122.6718750000,119293.7812500000,132717.2812500000,154413.4218750000,,,
2.4279999961,18,175412.1718750000,212594.2500000000,165181.6718750000,164441.4531250000,131650.9687500000,119791.4687500000,133270.6718750000,153539.1406250000,,,
2.4319999961,19,175754.0000000000,199264.6875000000,165721.1875000000,165238.1562500000,132398.7968750000,120514.2421875000,134083.0625000000,150267.9062500000,,,
2.4359999960,19,175738.4687500000,185041.8437500000,165690.1250000000,165258.3750000000,132382.2656250000,120513.1718750000,134088.6406250000,148637.1562500000,,,
2.4399999960,19,175350.1406250000,191799.5937500000,165039.3750000000,164334.0937500000,131472.8125000000,119650.6484375000,133124.7812500000,151503.2031250000,,,
2.4439999959,19,175166.9218750000,208949.9375000000,164772.8437500000,163906.5937500000,131099.5781250000,119277.3437500000,132696.6562500000,154394.6718750000,,,
2.4479999959,19,175397.5781250000,212697.0625000000,165160.9531250000,164424.0156250000,131627.3125000000,119771.4296875000,133242.7968750000,153546.4531250000,,,
2.4519999959,19,175748.3437500000,199487.4531250000,165713.6250000000,165225.4062500000,132389.5625000000,120505.5781250000,134066.2968750000,150293.5468750000,,,
2.4559999960,19,175735.3593750000,185143.2031250000,165687.5625000000,165262.6093750000,132383.3437500000,120511.6406250000,134082.5468750000,148627.8750000000,,,
2.4599999960,19,175355.2343750000,191767.5937500000,165045.0937500000,164364.2968750000,131479.2187500000,119651.5078125000,133121.4375000000,151479.5781250000,,,
2.4639999960,19,175177.4531250000,208933.6718750000,164783.0312500000,163934.0937500000,131105.7031250000,119277.8515625000,132697.1250000000,154392.2031250000,,,
2.4679999959,19,175403.0625000000,212777.0625000000,165167.3750000000,164436.8437500000,131627.7968750000,119768.1875000000,133247.5468750000,153563.4687500000,,,
2.4719999959,19,175747.5781250000,199617.4843750000,165711.0312500000,165236.3281250000,132381.3281250000,120493.9687500000,134065.7812500000,150304.5781250000,,,
2.4759999961,19,175736.3750000000,185204.8750000000,165687.5625000000,165272.4843750000,132375.9375000000,120498.7109375000,134082.2031250000,148611.2187500000,,,
2.4799999960,19,175356.2187500000,191702.0156250000,165046.2187500000,164353.4843750000,131474.0937500000,119645.3125000000,133123.5000000000,151447.9218750000,,,
2.4839999960,19,175173.0625000000,208893.3593750000,164776.0312500000,163915.0156250000,131093.6562500000,119269.4843750000,132687.8593750000,154379.5468750000,,,
2.4879999959,19,175404.2656250000,212804.2343750000,165163.2343750000,164440.4375000000,131621.4843750000,119765.3125000000,133236.5312500000,153568.9843750000,,,
2.4919999959,19,175751.6562500000,199682.0625000000,165710.9531250000,165242.3593750000,132380.7343750000,120497.4218750000,134060.0468750000,150312.6562500000,,,
2.4959999959,19,175737.3906250000,185251.1093750000,165686.6250000000,165268.1718750000,132379.5000000000,120507.6718750000,134083.3281250000,148608.7812500000,,,
2.4999999960,19,175353.6250000000,191635.6562500000,165043.0781250000,164350.4218750000,131479.0625000000,119651.7265625000,133127.4062500000,151422.4218750000,,,
2.5039999960,19,175173.5937500000,208823.0312500000,164776.1093750000,163916.1250000000,131100.3906250000,119272.7031250000,132693.1875000000,154367.6093750000,,,
2.5079999960,19,175402.0312500000,212800.5625000000,165162.7812500000,164433.0000000000,131625.8281250000,119759.9765625000,133236.3593750000,153572.8750000000,,,
2.5119999959,19,175750.1562500000,199730.5625000000,165712.2812500000,165236.3593750000,132385.8125000000,120490.5078125000,134056.2656250000,150323.4375000000,,,
2.5159999959,19,175743.3281250000,185273.1093750000,165694.8593750000,165280.3906250000,132390.2656250000,120512.2343750000,134083.0625000000,148613.4687500000,,,
2.5199999961,19,175355.0156250000,191542.7343750000,165046.1093750000,164350.6093750000,131481.7500000000,119656.0156250000,133122.0156250000,151407.5312500000,,,
2.5239999960,19,175168.0625000000,208764.4843750000,164770.5625000000,163908.5312500000,131088.9375000000,119262.9375000000,132672.9062500000,154363.9687500000,,,
2.5279999960,19,175397.4843750000,212831.6562500000,165157.3437500000,164425.7187500000,131613.7031250000,119754.8046875000,133218.7187500000,153579.5781250000,,,
2.5319999959,19,175747.1093750000,199804.0312500000,165707.1093750000,165230.9062500000,132377.0625000000,120492.3828125000,134045.9062500000,150327.0000000000,,,
2.5359999959,19,175749.1875000000,185300.0937500000,165700.3437500000,165297.2656250000,132394.9062500000,120522.5000000000,134089.2500000000,148606.2812500000,,,
2.5399999958,19,175369.9062500000,191455.9218750000,165063.1093750000,164383.5156250000,131500.5781250000,119676.4296875000,133141.6562500000,151393.1250000000,,,
2.5439999960,19,175174.1875000000,208702.0625000000,164781.6875000000,163925.0312500000,131103.3437500000,119281.0937500000,132689.2500000000,154368.3125000000,,,
2.5479999960,19,175397.1250000000,212880.6093750000,165162.5156250000,164419.2968750000,131623.0937500000,119768.1093750000,133232.2656250000,153610.9062500000,,,
2.5519999960,19,175738.3281250000,199970.2500000000,165705.5000000000,165208.1718750000,132378.4843750000,120493.2421875000,134052.0312500000,150361.2031250000,,,
2.5559999959,19,175734.3125000000,185355.5625000000,165693.1875000000,165272.3750000000,132392.0625000000,120522.4218750000,134091.9062500000,148595.1562500000,,,
2.5599999959,20,175358.9843750000,191382.4062500000,165054.8750000000,164354.6406250000,131495.8281250000,119678.5234375000,133141.8125000000,151365.4687500000,,,
2.5639999958,20,175166.7343750000,208643.8437500000,164771.9062500000,163892.6250000000,131094.8906250000,119278.2031250000,132683.2656250000,154360.1562500000,,,
2.5679999958,20,175384.0468750000,212932.7500000000,165143.2500000000,164398.6250000000,131604.0468750000,119751.6406250000,133212.3906250000,153616.5156250000,,,
2.5719999957,20,175729.0468750000,200098.6875000000,165690.2187500000,165206.5625000000,132367.0312500000,120483.9843750000,134040.0312500000,150368.6875000000,,,
2.5759999957,20,175728.1406250000,185379.3125000000,165688.2343750000,165282.6718750000,132395.4843750000,120519.6093750000,134095.7968750000,148575.2812500000,,,
2.5799999957,20,175349.4062500000,191264.5625000000,165051.5312500000,164375.3593750000,131499.2656250000,119672.0000000000,133145.4062500000,151326.3437500000,,,
2.5839999958,20,175162.1718750000,208551.6250000000,164773.2500000000,163905.2343750000,131097.7031250000,119271.0390625000,132686.7031250000,154344.7656250000,,,
2.5879999958,20,175382.7031250000,212917.3437500000,165144.7656250000,164399.4218750000,131605.5468750000,119744.2890625000,133214.8750000000,153620.1562500000,,,
2.5919999958,20,175726.3125000000,200125.7656250000,165687.1562500000,165202.5937500000,132364.0625000000,120474.4687500000,134034.1093750000,150376.4843750000,,,
2.5959999957,20,175728.3281250000,185378.7031250000,165686.4531250000,165273.3906250000,132394.3125000000,120513.4375000000,134090.1406250000,148571.9531250000,,,
2.5999999957,20,175353.8906250000,191158.1875000000,165057.1093750000,164372.2812500000,131504.2187500000,119669.9609375000,133147.6406250000,151308.0937500000,,,
2.6039999959,20,175173.1562500000,208458.0937500000,164781.8750000000,163911.6093750000,131104.2812500000,119268.5468750000,132687.9375000000,154345.2968750000,,,
2.6079999958,20,175393.9843750000,212898.6562500000,165156.0000000000,164410.6718750000,131613.0156250000,119738.1953125000,133214.2343750000,153634.5937500000,,,
2.6119999958,20,175738.5781250000,200152.0468750000,165703.4062500000,165216.2968750000,132374.9218750000,120472.4531250000,134041.1093750000,150391.7812500000,,,
2.6159999957,20,175741.5468750000,185372.1093750000,165704.8593750000,165285.2812500000,132406.3281250000,120515.6406250000,134099.2812500000,148570.8437500000,,,
2.6199999957,20,175367.6562500000,191042.5156250000,165073.0625000000,164376.6875000000,131517.0937500000,119675.6484375000,133158.0468750000,151287.5781250000,,,
2.6239999956,20,175178.6875000000,208372.1093750000,164785.7187500000,163912.4687500000,131105.5312500000,119268.3046875000,132689.5156250000,154337.8750000000,,,
2.6279999958,20,175393.9062500000,212916.3281250000,165149.2968750000,164400.5000000000,131602.3125000000,119734.5000000000,133204.9843750000,153645.8281250000,,,
2.6319999958,20,175743.4218750000,200224.8125000000,165699.5156250000,165206.0781250000,132366.7656250000,120474.2500000000,134034.3281250000,150409.3906250000,,,
2.6359999957,20,175747.2343750000,185405.2031250000,165704.7187500000,165281.6562500000,132405.6250000000,120529.1562500000,134103.3906250000,148578.8750000000,,,
2.6399999957,20,175362.7187500000,190950.4062500000,165065.5000000000,164371.6718750000,131510.8750000000,119690.2421875000,133158.7343750000,151270.9531250000,,,
2.6439999957,20,175156.6093750000,208302.1562500000,164762.6250000000,163891.7968750000,131082.3281250000,119270.8515625000,132676.0468750000,154325.6406250000,,,
2.6479999959,20,175373.3906250000,212936.3906250000,165131.7968750000,164388.4062500000,131585.2812500000,119737.0703125000,133197.9218750000,153649.7187500000,,,
2.6519999958,20,175725.5937500000,200315.7968750000,165685.9218750000,165200.5156250000,132357.2187500000,120475.8906250000,134030.8906250000,150419.4062500000,,,
2.6559999958,20,175736.7812500000,185429.0156250000,165696.6718750000,165278.6250000000,132404.9375000000,120528.8593750000,134103.0468750000,148566.6718750000,,,
2.6599999957,20,175366.9062500000,190858.9687500000,165067.5625000000,164378.1875000000,131520.3437500000,119688.9296875000,133161.7187500000,151247.4843750000,,,
2.6639999957,20,175174.6875000000,208231.2031250000,164773.6250000000,163897.0156250000,131099.2343750000,119268.7578125000,132680.0000000000,154329.2343750000,,,
2.6679999956,20,175385.6562500000,212973.2656250000,165136.6250000000,164372.2031250000,131595.0937500000,119725.8046875000,133193.7968750000,153678.5625000000,,,
2.6719999958,20,175727.6093750000,200440.7343750000,165687.0156250000,165179.4062500000,132360.8437500000,120460.5468750000,134022.6562500000,150450.4375000000,,,
2.6759999958,20,175739.2187500000,185481.5156250000,165705.9843750000,165274.8437500000,132415.6875000000,120528.5156250000,134107.0625000000,148575.2968750000,,,
2.6799999957,20,175375.6093750000,190788.2656250000,165085.5156250000,164387.9531250000,131539.8593750000,119705.3437500000,133180.7812500000,151245.1718750000,,,
2.6839999957,20,175183.2187500000,208186.4062500000,164789.6093750000,163902.1718750000,131113.0781250000,119286.5390625000,132693.0312500000,154345.9687500000,,,
2.6879999957,21,175400.0781250000,213033.0312500000,165154.8750000000,164384.9375000000,131607.1875000000,119749.6484375000,133204.6562500000,153716.7031250000,,,
2.6919999956,21,175749.2500000000,200580.0781250000,165705.5781250000,165200.9218750000,132372.8750000000,120489.0000000000,134032.9218750000,150496.2968750000,,,
2.6959999956,21,175758.2656250000,185545.4843750000,165719.5312500000,165293.1718750000,132424.7031250000,120549.5390625000,134110.5000000000,148589.9531250000,,,
2.6999999955,21,175383.1875000000,190727.2656250000,165087.8125000000,164399.0468750000,131539.8125000000,119705.9609375000,133171.3281250000,151226.1562500000,,,
2.7039999955,21,175170.3437500000,208130.8906250000,164772.7968750000,163888.7031250000,131095.5000000000,119260.2265625000,132669.9375000000,154320.8437500000,,,
2.7079999954,21,175370.2500000000,213046.7968750000,165122.2031250000,164362.3906250000,131576.7500000000,119707.6484375000,133169.5468750000,153693.4375000000,,,
2.7119999956,21,175714.1875000000,200638.6250000000,165670.9843750000,165179.0625000000,132341.0156250000,120445.5546875000,133998.0781250000,150470.7187500000,,,
2.7159999956,21,175731.2812500000,185567.6875000000,165696.0000000000,165291.0937500000,132405.9062500000,120521.8359375000,134094.1406250000,148555.1093750000,,,
2.7199999955,21,175364.1406250000,190629.3437500000,165073.7343750000,164405.8437500000,131528.5937500000,119694.7187500000,133166.0937500000,151182.0937500000,,,
2.7239999955,21,175162.1875000000,208056.0000000000,164768.6875000000,163916.4687500000,131089.0468750000,119261.1718750000,132667.7343750000,154305.7656250000,,,
2.7279999955,21,175371.6406250000,213064.6250000000,165126.3593750000,164393.7656250000,131576.2968750000,119716.1484375000,133173.2031250000,153706.9843750000,,,
2.7319999957,21,175723.0468750000,200730.7500000000,165684.1718750000,165204.8593750000,132350.4062500000,120463.3046875000,134013.6093750000,150497.0312500000,,,
2.7359999956,21,175739.9218750000,185615.4375000000,165711.6718750000,165302.6562500000,132418.7187500000,120541.8125000000,134112.2343750000,148561.4687500000,,,
2.7399999956,21,175367.9687500000,190555.0781250000,165084.1718750000,164404.7031250000,131539.5781250000,119710.1953125000,133184.0625000000,151158.6718750000,,,
2.7439999955,21,175163.7187500000,207989.3593750000,164774.3125000000,163900.9843750000,131095.0156250000,119271.8203125000,132679.8906250000,154297.1562500000,,,
2.7479999955,21,175366.5781250000,213092.2343750000,165122.9218750000,164373.8593750000,131574.0156250000,119721.4375000000,133176.5000000000,153722.7031250000,,,
2.7519999954,21,175710.6562500000,200818.3906250000,165672.2968750000,165179.5156250000,132341.5781250000,120464.5703125000,134008.8437500000,150519.7656250000,,,
2.7559999956,21,175725.7187500000,185666.7187500000,165696.5937500000,165285.1250000000,132410.1562500000,120542.9921875000,134107.6875000000,148570.7187500000,,,
2.7599999956,21,175355.9062500000,190471.5156250000,165071.7187500000,164398.7812500000,131534.5781250000,119711.2968750000,133183.2500000000,151143.5156250000,,,
2.7639999955,21,175151.4375000000,207917.9843750000,164758.9687500000,163890.8750000000,131084.1562500000,119264.6250000000,132673.3906250000,154290.6093750000,,,
2.7679999955,21,175365.0468750000,213120.8281250000,165119.1718750000,164369.1406250000,131568.7343750000,119715.4531250000,133176.0625000000,153735.7187500000,,,
2.7719999955,21,175719.6406250000,200942.5937500000,165678.6718750000,165182.2343750000,132343.8125000000,120462.5546875000,134016.2968750000,150543.7968750000,,,
2.7759999956,21,175745.5468750000,185708.6093750000,165716.1250000000,165292.0937500000,132427.6718750000,120553.7500000000,134131.6250000000,148572.0312500000,,,
2.7799999956,21,175377.3125000000,190383.2968750000,165094.2812500000,164404.5781250000,131557.4375000000,119729.0781250000,133211.9531250000,151127.5000000000,,,
2.7839999956,21,175165.4687500000,207839.4218750000,164772.1718750000,163884.2500000000,131099.9062500000,119273.5859375000,132694.6718750000,154284.1250000000,,,
2.7879999955,21,175378.0781250000,213137.4843750000,165127.6250000000,164351.7968750000,131583.5937500000,119720.6562500000,133190.2343750000,153751.8593750000,,,
2.7919999955,21,175747.4218750000,201025.5781250000,165700.4531250000,165183.4375000000,132372.1562500000,120475.3515625000,134036.7968750000,150578.9062500000,,,
2.7959999954,21,175779.1093750000,185762.1718750000,165745.3906250000,165310.5000000000,132460.4531250000,120570.5703125000,134152.9218750000,148598.1562500000,,,
2.7999999956,21,175409.6875000000,190317.4531250000,165120.4062500000,164420.7500000000,131586.8125000000,119744.9296875000,133229.4375000000,151130.2343750000,,,
2.8039999956,21,175192.6406250000,207787.0937500000,164788.9375000000,163891.2031250000,131117.5000000000,119284.7968750000,132702.0937500000,154303.1093750000,,,
2.8079999955,21,175401.4531250000,213175.4062500000,165141.2500000000,164359.3750000000,131595.4375000000,119729.8046875000,133198.2500000000,153788.2031250000,,,
2.8119999955,21,175761.3437500000,201129.2031250000,165706.0937500000,165185.1562500000,132375.2343750000,120481.7109375000,134040.1093750000,150614.0000000000,,,
2.8159999955,22,175785.2656250000,185841.3906250000,165745.1406250000,165303.8437500000,132459.3750000000,120575.2109375000,134154.5312500000,148613.6875000000,,,
2.8199999954,22,175410.5625000000,190263.8125000000,165120.1875000000,164417.5000000000,131586.2656250000,119751.2890625000,133236.6093750000,151115.2812500000,,,
2.8239999954,22,175192.7968750000,207727.5468750000,164790.6250000000,163895.7031250000,131117.3125000000,119291.9843750000,132709.2343750000,154297.2812500000,,,
2.8279999953,22,175393.6093750000,213198.6562500000,165136.5312500000,164353.4218750000,131587.9531250000,119725.7500000000,133192.2656250000,153798.5312500000,,,
2.8319999953,22,175747.0468750000,201228.8437500000,165700.3750000000,165174.0468750000,132366.0468750000,120468.7500000000,134031.7500000000,150625.7187500000,,,
2.8359999952,22,175779.5625000000,185887.8906250000,165750.8593750000,165313.2500000000,132463.8281250000,120571.4531250000,134159.2656250000,148608.2187500000,,,
2.8399999954,22,175413.4687500000,190181.7031250000,165131.0468750000,164440.5156250000,131597.5937500000,119751.6093750000,133242.5312500000,151089.2500000000,,,
2.8439999954,22,175194.5156250000,207643.7968750000,164797.0625000000,163902.9531250000,131121.6562500000,119284.9296875000,132706.0312500000,154281.7343750000,,,
2.8479999953,22,175385.5937500000,213194.6093750000,165130.7343750000,164344.0312500000,131579.6406250000,119715.9609375000,133179.8750000000,153800.0625000000,,,
2.8519999953,22,175736.4531250000,201290.2343750000,165687.2812500000,165158.1406250000,132351.3750000000,120464.9453125000,134016.8125000000,150640.6093750000,,,
2.8559999953,22,175763.1406250000,185923.6718750000,165728.5625000000,165299.6250000000,132441.6250000000,120572.7187500000,134139.6718750000,148607.5156250000,,,
2.8599999954,22,175394.5312500000,190085.5312500000,165105.2500000000,164427.8593750000,131573.8750000000,119758.4218750000,133223.5468750000,151060.8750000000,,,
2.8639999954,22,175168.9531250000,207553.2187500000,164763.9687500000,163885.6250000000,131090.2500000000,119285.2031250000,132679.3281250000,154258.2656250000,,,
2.8679999954,22,175365.6875000000,213195.6250000000,165103.8281250000,164339.1562500000,131553.4375000000,119713.7343750000,133155.6250000000,153795.4531250000,,,
2.8719999953,22,175721.6250000000,201370.5781250000,165667.4375000000,165158.9531250000,132331.7031250000,120458.7187500000,133994.5937500000,150641.6718750000,,,
2.8759999953,22,175754.4843750000,185957.4375000000,165723.3593750000,165298.2343750000,132437.0625000000,120565.7109375000,134132.0312500000,148585.7968750000,,,
2.8799999952,22,175383.9062500000,189982.0781250000,165105.2812500000,164424.7968750000,131576.0156250000,119746.0078125000,133226.8906250000,151009.2968750000,,,
2.8839999954,22,175159.3437500000,207439.8281250000,164761.3593750000,163883.9062500000,131090.1093750000,119267.9843750000,132683.0468750000,154218.6250000000,,,
2.8879999954,22,175353.5468750000,213176.2656250000,165097.3125000000,164330.5468750000,131549.3281250000,119693.7031250000,133157.7187500000,153780.3750000000,,,
2.8919999953,22,175704.3750000000,201444.5781250000,165654.9687500000,165133.1406250000,132323.3593750000,120437.5078125000,133994.7343750000,150638.0781250000,,,
2.8959999953,22,175746.7031250000,185975.8437500000,165717.8906250000,165279.3593750000,132438.1406250000,120556.4843750000,134139.9687500000,148571.5937500000,,,
2.8999999953,22,175384.5468750000,189876.4218750000,165107.9062500000,164417.7187500000,131583.3437500000,119746.9140625000,133237.5156250000,150980.7656250000,,,
2.9039999954,22,175158.8125000000,207345.5468750000,164764.3125000000,163874.2187500000,131093.5937500000,119264.0625000000,132686.3750000000,154203.4687500000,,,
2.9079999954,22,175352.7187500000,213186.2187500000,165096.6406250000,164319.6093750000,131546.9218750000,119684.2343750000,133150.4843750000,153790.0312500000,,,
2.9119999954,22,175703.9687500000,201543.1718750000,165653.2031250000,165142.0468750000,132317.0156250000,120429.3203125000,133982.6093750000,150663.7031250000,,,
2.9159999953,22,175745.7031250000,186039.3281250000,165714.4375000000,165300.0312500000,132430.5468750000,120552.2265625000,134129.2656250000,148581.2812500000,,,
2.9199999953,22,175387.8281250000,189819.2031250000,165103.7812500000,164424.5625000000,131576.6718750000,119748.2812500000,133230.8593750000,150972.6406250000,,,
2.9239999952,22,175162.0937500000,207289.1562500000,164754.2812500000,163870.9843750000,131081.9062500000,119265.9453125000,132676.2656250000,154210.6718750000,,,
2.9279999954,22,175353.8906250000,213222.0781250000,165085.4062500000,164317.1406250000,131533.2968750000,119682.0312500000,133138.2500000000,153815.6718750000,,,
2.9319999954,22,175710.8125000000,201654.1562500000,165652.1250000000,165139.6562500000,132313.5468750000,120429.9375000000,133978.3125000000,150698.5625000000,,,
2.9359999953,22,175747.8281250000,186105.6562500000,165716.5312500000,165291.9843750000,132433.4218750000,120553.8046875000,134131.5781250000,148594.5000000000,,,
2.9399999953,22,175393.0781250000,189757.2500000000,165116.5625000000,164441.4062500000,131592.4843750000,119753.1640625000,133244.5156250000,150958.3437500000,,,
2.9439999952,23,175172.2500000000,207229.6406250000,164772.6562500000,163900.4218750000,131101.5468750000,119265.4609375000,132691.6562500000,154208.5000000000,,,
