Time:250Hz,Epoch,Channel 1,Channel 2,Channel 3,Channel 4,Channel 5,Channel 6,Channel 7,Channel 8,Event Id,Event Date,Event Duration
0.0000000000,0,146340.5625000000,196253.7500000000,178766.2500000000,148999.8437500000,119637.2421875000,151711.6875000000,134025.0156250000,144273.6093750000,,,
0.0040000000,0,146686.6250000000,194404.6250000000,180297.5468750000,149479.1562500000,119957.8750000000,152030.4375000000,134330.9218750000,144537.5312500000,,,
0.0079999999,0,146688.2812500000,192719.8750000000,180966.0156250000,149478.9687500000,119956.7968750000,152036.9375000000,134332.1875000000,144564.0000000000,,,
0.0119999999,0,146335.3906250000,193502.0156250000,179717.0156250000,148975.9218750000,119627.6093750000,151717.5937500000,134018.2343750000,144305.5000000000,,,
0.0159999998,0,146126.9843750000,195725.1406250000,178366.8750000000,148689.2500000000,119429.9062500000,151520.4531250000,133825.9687500000,144131.8750000000,,,
0.0199999998,0,146347.0312500000,196355.3281250000,178798.2968750000,149005.1250000000,119634.2656250000,151718.5000000000,134019.2812500000,144279.4687500000,,,
0.0240000000,0,146700.1406250000,194422.7968750000,180304.5000000000,149489.8750000000,119970.8828125000,152052.1093750000,134344.2500000000,144553.0625000000,,,
0.0279999999,0,146706.4687500000,192632.9531250000,180966.5468750000,149494.5156250000,119982.2812500000,152060.6406250000,134358.9687500000,144587.5312500000,,,
0.0319999999,0,146344.6093750000,193438.7343750000,179739.1093750000,148987.1093750000,119647.0546875000,151735.9843750000,134039.0937500000,144326.2343750000,,,
0.0359999998,0,146130.2343750000,195785.9375000000,178411.0156250000,148699.3750000000,119443.3203125000,151531.6093750000,133842.2812500000,144152.1718750000,,,
0.0399999998,0,146348.6875000000,196470.6093750000,178824.0781250000,149005.7968750000,119646.2265625000,151726.5156250000,134032.2343750000,144296.6718750000,,,
0.0440000000,0,146710.7968750000,194454.6562500000,180302.4843750000,149495.4062500000,119990.7578125000,152066.0625000000,134363.3750000000,144568.6406250000,,,
0.0480000000,0,146719.2187500000,192568.7968750000,180963.2500000000,149505.1250000000,120000.3828125000,152078.4062500000,134378.2656250000,144599.8125000000,,,
0.0519999999,0,146344.9062500000,193390.5937500000,179753.8750000000,148990.9062500000,119648.9609375000,151736.2343750000,134043.1250000000,144327.7500000000,,,
0.0559999999,0,146108.9062500000,195830.6875000000,178424.6250000000,148681.8593750000,119423.6562500000,151514.8125000000,133828.1406250000,144134.2656250000,,,
0.0599999998,0,146328.2343750000,196554.5312500000,178824.0000000000,148991.9843750000,119627.5859375000,151711.8750000000,134021.1250000000,144274.5937500000,,,
0.0639999998,0,146700.4843750000,194471.7968750000,180280.1250000000,149493.8750000000,119982.9531250000,152059.5000000000,134360.4843750000,144553.2031250000,,,
0.0680000000,0,146713.3437500000,192493.0468750000,180935.2968750000,149512.4687500000,119999.2031250000,152083.6250000000,134381.1875000000,144593.8593750000,,,
0.0719999999,0,146339.0156250000,193323.4843750000,179751.4531250000,149001.2343750000,119649.1484375000,151742.5156250000,134051.0312500000,144327.7500000000,,,
0.0759999999,0,146106.7656250000,195851.9062500000,178440.7187500000,148691.4218750000,119426.9296875000,151520.1250000000,133838.8906250000,144137.8593750000,,,
0.0799999998,0,146330.0000000000,196626.1406250000,178835.4218750000,148995.9531250000,119634.1796875000,151715.0468750000,134031.5000000000,144276.6093750000,,,
0.0839999998,0,146708.1875000000,194504.3593750000,180280.7812500000,149491.4062500000,119993.0625000000,152055.8750000000,134370.8281250000,144551.4843750000,,,
0.0880000000,0,146733.1406250000,192471.5312500000,180943.4062500000,149514.7187500000,120016.9375000000,152077.5781250000,134395.5625000000,144597.9843750000,,,
0.0919999999,0,146358.7187500000,193297.7343750000,179769.4218750000,149001.2656250000,119661.7812500000,151734.0937500000,134058.2500000000,144331.5625000000,,,
0.0959999999,0,146123.2500000000,195872.3437500000,178457.9531250000,148694.3593750000,119433.3359375000,151517.5468750000,133838.6875000000,144144.1562500000,,,
0.0999999999,0,146338.5468750000,196679.7656250000,178837.9218750000,149000.7031250000,119632.8671875000,151714.3125000000,134024.0781250000,144281.3593750000,,,
0.1039999998,0,146720.5781250000,194533.6718750000,180272.6875000000,149507.7656250000,119996.5781250000,152069.3437500000,134367.2968750000,144562.7968750000,,,
0.1079999998,0,146743.9687500000,192438.5468750000,180933.7968750000,149526.3125000000,120021.3359375000,152098.7343750000,134392.8281250000,144609.7968750000,,,
0.1120000000,0,146358.6718750000,193251.6562500000,179769.1093750000,149006.0156250000,119658.9921875000,151746.6406250000,134049.2656250000,144336.4218750000,,,
0.1159999999,0,146111.0468750000,195871.3906250000,178459.5468750000,148690.4531250000,119421.0781250000,151514.8906250000,133824.2187500000,144138.8750000000,,,
0.1199999999,0,146326.8281250000,196716.5312500000,178834.5468750000,148996.8593750000,119624.8750000000,151711.7656250000,134018.7656250000,144273.6875000000,,,
0.1239999998,0,146707.1718750000,194532.8906250000,180258.2031250000,149499.4531250000,119989.8203125000,152067.3281250000,134370.4531250000,144553.4062500000,,,
0.1279999998,1,146724.6093750000,192386.8125000000,180916.0468750000,149519.5156250000,120007.9453125000,152089.1250000000,134396.5781250000,144593.9843750000,,,
0.1319999998,1,146345.2812500000,193188.0937500000,179763.1250000000,148994.8593750000,119651.8046875000,151747.7656250000,134063.0000000000,144326.8437500000,,,
0.1359999997,1,146107.0468750000,195846.7187500000,178463.1093750000,148679.7812500000,119423.7343750000,151523.5000000000,133845.2500000000,144137.6718750000,,,
0.1399999997,1,146322.1875000000,196738.7500000000,178833.2031250000,148976.4218750000,119626.1328125000,151717.2968750000,134033.7031250000,144272.7968750000,,,
0.1439999996,1,146706.5000000000,194564.1718750000,180247.7500000000,149487.9843750000,119992.6328125000,152076.9062500000,134381.0781250000,144554.0000000000,,,
0.1479999996,1,146735.4218750000,192383.7187500000,180914.9218750000,149511.7500000000,120023.6406250000,152111.7968750000,134414.8437500000,144605.3437500000,,,
0.1519999998,1,146353.7656250000,193163.0625000000,179769.2031250000,148993.0625000000,119662.4765625000,151762.4687500000,134070.8750000000,144337.9218750000,,,
0.1559999997,1,146099.6250000000,195842.0312500000,178458.8125000000,148663.0937500000,119416.6328125000,151519.7812500000,133833.5781250000,144132.9687500000,,,
0.1599999997,1,146316.8750000000,196760.5468750000,178821.5000000000,148957.6250000000,119620.0781250000,151716.6718750000,134023.2656250000,144267.6406250000,,,
0.1639999996,1,146708.3437500000,194583.8593750000,180237.1406250000,149474.4062500000,119994.6171875000,152083.3125000000,134378.9062500000,144555.6093750000,,,
0.1679999996,1,146731.5468750000,192378.0937500000,180913.4062500000,149511.8281250000,120018.3281250000,152110.5937500000,134407.3906250000,144599.4375000000,,,
0.1719999998,1,146350.8125000000,193137.2343750000,179777.9062500000,149002.4375000000,119659.1015625000,151758.8906250000,134067.2343750000,144327.9218750000,,,
0.1759999997,1,146106.8125000000,195824.0312500000,178469.2812500000,148681.6250000000,119422.9843750000,151528.4218750000,133841.3437500000,144134.7187500000,,,
0.1799999997,1,146322.6562500000,196766.9062500000,178823.5781250000,148967.8437500000,119620.9296875000,151718.6718750000,134026.9531250000,144269.5000000000,,,
0.1839999997,1,146719.3750000000,194607.3281250000,180238.8906250000,149484.5781250000,119996.0390625000,152076.8750000000,134384.1093750000,144559.7656250000,,,
0.1879999996,1,146747.8281250000,192374.5156250000,180915.9375000000,149522.1562500000,120021.9218750000,152108.6093750000,134412.9218750000,144608.3437500000,,,
0.1919999996,1,146368.8437500000,193105.6718750000,179784.3125000000,149006.7343750000,119664.9218750000,151766.5625000000,134074.9375000000,144345.1093750000,,,
0.1959999998,1,146110.7812500000,195790.4531250000,178466.1406250000,148670.4062500000,119419.2343750000,151527.6406250000,133840.6093750000,144142.5468750000,,,
0.1999999997,1,146320.9375000000,196759.6093750000,178815.6562500000,148958.5156250000,119615.6718750000,151714.5000000000,134024.9843750000,144270.7031250000,,,
0.2039999997,1,146725.8125000000,194627.7656250000,180244.0937500000,149493.5781250000,120004.4062500000,152089.2343750000,134394.4843750000,144567.7812500000,,,
0.2079999996,1,146775.6718750000,192401.3437500000,180947.5781250000,149567.3437500000,120057.0312500000,152141.9687500000,134446.9218750000,144633.8750000000,,,
0.2119999996,1,146394.5000000000,193120.1562500000,179830.1562500000,149059.7968750000,119699.4140625000,151794.4843750000,134103.1250000000,144365.6093750000,,,
0.2159999998,1,146118.0000000000,195820.7656250000,178510.3750000000,148696.8281250000,119434.8437500000,151531.0156250000,133849.9218750000,144145.7187500000,,,
0.2199999997,1,146322.5625000000,196809.0781250000,178844.6718750000,148972.7031250000,119628.9296875000,151714.3750000000,134038.5312500000,144270.3281250000,,,
0.2239999997,1,146722.0625000000,194649.9687500000,180249.6250000000,149484.3906250000,120012.6171875000,152086.0468750000,134407.7656250000,144563.5156250000,,,
0.2279999997,1,146760.6250000000,192393.8125000000,180949.0937500000,149530.7343750000,120049.6015625000,152127.7031250000,134444.1562500000,144620.3906250000,,,
0.2319999996,1,146382.8593750000,193092.9531250000,179835.7343750000,149025.5625000000,119690.8046875000,151792.7187500000,134103.3281250000,144358.6250000000,,,
0.2359999996,1,146116.6093750000,195793.0468750000,178508.2187500000,148686.3750000000,119432.8046875000,151542.2343750000,133861.0781250000,144149.7343750000,,,
0.2399999998,1,146322.8593750000,196811.5625000000,178839.4218750000,148968.8593750000,119623.4531250000,151725.9843750000,134038.8281250000,144275.3750000000,,,
0.2439999997,1,146714.8125000000,194672.3906250000,180244.7656250000,149485.1406250000,119997.8125000000,152088.5468750000,134391.2656250000,144557.6718750000,,,
0.2479999997,1,146756.9062500000,192398.4531250000,180944.6875000000,149542.3750000000,120040.2968750000,152132.8437500000,134435.6875000000,144615.2343750000,,,
0.2519999996,1,146381.9218750000,193067.3437500000,179834.8437500000,149045.4375000000,119686.5390625000,151793.1562500000,134102.1250000000,144351.2500000000,,,
0.2559999996,2,146119.1250000000,195759.3125000000,178504.8125000000,148711.5312500000,119433.9296875000,151541.9843750000,133860.2656250000,144143.8437500000,,,
0.2599999995,2,146321.3281250000,196790.4375000000,178829.0937500000,148989.4375000000,119622.0312500000,151720.4843750000,134035.8281250000,144270.0937500000,,,
0.2639999995,2,146709.7656250000,194674.8125000000,180238.6718750000,149494.3593750000,119994.3750000000,152083.3437500000,134388.9687500000,144553.6250000000,,,
0.2679999995,2,146760.0625000000,192397.0000000000,180950.9062500000,149546.5781250000,120047.0312500000,152133.2812500000,134441.2187500000,144619.6406250000,,,
0.2719999994,2,146390.7812500000,193055.0781250000,179854.2968750000,149043.6406250000,119699.4375000000,151795.3750000000,134110.3906250000,144361.6875000000,,,
0.2759999994,2,146127.0312500000,195737.5312500000,178521.0468750000,148701.7187500000,119444.7109375000,151549.4218750000,133867.4843750000,144153.8125000000,,,
0.2799999996,2,146318.2187500000,196784.8281250000,178833.0312500000,148969.5312500000,119620.1796875000,151720.1875000000,134031.2968750000,144268.1093750000,,,
0.2839999995,2,146706.8750000000,194687.8125000000,180238.5937500000,149486.6562500000,119991.3984375000,152079.8437500000,134383.3593750000,144548.4531250000,,,
0.2879999995,2,146756.1718750000,192408.4531250000,180958.2031250000,149536.8750000000,120040.1093750000,152130.5468750000,134436.4062500000,144610.8437500000,,,
0.2919999994,2,146384.8750000000,193038.0000000000,179863.2812500000,149026.2031250000,119688.7421875000,151793.7343750000,134105.7500000000,144349.1875000000,,,
0.2959999994,2,146113.8437500000,195705.3750000000,178518.7031250000,148676.4687500000,119430.2578125000,151540.1093750000,133860.1718750000,144137.7500000000,,,
0.2999999996,2,146302.5312500000,196761.1093750000,178820.5625000000,148942.9062500000,119607.9765625000,151709.3906250000,134026.5468750000,144254.6093750000,,,
0.3039999995,2,146693.7812500000,194668.0781250000,180219.0625000000,149457.5625000000,119984.2343750000,152074.6250000000,134382.5312500000,144540.9375000000,,,
0.3079999995,2,146742.5156250000,192386.8125000000,180950.1406250000,149520.6718750000,120035.0156250000,152123.8125000000,134433.3593750000,144603.1718750000,,,
0.3119999995,2,146389.9531250000,192992.7968750000,179869.9062500000,149036.2656250000,119703.3593750000,151801.0625000000,134118.4062500000,144358.5468750000,,,
0.3159999994,2,146120.0312500000,195644.8125000000,178520.4062500000,148690.5781250000,119440.2343750000,151545.4687500000,133869.7187500000,144145.1250000000,,,
0.3199999994,2,146311.3593750000,196709.2187500000,178808.8750000000,148957.2031250000,119613.3437500000,151717.6406250000,134032.7343750000,144262.0156250000,,,
0.3239999996,2,146702.1875000000,194660.5625000000,180216.1250000000,149471.7187500000,119979.7890625000,152081.9218750000,134379.3281250000,144548.9062500000,,,
0.3279999995,2,146750.1875000000,192393.2968750000,180949.9687500000,149535.1093750000,120022.8593750000,152129.0625000000,134424.9375000000,144609.7656250000,,,
0.3319999995,2,146384.7656250000,192988.1562500000,179861.2656250000,149048.0468750000,119677.2343750000,151798.6718750000,134098.4062500000,144351.9687500000,,,
0.3359999994,2,146116.6875000000,195632.4687500000,178498.5156250000,148705.5312500000,119420.0859375000,151550.7812500000,133850.7968750000,144140.1093750000,,,
0.3399999994,2,146304.8437500000,196721.7968750000,178783.0625000000,148970.9531250000,119598.6718750000,151719.8437500000,134015.8125000000,144252.8125000000,,,
0.3439999996,2,146704.4687500000,194670.6875000000,180185.8593750000,149495.2968750000,119987.1093750000,152095.5156250000,134386.7656250000,144544.2343750000,,,
0.3479999995,2,146751.7968750000,192389.4687500000,180932.9375000000,149552.7500000000,120040.4062500000,152148.2500000000,134444.0312500000,144608.3906250000,,,
0.3519999995,2,146391.0937500000,192975.9062500000,179864.7812500000,149053.2656250000,119702.2031250000,151820.6406250000,134123.5625000000,144359.4843750000,,,
0.3559999994,2,146125.9375000000,195617.2343750000,178501.8593750000,148705.6250000000,119446.5859375000,151565.3281250000,133877.5156250000,144153.5468750000,,,
0.3599999994,2,146315.4062500000,196711.2812500000,178774.0312500000,148961.3593750000,119620.7968750000,151725.8750000000,134036.6875000000,144269.8125000000,,,
0.3639999994,2,146713.4218750000,194675.1875000000,180171.8906250000,149473.6562500000,119999.1250000000,152092.9062500000,134392.4531250000,144559.7656250000,,,
0.3679999996,2,146773.9531250000,192385.5781250000,180929.3437500000,149552.2656250000,120056.7890625000,152156.6406250000,134451.4375000000,144632.4218750000,,,
0.3719999995,2,146407.8437500000,192956.5937500000,179869.5468750000,149062.2812500000,119710.9765625000,151831.8750000000,134127.7187500000,144378.4218750000,,,
0.3759999995,2,146125.1250000000,195599.8281250000,178497.9843750000,148708.8281250000,119441.9453125000,151573.9843750000,133874.2812500000,144158.0468750000,,,
0.3799999994,2,146300.0156250000,196712.1093750000,178757.1562500000,148957.1406250000,119611.3281250000,151733.5312500000,134036.1250000000,144259.8906250000,,,
0.3839999994,3,146688.3906250000,194693.0468750000,180152.7968750000,149463.7812500000,119986.2500000000,152093.2343750000,134391.5937500000,144537.3750000000,,,
0.3879999993,3,146745.7343750000,192404.7500000000,180916.6875000000,149539.8593750000,120042.9218750000,152148.0000000000,134448.1093750000,144605.4375000000,,,
0.3919999993,3,146383.9687500000,192956.5625000000,179862.6875000000,149052.7656250000,119702.6328125000,151816.8125000000,134123.2031250000,144352.0625000000,,,
0.3959999993,3,146119.4375000000,195575.3593750000,178483.9531250000,148703.5625000000,119448.7343750000,151563.3593750000,133874.0625000000,144147.1406250000,,,
0.3999999992,3,146303.9062500000,196699.5781250000,178736.6093750000,148954.3281250000,119617.8515625000,151723.2187500000,134030.4375000000,144263.9218750000,,,
0.4039999992,3,146695.1562500000,194712.2343750000,180136.1093750000,149469.3125000000,119987.7812500000,152085.6406250000,134384.2656250000,144550.7500000000,,,
0.4079999994,3,146756.0156250000,192430.9531250000,180907.8593750000,149547.6093750000,120044.5078125000,152149.7031250000,134445.2656250000,144623.4687500000,,,
0.4119999993,3,146405.6406250000,192960.5312500000,179862.5000000000,149073.5156250000,119712.3984375000,151835.5625000000,134132.4062500000,144381.1875000000,,,
0.4159999993,3,146132.8593750000,195562.3750000000,178475.0156250000,148716.8906250000,119447.7421875000,151582.8437500000,133880.3125000000,144170.2343750000,,,
0.4199999992,3,146298.7031250000,196705.1875000000,178720.0937500000,148955.4062500000,119598.9375000000,151730.3281250000,134021.4687500000,144266.6875000000,,,
0.4239999992,3,146683.4062500000,194752.9218750000,180123.1875000000,149465.8750000000,119964.5234375000,152086.4531250000,134367.1250000000,144537.9843750000,,,
0.4279999994,3,146740.5625000000,192488.6562500000,180910.0937500000,149544.9531250000,120021.7890625000,152139.7656250000,134420.4531250000,144593.9687500000,,,
0.4319999993,3,146383.5937500000,192984.8906250000,179862.7656250000,149059.4687500000,119691.2343750000,151811.9531250000,134103.4687500000,144340.1718750000,,,
0.4359999993,3,146105.5312500000,195547.9531250000,178455.4375000000,148696.2656250000,119426.5781250000,151548.9843750000,133849.8437500000,144125.2500000000,,,
0.4399999992,3,146285.8437500000,196687.8437500000,178687.2812500000,148950.8906250000,119594.3515625000,151704.3906250000,134005.4062500000,144239.6718750000,,,
0.4439999992,3,146690.1875000000,194746.7500000000,180094.3437500000,149478.3750000000,119979.4921875000,152076.2812500000,134371.2812500000,144540.8906250000,,,
0.4479999992,3,146763.7343750000,192485.3437500000,180898.3437500000,149571.3750000000,120047.8046875000,152150.5312500000,134442.7656250000,144627.2187500000,,,
0.4519999993,3,146407.5937500000,192973.5625000000,179867.7500000000,149079.1250000000,119712.7421875000,151830.8906250000,134127.3906250000,144380.7500000000,,,
0.4559999993,3,146128.7812500000,195524.7187500000,178463.3750000000,148701.3125000000,119449.4296875000,151574.4687500000,133878.5937500000,144163.5000000000,,,
0.4599999993,3,146299.0937500000,196674.6406250000,178690.4218750000,148946.4375000000,119608.3281250000,151724.2500000000,134026.4375000000,144266.3593750000,,,
0.4639999992,3,146687.5625000000,194764.9062500000,180100.0625000000,149465.7500000000,119978.3906250000,152081.2500000000,134378.2812500000,144548.7187500000,,,
0.4679999992,3,146748.8281250000,192516.5781250000,180911.2968750000,149554.8750000000,120038.3671875000,152147.0156250000,134442.3906250000,144619.7968750000,,,
0.4719999994,3,146391.3750000000,192972.9531250000,179878.1875000000,149075.8906250000,119702.7968750000,151827.8281250000,134126.9843750000,144367.1250000000,,,
0.4759999993,3,146116.1406250000,195487.8125000000,178457.1562500000,148714.7500000000,119441.1406250000,151572.9062500000,133877.8906250000,144148.3125000000,,,
0.4799999993,3,146283.3593750000,196637.8906250000,178668.6250000000,148949.5000000000,119594.9140625000,151717.9062500000,134020.2343750000,144243.6093750000,,,
0.4839999992,3,146674.4531250000,194756.2656250000,180076.5312500000,149460.0625000000,119966.8828125000,152076.2500000000,134371.7500000000,144523.5625000000,,,
0.4879999992,3,146752.1562500000,192523.9531250000,180905.3125000000,149556.9375000000,120042.4453125000,152150.4531250000,134446.8125000000,144608.8750000000,,,
0.4919999992,3,146412.9375000000,192958.0937500000,179887.8750000000,149079.7656250000,119722.2109375000,151839.4687500000,134141.5625000000,144376.8125000000,,,
0.4959999993,3,146140.4687500000,195435.4531250000,178457.3125000000,148714.9375000000,119458.9296875000,151583.7968750000,133889.4843750000,144167.3281250000,,,
0.4999999993,3,146307.5156250000,196597.4687500000,178665.3437500000,148961.2500000000,119610.6562500000,151729.2031250000,134029.8750000000,144271.5625000000,,,
0.5039999993,3,146683.3750000000,194769.3906250000,180081.4218750000,149467.0781250000,119967.7187500000,152078.1562500000,134368.6250000000,144547.0312500000,,,
0.5079999992,3,146755.7968750000,192570.9062500000,180922.8750000000,149570.3281250000,120038.6093750000,152153.3750000000,134440.5468750000,144626.7187500000,,,
0.5119999992,4,146411.3437500000,192977.8906250000,179903.3281250000,149088.8906250000,119717.6250000000,151846.2812500000,134134.4218750000,144382.9062500000,,,
0.5159999991,4,146132.1562500000,195391.2500000000,178451.3906250000,148707.5625000000,119454.6875000000,151586.9375000000,133878.4375000000,144158.2343750000,,,
0.5199999991,4,146296.0937500000,196527.9218750000,178646.6562500000,148935.0625000000,119607.8437500000,151722.3125000000,134020.6406250000,144249.0312500000,,,
0.5239999990,4,146679.7343750000,194735.1875000000,180072.2968750000,149442.2187500000,119975.5234375000,152072.9531250000,134371.6562500000,144526.4843750000,,,
0.5279999990,4,146752.8750000000,192578.1562500000,180932.4531250000,149543.1250000000,120048.8281250000,152144.9218750000,134449.7187500000,144606.2031250000,,,
0.5319999990,4,146423.2812500000,192972.1718750000,179922.8437500000,149084.2812500000,119740.0781250000,151847.4843750000,134162.2968750000,144374.1250000000,,,
0.5359999991,4,146153.2187500000,195353.4687500000,178465.5156250000,148717.1875000000,119478.9921875000,151597.1562500000,133914.9843750000,144162.6406250000,,,
0.5399999991,4,146309.5937500000,196486.0781250000,178643.4843750000,148940.3437500000,119618.8125000000,151734.2968750000,134046.3906250000,144259.9218750000,,,
0.5439999991,4,146684.8750000000,194748.8125000000,180071.8906250000,149451.7343750000,119973.2968750000,152081.2187500000,134380.5156250000,144539.9687500000,,,
0.5479999990,4,146768.1093750000,192638.1093750000,180946.7031250000,149565.7343750000,120052.7187500000,152162.2500000000,134453.9531250000,144631.8593750000,,,
0.5519999990,4,146429.6718750000,193006.9062500000,179937.1718750000,149099.9687500000,119735.1406250000,151856.1250000000,134150.4375000000,144392.6406250000,,,
0.5559999992,4,146150.5312500000,195326.6875000000,178458.9531250000,148720.6718750000,119470.1953125000,151596.8437500000,133896.4218750000,144171.6718750000,,,
0.5599999991,4,146301.4843750000,196447.0468750000,178622.4375000000,148940.5625000000,119609.3750000000,151728.9062500000,134027.5312500000,144263.1093750000,,,
0.5639999991,4,146678.0156250000,194752.2187500000,180056.7968750000,149453.1406250000,119970.2109375000,152078.2968750000,134373.0312500000,144541.5312500000,,,
0.5679999990,4,146749.1406250000,192674.6562500000,180945.7031250000,149555.9375000000,120042.3046875000,152152.7187500000,134450.7656250000,144618.1093750000,,,
0.5719999990,4,146420.3125000000,193026.5156250000,179942.6093750000,149106.3750000000,119734.2265625000,151856.4531250000,134157.7031250000,144379.9218750000,,,
0.5759999990,4,146148.5937500000,195305.3125000000,178453.7812500000,148742.4375000000,119473.3281250000,151604.1875000000,133908.0625000000,144162.0781250000,,,
0.5799999991,4,146290.5468750000,196420.9062500000,178603.5156250000,148941.6875000000,119601.1406250000,151722.5000000000,134029.7656250000,144242.8125000000,,,
0.5839999991,4,146664.8437500000,194766.2968750000,180034.4843750000,149445.9687500000,119953.8750000000,152065.9375000000,134361.6093750000,144519.8281250000,,,
0.5879999991,4,146745.3906250000,192722.2187500000,180937.9062500000,149550.0468750000,120031.0937500000,152148.2500000000,134435.3593750000,144607.5312500000,,,
0.5919999990,4,146419.8281250000,193056.8281250000,179943.6406250000,149086.8593750000,119727.9296875000,151855.4062500000,134145.1250000000,144376.6718750000,,,
0.5959999990,4,146153.7187500000,195298.3906250000,178446.5312500000,148722.4218750000,119475.2656250000,151607.0312500000,133902.5937500000,144168.2968750000,,,
0.5999999992,4,146303.2343750000,196406.3437500000,178586.8125000000,148940.5156250000,119612.6718750000,151736.7656250000,134035.1562500000,144263.7812500000,,,
0.6039999991,4,146666.2343750000,194779.9531250000,180020.0781250000,149439.8593750000,119958.0859375000,152071.6406250000,134363.8906250000,144537.5312500000,,,
0.6079999991,4,146748.8281250000,192753.5156250000,180938.3281250000,149544.0156250000,120041.5000000000,152156.3437500000,134446.5156250000,144631.3593750000,,,
0.6119999990,4,146423.9843750000,193061.7500000000,179949.1875000000,149092.0000000000,119740.2890625000,151866.0312500000,134158.0312500000,144400.9531250000,,,
0.6159999990,4,146155.3125000000,195265.7500000000,178438.9687500000,148728.5312500000,119483.8984375000,151615.0312500000,133912.0625000000,144186.1875000000,,,
0.6199999989,4,146301.0625000000,196376.1562500000,178572.9375000000,148948.4843750000,119612.6484375000,151742.5156250000,134038.1562500000,144275.6093750000,,,
0.6239999991,4,146663.6718750000,194789.6093750000,180017.5312500000,149440.5312500000,119953.5000000000,152073.0937500000,134359.4531250000,144540.6093750000,,,
0.6279999991,4,146741.3906250000,192790.9687500000,180953.6406250000,149537.2500000000,120028.9765625000,152145.9375000000,134431.6875000000,144619.3593750000,,,
0.6319999991,4,146428.4375000000,193088.1718750000,179982.5781250000,149079.9531250000,119737.9062500000,151863.7656250000,134149.6250000000,144390.8437500000,,,
0.6359999990,4,146161.5625000000,195245.9062500000,178468.6562500000,148714.4531250000,119485.1875000000,151615.1250000000,133903.2656250000,144174.5781250000,,,
0.6399999990,5,146294.1718750000,196346.3437500000,178594.5156250000,148934.8281250000,119605.3515625000,151726.4375000000,134016.4062500000,144253.6250000000,,,
0.6439999989,5,146652.1093750000,194826.1093750000,180060.7656250000,149435.9375000000,119943.3359375000,152051.2031250000,134339.5625000000,144519.5625000000,,,
0.6479999989,5,146742.5781250000,192866.4687500000,181016.7031250000,149554.3906250000,120029.5703125000,152138.6250000000,134424.8750000000,144612.5468750000,,,
0.6519999988,5,146433.4843750000,193134.9843750000,180044.7031250000,149103.8593750000,119743.0781250000,151861.4687500000,134151.5937500000,144390.8906250000,,,
0.6559999988,5,146156.8281250000,195237.2500000000,178504.2031250000,148733.1250000000,119478.8046875000,151605.2343750000,133891.7031250000,144167.7812500000,,,
0.6599999988,5,146288.8281250000,196336.7343750000,178609.0468750000,148931.9531250000,119591.8593750000,151718.3437500000,133991.0312500000,144247.5000000000,,,
0.6639999989,5,146648.0312500000,194866.2656250000,180077.7500000000,149423.0468750000,119924.0234375000,152049.6250000000,134307.1250000000,144516.3437500000,,,
0.6679999989,5,146742.6562500000,192939.5000000000,181049.2968750000,149544.5937500000,120014.9218750000,152139.0468750000,134375.9531250000,144609.4218750000,,,
0.6719999989,5,146432.7500000000,193185.4062500000,180081.5781250000,149104.8281250000,119728.4921875000,151861.7656250000,134103.0937500000,144382.9062500000,,,
0.6759999988,5,146164.5937500000,195243.3125000000,178530.7500000000,148713.3906250000,119480.9765625000,151613.8125000000,133893.6093750000,144168.1406250000,,,
0.6799999988,5,146270.5312500000,196339.2812500000,178622.0625000000,148895.8750000000,119579.3046875000,151708.7343750000,133969.2187500000,144231.3906250000,,,
0.6839999990,5,146639.9531250000,194914.2500000000,180097.3281250000,149404.7812500000,119930.3281250000,152056.3593750000,134292.1406250000,144517.6875000000,,,
0.6879999989,5,146745.5000000000,193023.5312500000,181091.0625000000,149548.6718750000,120030.1015625000,152152.0781250000,134426.9375000000,144622.5625000000,,,
0.6919999989,5,146430.8281250000,193237.5000000000,180117.2343750000,149105.0937500000,119736.6718750000,151872.5625000000,134140.0781250000,144390.6250000000,,,
0.6959999988,5,146157.7187500000,195237.0625000000,178540.4375000000,148729.0781250000,119479.1796875000,151622.9843750000,133894.0468750000,144168.4531250000,,,
0.6999999988,5,146280.2968750000,196319.5625000000,178622.6406250000,148922.5937500000,119586.3046875000,151726.6250000000,134008.4062500000,144244.0781250000,,,
0.7039999987,5,146625.0468750000,194928.1250000000,180099.7656250000,149410.9218750000,119910.9843750000,152043.3125000000,134329.4375000000,144509.6562500000,,,
0.7079999989,5,146714.5156250000,193053.6093750000,181087.4687500000,149527.6250000000,119996.0937500000,152133.2500000000,134417.9375000000,144606.3906250000,,,
0.7119999989,5,146423.2656250000,193240.2343750000,180120.0468750000,149102.3593750000,119723.6328125000,151875.8437500000,134155.2968750000,144394.0937500000,,,
0.7159999989,5,146154.8281250000,195188.4843750000,178528.5312500000,148737.3906250000,119467.8359375000,151626.0468750000,133901.8125000000,144174.2031250000,,,
0.7199999988,5,146275.0625000000,196269.8125000000,178596.8750000000,148929.8437500000,119571.1796875000,151717.1875000000,133998.0625000000,144243.0000000000,,,
0.7239999988,5,146619.7343750000,194935.1250000000,180084.5781250000,149410.4843750000,119891.4375000000,152033.0937500000,134306.0312500000,144503.2187500000,,,
0.7279999990,5,146716.2968750000,193122.5312500000,181101.0000000000,149530.3281250000,119988.0234375000,152126.8906250000,134397.0156250000,144599.0937500000,,,
0.7319999989,5,146429.3281250000,193289.8281250000,180142.1406250000,149099.8125000000,119727.2578125000,151862.9062500000,134140.7031250000,144382.2812500000,,,
0.7359999989,5,146166.1406250000,195164.7656250000,178532.5781250000,148721.6718750000,119479.1796875000,151622.1562500000,133895.5781250000,144165.0781250000,,,
0.7399999988,5,146278.8750000000,196233.5000000000,178594.3281250000,148908.8281250000,119577.6171875000,151713.1718750000,133981.8906250000,144231.0156250000,,,
0.7439999988,5,146618.6562500000,194951.6406250000,180086.6250000000,149395.9218750000,119896.9843750000,152024.5781250000,134293.6875000000,144493.0625000000,,,
0.7479999987,5,146715.5625000000,193179.5937500000,181116.2500000000,149539.0781250000,119993.2500000000,152116.9687500000,134392.9531250000,144591.7187500000,,,
0.7519999989,5,146430.5000000000,193324.5312500000,180166.8281250000,149111.4218750000,119735.8359375000,151867.4531250000,134147.1562500000,144380.4375000000,,,
0.7559999989,5,146162.2031250000,195123.4843750000,178537.0625000000,148722.3906250000,119485.9921875000,151629.2968750000,133908.4687500000,144161.8593750000,,,
0.7599999988,5,146270.4531250000,196135.4843750000,178569.8125000000,148906.4218750000,119580.6171875000,151717.0000000000,134004.5000000000,144229.4843750000,,,
0.7639999988,5,146599.2656250000,194899.2656250000,180071.8437500000,149385.7812500000,119888.6406250000,152015.9843750000,134306.0312500000,144483.5156250000,,,
0.7679999988,6,146697.5625000000,193189.9687500000,181124.1250000000,149526.6875000000,119982.0937500000,152113.0781250000,134399.2968750000,144583.2343750000,,,
0.7719999987,6,146419.9375000000,193323.4062500000,180177.0937500000,149101.9843750000,119726.6093750000,151864.3593750000,134153.4687500000,144372.9218750000,,,
0.7759999987,6,146166.6250000000,195052.3906250000,178527.7500000000,148734.6250000000,119486.3671875000,151635.0937500000,133917.2500000000,144165.6406250000,,,
0.7799999986,6,146274.2031250000,196048.7500000000,178553.8437500000,148905.3437500000,119580.7500000000,151713.0625000000,134005.0000000000,144229.5937500000,,,
0.7839999986,6,146608.1718750000,194870.0156250000,180068.8593750000,149383.0000000000,119893.2343750000,152013.2187500000,134303.4843750000,144487.4531250000,,,
0.7879999985,6,146712.2343750000,193229.0781250000,181145.0781250000,149527.9218750000,119993.8671875000,152104.8437500000,134399.7187500000,144588.3593750000,,,
0.7919999987,6,146438.6562500000,193347.3281250000,180204.0000000000,149122.4218750000,119745.2812500000,151861.9218750000,134157.8437500000,144378.8750000000,,,
0.7959999987,6,146180.8906250000,195013.5937500000,178542.4218750000,148746.6406250000,119504.5234375000,151633.6406250000,133922.6875000000,144168.3750000000,,,
0.7999999986,6,146278.8750000000,195992.4218750000,178557.3281250000,148904.2187500000,119592.2343750000,151717.0781250000,134006.7812500000,144230.5468750000,,,
0.8039999986,6,146613.1562500000,194861.7031250000,180078.2500000000,149391.3437500000,119906.0000000000,152018.7968750000,134317.0781250000,144494.7968750000,,,
0.8079999986,6,146714.6875000000,193256.9687500000,181163.2031250000,149538.8906250000,120003.6328125000,152113.9687500000,134421.2343750000,144601.5000000000,,,
0.8119999988,6,146439.1406250000,193347.2031250000,180217.1875000000,149131.7500000000,119749.4375000000,151870.0156250000,134176.1562500000,144391.0625000000,33029,0.8124947131,0.0000000000
0.8159999987,6,146187.5937500000,194950.5625000000,178532.3593750000,148753.2343750000,119509.8906250000,151641.6875000000,133938.7500000000,144177.6250000000,,,
0.8199999987,6,146286.0312500000,195911.9531250000,178531.0000000000,148897.1875000000,119589.0703125000,151725.1875000000,134009.5937500000,144238.7031250000,,,
0.8239999986,6,146608.0625000000,194816.7031250000,180050.8437500000,149366.6406250000,119887.2734375000,152015.5312500000,134284.0937500000,144490.2656250000,,,
0.8279999986,6,146711.1093750000,193255.5781250000,181153.4375000000,149507.3437500000,119980.0234375000,152110.4062500000,134378.7187500000,144594.2343750000,,,
0.8319999985,6,146450.3281250000,193342.0781250000,180223.7968750000,149109.8437500000,119737.3125000000,151876.7812500000,134162.2968750000,144396.9375000000,,,
0.8359999987,6,146194.0937500000,194897.8125000000,178527.7031250000,148738.7812500000,119495.0859375000,151640.5000000000,133930.7343750000,144179.8593750000,,,
0.8399999987,6,146293.0156250000,195830.3593750000,178506.9062500000,148915.6250000000,119583.3046875000,151725.8593750000,134014.9843750000,144242.7343750000,,,
0.8439999986,6,146606.6406250000,194754.7968750000,180022.9531250000,149374.3281250000,119881.2968750000,152010.5937500000,134305.4687500000,144492.2500000000,,,
0.8479999986,6,146703.2031250000,193237.5781250000,181142.5781250000,149510.1875000000,119980.6171875000,152103.0000000000,134401.9687500000,144589.3281250000,,,
0.8519999986,6,146440.5781250000,193325.6406250000,180226.6875000000,149106.9375000000,119750.2656250000,151873.1875000000,134168.4375000000,144385.1093750000,,,
0.8559999987,6,146199.0312500000,194857.0156250000,178525.4687500000,148759.0625000000,119522.8984375000,151651.8437500000,133946.5625000000,144182.4843750000,,,
0.8599999987,6,146301.8281250000,195808.0781250000,178500.1718750000,148931.2656250000,119608.6718750000,151734.0312500000,134030.1562500000,144253.9375000000,,,
0.8639999987,6,146605.1093750000,194787.9531250000,180019.4531250000,149377.0468750000,119892.9921875000,152014.2187500000,134310.6406250000,144499.4218750000,,,
0.8679999986,6,146689.0156250000,193312.5468750000,181147.5468750000,149503.3750000000,119974.6640625000,152098.4062500000,134388.9843750000,144589.4375000000,,,
0.8719999986,6,146420.1718750000,193377.3750000000,180226.8437500000,149087.1250000000,119732.5703125000,151861.7812500000,134154.5625000000,144377.8125000000,,,
0.8759999985,6,146168.0468750000,194862.5312500000,178510.3437500000,148707.5312500000,119498.0312500000,151633.2343750000,133930.9687500000,144162.5000000000,,,
0.8799999987,6,146269.9375000000,195789.5937500000,178474.9687500000,148882.5781250000,119587.1875000000,151715.2656250000,134014.4531250000,144227.2343750000,,,
0.8839999987,6,146586.7656250000,194801.3281250000,180007.8125000000,149348.8593750000,119881.2421875000,151990.9687500000,134293.1562500000,144476.4375000000,,,
0.8879999986,6,146701.0000000000,193341.8125000000,181157.8437500000,149493.9531250000,119991.9375000000,152082.8281250000,134400.7968750000,144582.2968750000,,,
0.8919999986,6,146450.0468750000,193383.8437500000,180251.2812500000,149094.7656250000,119765.1796875000,151877.6718750000,134189.0312500000,144386.0937500000,,,
0.8959999986,7,146201.1718750000,194803.3437500000,178519.9687500000,148719.5781250000,119534.7031250000,151648.8750000000,133966.7812500000,144171.8437500000,,,
0.8999999985,7,146288.9062500000,195708.1093750000,178467.5937500000,148875.6562500000,119606.0468750000,151715.9218750000,134026.0000000000,144228.8906250000,,,
0.9039999985,7,146610.3437500000,194771.9843750000,180016.1093750000,149343.3750000000,119905.2734375000,152019.9375000000,134310.2656250000,144503.3593750000,,,
0.9079999984,7,146727.7500000000,193377.7187500000,181197.8125000000,149490.6406250000,120021.6015625000,152116.0312500000,134419.2187500000,144630.5312500000,,,
0.9119999984,7,146466.4375000000,193411.7343750000,180294.3125000000,149096.5937500000,119784.0937500000,151891.3437500000,134198.9843750000,144413.2968750000,,,
0.9159999983,7,146225.1562500000,194777.5156250000,178550.5000000000,148732.6875000000,119556.9921875000,151678.5625000000,133969.2500000000,144210.0312500000,,,
0.9199999985,7,146304.9218750000,195657.2812500000,178482.5468750000,148876.1093750000,119619.9140625000,151742.1406250000,134032.1718750000,144263.4062500000,,,
0.9239999985,7,146603.0000000000,194761.5000000000,180019.9375000000,149323.1250000000,119893.8750000000,152013.6562500000,134306.6250000000,144507.9687500000,,,
0.9279999984,7,146708.7812500000,193421.8750000000,181198.7500000000,149487.3125000000,119991.3437500000,152109.8125000000,134402.6718750000,144615.9531250000,,,
0.9319999984,7,146467.0937500000,193441.1093750000,180300.7968750000,149092.8281250000,119773.7421875000,151895.9531250000,134191.5468750000,144421.6562500000,,,
0.9359999984,7,146214.6406250000,194750.1562500000,178541.1562500000,148705.3906250000,119536.3125000000,151669.4531250000,133961.0937500000,144199.8437500000,,,
0.9399999985,7,146294.8593750000,195610.0156250000,178456.2968750000,148847.2187500000,119598.1640625000,151739.1093750000,134026.5468750000,144253.9375000000,,,
0.9439999985,7,146596.1250000000,194759.7031250000,180000.2500000000,149296.4375000000,119877.8906250000,152009.8750000000,134304.5312500000,144501.4218750000,,,
0.9479999985,7,146706.6406250000,193461.7500000000,181203.3125000000,149466.4062500000,119988.7187500000,152112.5937500000,134415.6718750000,144604.9687500000,,,
0.9519999984,7,146473.7968750000,193477.3906250000,180320.5937500000,149087.6093750000,119779.5078125000,151912.7968750000,134201.0937500000,144419.1093750000,,,
0.9559999984,7,146224.2187500000,194742.1875000000,178549.5625000000,148704.1093750000,119541.4296875000,151687.0156250000,133963.8906250000,144201.6718750000,,,
0.9599999983,7,146301.0312500000,195581.6093750000,178455.2500000000,148848.4375000000,119608.2734375000,151752.2656250000,134033.8437500000,144254.4843750000,,,
0.9639999985,7,146601.5156250000,194779.4687500000,180017.0781250000,149305.9843750000,119890.9765625000,152022.6093750000,134311.0781250000,144506.6875000000,,,
0.9679999985,7,146704.2812500000,193520.8437500000,181233.9687500000,149452.4375000000,119989.4453125000,152098.3906250000,134409.2343750000,144609.9531250000,,,
0.9719999984,7,146460.5156250000,193530.3437500000,180358.0937500000,149067.5625000000,119770.5703125000,151898.9062500000,134197.9062500000,144404.8750000000,,,
0.9759999984,7,146223.9375000000,194751.1718750000,178577.0156250000,148693.5937500000,119555.2187500000,151677.5156250000,133979.8437500000,144201.8593750000,,,
0.9799999984,7,146297.9687500000,195573.8593750000,178464.9062500000,148832.4687500000,119619.2421875000,151741.5468750000,134042.9531250000,144252.6875000000,,,
0.9839999985,7,146588.2656250000,194794.4062500000,180013.8281250000,149275.8437500000,119885.1328125000,152019.8750000000,134301.6875000000,144500.8437500000,,,
0.9879999985,7,146701.6250000000,193572.5000000000,181242.4062500000,149445.2031250000,119995.6093750000,152119.3281250000,134412.5625000000,144615.5625000000,,,
0.9919999985,7,146479.1250000000,193552.8125000000,180372.7031250000,149070.7812500000,119796.2656250000,151924.0156250000,134214.3750000000,144433.9687500000,,,
0.9959999984,7,146240.1250000000,194704.3125000000,178571.2031250000,148689.3281250000,119575.6328125000,151717.4531250000,134002.0312500000,144219.5312500000,,,
0.9999999984,7,146317.8281250000,195494.1718750000,178441.0312500000,148850.8437500000,119637.3515625000,151764.0781250000,134062.7812500000,144271.4062500000,,,
1.0039999983,7,146605.9687500000,194753.5937500000,180000.6093750000,149286.9218750000,119900.8984375000,152026.6406250000,134314.4218750000,144517.0156250000,,,
1.0079999985,7,146707.3593750000,193577.5000000000,181245.0937500000,149408.6875000000,119998.8828125000,152109.6250000000,134408.2968750000,144622.3750000000,,,
1.0119999985,7,146488.4843750000,193552.9843750000,180381.6093750000,149047.9843750000,119799.7578125000,151913.8437500000,134211.3281250000,144437.7187500000,,,
1.0159999984,7,146247.2031250000,194650.3437500000,178563.7656250000,148671.1875000000,119575.2031250000,151701.0156250000,134009.2500000000,144226.0937500000,,,
1.0199999984,7,146307.4687500000,195424.0000000000,178413.6250000000,148789.6718750000,119618.0625000000,151770.0625000000,134047.7656250000,144274.3281250000,,,
1.0239999983,8,146586.3593750000,194733.3906250000,179974.9062500000,149234.8593750000,119873.8671875000,152007.8125000000,134294.2343750000,144504.6406250000,,,
1.0279999983,8,146688.6406250000,193618.6718750000,181237.1250000000,149389.7812500000,119965.4609375000,152087.5468750000,134380.4375000000,144604.4218750000,,,
1.0319999983,8,146473.7656250000,193593.1250000000,180378.4218750000,149025.0000000000,119775.2968750000,151930.7812500000,134199.5937500000,144426.0625000000,,,
1.0359999982,8,146255.8125000000,194631.7812500000,178552.2968750000,148658.5312500000,119584.2656250000,151731.4531250000,133997.5468750000,144237.6562500000,,,
1.0399999982,8,146322.7343750000,195375.4375000000,178394.6875000000,148788.0312500000,119636.8906250000,151751.8750000000,134045.5625000000,144279.1562500000,,,
1.0439999981,8,146589.7968750000,194731.0625000000,179957.4687500000,149229.0156250000,119869.4375000000,152007.2187500000,134304.7656250000,144501.9687500000,,,
1.0479999983,8,146699.4531250000,193667.9687500000,181240.7187500000,149397.0312500000,119974.0703125000,152110.2187500000,134399.8281250000,144621.6718750000,,,
1.0519999983,8,146490.9531250000,193630.2031250000,180390.1718750000,149033.2343750000,119791.9531250000,151916.4218750000,134212.0937500000,144446.8750000000,,,
1.0559999982,8,146258.4375000000,194596.0625000000,178533.6562500000,148662.4687500000,119583.3046875000,151709.9531250000,134001.0625000000,144228.3281250000,,,
1.0599999982,8,146322.8437500000,195315.3437500000,178350.4531250000,148779.7968750000,119625.5156250000,151768.6093750000,134044.5156250000,144286.8593750000,,,
1.0639999982,8,146597.4218750000,194715.6875000000,179928.1250000000,149212.0000000000,119877.9140625000,152022.9062500000,134299.0625000000,144524.6093750000,,,
1.0679999983,8,146707.3125000000,193694.4687500000,181232.4687500000,149382.1093750000,119986.3046875000,152132.4531250000,134402.8593750000,144631.1093750000,,,
1.0719999983,8,146487.6562500000,193641.2500000000,180381.0156250000,149021.8437500000,119788.0625000000,151916.3437500000,134202.8906250000,144444.5625000000,,,
1.0759999983,8,146251.6562500000,194569.9375000000,178505.8906250000,148643.1875000000,119574.8515625000,151717.0312500000,133989.1250000000,144229.4531250000,,,
1.0799999982,8,146316.9062500000,195292.3125000000,178325.1406250000,148760.4062500000,119637.1875000000,151777.5937500000,134039.8750000000,144281.2187500000,,,
1.0839999982,8,146597.7343750000,194733.7187500000,179922.3125000000,149199.3437500000,119905.6484375000,152011.9062500000,134277.2812500000,144540.8281250000,,,
1.0879999981,8,146680.1875000000,193747.6718750000,181220.8750000000,149353.0937500000,119957.7890625000,152077.6718750000,134381.5937500000,144620.7031250000,,,
1.0919999983,8,146456.2500000000,193686.0625000000,180364.3437500000,148987.7187500000,119759.1484375000,151891.6718750000,134196.7343750000,144412.4062500000,,,
1.0959999983,8,146231.7187500000,194574.6875000000,178479.7343750000,148621.1093750000,119565.3593750000,151705.3281250000,133982.3437500000,144200.3281250000,,,
1.0999999982,8,146289.4218750000,195270.3437500000,178269.0781250000,148747.9375000000,119598.3515625000,151763.1875000000,133998.9687500000,144254.9843750000,,,
1.1039999982,8,146566.8125000000,194740.4687500000,179855.9218750000,149194.3593750000,119847.2343750000,151944.3750000000,134240.2656250000,144520.5312500000,,,
1.1079999981,8,146677.6406250000,193792.3906250000,181201.7500000000,149364.8125000000,119964.8750000000,152049.5468750000,134365.7812500000,144614.0312500000,,,
1.1119999983,8,146468.7500000000,193720.4843750000,180369.7343750000,149015.5000000000,119772.8828125000,151894.2656250000,134200.8281250000,144409.2968750000,,,
1.1159999983,8,146250.0468750000,194584.8437500000,178481.5625000000,148648.0781250000,119582.0703125000,151704.6093750000,133991.6250000000,144201.1562500000,,,
1.1199999982,8,146309.7187500000,195271.9218750000,178263.5312500000,148772.0937500000,119614.2265625000,151748.3593750000,134031.2343750000,144254.2031250000,,,
1.1239999982,8,146576.8750000000,194735.2656250000,179842.7812500000,149205.7812500000,119855.0859375000,152002.2031250000,134274.3593750000,144491.8593750000,,,
1.1279999982,8,146694.6718750000,193789.0312500000,181190.4531250000,149378.2500000000,119972.3046875000,152092.6250000000,134390.7812500000,144616.1718750000,,,
1.1319999981,8,146486.6875000000,193712.6250000000,180377.2343750000,149035.3281250000,119793.5312500000,151903.1250000000,134209.8125000000,144426.7812500000,,,
1.1359999983,8,146251.0000000000,194541.5625000000,178473.9687500000,148648.1250000000,119575.8437500000,151720.5937500000,133994.5468750000,144217.4062500000,,,
1.1399999983,8,146310.7187500000,195212.3593750000,178244.2656250000,148759.1875000000,119616.9062500000,151739.7968750000,134025.2031250000,144282.3750000000,,,
1.1439999982,8,146572.2031250000,194704.5625000000,179828.3593750000,149195.8593750000,119852.7578125000,151968.2968750000,134267.4375000000,144500.7343750000,,,
1.1479999982,8,146678.9218750000,193780.0468750000,181176.0781250000,149369.9375000000,119956.1250000000,152082.8593750000,134368.8437500000,144593.3750000000,,,
1.1519999981,9,146473.3281250000,193695.5625000000,180363.5000000000,149003.5468750000,119774.8906250000,151910.5781250000,134190.8750000000,144419.1875000000,,,
1.1559999981,9,146248.7500000000,194485.7343750000,178453.2187500000,148625.2968750000,119572.3828125000,151715.5468750000,133986.0468750000,144216.2343750000,,,
1.1599999981,9,146303.8125000000,195129.6093750000,178214.5156250000,148741.3281250000,119629.3828125000,151736.4687500000,134020.0312500000,144251.0468750000,,,
1.1639999980,9,146564.9062500000,194628.8593750000,179799.6250000000,149182.2812500000,119861.8515625000,151954.6718750000,134255.2500000000,144476.3750000000,,,
1.1679999980,9,146663.4218750000,193702.8593750000,181149.7656250000,149355.2343750000,119937.6484375000,152067.3593750000,134366.3750000000,144580.7343750000,,,
1.1719999979,9,146475.0312500000,193557.4531250000,180360.4531250000,149020.8750000000,119785.3281250000,151929.4062500000,134192.0937500000,144431.4218750000,,,
1.1759999981,9,146255.3281250000,194234.8437500000,178459.4531250000,148651.9531250000,119589.3125000000,151735.4218750000,134009.5625000000,144225.9062500000,,,
1.1799999981,9,146302.4218750000,194767.0468750000,178203.2031250000,148759.8437500000,119611.6015625000,151718.4843750000,134029.5000000000,144257.9062500000,,,
1.1839999980,9,146551.8437500000,194224.2500000000,179773.1250000000,149181.5156250000,119827.4062500000,151960.5156250000,134242.1875000000,144471.5156250000,,,
1.1879999980,9,146672.9687500000,193341.9375000000,181146.7343750000,149379.8593750000,119936.6796875000,152077.5937500000,134353.5625000000,144593.8281250000,,,
1.1919999979,9,146484.7343750000,193260.0000000000,180365.4375000000,149030.4218750000,119776.3906250000,151904.1875000000,134191.0468750000,144426.2812500000,,,
1.1959999981,9,146258.5468750000,194002.9687500000,178446.2656250000,148650.8593750000,119574.3125000000,151698.9531250000,133980.8593750000,144205.2031250000,,,
1.1999999981,9,146301.6250000000,194634.7343750000,178176.9687500000,148755.9687500000,119603.4687500000,151728.7968750000,133987.1406250000,144238.5937500000,,,
1.2039999980,9,146566.1406250000,194171.6875000000,179757.3281250000,149171.6875000000,119850.9609375000,151958.5312500000,134238.1406250000,144490.7812500000,,,
1.2079999980,9,146689.6875000000,193291.6562500000,181158.5156250000,149359.7968750000,119984.3750000000,152070.8906250000,134354.6250000000,144633.1562500000,,,
1.2119999980,9,146473.5468750000,193127.5312500000,180375.7656250000,149016.9531250000,119779.6406250000,151918.8906250000,134156.5781250000,144418.0937500000,,,
1.2159999979,9,146248.1093750000,193779.9218750000,178438.4843750000,148641.5781250000,119567.6093750000,151694.5000000000,133929.4531250000,144229.7187500000,,,
1.2199999981,9,146290.7343750000,194362.8437500000,178157.2500000000,148739.6093750000,119608.3515625000,151711.7656250000,133961.8750000000,144240.6875000000,,,
1.2239999981,9,146543.4218750000,193954.0781250000,179728.7968750000,149168.4218750000,119828.3515625000,151955.3125000000,134215.5781250000,144454.5781250000,,,
1.2279999980,9,146658.3593750000,193196.6250000000,181121.2343750000,149348.0468750000,119921.6328125000,152051.3437500000,134349.4843750000,144576.0781250000,,,
1.2319999980,9,146480.8750000000,193178.1718750000,180365.2812500000,149015.9375000000,119770.6015625000,151917.7656250000,134192.2968750000,144437.3281250000,,,
1.2359999979,9,146258.0312500000,193951.7968750000,178442.3281250000,148645.3125000000,119571.7109375000,151711.7656250000,133990.2500000000,144235.3593750000,,,
1.2399999981,9,146291.4218750000,194636.9843750000,178142.0468750000,148742.6250000000,119591.7500000000,151701.3593750000,134022.2500000000,144246.4375000000,,,
1.2439999981,9,146539.7187500000,194294.9062500000,179708.8593750000,149171.9843750000,119813.6796875000,151949.9218750000,134224.2812500000,144455.1406250000,,,
1.2479999980,9,146650.6562500000,193541.2812500000,181112.0781250000,149352.5468750000,119918.5234375000,152042.1406250000,134329.8437500000,144576.3437500000,,,
1.2519999980,9,146461.0468750000,193494.7656250000,180356.8593750000,149019.0156250000,119749.4609375000,151875.3906250000,134151.3750000000,144425.3906250000,,,
1.2559999980,9,146223.7343750000,194225.7500000000,178414.9375000000,148632.5156250000,119532.8203125000,151682.9062500000,133915.0468750000,144191.7656250000,,,
1.2599999979,9,146259.9375000000,194847.1093750000,178100.7343750000,148715.7187500000,119565.1406250000,151699.6406250000,133936.9843750000,144224.1093750000,,,
1.2639999981,9,146515.5468750000,194423.9687500000,179674.2031250000,149142.4531250000,119806.0078125000,151932.2500000000,134200.0781250000,144443.3125000000,,,
1.2679999981,9,146633.1406250000,193596.7031250000,181088.7031250000,149343.2187500000,119902.2734375000,152008.1875000000,134296.5937500000,144549.2031250000,,,
1.2719999980,9,146450.4843750000,193500.7031250000,180352.7187500000,149010.5781250000,119741.9296875000,151864.4375000000,134109.4843750000,144398.4375000000,,,
1.2759999980,9,146220.2500000000,194230.6875000000,178416.9687500000,148623.8750000000,119524.5859375000,151650.2343750000,133930.9687500000,144187.2812500000,,,
1.2799999979,10,146248.2968750000,194883.1875000000,178083.7968750000,148708.5312500000,119540.0937500000,151669.5781250000,133937.6875000000,144200.4531250000,,,
1.2839999979,10,146502.9687500000,194498.9375000000,179639.0625000000,149126.4218750000,119774.4375000000,151891.2031250000,134165.9843750000,144427.2656250000,,,
1.2879999978,10,146621.5781250000,193695.4062500000,181071.2656250000,149319.7031250000,119893.0703125000,152001.5625000000,134290.0937500000,144531.1250000000,,,
1.2919999978,10,146438.8906250000,193614.7187500000,180353.3437500000,148994.0781250000,119725.3515625000,151831.0000000000,134121.8750000000,144386.7343750000,,,
1.2959999978,10,146179.4531250000,194361.3437500000,178401.2812500000,148597.3281250000,119472.9296875000,151611.7187500000,133855.2031250000,144143.4843750000,,,
1.2999999977,10,146211.2812500000,195042.8125000000,178059.0000000000,148690.0000000000,119503.4765625000,151638.8750000000,133910.0468750000,144157.5468750000,,,
1.3039999979,10,146478.1093750000,194672.0781250000,179616.5937500000,149137.5468750000,119747.1562500000,151869.5312500000,134142.2812500000,144398.3281250000,,,
1.3079999979,10,146598.0000000000,193874.6562500000,181059.0312500000,149327.2656250000,119863.0546875000,151973.9531250000,134252.5781250000,144517.0937500000,,,
1.3119999978,10,146409.8437500000,193810.5781250000,180352.0000000000,148987.3750000000,119701.6171875000,151823.7031250000,134088.0156250000,144362.2187500000,,,
1.3159999978,10,146192.7187500000,194573.5312500000,178414.5937500000,148604.2187500000,119514.9609375000,151638.3906250000,133890.4218750000,144160.8125000000,,,
1.3199999977,10,146240.8125000000,195233.8437500000,178071.3750000000,148696.6718750000,119560.9843750000,151663.9218750000,133932.8593750000,144202.5312500000,,,
1.3239999979,10,146499.6406250000,194874.8750000000,179649.9375000000,149140.1250000000,119773.9531250000,151874.8437500000,134206.9687500000,144445.4218750000,,,
1.3279999979,10,146614.2656250000,194104.2812500000,181132.2343750000,149343.3281250000,119868.9531250000,151989.0000000000,134242.0781250000,144537.2031250000,,,
1.3319999978,10,146437.1250000000,193958.4531250000,180432.8750000000,149006.0937500000,119716.0156250000,151842.7187500000,134095.2031250000,144394.7500000000,,,
1.3359999978,10,146204.1250000000,194536.9687500000,178446.3750000000,148608.1875000000,119517.8593750000,151655.2812500000,133907.7812500000,144163.9062500000,,,
1.3399999978,10,146234.6718750000,195056.7812500000,178054.5468750000,148700.7187500000,119529.3359375000,151655.6093750000,133918.3750000000,144184.2031250000,,,
1.3439999977,10,146490.9375000000,194671.0781250000,179651.0781250000,149131.8906250000,119763.7343750000,151890.9687500000,134133.3750000000,144433.7343750000,,,
1.3479999979,10,146611.1250000000,193875.7343750000,181161.4062500000,149332.5937500000,119892.2890625000,151977.9531250000,134258.9843750000,144552.3906250000,,,
1.3519999979,10,146411.4843750000,193683.7812500000,180468.9218750000,149003.6562500000,119719.2109375000,151804.4218750000,134071.9531250000,144344.1250000000,,,
1.3559999978,10,146186.9531250000,194217.3281250000,178460.4218750000,148609.8750000000,119491.5156250000,151634.3281250000,133896.4062500000,144160.5468750000,,,
1.3599999978,10,146229.8750000000,194718.7500000000,178065.4687500000,148711.2343750000,119532.7656250000,151661.7812500000,133935.0000000000,144177.5312500000,,,
1.3639999977,10,146472.4843750000,194349.1875000000,179653.6406250000,149128.6718750000,119760.0312500000,151872.1093750000,134162.4531250000,144394.7343750000,,,
1.3679999979,10,146597.4375000000,193611.0937500000,181150.0937500000,149323.7656250000,119849.7265625000,152001.8281250000,134251.4531250000,144559.1250000000,,,
1.3719999979,10,146415.9375000000,193454.7031250000,180456.8750000000,149006.3593750000,119688.7890625000,151874.0781250000,134077.3437500000,144376.9218750000,,,
1.3759999978,10,146197.1562500000,193994.2343750000,178457.2812500000,148621.6562500000,119500.5546875000,151665.2812500000,133891.0625000000,144153.5000000000,,,
1.3799999978,10,146232.8281250000,194540.5625000000,178055.4375000000,148698.7343750000,119533.8984375000,151683.5312500000,133928.5625000000,144185.3593750000,,,
1.3839999977,10,146488.0312500000,194252.1718750000,179644.5625000000,149125.2343750000,119773.4453125000,151936.7343750000,134186.7812500000,144430.3750000000,,,
1.3879999977,10,146615.4687500000,193585.8125000000,181158.2187500000,149339.9531250000,119870.2734375000,152006.3281250000,134248.3593750000,144571.4062500000,,,
1.3919999979,10,146427.1250000000,193477.5312500000,180478.9687500000,149024.3281250000,119710.4375000000,151825.1718750000,134111.8906250000,144390.3593750000,,,
1.3959999979,10,146200.4531250000,194061.3125000000,178483.0625000000,148639.7812500000,119516.8593750000,151682.5156250000,133913.7500000000,144171.6718750000,,,
1.3999999978,10,146233.2031250000,194637.9062500000,178060.0781250000,148707.6718750000,119542.0781250000,151725.7187500000,133958.1406250000,144220.9531250000,,,
1.4039999978,10,146484.4687500000,194362.0156250000,179639.9218750000,149135.1093750000,119775.7265625000,151900.5156250000,134184.3437500000,144429.4843750000,,,
1.4079999977,11,146615.8906250000,193676.9531250000,181164.7031250000,149342.5000000000,119892.7734375000,152024.4375000000,134297.4531250000,144551.4531250000,,,
1.4119999977,11,146449.5937500000,193562.5312500000,180513.9062500000,149040.7500000000,119750.0312500000,151892.7968750000,134168.9687500000,144415.6562500000,,,
1.4159999976,11,146215.1250000000,194121.2031250000,178508.8437500000,148641.5468750000,119535.5078125000,151697.6093750000,134007.9531250000,144178.5781250000,,,
1.4199999976,11,146249.1250000000,194683.3750000000,178066.8906250000,148708.0781250000,119545.6953125000,151739.2656250000,133955.5937500000,144209.8437500000,,,
1.4239999976,11,146503.8593750000,194396.7500000000,179637.1093750000,149135.5312500000,119787.8750000000,151979.7187500000,134198.4687500000,144455.0781250000,,,
1.4279999975,11,146625.0156250000,193705.9687500000,181162.5937500000,149342.0937500000,119883.0625000000,152079.9531250000,134263.1093750000,144590.4218750000,,,
1.4319999977,11,146436.4843750000,193564.0312500000,180506.2812500000,149023.7968750000,119718.7500000000,151910.7968750000,134132.2812500000,144414.2500000000,,,
1.4359999977,11,146209.0625000000,194108.8437500000,178501.4062500000,148631.1250000000,119513.0781250000,151714.5937500000,133928.8281250000,144194.7968750000,,,
1.4399999976,11,146253.5781250000,194664.5156250000,178061.8281250000,148715.7968750000,119559.7500000000,151758.3125000000,134022.2500000000,144234.9531250000,,,
1.4439999976,11,146499.1718750000,194396.9375000000,179623.8906250000,149155.2812500000,119782.3203125000,151959.4531250000,134177.9218750000,144463.7187500000,,,
1.4479999975,11,146621.3593750000,193725.1406250000,181154.0625000000,149354.0781250000,119899.4765625000,152054.5312500000,134287.6093750000,144595.5156250000,,,
1.4519999977,11,146452.0937500000,193622.9218750000,180531.0156250000,149037.2656250000,119763.0078125000,151936.6406250000,134156.2031250000,144435.1250000000,,,
1.4559999977,11,146213.1093750000,194211.4843750000,178524.1250000000,148640.7500000000,119555.5703125000,151702.7656250000,133938.7031250000,144183.6718750000,,,
1.4599999976,11,146234.6718750000,194807.2343750000,178048.2812500000,148711.7187500000,119564.3906250000,151722.5781250000,133905.8125000000,144219.3750000000,,,
1.4639999976,11,146452.7343750000,194541.8281250000,179574.4062500000,149135.7031250000,119739.6718750000,151920.6093750000,134155.0937500000,144390.0625000000,,,
1.4679999975,11,146579.9531250000,193851.1875000000,181094.8437500000,149345.4531250000,119842.0000000000,152032.8125000000,134251.9062500000,144524.7343750000,,,
1.4719999975,11,146417.0937500000,193704.8906250000,180472.4375000000,149051.9375000000,119694.2343750000,151846.1562500000,134097.6406250000,144371.2343750000,,,
1.4759999977,11,146192.2968750000,194254.4531250000,178474.2343750000,148660.0000000000,119506.1093750000,151658.2812500000,133916.3593750000,144148.6718750000,,,
1.4799999977,11,146224.8281250000,194831.1093750000,178010.6406250000,148718.4062500000,119531.0234375000,151697.1562500000,133959.7500000000,144194.3437500000,,,
1.4839999976,11,146465.1875000000,194516.2656250000,179534.8437500000,149152.6250000000,119736.6953125000,151880.0312500000,134179.9687500000,144391.3437500000,,,
1.4879999976,11,146593.5781250000,193735.3437500000,181057.4687500000,149374.0625000000,119841.8671875000,151994.0156250000,134191.5000000000,144506.6562500000,,,
1.4919999975,11,146426.6875000000,193570.9218750000,180458.8593750000,149064.6250000000,119693.8046875000,151858.6250000000,134075.8906250000,144381.3125000000,,,
1.4959999977,11,146204.4687500000,194146.5156250000,178486.4687500000,148638.5156250000,119525.4453125000,151676.4687500000,133883.9062500000,144172.1875000000,,,
1.4999999977,11,146231.5937500000,194726.2343750000,178019.3593750000,148705.4687500000,119537.3046875000,151725.6093750000,133865.8281250000,144209.7656250000,,,
1.5039999976,11,146461.0781250000,194396.2343750000,179510.0312500000,149134.9218750000,119702.0390625000,151865.3281250000,134111.3281250000,144417.8750000000,,,
1.5079999976,11,146581.0000000000,193624.0625000000,181044.3281250000,149351.6093750000,119839.1875000000,151966.6406250000,134260.1406250000,144512.9843750000,,,
1.5119999975,11,146416.5312500000,193446.5781250000,180459.7500000000,149057.7187500000,119705.1796875000,151846.0468750000,134127.9843750000,144378.5000000000,,,
1.5159999975,11,146175.7968750000,194003.3437500000,178467.4843750000,148649.2031250000,119492.3203125000,151616.4218750000,133837.9062500000,144146.7031250000,,,
1.5199999977,11,146200.6406250000,194586.5937500000,177978.1406250000,148706.2187500000,119504.7109375000,151623.5000000000,133834.9843750000,144168.7343750000,,,
1.5239999976,11,146445.0937500000,194292.5156250000,179482.7187500000,149133.5468750000,119716.8750000000,151856.9843750000,134047.7343750000,144366.2500000000,,,
1.5279999976,11,146585.6875000000,193576.2812500000,181032.2968750000,149374.1718750000,119846.0468750000,152009.7656250000,134184.1718750000,144500.5781250000,,,
1.5319999976,11,146422.4531250000,193456.9843750000,180467.3125000000,149068.0312500000,119705.4531250000,151814.9218750000,134098.8750000000,144361.9531250000,,,
1.5359999975,12,146184.3593750000,194076.4843750000,178490.3281250000,148655.2343750000,119496.4218750000,151625.9062500000,133875.7968750000,144147.5156250000,,,
1.5399999975,12,146200.5625000000,194708.5312500000,177983.3437500000,148710.2187500000,119500.1250000000,151611.4531250000,133859.9218750000,144163.0468750000,,,
1.5439999974,12,146437.1250000000,194422.9843750000,179473.9843750000,149128.9843750000,119724.7890625000,151818.2031250000,134074.2656250000,144351.6250000000,,,
1.5479999974,12,146571.6406250000,193686.7656250000,181014.3437500000,149351.3125000000,119840.3359375000,151944.1250000000,134184.3906250000,144504.4375000000,,,
1.5519999973,12,146404.3437500000,193537.2656250000,180447.6406250000,149053.4062500000,119682.1640625000,151830.5937500000,134045.0468750000,144358.2812500000,,,
1.5559999973,12,146168.8281250000,194129.9687500000,178464.6406250000,148639.5468750000,119478.6718750000,151604.7968750000,133824.8125000000,144135.0937500000,,,
1.5599999975,12,146205.2968750000,194731.8281250000,177956.1093750000,148707.6718750000,119509.9453125000,151609.9062500000,133825.6406250000,144160.3281250000,,,
1.5639999975,12,146439.8125000000,194478.0937500000,179460.6718750000,149120.6250000000,119708.7500000000,151835.5312500000,134050.6250000000,144359.4843750000,,,
1.5679999974,12,146598.0000000000,193799.9062500000,181042.7812500000,149355.8593750000,119861.5000000000,151966.1718750000,134216.5312500000,144537.2343750000,,,
1.5719999974,12,146450.4531250000,193665.1250000000,180514.2812500000,149066.2812500000,119746.1953125000,151866.2343750000,134091.1250000000,144411.6093750000,,,
1.5759999973,12,146205.5781250000,194208.0000000000,178498.3750000000,148652.7187500000,119511.1796875000,151643.6093750000,133933.7187500000,144174.4375000000,,,
1.5799999975,12,146216.3281250000,194775.4687500000,177950.5312500000,148713.6562500000,119509.8125000000,151641.2343750000,133868.3125000000,144167.6562500000,,,
1.5839999975,12,146450.9375000000,194528.0156250000,179453.2187500000,149122.7656250000,119714.3515625000,151865.3750000000,134049.4218750000,144392.3125000000,,,
1.5879999974,12,146600.5468750000,193845.2500000000,181046.0156250000,149356.3906250000,119870.6484375000,152005.0468750000,134205.0468750000,144554.9375000000,,,
1.5919999974,12,146451.0156250000,193683.5000000000,180531.8437500000,149063.8593750000,119769.5781250000,151865.2968750000,134044.6718750000,144422.7343750000,,,
1.5959999973,12,146206.5156250000,194212.2343750000,178518.9531250000,148652.2343750000,119522.9531250000,151670.4062500000,133832.0000000000,144202.1250000000,,,
1.5999999973,12,146206.1406250000,194777.1875000000,177956.8125000000,148699.1093750000,119513.6171875000,151664.5625000000,133893.6875000000,144170.1250000000,,,
1.6039999975,12,146456.2968750000,194537.0468750000,179463.4843750000,149134.0000000000,119736.3984375000,151881.0781250000,134083.0000000000,144415.1093750000,,,
1.6079999974,12,146596.7656250000,193859.6406250000,181056.8906250000,149366.1250000000,119873.5937500000,152032.9687500000,134190.4531250000,144548.8750000000,,,
1.6119999974,12,146453.3593750000,193694.6250000000,180548.4687500000,149078.3750000000,119752.9765625000,151937.6406250000,134104.3593750000,144416.6250000000,,,
1.6159999974,12,146224.7968750000,194215.5312500000,178539.7343750000,148676.5312500000,119537.7031250000,151713.5625000000,133959.0000000000,144200.1093750000,,,
1.6199999973,12,146232.3437500000,194783.0937500000,177972.6718750000,148718.4218750000,119550.4140625000,151724.0625000000,133940.1718750000,144211.2968750000,,,
1.6239999975,12,146472.1250000000,194544.3437500000,179469.2812500000,149141.5156250000,119750.5625000000,151952.5000000000,134141.8750000000,144473.6875000000,,,
1.6279999975,12,146589.0781250000,193849.0156250000,181051.5000000000,149376.1562500000,119833.2812500000,151949.3281250000,134201.7500000000,144555.1875000000,,,
1.6319999974,12,146413.9843750000,193662.5156250000,180534.7968750000,149076.2812500000,119692.2812500000,151883.9218750000,134077.2968750000,144365.3906250000,,,
1.6359999974,12,146187.8437500000,194173.8750000000,178529.5781250000,148660.8437500000,119513.0546875000,151708.4218750000,133869.7187500000,144161.4375000000,,,
1.6399999973,12,146211.7656250000,194738.6250000000,177965.6093750000,148715.5781250000,119541.9921875000,151688.3593750000,133870.8906250000,144185.8125000000,,,
1.6439999973,12,146456.3281250000,194509.7968750000,179460.8437500000,149146.2343750000,119742.5703125000,151908.5156250000,134108.0781250000,144419.0781250000,,,
1.6479999975,12,146593.1562500000,193818.8125000000,181063.9687500000,149380.5781250000,119865.6562500000,152075.3906250000,134305.0937500000,144544.9062500000,,,
1.6519999974,12,146448.1250000000,193647.4687500000,180578.7031250000,149090.2656250000,119748.6093750000,151969.6406250000,134158.9843750000,144434.2656250000,,,
1.6559999974,12,146207.7968750000,194154.0312500000,178566.0312500000,148672.5937500000,119538.9140625000,151653.8125000000,133958.2031250000,144187.6718750000,,,
1.6599999974,12,146206.2656250000,194729.3125000000,177968.7812500000,148710.5937500000,119520.7500000000,151646.0781250000,133845.7656250000,144178.7812500000,,,
1.6639999973,13,146436.8593750000,194522.3750000000,179444.5312500000,149114.9062500000,119720.2265625000,151883.1093750000,134060.5468750000,144390.0937500000,,,
1.6679999973,13,146591.2187500000,193860.3906250000,181059.0312500000,149361.1406250000,119858.6875000000,152043.9843750000,134289.0468750000,144541.9843750000,,,
1.6719999972,13,146446.1875000000,193704.0312500000,180584.6875000000,149084.6250000000,119727.4687500000,151931.9218750000,134083.8593750000,144429.7812500000,,,
1.6759999972,13,146205.0312500000,194234.0156250000,178578.1250000000,148672.5625000000,119515.6562500000,151718.1250000000,133837.1250000000,144194.4843750000,,,
1.6799999971,13,146211.0937500000,194812.8593750000,177970.4062500000,148713.1875000000,119517.4531250000,151666.6250000000,133896.4531250000,144176.5625000000,,,
1.6839999971,13,146447.3125000000,194599.3125000000,179443.9062500000,149139.2343750000,119724.1953125000,151853.0468750000,134134.3750000000,144390.1406250000,,,
1.6879999973,13,146599.3437500000,193912.1562500000,181063.2656250000,149376.0156250000,119867.8828125000,152007.9375000000,134241.4687500000,144553.3906250000,,,
1.6919999972,13,146450.7812500000,193727.8906250000,180600.9687500000,149086.4843750000,119740.3750000000,151902.9375000000,134112.1875000000,144433.7812500000,,,
1.6959999972,13,146202.4375000000,194248.1718750000,178585.1562500000,148657.1562500000,119505.8671875000,151674.5468750000,133876.9062500000,144207.0625000000,,,
1.6999999972,13,146196.1562500000,194834.2187500000,177964.5625000000,148682.1406250000,119503.2656250000,151630.0156250000,133869.3593750000,144164.7656250000,,,
1.7039999971,13,146444.6406250000,194617.9531250000,179429.2656250000,149099.0781250000,119728.4609375000,151870.8593750000,134088.9531250000,144396.1562500000,,,
1.7079999973,13,146611.4687500000,193927.9531250000,181066.7343750000,149353.7656250000,119903.8828125000,152025.1875000000,134290.5000000000,144571.1875000000,,,
1.7119999973,13,146474.7343750000,193725.3281250000,180645.5625000000,149085.7031250000,119816.2500000000,151902.4687500000,134218.9843750000,144438.6406250000,,,
1.7159999972,13,146224.9687500000,194239.5937500000,178626.2968750000,148677.8906250000,119546.6640625000,151697.9375000000,133802.5312500000,144224.8593750000,,,
1.7199999972,13,146218.0156250000,194837.3281250000,177990.8750000000,148703.0781250000,119544.3046875000,151663.0625000000,133805.7968750000,144220.6875000000,,,
1.7239999971,13,146433.3437500000,194626.1875000000,179418.2656250000,149115.2656250000,119713.0390625000,151871.6562500000,134111.7031250000,144387.1718750000,,,
1.7279999971,13,146580.2812500000,193931.7812500000,181027.3593750000,149372.5625000000,119833.5781250000,151993.0781250000,134190.6718750000,144520.5468750000,,,
1.7319999973,13,146415.7812500000,193740.7031250000,180581.8906250000,149079.8593750000,119691.6640625000,151826.9218750000,134045.0000000000,144363.5156250000,,,
1.7359999972,13,146169.0625000000,194253.0625000000,178564.7656250000,148649.0937500000,119468.5859375000,151607.4843750000,133840.5781250000,144133.3437500000,,,
1.7399999972,13,146173.8906250000,194842.6093750000,177915.7500000000,148680.0937500000,119460.1640625000,151621.6562500000,133816.7343750000,144138.9062500000,,,
1.7439999972,13,146429.2968750000,194621.0937500000,179370.8281250000,149110.4843750000,119695.9531250000,151819.1718750000,134060.3437500000,144371.9062500000,,,
1.7479999971,13,146600.4218750000,193905.2031250000,181021.2968750000,149371.6250000000,119857.2343750000,151904.2187500000,134142.8750000000,144550.9218750000,,,
1.7519999973,13,146449.9218750000,193675.4531250000,180607.4843750000,149100.1562500000,119741.4140625000,151873.8281250000,134068.7343750000,144393.6562500000,,,
1.7559999973,13,146222.0625000000,194169.5312500000,178610.5468750000,148697.5000000000,119528.8515625000,151713.3593750000,133893.5625000000,144208.4843750000,,,
1.7599999972,13,146193.9531250000,194748.4062500000,177941.4687500000,148710.6250000000,119483.9218750000,151570.0625000000,133805.0468750000,144131.8281250000,,,
1.7639999972,13,146440.8750000000,194548.4843750000,179381.9531250000,149114.3750000000,119718.3515625000,151833.2968750000,134064.4375000000,144368.9531250000,,,
1.7679999971,13,146609.2968750000,193873.7656250000,181030.8750000000,149369.6093750000,119873.4609375000,152008.3437500000,134189.2187500000,144558.9062500000,,,
1.7719999971,13,146466.4687500000,193687.0937500000,180624.3750000000,149099.5625000000,119752.6015625000,151828.5000000000,134071.0625000000,144446.4218750000,,,
1.7759999973,13,146213.4062500000,194201.5937500000,178623.9531250000,148673.2343750000,119546.9609375000,151641.7968750000,133885.1093750000,144179.8281250000,,,
1.7799999972,13,146227.1875000000,194811.1718750000,177970.5468750000,148703.6250000000,119575.5234375000,151648.5781250000,133962.6562500000,144181.3906250000,,,
1.7839999972,13,146460.0625000000,194642.5468750000,179400.8593750000,149123.0156250000,119735.5937500000,151789.4687500000,133999.4062500000,144406.8750000000,,,
1.7879999971,13,146586.9218750000,193945.7031250000,181024.6406250000,149355.1562500000,119846.8281250000,151950.3281250000,134144.3750000000,144508.0312500000,,,
1.7919999971,14,146454.2343750000,193734.9062500000,180632.2656250000,149090.9531250000,119739.5937500000,151861.9218750000,134055.1406250000,144409.7187500000,,,
1.7959999971,14,146205.4843750000,194244.6406250000,178625.9687500000,148669.0156250000,119530.2500000000,151637.7343750000,133909.7031250000,144184.3125000000,,,
1.7999999970,14,146207.0468750000,194851.5625000000,177947.8281250000,148703.7343750000,119530.0859375000,151617.3593750000,133827.2343750000,144193.1875000000,,,
1.8039999970,14,146426.8750000000,194669.2031250000,179376.9375000000,149113.7031250000,119725.8359375000,151819.3750000000,134005.4843750000,144373.7500000000,,,
1.8079999969,14,146571.6093750000,193972.7187500000,181012.8125000000,149371.7343750000,119822.5000000000,151972.0781250000,134150.5468750000,144525.3750000000,,,
1.8119999969,14,146438.3906250000,193744.8593750000,180633.0625000000,149113.9218750000,119726.9843750000,151858.6718750000,134078.1562500000,144408.3281250000,,,
1.8159999971,14,146214.2343750000,194218.8906250000,178641.5000000000,148707.3750000000,119543.6875000000,151683.8281250000,133886.1093750000,144193.7187500000,,,
1.8199999970,14,146212.3593750000,194806.7812500000,177946.7812500000,148723.6562500000,119520.6953125000,151703.6406250000,133816.2031250000,144202.8125000000,,,
1.8239999970,14,146436.9062500000,194625.1093750000,179362.6406250000,149124.5156250000,119715.8281250000,151799.3125000000,134019.8593750000,144393.6250000000,,,
1.8279999970,14,146570.8125000000,193919.0937500000,181004.5625000000,149361.5937500000,119837.1171875000,151895.1562500000,134168.6718750000,144474.6875000000,,,
1.8319999969,14,146437.5625000000,193715.2031250000,180634.3593750000,149102.7031250000,119723.8515625000,151837.4843750000,134020.3437500000,144385.5000000000,,,
1.8359999971,14,146203.0468750000,194235.7031250000,178625.0625000000,148701.9062500000,119511.9843750000,151636.2968750000,133860.8125000000,144173.3437500000,,,
1.8399999971,14,146202.7343750000,194868.7656250000,177926.0468750000,148723.1718750000,119511.6562500000,151607.7812500000,133816.6093750000,144164.5781250000,,,
1.8439999970,14,146427.0156250000,194682.3281250000,179327.3750000000,149117.8125000000,119693.8906250000,151811.3906250000,134028.4687500000,144381.4218750000,,,
1.8479999970,14,146583.1718750000,193945.6718750000,180985.7187500000,149384.6250000000,119827.4062500000,151951.3437500000,134157.7500000000,144533.7812500000,,,
1.8519999969,14,146452.7031250000,193681.7968750000,180634.7656250000,149127.5468750000,119719.3671875000,151858.3750000000,134045.1093750000,144421.3593750000,,,
1.8559999969,14,146225.3437500000,194147.0937500000,178646.4687500000,148718.0781250000,119529.5468750000,151598.9843750000,133847.9687500000,144212.7656250000,,,
1.8599999971,14,146222.3281250000,194757.0781250000,177935.1718750000,148740.2656250000,119524.9609375000,151601.5312500000,133874.0000000000,144184.5312500000,,,
1.8639999970,14,146432.7031250000,194616.9843750000,179335.9843750000,149114.5625000000,119715.1015625000,151838.7812500000,134049.0000000000,144340.7187500000,,,
1.8679999970,14,146596.7187500000,193971.3281250000,181004.3125000000,149378.7812500000,119864.9609375000,152007.6250000000,134200.9375000000,144537.4531250000,,,
1.8719999969,14,146447.3437500000,193807.4843750000,180654.9531250000,149122.0468750000,119722.0234375000,151832.8437500000,134062.4843750000,144417.6562500000,,,
1.8759999969,14,146196.0000000000,194359.2812500000,178645.9843750000,148684.5781250000,119496.7500000000,151616.4218750000,133818.8281250000,144185.0625000000,,,
1.8799999971,14,146195.4531250000,195038.8437500000,177916.2031250000,148702.8125000000,119500.8203125000,151610.5781250000,133816.1250000000,144175.1406250000,,,
1.8839999971,14,146426.9375000000,194880.5312500000,179311.0312500000,149127.1406250000,119713.0156250000,151833.1718750000,134022.9218750000,144360.4843750000,,,
1.8879999970,14,146578.9375000000,194146.3125000000,180975.3437500000,149377.7187500000,119844.8984375000,151993.2343750000,134133.9062500000,144541.2343750000,,,
1.8919999970,14,146437.7968750000,193879.5937500000,180655.1406250000,149107.2343750000,119741.0156250000,151852.2968750000,134047.0156250000,144409.8281250000,,,
1.8959999969,14,146206.0312500000,194378.7500000000,178670.9843750000,148701.3125000000,119541.5937500000,151631.5156250000,133881.8593750000,144186.1875000000,,,
1.8999999969,14,146184.2187500000,195024.8125000000,177916.7187500000,148696.1093750000,119490.7890625000,151602.5781250000,133799.0156250000,144167.5000000000,,,
1.9039999971,14,146410.4375000000,194874.1250000000,179286.7343750000,149101.9531250000,119696.8125000000,151784.2187500000,134034.3281250000,144366.2500000000,,,
1.9079999970,14,146590.6093750000,194172.3593750000,180984.5781250000,149387.3125000000,119876.1484375000,151954.9062500000,134149.5468750000,144540.3437500000,,,
1.9119999970,14,146454.2343750000,193939.1562500000,180679.9062500000,149142.7968750000,119755.1796875000,151864.7031250000,134047.9218750000,144406.9062500000,,,
1.9159999969,14,146213.9687500000,194476.1093750000,178683.1875000000,148722.1562500000,119518.2578125000,151629.7500000000,133840.6718750000,144189.2812500000,,,
1.9199999969,15,146196.5312500000,195159.3281250000,177930.3750000000,148733.7656250000,119503.9062500000,151606.4687500000,133819.6718750000,144155.1562500000,,,
1.9239999969,15,146422.9843750000,195010.2187500000,179291.1562500000,149142.9375000000,119691.6328125000,151812.4062500000,133993.2812500000,144360.9843750000,,,
1.9279999968,15,146585.9843750000,194258.6406250000,180980.0625000000,149357.7812500000,119864.0468750000,151962.8750000000,134179.7500000000,144532.3750000000,,,
1.9319999968,15,146445.5156250000,193987.8750000000,180682.0156250000,149104.3437500000,119723.9296875000,151881.0156250000,134060.2031250000,144431.5000000000,,,
1.9359999967,15,146194.2500000000,194502.5625000000,178683.4531250000,148667.4062500000,119506.2421875000,151639.8125000000,133857.8906250000,144193.6718750000,,,
1.9399999967,15,146186.3437500000,195167.3750000000,177924.3281250000,148687.7187500000,119501.7890625000,151572.8281250000,133814.4843750000,144155.3906250000,,,
1.9439999969,15,146433.4843750000,195014.2187500000,179295.4531250000,149106.0625000000,119712.0781250000,151833.5468750000,134071.5312500000,144379.1718750000,,,
1.9479999968,15,146600.7187500000,194248.6406250000,180978.2968750000,149373.7968750000,119856.7500000000,151969.9843750000,134218.9843750000,144544.6406250000,,,
1.9519999968,15,146478.6250000000,193962.6093750000,180708.0156250000,149131.0625000000,119761.8281250000,151850.6093750000,134072.8593750000,144430.8281250000,,,
1.9559999967,15,146231.1093750000,194485.2031250000,178721.3437500000,148703.1093750000,119526.0390625000,151661.6718750000,133827.4687500000,144204.2968750000,,,
1.9599999967,15,146180.7031250000,195163.8906250000,177934.9062500000,148662.5625000000,119487.8125000000,151621.9687500000,133861.0468750000,144150.8593750000,,,
1.9639999969,15,146413.7656250000,195005.5781250000,179294.1093750000,149097.5625000000,119709.8750000000,151798.9687500000,134038.9375000000,144351.1406250000,,,
1.9679999969,15,146575.4687500000,194222.6250000000,180982.3750000000,149338.5312500000,119848.8906250000,151932.0937500000,134145.6093750000,144521.9687500000,,,
1.9719999968,15,146443.6093750000,193919.7500000000,180701.6875000000,149096.4843750000,119722.3984375000,151860.1562500000,134112.9375000000,144407.6093750000,,,
1.9759999968,15,146218.8750000000,194441.4375000000,178730.8437500000,148697.1093750000,119530.1406250000,151653.7500000000,133847.1875000000,144194.6406250000,,,
1.9799999967,15,146218.3125000000,195140.4687500000,177950.9687500000,148689.8281250000,119515.0625000000,151659.3125000000,133781.6250000000,144191.3906250000,,,
1.9839999967,15,146462.8437500000,194998.7343750000,179321.7343750000,149084.1250000000,119754.9609375000,151861.6562500000,134039.8125000000,144401.3750000000,,,
1.9879999969,15,146638.2968750000,194222.2187500000,181036.8750000000,149360.0625000000,119930.1953125000,151985.8125000000,134228.7343750000,144579.7500000000,,,
1.9919999968,15,146503.9062500000,193919.9531250000,180780.0468750000,149151.7031250000,119799.7265625000,151868.6875000000,134159.5312500000,144466.0312500000,,,
1.9959999968,15,146263.9843750000,194429.7343750000,178794.5000000000,148751.5000000000,119573.0000000000,151681.2968750000,133943.6562500000,144222.6093750000,,,
1.9999999967,15,146229.9843750000,195119.3125000000,177987.3906250000,148654.0468750000,119535.9843750000,151681.3750000000,133860.7031250000,144208.5312500000,,,
2.0039999967,15,146438.8750000000,194979.0468750000,179319.4531250000,149027.3125000000,119736.6171875000,151848.9375000000,134078.6093750000,144420.1562500000,,,
2.0079999969,15,146582.6406250000,194196.7812500000,181012.2187500000,149290.1875000000,119858.5234375000,151942.8437500000,134197.0312500000,144548.4687500000,,,
2.0119999968,15,146436.0781250000,193870.7656250000,180737.8906250000,149043.0312500000,119698.0703125000,151858.5468750000,134000.3125000000,144397.3906250000,,,
2.0159999968,15,146222.5468750000,194368.6093750000,178761.6718750000,148594.8593750000,119547.6796875000,151679.6875000000,133916.5156250000,144200.1562500000,,,
2.0199999968,15,146210.7968750000,195062.2812500000,177968.2968750000,148581.1718750000,119541.7031250000,151629.2968750000,133914.6875000000,144182.9218750000,,,
2.0239999967,15,146398.4531250000,194930.6406250000,179268.8437500000,148965.8281250000,119668.1093750000,151801.2500000000,133967.0312500000,144355.1093750000,,,
2.0279999967,15,146566.5937500000,194145.3437500000,180962.6093750000,149244.4375000000,119830.4687500000,151958.1250000000,134148.2343750000,144521.7031250000,,,
2.0319999969,15,146438.4687500000,193821.2500000000,180726.1406250000,148989.7343750000,119701.5312500000,151830.6406250000,133970.2500000000,144429.2812500000,,,
2.0359999968,15,146194.6875000000,194321.0781250000,178751.1250000000,148551.7187500000,119508.0937500000,151617.6562500000,133845.0937500000,144178.1718750000,,,
2.0399999968,15,146182.8281250000,195019.7656250000,177939.5625000000,148539.7968750000,119503.3750000000,151569.6718750000,133846.5937500000,144162.2031250000,,,
2.0439999967,15,146404.5156250000,194901.8281250000,179269.6718750000,148941.7187500000,119689.1171875000,151808.2500000000,133937.7031250000,144361.6093750000,,,
2.0479999967,16,146555.6250000000,194118.5937500000,180968.8281250000,149219.8437500000,119800.3437500000,151942.3125000000,134108.6250000000,144493.1875000000,,,
2.0519999966,16,146444.4218750000,193791.4218750000,180752.7187500000,148995.7968750000,119709.3906250000,151830.4375000000,134050.1718750000,144392.1093750000,,,
2.0559999966,16,146218.6875000000,194298.9531250000,178789.5625000000,148560.4218750000,119529.6015625000,151628.2187500000,133922.8281250000,144183.2968750000,,,
2.0599999966,16,146185.2656250000,195009.7343750000,177950.8593750000,148528.6093750000,119480.8437500000,151591.1250000000,133836.0000000000,144151.2656250000,,,
2.0639999965,16,146418.5156250000,194887.8125000000,179266.2968750000,148934.2031250000,119688.4453125000,151804.7656250000,133986.6562500000,144358.0312500000,,,
2.0679999965,16,146585.2656250000,194102.6093750000,180972.3437500000,149187.0937500000,119825.2656250000,151996.0000000000,134118.5468750000,144554.5625000000,,,
2.0719999967,16,146468.3437500000,193773.2343750000,180780.4531250000,148961.5468750000,119761.4843750000,151807.6875000000,134125.0937500000,144433.4375000000,,,
2.0759999966,16,146205.2812500000,194264.4843750000,178810.0468750000,148534.9375000000,119525.6093750000,151594.9531250000,133778.2968750000,144152.2343750000,,,
2.0799999966,16,146161.7968750000,194969.4218750000,177936.6406250000,148493.2343750000,119462.6015625000,151570.7968750000,133717.3593750000,144116.5781250000,,,
2.0839999965,16,146403.8593750000,194861.5000000000,179249.3750000000,148897.1718750000,119694.5625000000,151824.3125000000,133985.1093750000,144366.5625000000,,,
2.0879999965,16,146601.7343750000,194084.4375000000,180998.0156250000,149181.9062500000,119918.3125000000,151979.1093750000,134421.6875000000,144555.2343750000,,,
2.0919999967,16,146435.5625000000,193734.5937500000,180778.1718750000,148959.3125000000,119682.5937500000,151777.6718750000,133930.4375000000,144390.7343750000,,,
2.0959999966,16,146164.6875000000,194228.8906250000,178766.8750000000,148506.0000000000,119454.8750000000,151596.0625000000,133740.7343750000,144135.6562500000,,,
2.0999999966,16,146166.8437500000,194950.6562500000,177919.9531250000,148477.7968750000,119501.7109375000,151613.7031250000,133825.7031250000,144145.2812500000,,,
2.1039999966,16,146432.0000000000,194859.9062500000,179263.6093750000,148894.1562500000,119761.6171875000,151822.5156250000,134035.7968750000,144407.1718750000,,,
2.1079999965,16,146573.3281250000,194074.9062500000,180966.5000000000,149169.0625000000,119838.3281250000,151916.4531250000,134073.6718750000,144547.2187500000,,,
2.1119999965,16,146447.1093750000,193728.3125000000,180775.3906250000,148942.5000000000,119741.2265625000,151851.2968750000,134095.7187500000,144430.5156250000,,,
2.1159999967,16,146192.7031250000,194239.0000000000,178793.2343750000,148515.8125000000,119498.8125000000,151583.3437500000,133789.6718750000,144191.7968750000,,,
2.1199999966,16,146111.6406250000,194948.0468750000,177861.9687500000,148468.2812500000,119379.5625000000,151499.6406250000,133654.0625000000,144075.6250000000,,,
2.1239999966,16,146366.6093750000,194843.0937500000,179156.8125000000,148842.3437500000,119647.2734375000,151775.2656250000,133978.9375000000,144329.6406250000,,,
2.1279999965,16,146556.6718750000,194052.3750000000,180895.4687500000,149141.8437500000,119814.4531250000,151960.3281250000,134101.8125000000,144521.8125000000,,,
2.1319999965,16,146446.8281250000,193710.1875000000,180740.5937500000,148944.1875000000,119714.4921875000,151858.1875000000,133998.5937500000,144416.8906250000,,,
2.1359999967,16,146187.8437500000,194208.4062500000,178767.0000000000,148509.6093750000,119482.3125000000,151581.0468750000,133707.8125000000,144155.4531250000,,,
2.1399999966,16,146199.8281250000,194940.0781250000,177900.2968750000,148494.1093750000,119528.3437500000,151582.4687500000,133789.5156250000,144191.5781250000,,,
2.1439999966,16,146463.8125000000,194861.8125000000,179243.6562500000,148897.2968750000,119815.6093750000,151682.9843750000,133991.3281250000,144446.6562500000,,,
2.1479999966,16,146568.9062500000,194073.4062500000,180926.1562500000,149173.9375000000,119789.1093750000,151937.4843750000,134129.1093750000,144517.3281250000,,,
2.1519999965,16,146462.4218750000,193719.9375000000,180758.7343750000,148947.5625000000,119718.4062500000,151829.8125000000,134015.8437500000,144433.1718750000,,,
2.1559999965,16,146227.8281250000,194204.6718750000,178798.8125000000,148514.6875000000,119514.4765625000,151641.6250000000,133798.0156250000,144218.1875000000,,,
2.1599999967,16,146215.3593750000,194920.3125000000,177916.0156250000,148469.6718750000,119558.8906250000,151671.1093750000,134006.7968750000,144204.6718750000,,,
2.1639999966,16,146442.8593750000,194847.2968750000,179234.6406250000,148880.7500000000,119765.4531250000,151778.7500000000,134099.6406250000,144380.3281250000,,,
2.1679999966,16,146576.8750000000,194071.5625000000,180917.2812500000,149158.7031250000,119815.2031250000,151921.5000000000,133967.0468750000,144533.1093750000,,,
2.1719999965,16,146515.3906250000,193725.3281250000,180829.6718750000,148957.7656250000,119867.1562500000,151896.1250000000,133965.2031250000,144473.3125000000,,,
2.1759999965,17,146246.7187500000,194196.4687500000,178854.7968750000,148548.1562500000,119557.7109375000,151678.0000000000,133756.5781250000,144218.3437500000,,,
2.1799999964,17,146173.6718750000,194897.0781250000,177869.3437500000,148506.8281250000,119419.7421875000,151540.3437500000,133713.6093750000,144153.4062500000,,,
2.1839999964,17,146390.8906250000,194825.4375000000,179127.2812500000,148854.9531250000,119664.3046875000,151747.9062500000,134023.0781250000,144366.1093750000,,,
2.1879999964,17,146567.5156250000,194084.9687500000,180881.2500000000,149141.3906250000,119828.8593750000,151924.6250000000,134174.2187500000,144561.7187500000,,,
2.1919999963,17,146454.4218750000,193725.6875000000,180763.8281250000,148935.3906250000,119747.2109375000,151852.1562500000,133972.0937500000,144409.6406250000,,,
2.1959999963,17,146242.8593750000,194180.2343750000,178815.0625000000,148524.2031250000,119553.5312500000,151653.5468750000,133748.3906250000,144239.8593750000,,,
2.1999999965,17,146183.0468750000,194877.6406250000,177864.8437500000,148490.0625000000,119436.3671875000,151468.0312500000,133650.8125000000,144174.2187500000,,,
2.2039999964,17,146379.5156250000,194812.8437500000,179094.5000000000,148857.4687500000,119622.0312500000,151773.1875000000,133945.5625000000,144327.4062500000,,,
2.2079999964,17,146600.0937500000,194094.7812500000,180881.7656250000,149176.0156250000,119857.5859375000,152044.6562500000,134129.5156250000,144566.0625000000,,,
2.2119999963,17,146499.3593750000,193756.0000000000,180803.6875000000,148976.1562500000,119793.1328125000,151881.9531250000,134026.3750000000,144471.8437500000,,,
2.2159999963,17,146234.1406250000,194186.2187500000,178817.4218750000,148534.4218750000,119526.4921875000,151562.2968750000,133773.0000000000,144260.5625000000,,,
2.2199999965,17,146159.2500000000,194846.7187500000,177850.4687500000,148487.2656250000,119457.7734375000,151557.0000000000,133772.6718750000,144128.9843750000,,,
2.2239999964,17,146391.6875000000,194796.7656250000,179116.1718750000,148880.1406250000,119679.4843750000,151751.6875000000,133997.8437500000,144329.1718750000,,,
2.2279999964,17,146581.5156250000,194109.3281250000,180899.5000000000,149174.5625000000,119869.1171875000,151948.9375000000,134126.4843750000,144562.4531250000,,,
2.2319999964,17,146485.2187500000,193768.1718750000,180826.9375000000,148962.6875000000,119817.6718750000,151852.0468750000,134016.7500000000,144460.1718750000,,,
2.2359999963,17,146221.9531250000,194159.5781250000,178847.5156250000,148533.1875000000,119546.8515625000,151602.3125000000,133848.8125000000,144173.7500000000,,,
2.2399999963,17,146195.0000000000,194832.9843750000,177884.1562500000,148504.4375000000,119511.8750000000,151623.2812500000,133890.3437500000,144178.9218750000,,,
2.2439999965,17,146360.9218750000,194803.6875000000,179088.0937500000,148860.9843750000,119588.1015625000,151726.8437500000,133774.7031250000,144348.9687500000,,,
2.2479999964,17,146580.2812500000,194118.5937500000,180896.0625000000,149150.9062500000,119919.0312500000,151879.4062500000,134229.2968750000,144536.2968750000,,,
2.2519999964,17,146512.0468750000,193791.8281250000,180873.7968750000,148990.2187500000,119837.4687500000,151890.1093750000,134107.0625000000,144505.7968750000,,,
2.2559999963,17,146186.0156250000,194167.0625000000,178810.2656250000,148543.9218750000,119442.2187500000,151595.7343750000,133613.8281250000,144166.5781250000,,,
2.2599999963,17,146137.3906250000,194804.4687500000,177826.2968750000,148461.9843750000,119433.2890625000,151539.4062500000,133697.1718750000,144105.9687500000,,,
2.2639999965,17,146384.4531250000,194785.0000000000,179084.1718750000,148843.2812500000,119677.9296875000,151790.0156250000,133928.7500000000,144351.2187500000,,,
2.2679999964,17,146569.8906250000,194113.1250000000,180876.4218750000,149159.2968750000,119849.2187500000,151954.0781250000,134140.5937500000,144528.2031250000,,,
2.2719999964,17,146468.5000000000,193761.3593750000,180805.1875000000,148982.8593750000,119738.1718750000,151791.1718750000,133950.6093750000,144426.5468750000,,,
2.2759999963,17,146241.3281250000,194154.9687500000,178870.9375000000,148546.8750000000,119597.8671875000,151598.0468750000,133849.4375000000,144198.1562500000,,,
2.2799999963,17,146178.5000000000,194818.6875000000,177901.9375000000,148480.5625000000,119524.3984375000,151566.1875000000,133733.1093750000,144140.9375000000,,,
2.2839999963,17,146355.8593750000,194793.1562500000,179060.3281250000,148861.6562500000,119578.6875000000,151752.5937500000,133779.7187500000,144321.2187500000,,,
2.2879999964,17,146583.5781250000,194119.7812500000,180881.7031250000,149176.6250000000,119877.7578125000,151910.1250000000,134168.2187500000,144526.1093750000,,,
2.2919999964,17,146518.8750000000,193776.4531250000,180880.8593750000,149006.2812500000,119874.8281250000,151829.8125000000,134300.7656250000,144473.2656250000,,,
2.2959999964,17,146234.5937500000,194179.7812500000,178868.7656250000,148577.7968750000,119477.1093750000,151655.6093750000,133613.7500000000,144228.8437500000,,,
2.2999999963,17,146199.7031250000,194856.4218750000,177862.8906250000,148500.5000000000,119453.1093750000,151618.0781250000,133684.6406250000,144196.1718750000,,,
2.3039999963,18,146419.9062500000,194837.7031250000,179114.2187500000,148863.7812500000,119708.5078125000,151806.4531250000,133983.9687500000,144370.2187500000,,,
2.3079999962,18,146581.3437500000,194125.5000000000,180910.9687500000,149161.5781250000,119892.5625000000,151899.1718750000,134285.1875000000,144498.1562500000,,,
2.3119999962,18,146503.4062500000,193772.1406250000,180899.3125000000,149006.1718750000,119840.2031250000,151861.9687500000,133938.9375000000,144451.4062500000,,,
2.3159999961,18,146213.1406250000,194170.6562500000,178906.0781250000,148579.4531250000,119492.7265625000,151615.1875000000,133713.3437500000,144178.9218750000,,,
2.3199999961,18,146180.0312500000,194844.4062500000,177895.7968750000,148502.7187500000,119490.7656250000,151621.3593750000,133800.0781250000,144153.7656250000,,,
2.3239999961,18,146406.4218750000,194836.8125000000,179128.0625000000,148845.3750000000,119730.9609375000,151757.7500000000,134036.0156250000,144359.8906250000,,,
2.3279999963,18,146537.2187500000,194122.2812500000,180846.6562500000,149178.2968750000,119752.6328125000,151918.3593750000,133963.9687500000,144480.7812500000,,,
2.3319999962,18,146451.3437500000,193747.4843750000,180814.6562500000,148986.8906250000,119711.6171875000,151834.8906250000,134023.1875000000,144422.8593750000,,,
2.3359999962,18,146243.6875000000,194169.6718750000,178922.7656250000,148535.0156250000,119598.6718750000,151642.8437500000,134041.6093750000,144225.2968750000,,,
2.3399999961,18,146194.2031250000,194863.2031250000,177936.7812500000,148500.6562500000,119536.6562500000,151624.8906250000,133646.6562500000,144148.9375000000,,,
2.3439999961,18,146388.8125000000,194846.7343750000,179082.8906250000,148895.4531250000,119634.6953125000,151805.8593750000,133781.9062500000,144339.5625000000,,,
2.3479999963,18,146594.2500000000,194137.9375000000,180886.8281250000,149198.5937500000,119895.4062500000,151960.7031250000,134202.4375000000,144540.8593750000,,,
2.3519999962,18,146445.5781250000,193754.7343750000,180856.0156250000,148969.4062500000,119753.3828125000,151857.1406250000,134083.4843750000,144412.7812500000,,,
2.3559999962,18,146192.0468750000,194166.4218750000,178894.2500000000,148567.4218750000,119498.1406250000,151669.1250000000,133758.1406250000,144170.5781250000,,,
2.3599999961,18,146139.9375000000,194864.2500000000,177859.4531250000,148484.4843750000,119412.3359375000,151588.0625000000,133632.7968750000,144115.8906250000,,,
2.3639999961,18,146383.2968750000,194848.6406250000,179062.7656250000,148851.5937500000,119715.2656250000,151747.5468750000,134131.6093750000,144320.1406250000,,,
2.3679999961,18,146629.2812500000,194140.9218750000,180931.8906250000,149213.2968750000,120020.6640625000,151958.6406250000,134161.5937500000,144549.0625000000,,,
2.3719999962,18,146492.7343750000,193766.9062500000,180888.1406250000,148990.7968750000,119744.2890625000,151917.8125000000,133934.8906250000,144469.9062500000,,,
2.3759999962,18,146275.5156250000,194200.4062500000,178952.0781250000,148577.9843750000,119572.7343750000,151697.2031250000,133829.1875000000,144264.4062500000,,,
2.3799999962,18,146158.2500000000,194898.5625000000,177895.9531250000,148503.3437500000,119441.3046875000,151589.4375000000,133635.7500000000,144141.1562500000,,,
2.3839999961,18,146339.6562500000,194868.0937500000,178997.5156250000,148900.2031250000,119559.0312500000,151759.3750000000,133782.7343750000,144282.5937500000,,,
2.3879999961,18,146618.7343750000,194143.5937500000,180836.8125000000,149280.7500000000,119897.1171875000,152026.0937500000,134325.2656250000,144524.6250000000,,,
2.3919999963,18,146552.0781250000,193782.3125000000,180908.6718750000,149028.8593750000,119844.2265625000,151933.2656250000,134158.3750000000,144509.6093750000,,,
2.3959999962,18,146235.2031250000,194195.8281250000,178949.9843750000,148536.0156250000,119555.0546875000,151625.3750000000,133819.6093750000,144215.2031250000,,,
2.3999999962,18,146215.7656250000,194904.3750000000,177916.7500000000,148512.1562500000,119541.2187500000,151682.8593750000,133874.2812500000,144158.3437500000,,,
2.4039999961,18,146516.8125000000,194932.9687500000,179153.3281250000,148946.5781250000,119836.8750000000,151931.7187500000,134106.3437500000,144445.6093750000,,,
2.4079999961,18,146551.4375000000,194178.8906250000,180871.3281250000,149198.7031250000,119761.2656250000,151905.1562500000,133925.3906250000,144478.4218750000,,,
2.4119999961,18,146451.6562500000,193770.0000000000,180825.2031250000,148965.4375000000,119675.9218750000,151933.4062500000,134027.7968750000,144431.6875000000,,,
2.4159999962,18,146259.2968750000,194192.7968750000,178956.5781250000,148566.4531250000,119585.4765625000,151712.4375000000,133775.5625000000,144225.3281250000,,,
2.4199999962,18,146198.1875000000,194901.6250000000,177914.7031250000,148489.9218750000,119502.0312500000,151625.9062500000,133694.7500000000,144139.8125000000,,,
2.4239999962,18,146366.9375000000,194890.7031250000,179028.8437500000,148857.1718750000,119623.0000000000,151728.2656250000,133858.1875000000,144318.8750000000,,,
2.4279999961,18,146562.9687500000,194153.9531250000,180785.4531250000,149220.5156250000,119754.2109375000,151957.9687500000,134066.8281250000,144479.4687500000,,,
2.4319999961,19,146462.6406250000,193755.1562500000,180804.1875000000,148955.5000000000,119668.4375000000,151909.4531250000,134047.4687500000,144414.6562500000,,,
2.4359999960,19,146179.5781250000,194133.5156250000,178873.5468750000,148480.2968750000,119487.5703125000,151690.1718750000,133923.8906250000,144136.5156250000,,,
2.4399999960,19,146193.6875000000,194855.8281250000,177868.2187500000,148457.0156250000,119558.0859375000,151670.7812500000,133948.9687500000,144143.8125000000,,,
2.4439999959,19,146421.2968750000,194891.1250000000,179067.3281250000,148765.5312500000,119806.6250000000,151813.4062500000,134208.3750000000,144365.9843750000,,,
2.4479999959,19,146576.8750000000,194188.7656250000,180839.5156250000,149104.5781250000,119826.1718750000,151912.5312500000,134062.8125000000,144544.7968750000,,,
2.4519999959,19,146426.6093750000,193787.4218750000,180808.8125000000,148885.8437500000,119639.8984375000,151857.7031250000,133873.7031250000,144379.6562500000,,,
2.4559999960,19,146186.0781250000,194170.4531250000,178908.1718750000,148414.1875000000,119511.2343750000,151658.5000000000,133868.5000000000,144130.2343750000,,,
2.4599999960,19,146174.0781250000,194896.1250000000,177850.0937500000,148368.5781250000,119496.0468750000,151600.7031250000,133759.5312500000,144153.8906250000,,,
2.4639999960,19,146419.8750000000,194927.8750000000,179028.8906250000,148774.2656250000,119717.3593750000,151818.8125000000,133947.6093750000,144357.5625000000,,,
2.4679999959,19,146529.1250000000,194185.8906250000,180775.0937500000,149046.3281250000,119755.2578125000,151980.6406250000,134052.1093750000,144462.4531250000,,,
2.4719999959,19,146440.7187500000,193774.5468750000,180837.9843750000,148857.0156250000,119724.3828125000,151853.7187500000,134096.7343750000,144395.4531250000,,,
2.4759999961,19,146241.4062500000,194171.1718750000,178939.3906250000,148434.4843750000,119566.4296875000,151678.1093750000,134116.3125000000,144222.6875000000,,,
2.4799999960,19,146209.3593750000,194916.6718750000,177893.2187500000,148348.2343750000,119523.8359375000,151615.6093750000,133758.8125000000,144234.6875000000,,,
2.4839999960,19,146345.6562500000,194924.4687500000,178964.8125000000,148679.9062500000,119600.8984375000,151748.0312500000,133956.2656250000,144278.7187500000,,,
2.4879999959,19,146596.7656250000,194200.4843750000,180795.6406250000,149022.5000000000,119873.2734375000,152004.6406250000,134043.1718750000,144549.5937500000,,,
2.4919999959,19,146481.2500000000,193796.7968750000,180902.6562500000,148855.3281250000,119771.2187500000,151853.6875000000,134003.7500000000,144449.0468750000,,,
2.4959999959,19,146175.8750000000,194176.7500000000,178938.7500000000,148382.4843750000,119476.0937500000,151707.4062500000,133870.5781250000,144118.1406250000,,,
2.4999999960,19,146203.5625000000,194931.1562500000,177893.7343750000,148336.5312500000,119537.0078125000,151678.2656250000,133991.7343750000,144195.9062500000,,,
2.5039999960,19,146348.6406250000,194937.8593750000,178976.4062500000,148696.1406250000,119582.0390625000,151718.5000000000,133891.9218750000,144290.9062500000,,,
2.5079999960,19,146497.3125000000,194136.6562500000,180708.9687500000,149002.1250000000,119712.6406250000,151955.8281250000,134035.0781250000,144404.0937500000,,,
2.5119999959,19,146458.6406250000,193702.9375000000,180820.9843750000,148868.7343750000,119702.8203125000,151867.6093750000,134027.1406250000,144422.8437500000,,,
2.5159999959,19,146238.2187500000,194131.2031250000,178987.4843750000,148399.7812500000,119587.8906250000,151639.8593750000,133815.8593750000,144221.4843750000,,,
2.5199999961,19,146159.9687500000,194892.3437500000,177909.1718750000,148310.0781250000,119511.5781250000,151573.8750000000,133727.7500000000,144124.3437500000,,,
2.5239999960,19,146370.4218750000,194893.1093750000,178998.2343750000,148675.2343750000,119691.2578125000,151745.3593750000,133992.5312500000,144339.5781250000,,,
2.5279999960,19,146546.7812500000,194099.4531250000,180763.3906250000,149023.2656250000,119792.9453125000,151943.7031250000,134195.9843750000,144495.6406250000,,,
2.5319999959,19,146487.1718750000,193641.8593750000,180871.5468750000,148865.1406250000,119746.4062500000,151967.3125000000,134324.5312500000,144448.1406250000,,,
2.5359999959,19,146215.3906250000,194058.6875000000,178998.2656250000,148432.4218750000,119488.1640625000,151632.3281250000,133664.2812500000,144207.1875000000,,,
2.5399999958,19,146080.9843750000,194782.1562500000,177824.0781250000,148288.2500000000,119322.9375000000,151544.0000000000,133573.4062500000,144050.5781250000,,,
2.5439999960,19,146355.0000000000,194778.1875000000,178947.2187500000,148662.2343750000,119659.3125000000,151783.3125000000,134086.5781250000,144294.8750000000,,,
2.5479999960,19,146602.6718750000,193997.6875000000,180784.1093750000,149055.6875000000,119881.4531250000,151912.3125000000,134139.7656250000,144550.9375000000,,,
2.5519999960,19,146444.0937500000,193560.8125000000,180867.0156250000,148845.7031250000,119675.3281250000,151880.7500000000,133950.0937500000,144430.0000000000,,,
2.5559999959,19,146142.5312500000,193983.2500000000,178943.1718750000,148381.9375000000,119395.9765625000,151540.0312500000,133835.7343750000,144085.3125000000,,,
2.5599999959,20,146115.3750000000,194745.9687500000,177832.9531250000,148314.1093750000,119387.3906250000,151557.9687500000,133760.5156250000,144071.3906250000,,,
2.5639999958,20,146347.7343750000,194766.2968750000,178926.5625000000,148699.7343750000,119614.0156250000,151809.2968750000,133957.2812500000,144277.5781250000,,,
2.5679999958,20,146593.6875000000,194020.9218750000,180781.3906250000,149031.6250000000,119878.2890625000,151940.2968750000,134237.0468750000,144531.1718750000,,,
2.5719999957,20,146436.9375000000,193582.1875000000,180899.3125000000,148839.6562500000,119698.9843750000,151795.6406250000,134015.5937500000,144382.7968750000,,,
2.5759999957,20,146168.6875000000,193980.3125000000,179005.2968750000,148391.6562500000,119483.6015625000,151574.4218750000,133761.8906250000,144133.9687500000,,,
2.5799999957,20,146117.9218750000,194723.8750000000,177875.1406250000,148308.5625000000,119414.8593750000,151611.8593750000,133685.8281250000,144088.2343750000,,,
2.5839999958,20,146340.1093750000,194775.8281250000,178942.6093750000,148682.0000000000,119579.8671875000,151742.2187500000,134014.2656250000,144309.3593750000,,,
2.5879999958,20,146514.4218750000,194040.5156250000,180734.4843750000,149006.2812500000,119719.1796875000,151849.6093750000,134198.7968750000,144460.8750000000,,,
2.5919999958,20,146408.6875000000,193601.0468750000,180872.5937500000,148842.4531250000,119634.6093750000,151839.3593750000,133900.9375000000,144366.7343750000,,,
2.5959999957,20,146196.6718750000,193993.0468750000,179017.7343750000,148426.0312500000,119488.6484375000,151683.3593750000,133871.2968750000,144145.6093750000,,,
2.5999999957,20,146142.1875000000,194737.8125000000,177891.3437500000,148320.7812500000,119442.7500000000,151567.4375000000,133712.9062500000,144094.2968750000,,,
2.6039999959,20,146343.7812500000,194808.0625000000,178981.3437500000,148669.5781250000,119657.0859375000,151748.1406250000,133977.1093750000,144265.4687500000,,,
2.6079999958,20,146528.0468750000,194107.5781250000,180809.3437500000,149002.2812500000,119789.1640625000,151926.7031250000,134080.3281250000,144462.0312500000,,,
2.6119999958,20,146424.9687500000,193681.2343750000,180921.2656250000,148843.6093750000,119632.0390625000,151795.4843750000,134101.3281250000,144392.5781250000,,,
2.6159999957,20,146235.8750000000,194042.5000000000,179077.3125000000,148443.6406250000,119532.2343750000,151742.5937500000,133944.2500000000,144220.4375000000,,,
2.6199999957,20,146113.7343750000,194744.3593750000,177885.2812500000,148333.2656250000,119320.7109375000,151587.3906250000,133526.3593750000,144095.8593750000,,,
2.6239999956,20,146284.1093750000,194804.7968750000,178907.8125000000,148660.0937500000,119491.5703125000,151668.4843750000,133909.7343750000,144207.3593750000,,,
2.6279999958,20,146526.1718750000,194131.4218750000,180782.0468750000,149015.9687500000,119782.5859375000,151934.7968750000,134222.5625000000,144452.6406250000,,,
2.6319999958,20,146456.4375000000,193708.6562500000,180976.3125000000,148873.6250000000,119716.4765625000,151917.7343750000,134026.6718750000,144412.1875000000,,,
2.6359999957,20,146201.4375000000,194028.5625000000,179066.0937500000,148434.0312500000,119449.2421875000,151702.6562500000,133818.9375000000,144197.1562500000,,,
2.6399999957,20,146116.6562500000,194710.6718750000,177906.5156250000,148317.6718750000,119412.6562500000,151522.3750000000,133713.0468750000,144039.0937500000,,,
2.6439999957,20,146337.0312500000,194815.1406250000,178986.3281250000,148675.7031250000,119622.3281250000,151783.4062500000,133978.0468750000,144257.7031250000,,,
2.6479999959,20,146533.4687500000,194148.6093750000,180829.0000000000,149020.4375000000,119783.0703125000,151866.6406250000,134174.7031250000,144441.3437500000,,,
2.6519999958,20,146431.4062500000,193702.1406250000,180971.8906250000,148854.7031250000,119639.8125000000,151744.0156250000,133954.5468750000,144364.7500000000,,,
2.6559999958,20,146195.7500000000,194026.8125000000,179093.9843750000,148409.8906250000,119454.7968750000,151650.1875000000,133734.5625000000,144149.4375000000,,,
2.6599999957,20,146117.7031250000,194740.3593750000,177915.2656250000,148311.6718750000,119365.3203125000,151703.7187500000,133756.7187500000,144080.0781250000,,,
2.6639999957,20,146294.5468750000,194821.0156250000,178938.2656250000,148671.8906250000,119521.1015625000,151638.0625000000,133930.2812500000,144240.9375000000,,,
2.6679999956,20,146509.7812500000,194129.2968750000,180762.3281250000,149016.8281250000,119729.8828125000,151922.6718750000,134101.6718750000,144425.1250000000,,,
2.6719999958,20,146470.5156250000,193684.0312500000,180993.7656250000,148888.0000000000,119733.5312500000,151933.6093750000,134155.4843750000,144399.5312500000,,,
2.6759999958,20,146212.4687500000,194031.1562500000,179132.1875000000,148449.1093750000,119469.8437500000,151640.3437500000,133825.5937500000,144196.0937500000,,,
2.6799999957,20,146113.9218750000,194773.0000000000,177932.2187500000,148324.6562500000,119380.7968750000,151527.4687500000,133766.5625000000,144081.2031250000,,,
2.6839999957,20,146307.1406250000,194864.6250000000,178974.5000000000,148672.9687500000,119571.7109375000,151733.4218750000,133886.7968750000,144209.2343750000,,,
2.6879999957,21,146487.6562500000,194129.3593750000,180753.3125000000,149004.5937500000,119683.5859375000,151934.7968750000,134050.9531250000,144398.8593750000,,,
2.6919999956,21,146448.1250000000,193656.7500000000,180968.6406250000,148865.1406250000,119694.5859375000,151913.0156250000,134102.0156250000,144386.6562500000,,,
2.6959999956,21,146227.3750000000,194030.4062500000,179155.3125000000,148458.6562500000,119533.9218750000,151718.8750000000,133863.5156250000,144175.9218750000,,,
2.6999999955,21,146142.4375000000,194820.9843750000,177960.5468750000,148366.1250000000,119399.9218750000,151577.7968750000,133843.1562500000,144108.2500000000,,,
2.7039999955,21,146310.4375000000,194910.2343750000,178946.7656250000,148696.8125000000,119532.9531250000,151725.5781250000,133946.2656250000,144234.4218750000,,,
2.7079999954,21,146517.3437500000,194134.2187500000,180736.3593750000,149041.7343750000,119705.0468750000,151925.6562500000,134048.0781250000,144436.8906250000,,,
2.7119999956,21,146473.7968750000,193634.9375000000,180970.8906250000,148903.4687500000,119705.1015625000,151882.7656250000,134098.2343750000,144420.9687500000,,,
2.7159999956,21,146220.9375000000,194030.5468750000,179146.6406250000,148454.5781250000,119489.1562500000,151685.1562500000,133889.7968750000,144173.1562500000,,,
2.7199999955,21,146130.0468750000,194850.5468750000,177939.8906250000,148346.0000000000,119378.1953125000,151614.0625000000,133761.3593750000,144075.5156250000,,,
2.7239999955,21,146340.9375000000,194949.2343750000,178943.9687500000,148709.3593750000,119578.8515625000,151819.2812500000,133933.5312500000,144282.6875000000,,,
2.7279999955,21,146555.9687500000,194153.2343750000,180760.0156250000,149059.4375000000,119785.4296875000,151962.3906250000,134159.7968750000,144486.1093750000,,,
2.7319999957,21,146455.4218750000,193622.5000000000,180974.2656250000,148902.4218750000,119693.9140625000,151879.1093750000,134104.4062500000,144370.5937500000,,,
2.7359999956,21,146202.1718750000,194023.9218750000,179142.2656250000,148453.8750000000,119470.4375000000,151676.1562500000,133860.1093750000,144147.4062500000,,,
2.7399999956,21,146113.2187500000,194871.0937500000,177926.4843750000,148338.7656250000,119369.2890625000,151585.2812500000,133744.0312500000,144064.5000000000,,,
2.7439999955,21,146314.6093750000,194973.4687500000,178904.0625000000,148693.7500000000,119545.2421875000,151751.9843750000,133942.8593750000,144235.1875000000,,,
2.7479999955,21,146545.7031250000,194157.0156250000,180714.6562500000,149046.9218750000,119767.9687500000,151964.9687500000,134209.5468750000,144449.0468750000,,,
2.7519999954,21,146487.7343750000,193615.8437500000,180972.2343750000,148907.9843750000,119739.6171875000,151894.2187500000,134177.7187500000,144414.0468750000,,,
2.7559999956,21,146215.2343750000,194021.5312500000,179148.7812500000,148449.5000000000,119478.7187500000,151679.5000000000,133799.2812500000,144173.5625000000,,,
2.7599999956,21,146111.3125000000,194891.1250000000,177925.3281250000,148326.8437500000,119370.7656250000,151617.6718750000,133741.7656250000,144064.9843750000,,,
2.7639999955,21,146322.0625000000,195012.3437500000,178912.4843750000,148691.4375000000,119565.8125000000,151767.1093750000,133938.2968750000,144245.9687500000,,,
2.7679999955,21,146543.6875000000,194181.5781250000,180722.8125000000,149061.7500000000,119765.3984375000,151971.3750000000,134158.0781250000,144447.1093750000,,,
2.7719999955,21,146480.8125000000,193626.3906250000,180976.4218750000,148931.1562500000,119709.1250000000,151921.0937500000,134110.1406250000,144408.0937500000,,,
2.7759999956,21,146241.2656250000,194036.1562500000,179167.5937500000,148489.7656250000,119497.0703125000,151709.6562500000,133897.7968750000,144191.3593750000,,,
2.7799999956,21,146163.2500000000,194920.3437500000,177955.0468750000,148362.2031250000,119422.6640625000,151636.2968750000,133823.6562500000,144118.5781250000,,,
2.7839999956,21,146352.3906250000,195042.9687500000,178918.4062500000,148700.9062500000,119584.8046875000,151799.2187500000,133963.8281250000,144276.9531250000,,,
2.7879999955,21,146562.6562500000,194203.8750000000,180719.5156250000,149061.0781250000,119782.2968750000,151987.3437500000,134148.5781250000,144471.1250000000,,,
2.7919999955,21,146484.5000000000,193627.7812500000,180968.9843750000,148928.9531250000,119699.6015625000,151934.2656250000,134108.4062500000,144413.6093750000,,,
2.7959999954,21,146227.9687500000,194022.3906250000,179159.1718750000,148491.2500000000,119481.2421875000,151703.6093750000,133891.0937500000,144175.5156250000,,,
2.7999999956,21,146140.0937500000,194900.8437500000,177933.8750000000,148368.6406250000,119402.7109375000,151604.7968750000,133806.8125000000,144099.0468750000,,,
2.8039999956,21,146339.2812500000,195034.1718750000,178899.5781250000,148715.2812500000,119580.3515625000,151773.5625000000,133971.6875000000,144276.3437500000,,,
2.8079999955,21,146557.6093750000,194203.1718750000,180709.8125000000,149077.8437500000,119777.1718750000,151993.6718750000,134190.0000000000,144467.0468750000,,,
2.8119999955,21,146482.7812500000,193617.2500000000,180987.8437500000,148938.6562500000,119715.1328125000,151932.3906250000,134129.5156250000,144399.1875000000,,,
2.8159999955,22,146229.8437500000,194008.2812500000,179190.8125000000,148482.0937500000,119494.4140625000,151716.8906250000,133927.8437500000,144180.8750000000,,,
2.8199999954,22,146146.3437500000,194887.8125000000,177950.0000000000,148356.2500000000,119410.3281250000,151629.4843750000,133829.8593750000,144110.0937500000,,,
2.8239999954,22,146337.6093750000,195016.3593750000,178896.6406250000,148712.2031250000,119579.0937500000,151773.0625000000,133953.3125000000,144260.3281250000,,,
2.8279999953,22,146557.3125000000,194172.8593750000,180702.7500000000,149078.6250000000,119783.6328125000,151971.5937500000,134160.5781250000,144463.4218750000,,,
2.8319999953,22,146500.2968750000,193588.0625000000,181005.6250000000,148954.7031250000,119752.2265625000,151924.4687500000,134130.7187500000,144425.1250000000,,,
2.8359999952,22,146246.7187500000,193992.7812500000,179217.7968750000,148518.5781250000,119508.8984375000,151690.5781250000,133917.2968750000,144209.8750000000,,,
2.8399999954,22,146140.7343750000,194885.5468750000,177961.5156250000,148369.2500000000,119413.8671875000,151612.2031250000,133830.5000000000,144102.0156250000,,,
2.8439999954,22,146324.6562500000,195029.9062500000,178897.4843750000,148709.8906250000,119570.6171875000,151780.0312500000,133993.4687500000,144247.3906250000,,,
2.8479999953,22,146548.1093750000,194178.5156250000,180685.9843750000,149071.0625000000,119766.8750000000,151970.0156250000,134214.3437500000,144462.4843750000,,,
2.8519999953,22,146490.3906250000,193583.4687500000,180990.7968750000,148960.2031250000,119714.5937500000,151900.7656250000,134152.3593750000,144410.3906250000,,,
2.8559999953,22,146227.4531250000,193993.1562500000,179216.1093750000,148492.7187500000,119484.6796875000,151668.6718750000,133908.7187500000,144182.7343750000,,,
2.8599999954,22,146135.5312500000,194895.8281250000,177960.7500000000,148359.9531250000,119394.8203125000,151594.4843750000,133830.7968750000,144084.5625000000,,,
2.8639999954,22,146323.0468750000,195045.5937500000,178880.5468750000,148704.0000000000,119556.9062500000,151752.1406250000,133984.2656250000,144251.2343750000,,,
2.8679999954,22,146554.5781250000,194193.0937500000,180682.7656250000,149082.2343750000,119773.0937500000,151973.9062500000,134197.3125000000,144468.9218750000,,,
2.8719999953,22,146484.3125000000,193578.0781250000,180993.1093750000,148959.4218750000,119718.7031250000,151903.5468750000,134148.7656250000,144408.7031250000,,,
2.8759999953,22,146230.5468750000,193963.3750000000,179222.3125000000,148505.4062500000,119500.7734375000,151660.8906250000,133941.2500000000,144174.7343750000,,,
2.8799999952,22,146144.4375000000,194862.8593750000,177966.2031250000,148371.6093750000,119418.4765625000,151595.7968750000,133879.2031250000,144095.5000000000,,,
2.8839999954,22,146340.5625000000,195019.3125000000,178887.1875000000,148720.1406250000,119589.1250000000,151766.0000000000,134018.3906250000,144264.2187500000,,,
2.8879999954,22,146567.7968750000,194162.6718750000,180689.2656250000,149084.8906250000,119795.8125000000,151972.7031250000,134208.2031250000,144473.9375000000,,,
2.8919999953,22,146518.6875000000,193549.7031250000,181021.4843750000,148971.3281250000,119761.2656250000,151934.2656250000,134192.5156250000,144452.8750000000,,,
2.8959999953,22,146249.8593750000,193929.5000000000,179246.6562500000,148517.5000000000,119511.1796875000,151685.2656250000,133968.6093750000,144194.0468750000,,,
2.8999999953,22,146144.5000000000,194843.2343750000,177974.0312500000,148375.8750000000,119402.2265625000,151585.6875000000,133853.8281250000,144094.4531250000,,,
2.9039999954,22,146335.3437500000,195011.5937500000,178882.7656250000,148719.6250000000,119574.4531250000,151747.5781250000,134022.1250000000,144261.1875000000,,,
2.9079999954,22,146556.7031250000,194165.7500000000,180688.4843750000,149086.9687500000,119786.1015625000,151942.3281250000,134217.3750000000,144468.7343750000,,,
2.9119999954,22,146496.2656250000,193554.6406250000,181029.3906250000,148977.5468750000,119739.3281250000,151913.1250000000,134183.3437500000,144417.0937500000,,,
2.9159999953,22,146235.9062500000,193939.6718750000,179263.7187500000,148533.1875000000,119506.2968750000,151689.9062500000,133965.3281250000,144182.4375000000,,,
2.9199999953,22,146128.3437500000,194845.9687500000,177983.3125000000,148390.0156250000,119403.9921875000,151578.3281250000,133847.2656250000,144081.1250000000,,,
2.9239999952,22,146316.0781250000,195027.6875000000,178880.6250000000,148728.0312500000,119563.3984375000,151726.8750000000,134010.2343750000,144244.4218750000,,,
2.9279999954,22,146549.5156250000,194232.2187500000,180701.3125000000,149099.5468750000,119779.2656250000,151951.0000000000,134223.9062500000,144458.6250000000,,,
2.9319999954,22,146497.9531250000,193656.9375000000,181064.0781250000,149000.1093750000,119734.7890625000,151908.7031250000,134188.6250000000,144412.6718750000,,,
2.9359999953,22,146246.0781250000,194003.0781250000,179294.4531250000,148552.8281250000,119513.4843750000,151682.2343750000,133960.1093750000,144180.1875000000,,,
2.9399999953,22,146151.0156250000,194827.9375000000,177980.9531250000,148399.5156250000,119424.0078125000,151588.9843750000,133865.5781250000,144092.5781250000,,,
2.9439999952,23,146332.9218750000,194986.1406250000,178869.0625000000,148727.8437500000,119585.4453125000,151750.9062500000,134031.2343750000,144252.9687500000,,,
