Time:250Hz,Epoch,Channel 1,Channel 2,Channel 3,Channel 4,Channel 5,Channel 6,Channel 7,Channel 8,Event Id,Event Date,Event Duration
0.0000000000,0,158968.8593750000,145430.2187500000,168596.1250000000,158760.2343750000,127954.6093750000,62417.3984375000,112640.9140625000,149170.0000000000,,,
0.0040000000,0,159735.0625000000,145329.8281250000,169369.4062500000,159474.5937500000,128637.5000000000,63090.1523437500,113364.3281250000,148414.3125000000,,,
0.0079999999,0,160621.1250000000,145395.3281250000,170247.4531250000,160315.6875000000,129461.6875000000,63925.8476562500,114194.8750000000,147927.2343750000,,,
0.0119999999,0,160411.9218750000,145541.5312500000,170023.0781250000,160124.3125000000,129292.0390625000,63781.4375000000,113992.2890625000,148380.9843750000,,,
0.0159999998,0,159382.2187500000,145558.7031250000,168990.9375000000,159150.5312500000,128348.2500000000,62847.4648437500,113022.5625000000,149149.2343750000,,,
0.0199999998,0,158952.4531250000,145412.3593750000,168575.5937500000,158750.3906250000,127931.5156250000,62407.9843750000,112628.4687500000,149154.5468750000,,,
0.0240000000,0,159720.7656250000,145314.1718750000,169357.0000000000,159470.7812500000,128622.5312500000,63077.0625000000,113362.4765625000,148399.4843750000,,,
0.0279999999,0,160617.1562500000,145387.0937500000,170246.7500000000,160319.6250000000,129456.7265625000,63922.5468750000,114202.2031250000,147912.9531250000,,,
0.0319999999,0,160404.2500000000,145525.0156250000,170019.4375000000,160125.2500000000,129284.5546875000,63779.8007812500,113992.6640625000,148359.2187500000,,,
0.0359999998,0,159388.6250000000,145553.9843750000,169004.0000000000,159181.1093750000,128359.1171875000,62860.3945312500,113039.4062500000,149133.0937500000,,,
0.0399999998,0,158962.4218750000,145423.6250000000,168592.3125000000,158768.1875000000,127949.1093750000,62428.2070312500,112645.5000000000,149153.3750000000,,,
0.0440000000,0,159740.7968750000,145343.1875000000,169381.3125000000,159493.6718750000,128648.7968750000,63099.6992187500,113384.1015625000,148417.7968750000,,,
0.0480000000,0,160636.7656250000,145416.4062500000,170267.0468750000,160348.6250000000,129480.7890625000,63939.0156250000,114221.5390625000,147933.0468750000,,,
0.0519999999,0,160429.1406250000,145551.4375000000,170039.8437500000,160152.3281250000,129311.4843750000,63797.9062500000,114016.1093750000,148370.5468750000,,,
0.0559999999,0,159404.4062500000,145565.1093750000,169011.1406250000,159183.6093750000,128373.1953125000,62863.9609375000,113049.1171875000,149124.7031250000,,,
0.0599999998,0,158977.1718750000,145441.2968750000,168598.9062500000,158774.8281250000,127961.2656250000,62430.8632812500,112655.1796875000,149157.4218750000,,,
0.0639999998,0,159736.4531250000,145350.8281250000,169372.5625000000,159484.6875000000,128642.6250000000,63090.0703125000,113378.3281250000,148428.9843750000,,,
0.0680000000,0,160628.4843750000,145408.9843750000,170256.8281250000,160330.3281250000,129469.0390625000,63928.5546875000,114211.3203125000,147938.7812500000,,,
0.0719999999,0,160443.9687500000,145555.9687500000,170054.7343750000,160161.2656250000,129319.7734375000,63809.3593750000,114025.1171875000,148372.5000000000,,,
0.0759999999,0,159421.8593750000,145575.2031250000,169027.8437500000,159198.0000000000,128384.7578125000,62885.2851562500,113060.1406250000,149120.4687500000,,,
0.0799999998,0,158980.2656250000,145442.5625000000,168601.5156250000,158775.2343750000,127961.5078125000,62439.7968750000,112650.6718750000,149149.0312500000,,,
0.0839999998,0,159726.6406250000,145340.7500000000,169360.5000000000,159477.6562500000,128633.4765625000,63087.5781250000,113363.7968750000,148430.0000000000,,,
0.0880000000,0,160632.6093750000,145410.7187500000,170259.1093750000,160331.2968750000,129477.4062500000,63943.4414062500,114216.4453125000,147961.3125000000,,,
0.0919999999,0,160447.7500000000,145551.8281250000,170056.7187500000,160157.5937500000,129328.1171875000,63825.3710937500,114027.6171875000,148383.4687500000,,,
0.0959999999,0,159423.0625000000,145571.7187500000,169027.2031250000,159190.6562500000,128389.8515625000,62894.9414062500,113063.8671875000,149110.1093750000,,,
0.0999999999,0,158966.1250000000,145434.3750000000,168587.7031250000,158759.9531250000,127953.8359375000,62431.4531250000,112662.9296875000,149128.7500000000,,,
0.1039999998,0,159710.5781250000,145334.8750000000,169346.8750000000,159454.2343750000,128626.2656250000,63071.0273437500,113377.3671875000,148429.8125000000,,,
0.1079999998,0,160639.1875000000,145415.4687500000,170269.7656250000,160324.6718750000,129491.0625000000,63937.7812500000,114238.0625000000,147983.7343750000,,,
0.1120000000,0,160470.1718750000,145560.4687500000,170083.5625000000,160166.9531250000,129356.0625000000,63835.3242187500,114063.3125000000,148396.2656250000,,,
0.1159999999,0,159435.0625000000,145576.8593750000,169044.9531250000,159197.3125000000,128407.1796875000,62907.5195312500,113088.7890625000,149107.5000000000,,,
0.1199999999,0,158966.9375000000,145438.2187500000,168587.7031250000,158752.9687500000,127953.8359375000,62435.0468750000,112650.3281250000,149130.3281250000,,,
0.1239999998,0,159711.4843750000,145346.4531250000,169342.7343750000,159456.9531250000,128623.5781250000,63080.1992187500,113365.9687500000,148454.0625000000,,,
0.1279999998,1,160628.0468750000,145415.9062500000,170256.7500000000,160325.2031250000,129481.5390625000,63950.0156250000,114239.6718750000,148000.6718750000,,,
0.1319999998,1,160468.4843750000,145572.0625000000,170078.7343750000,160180.8437500000,129354.3515625000,63858.6562500000,114079.1406250000,148412.9218750000,,,
0.1359999997,1,159434.0156250000,145584.8281250000,169039.0781250000,159207.9531250000,128403.2109375000,62916.3710937500,113100.1562500000,149108.2031250000,,,
0.1399999997,1,158959.2812500000,145440.8125000000,168579.3750000000,158755.1406250000,127946.6718750000,62432.2578125000,112662.0781250000,149127.3281250000,,,
0.1439999996,1,159697.7031250000,145345.5468750000,169331.0781250000,159442.7500000000,128612.4531250000,63076.5273437500,113365.2968750000,148458.4375000000,,,
0.1479999996,1,160623.1093750000,145417.2968750000,170253.1875000000,160316.1406250000,129475.2656250000,63942.5585937500,114230.8437500000,148012.5000000000,,,
0.1519999998,1,160483.5000000000,145579.3593750000,170100.4375000000,160181.1406250000,129370.2031250000,63857.4492187500,114088.7421875000,148425.3750000000,,,
0.1559999997,1,159446.5156250000,145598.0000000000,169053.0312500000,159216.0781250000,128414.6875000000,62925.3554687500,113106.0859375000,149120.0625000000,,,
0.1599999997,1,158947.4062500000,145444.0312500000,168565.8437500000,158751.6562500000,127930.5000000000,62423.9179687500,112639.8906250000,149133.8437500000,,,
0.1639999996,1,159672.0781250000,145335.4843750000,169307.2500000000,159426.5625000000,128584.1562500000,63048.6054687500,113335.2031250000,148459.1093750000,,,
0.1679999996,1,160602.2500000000,145404.8281250000,170232.6093750000,160306.9375000000,129452.8125000000,63921.2070312500,114209.5234375000,148011.4218750000,,,
0.1719999998,1,160461.6406250000,145558.9218750000,170074.3125000000,160176.8750000000,129345.8750000000,63839.4804687500,114069.4296875000,148407.4843750000,,,
0.1759999997,1,159444.0468750000,145582.5000000000,169052.6093750000,159220.7968750000,128414.8281250000,62918.5156250000,113117.8125000000,149097.6093750000,,,
0.1799999997,1,158941.0156250000,145429.6562500000,168567.3437500000,158739.9687500000,127934.8437500000,62417.3710937500,112655.9843750000,149119.2500000000,,,
0.1839999997,1,159651.8281250000,145315.6406250000,169300.8437500000,159403.1718750000,128582.1406250000,63041.0937500000,113342.2812500000,148451.6562500000,,,
0.1879999996,1,160600.7187500000,145403.7031250000,170243.6718750000,160297.2031250000,129468.2109375000,63940.2226562500,114231.0312500000,148020.9687500000,,,
0.1919999996,1,160458.9062500000,145545.0156250000,170081.6093750000,160177.5468750000,129354.2968750000,63851.8437500000,114081.2890625000,148394.8437500000,,,
0.1959999998,1,159431.9531250000,145560.9218750000,169051.4531250000,159214.0156250000,128409.1640625000,62918.0351562500,113110.5937500000,149064.8906250000,,,
0.1999999997,1,158929.6250000000,145415.3906250000,168562.5937500000,158741.9218750000,127925.3203125000,62408.0664062500,112641.9609375000,149085.6718750000,,,
0.2039999997,1,159647.5468750000,145316.3125000000,169295.7187500000,159408.7968750000,128572.5625000000,63028.4062500000,113321.8984375000,148439.4687500000,,,
0.2079999996,1,160592.0625000000,145397.2343750000,170234.2187500000,160300.9375000000,129453.3515625000,63924.5312500000,114211.1328125000,148013.3281250000,,,
0.2119999996,1,160456.2343750000,145541.6093750000,170077.9375000000,160179.8593750000,129345.9531250000,63852.5156250000,114072.8593750000,148388.4062500000,,,
0.2159999998,1,159427.2343750000,145555.7187500000,169040.8593750000,159208.5937500000,128396.7734375000,62922.4335937500,113098.1484375000,149049.1406250000,,,
0.2199999997,1,158919.1406250000,145409.7656250000,168546.2343750000,158723.5000000000,127907.2734375000,62404.7109375000,112625.6250000000,149072.6718750000,,,
0.2239999997,1,159624.7500000000,145304.0781250000,169268.9843750000,159385.2500000000,128544.6406250000,63011.1054687500,113298.0781250000,148432.3906250000,,,
0.2279999997,1,160563.1406250000,145373.6562500000,170203.1562500000,160270.4843750000,129421.4296875000,63892.2656250000,114177.7890625000,148000.4531250000,,,
0.2319999996,1,160449.8437500000,145526.1875000000,170072.7812500000,160173.5468750000,129339.7578125000,63835.6445312500,114067.5000000000,148369.4687500000,,,
0.2359999996,1,159444.6406250000,145561.4375000000,169059.5312500000,159240.8437500000,128414.6640625000,62926.3203125000,113119.3359375000,149036.0000000000,,,
0.2399999998,1,158936.1875000000,145426.1250000000,168564.8906250000,158757.5937500000,127925.9921875000,62416.4062500000,112645.0156250000,149074.5937500000,,,
0.2439999997,1,159632.7031250000,145319.6406250000,169275.4687500000,159404.2187500000,128553.8984375000,63023.7148437500,113309.1562500000,148450.4531250000,,,
0.2479999997,1,160564.4531250000,145376.3906250000,170202.9218750000,160275.3906250000,129422.1796875000,63896.6367187500,114182.7265625000,148011.1250000000,,,
0.2519999996,1,160440.6250000000,145511.7656250000,170063.4218750000,160164.8593750000,129327.4218750000,63831.9179687500,114062.3203125000,148357.4062500000,,,
0.2559999996,2,159427.0468750000,145532.6562500000,169043.3281250000,159232.6562500000,128393.6875000000,62912.8046875000,113105.5546875000,149004.9375000000,,,
0.2599999995,2,158901.6250000000,145387.9218750000,168531.3906250000,158720.1718750000,127889.4296875000,62387.7343750000,112615.8906250000,149038.0625000000,,,
0.2639999995,2,159608.2968750000,145292.2031250000,169257.8125000000,159374.8906250000,128534.5312500000,62993.6171875000,113297.3046875000,148427.5625000000,,,
0.2679999995,2,160569.5468750000,145371.8281250000,170218.1562500000,160291.5937500000,129438.3046875000,63888.5390625000,114207.9921875000,148007.7500000000,,,
0.2719999994,2,160476.6875000000,145531.5625000000,170106.6562500000,160205.3906250000,129377.4140625000,63867.2695312500,114114.7578125000,148375.4531250000,,,
0.2759999994,2,159458.0937500000,145551.8125000000,169080.6250000000,159250.4375000000,128440.4375000000,62949.6289062500,113145.5390625000,149023.1718750000,,,
0.2799999996,2,158928.6093750000,145414.0000000000,168560.1718750000,158745.9218750000,127926.9062500000,62410.8828125000,112644.6406250000,149067.5468750000,,,
0.2839999995,2,159604.7031250000,145300.6718750000,169250.7343750000,159383.5000000000,128536.2500000000,62994.2617187500,113293.1953125000,148444.7343750000,,,
0.2879999995,2,160554.8593750000,145370.4062500000,170198.0156250000,160280.5937500000,129425.2421875000,63892.9101562500,114188.8671875000,148010.0312500000,,,
0.2919999994,2,160464.8125000000,145520.8593750000,170090.3750000000,160198.3906250000,129361.4062500000,63857.1562500000,114095.7187500000,148359.6562500000,,,
0.2959999994,2,159451.3125000000,145542.6093750000,169067.0312500000,159244.5625000000,128424.2109375000,62935.7109375000,113135.4296875000,149013.2812500000,,,
0.2999999996,2,158918.6875000000,145406.1406250000,168544.4375000000,158746.7031250000,127909.3906250000,62396.0507812500,112633.7265625000,149064.1406250000,,,
0.3039999995,2,159612.3281250000,145316.2031250000,169254.9218750000,159371.2812500000,128540.2187500000,62991.8750000000,113299.7734375000,148457.6875000000,,,
0.3079999995,2,160586.0000000000,145396.1562500000,170228.3281250000,160296.2968750000,129453.3750000000,63900.2304687500,114217.5703125000,148024.0000000000,,,
0.3119999995,2,160489.9687500000,145538.2031250000,170110.3593750000,160209.5156250000,129379.6718750000,63866.7851562500,114103.1484375000,148365.0468750000,,,
0.3159999994,2,159463.8125000000,145556.9531250000,169071.4375000000,159242.0468750000,128428.5546875000,62942.3632812500,113125.1328125000,149025.4062500000,,,
0.3199999994,2,158907.3281250000,145405.1406250000,168524.8593750000,158717.5468750000,127893.1875000000,62384.0312500000,112608.5625000000,149074.1875000000,,,
0.3239999996,2,159586.0156250000,145296.1093750000,169219.4843750000,159351.3437500000,128506.7421875000,62974.0117187500,113259.8593750000,148445.9062500000,,,
0.3279999995,2,160559.4375000000,145378.5625000000,170192.0937500000,160269.9531250000,129420.3046875000,63898.6210937500,114183.7421875000,148000.3906250000,,,
0.3319999995,2,160474.5468750000,145524.6406250000,170088.3437500000,160200.8906250000,129358.9921875000,63879.6054687500,114088.6093750000,148337.0468750000,,,
0.3359999994,2,159460.5156250000,145544.0312500000,169067.5156250000,159243.1406250000,128424.0000000000,62952.8203125000,113131.3281250000,149004.7500000000,,,
0.3399999994,2,158904.0312500000,145407.0156250000,168522.6250000000,158712.0625000000,127889.4843750000,62392.8046875000,112615.1640625000,149079.1250000000,,,
0.3439999996,2,159566.5937500000,145298.1718750000,169202.3281250000,159331.8750000000,128486.0390625000,62962.5039062500,113251.0078125000,148445.4375000000,,,
0.3479999995,2,160528.6718750000,145359.9531250000,170163.4062500000,160228.7500000000,129385.3828125000,63867.6445312500,114159.0390625000,147968.9843750000,,,
0.3519999995,2,160448.9062500000,145496.7500000000,170065.7031250000,160144.6875000000,129331.4140625000,63843.1015625000,114074.4687500000,148297.5625000000,,,
0.3559999994,2,159425.4062500000,145514.9218750000,169033.8593750000,159185.1875000000,128389.9062500000,62922.4609375000,113102.6562500000,148976.6718750000,,,
0.3599999994,2,158866.6718750000,145381.7343750000,168488.4531250000,158669.9375000000,127857.6484375000,62367.1601562500,112578.2031250000,149062.0156250000,,,
0.3639999994,2,159552.8906250000,145288.5468750000,169194.9531250000,159336.9687500000,128480.6171875000,62950.0312500000,113235.1250000000,148435.5000000000,,,
0.3679999996,2,160558.1250000000,145382.7500000000,170200.4843750000,160286.0468750000,129424.8359375000,63898.8359375000,114189.9921875000,147975.4218750000,,,
0.3719999995,2,160525.9062500000,145556.6406250000,170150.8906250000,160252.0625000000,129419.0156250000,63915.6562500000,114152.5000000000,148337.1562500000,,,
0.3759999995,2,159504.6875000000,145576.2500000000,169121.0000000000,159302.1250000000,128480.6484375000,62988.0937500000,113189.0468750000,149032.9218750000,,,
0.3799999994,2,158938.1718750000,145445.5156250000,168567.6562500000,158769.5156250000,127940.1796875000,62431.9101562500,112668.0312500000,149133.8125000000,,,
0.3839999994,3,159590.0312500000,145333.0000000000,169233.6718750000,159370.4218750000,128524.6640625000,62996.5703125000,113282.3906250000,148492.0937500000,,,
0.3879999993,3,160559.8437500000,145384.6875000000,170198.3593750000,160278.0781250000,129425.5625000000,63901.5195312500,114181.8125000000,147978.6718750000,,,
0.3919999993,3,160515.1562500000,145541.9843750000,170134.0156250000,160236.7656250000,129405.5234375000,63908.7070312500,114135.0390625000,148318.6718750000,,,
0.3959999993,3,159486.9531250000,145557.3593750000,169099.5156250000,159270.6406250000,128461.9531250000,62979.1093750000,113170.4375000000,149023.9843750000,,,
0.3999999992,3,158910.0156250000,145419.9218750000,168538.0000000000,158725.2343750000,127912.7968750000,62400.0976562500,112636.9453125000,149125.3437500000,,,
0.4039999992,3,159563.9375000000,145314.8125000000,169209.8281250000,159324.0625000000,128501.8359375000,62960.4648437500,113258.0625000000,148479.2500000000,,,
0.4079999994,3,160556.8125000000,145386.6875000000,170200.7500000000,160261.0156250000,129426.5546875000,63887.7070312500,114184.4687500000,147967.2500000000,,,
0.4119999993,3,160524.9531250000,145546.0625000000,170145.1718750000,160234.7343750000,129414.7812500000,63912.8906250000,114144.0781250000,148305.5468750000,,,
0.4159999993,3,159507.1562500000,145572.1875000000,169116.8750000000,159285.0468750000,128476.8671875000,62998.2070312500,113181.9921875000,149028.6718750000,,,
0.4199999992,3,158910.2812500000,145426.5781250000,168537.4531250000,158723.9843750000,127909.3359375000,62406.4843750000,112629.4843750000,149135.3437500000,,,
0.4239999992,3,159548.8125000000,145305.0156250000,169190.0937500000,159321.6562500000,128479.0625000000,62948.8242187500,113228.9843750000,148470.9375000000,,,
0.4279999994,3,160537.1718750000,145368.9375000000,170171.0625000000,160250.4531250000,129398.7421875000,63883.8164062500,114160.4375000000,147948.9531250000,,,
0.4319999993,3,160512.6875000000,145529.9531250000,170130.0781250000,160226.5781250000,129400.9687500000,63921.7421875000,114138.3593750000,148293.1562500000,,,
0.4359999993,3,159514.1562500000,145579.7343750000,169123.5937500000,159270.7500000000,128484.7500000000,63028.7304687500,113186.6328125000,149042.2968750000,,,
0.4399999992,3,158918.8437500000,145443.3125000000,168543.5468750000,158706.7031250000,127919.4765625000,62430.2734375000,112634.3906250000,149163.6406250000,,,
0.4439999992,3,159560.6718750000,145319.9062500000,169210.2968750000,159326.6406250000,128505.0546875000,62965.8828125000,113269.0078125000,148498.2656250000,,,
0.4479999992,3,160551.2031250000,145384.8125000000,170198.5781250000,160256.3437500000,129427.5703125000,63898.9453125000,114199.6250000000,147961.6875000000,,,
0.4519999993,3,160515.9687500000,145522.0937500000,170144.5625000000,160229.4687500000,129415.4531250000,63915.0117187500,114150.2734375000,148274.2500000000,,,
0.4559999993,3,159504.1250000000,145553.0468750000,169126.8437500000,159271.9062500000,128489.7109375000,63005.0195312500,113191.6250000000,149016.0625000000,,,
0.4599999993,3,158915.4687500000,145437.1406250000,168550.7343750000,158711.2968750000,127930.8984375000,62430.9179687500,112651.9062500000,149163.3437500000,,,
0.4639999992,3,159550.6875000000,145330.2343750000,169199.3750000000,159311.0625000000,128498.6171875000,62972.1328125000,113259.9375000000,148505.6406250000,,,
0.4679999992,3,160551.7187500000,145404.9375000000,170193.1250000000,160244.9531250000,129423.3906250000,63909.3515625000,114187.5546875000,147968.5625000000,,,
0.4719999994,3,160533.0156250000,145557.0468750000,170157.8593750000,160229.3125000000,129428.3750000000,63942.2070312500,114162.3671875000,148292.4062500000,,,
0.4759999993,3,159517.5312500000,145571.3125000000,169139.2343750000,159282.1406250000,128505.6953125000,63017.4101562500,113217.5625000000,149028.0000000000,,,
0.4799999993,3,158900.0625000000,145427.5468750000,168533.5625000000,158701.6093750000,127919.3437500000,62407.7968750000,112640.3203125000,149159.7031250000,,,
0.4839999992,3,159542.3281250000,145335.4375000000,169190.5156250000,159297.8906250000,128494.3515625000,62958.5351562500,113251.4062500000,148521.2500000000,,,
0.4879999992,3,160545.2031250000,145402.0625000000,170187.9062500000,160244.9531250000,129421.6953125000,63895.2968750000,114190.6093750000,147971.8281250000,,,
0.4919999992,3,160534.2343750000,145551.3281250000,170157.1718750000,160243.2031250000,129430.6562500000,63938.6953125000,114166.3906250000,148286.0312500000,,,
0.4959999993,3,159533.0625000000,145592.0937500000,169151.4687500000,159294.1406250000,128518.5703125000,63043.5625000000,113227.0859375000,149047.5312500000,,,
0.4999999993,3,158919.8281250000,145460.1562500000,168552.8750000000,158711.5937500000,127935.4062500000,62436.1757812500,112652.8203125000,149193.6250000000,,,
0.5039999993,3,159536.8437500000,145345.5937500000,169185.6093750000,159298.6406250000,128485.9531250000,62952.9570312500,113236.2812500000,148537.2187500000,,,
0.5079999992,3,160538.6250000000,145402.0625000000,170186.5312500000,160251.4218750000,129418.1875000000,63887.0625000000,114178.9140625000,147975.1875000000,,,
0.5119999992,4,160556.3593750000,145565.6718750000,170186.4843750000,160248.7656250000,129458.0703125000,63957.8476562500,114188.1718750000,148294.6093750000,,,
0.5159999991,4,159553.9687500000,145603.4375000000,169177.6406250000,159308.7031250000,128541.6953125000,63056.1406250000,113245.1093750000,149044.9843750000,,,
0.5199999991,4,158896.2812500000,145442.4218750000,168535.7187500000,158697.1875000000,127917.3281250000,62400.1523437500,112631.4453125000,149167.4062500000,,,
0.5239999990,4,159521.1250000000,145343.0468750000,169177.1875000000,159280.5625000000,128477.0781250000,62931.8476562500,113225.4765625000,148533.5937500000,,,
0.5279999990,4,160525.5156250000,145399.1875000000,170179.5000000000,160223.5156250000,129409.6015625000,63873.8125000000,114171.7812500000,147979.9843750000,,,
0.5319999990,4,160534.3125000000,145543.8125000000,170168.5156250000,160239.5312500000,129437.3593750000,63931.3710937500,114172.2656250000,148276.2031250000,,,
0.5359999991,4,159533.2031250000,145580.2968750000,169155.1718750000,159291.0781250000,128517.2812500000,63034.9765625000,113221.7734375000,149017.3281250000,,,
0.5399999991,4,158901.5625000000,145447.2031250000,168537.2500000000,158687.7968750000,127919.4765625000,62413.4296875000,112632.0078125000,149168.4531250000,,,
0.5439999991,4,159506.5937500000,145329.1562500000,169157.4531250000,159255.1875000000,128459.8046875000,62922.5664062500,113206.9921875000,148525.9843750000,,,
0.5479999990,4,160533.9062500000,145400.9062500000,170178.2500000000,160227.9218750000,129411.7500000000,63879.3906250000,114170.1718750000,147987.0468750000,,,
0.5519999990,4,160559.8906250000,145556.4531250000,170184.2500000000,160262.2500000000,129457.3984375000,63957.0429687500,114191.4687500000,148291.0937500000,,,
0.5559999992,4,159555.2812500000,145587.3281250000,169172.4687500000,159322.3593750000,128539.6015625000,63057.1875000000,113247.4921875000,149025.6250000000,,,
0.5599999991,4,158904.0312500000,145447.2500000000,168535.6406250000,158701.7968750000,127920.7109375000,62421.0195312500,112642.6250000000,149171.2968750000,,,
0.5639999991,4,159508.2031250000,145334.0156250000,169156.7500000000,159271.2812500000,128457.8750000000,62928.8164062500,113214.8750000000,148539.3125000000,,,
0.5679999990,4,160521.3281250000,145387.2500000000,170168.3750000000,160219.3906250000,129399.9453125000,63875.4765625000,114164.7031250000,147983.8437500000,,,
0.5719999990,4,160546.1406250000,145539.1250000000,170174.0937500000,160241.6875000000,129443.3203125000,63962.2734375000,114177.9765625000,148275.7812500000,,,
0.5759999990,4,159548.2500000000,145575.0156250000,169169.2812500000,159309.6718750000,128531.9296875000,63059.4414062500,113238.6171875000,149004.5625000000,,,
0.5799999991,4,158909.2187500000,145448.5468750000,168544.4062500000,158706.1406250000,127928.6484375000,62429.3085937500,112647.1640625000,149168.3125000000,,,
0.5839999991,4,159505.3906250000,145341.5000000000,169155.8750000000,159263.2343750000,128460.2109375000,62935.8437500000,113212.9218750000,148547.6718750000,,,
0.5879999991,4,160507.5156250000,145380.6562500000,170158.3750000000,160225.1562500000,129390.9609375000,63853.7773437500,114160.6796875000,147973.4218750000,,,
0.5919999990,4,160538.5156250000,145522.7031250000,170172.3125000000,160250.4843750000,129441.0937500000,63942.6367187500,114182.3515625000,148251.5312500000,,,
0.5959999990,4,159554.2812500000,145572.4687500000,169178.7968750000,159325.6718750000,128542.1796875000,63060.4609375000,113250.5000000000,148998.7968750000,,,
0.5999999992,4,158902.3437500000,145447.5000000000,168537.7031250000,158706.6250000000,127924.7343750000,62417.7226562500,112639.8906250000,149171.2656250000,,,
0.6039999991,4,159499.8281250000,145342.6718750000,169152.1718750000,159236.6875000000,128461.2812500000,62931.3125000000,113218.6875000000,148557.7343750000,,,
0.6079999991,4,160519.5312500000,145395.1718750000,170170.2187500000,160210.6406250000,129404.5859375000,63907.2343750000,114173.5546875000,147993.7968750000,,,
0.6119999990,4,160565.1875000000,145541.5312500000,170199.4062500000,160264.5312500000,129466.0390625000,63944.8632812500,114203.3281250000,148266.3906250000,,,
0.6159999990,4,159576.1093750000,145583.5625000000,169202.8125000000,159341.8281250000,128562.6640625000,63048.5234375000,113264.5546875000,149009.7187500000,,,
0.6199999989,4,158894.2500000000,145444.5468750000,168530.6718750000,158701.5000000000,127915.4531250000,62399.3750000000,112623.3437500000,149180.5468750000,,,
0.6239999991,4,159470.2031250000,145322.7500000000,169120.9218750000,159240.5937500000,128426.8906250000,62890.5156250000,113177.2187500000,148547.6718750000,,,
0.6279999991,4,160511.0781250000,145398.8906250000,170155.0468750000,160209.3281250000,129389.3515625000,63893.8750000000,114151.6640625000,148004.0937500000,,,
0.6319999991,4,160583.5781250000,145576.9218750000,170207.2968750000,160278.7812500000,129477.8359375000,64023.9609375000,114207.2187500000,148311.0312500000,,,
0.6359999990,4,159607.9062500000,145634.0156250000,169224.5312500000,159362.5000000000,128589.9453125000,63157.1250000000,113293.7890625000,149066.5000000000,,,
0.6399999990,5,158915.9218750000,145455.7656250000,168548.0000000000,158722.2812500000,127933.8515625000,62440.1171875000,112644.8046875000,149196.5000000000,,,
0.6439999989,5,159485.3281250000,145329.2187500000,169135.1562500000,159253.8437500000,128442.9062500000,62858.5429687500,113193.1250000000,148561.4843750000,,,
0.6479999989,5,160511.3437500000,145395.0625000000,170163.2500000000,160210.7031250000,129402.4921875000,63797.3710937500,114158.4531250000,148005.7656250000,,,
0.6519999988,5,160585.4531250000,145541.0781250000,170236.4843750000,160280.2500000000,129511.4453125000,63929.9492187500,114227.1406250000,148269.0156250000,,,
0.6559999988,5,159588.4062500000,145570.5312500000,169215.0937500000,159350.7500000000,128582.8671875000,63113.6992187500,113286.3359375000,148995.8750000000,,,
0.6599999988,5,158921.2500000000,145487.9531250000,168543.2500000000,158720.1718750000,127933.7734375000,62508.7812500000,112624.2031250000,149245.6718750000,,,
0.6639999989,5,159457.3281250000,145307.6406250000,169109.9531250000,159258.2187500000,128417.5859375000,62795.2695312500,113175.3984375000,148540.2968750000,,,
0.6679999989,5,160466.1875000000,145336.0781250000,170111.5937500000,160187.7656250000,129344.7734375000,63786.0781250000,114140.1562500000,147936.6718750000,,,
0.6719999989,5,160545.0156250000,145495.4062500000,170171.5625000000,160247.8281250000,129438.8125000000,63917.9882812500,114191.8984375000,148210.6562500000,,,
0.6759999988,5,159577.2968750000,145556.7968750000,169195.3437500000,159353.3125000000,128557.3046875000,63059.1445312500,113272.4687500000,148974.4375000000,,,
0.6799999988,5,158899.3750000000,145446.3906250000,168529.9531250000,158709.8906250000,127919.2890625000,62432.7695312500,112643.4609375000,149191.7500000000,,,
0.6839999990,5,159465.5000000000,145356.1093750000,169108.6406250000,159227.6406250000,128420.1093750000,62915.5390625000,113190.3593750000,148611.0000000000,,,
0.6879999989,5,160485.9218750000,145377.2500000000,170130.7500000000,160194.8750000000,129367.6015625000,63842.2695312500,114157.6171875000,147982.5312500000,,,
0.6919999989,5,160558.0781250000,145517.0781250000,170179.7812500000,160274.0781250000,129447.3984375000,64019.3242187500,114183.3203125000,148231.0468750000,,,
0.6959999988,5,159594.2187500000,145578.9062500000,169208.3125000000,159366.6406250000,128573.6640625000,63112.3867187500,113291.1093750000,148994.0781250000,,,
0.6999999988,5,158889.9531250000,145417.2187500000,168524.0937500000,158720.3593750000,127909.8984375000,62303.8085937500,112622.4296875000,149142.0781250000,,,
0.7039999987,5,159420.9218750000,145278.1093750000,169064.7031250000,159204.2500000000,128371.0000000000,62789.8789062500,113129.9843750000,148510.7968750000,,,
0.7079999989,5,160436.4687500000,145323.5312500000,170073.6406250000,160152.9843750000,129305.3437500000,63766.4960937500,114077.1250000000,147922.6093750000,,,
0.7119999989,5,160545.3906250000,145499.8281250000,170166.1562500000,160266.3593750000,129427.8671875000,63918.2031250000,114167.0859375000,148200.2031250000,,,
0.7159999989,5,159588.9687500000,145562.5156250000,169208.6875000000,159354.2656250000,128564.6562500000,63056.3007812500,113275.7109375000,148962.9687500000,,,
0.7199999988,5,158894.0312500000,145445.6406250000,168530.1562500000,158702.1406250000,127916.5234375000,62433.2773437500,112644.3750000000,149192.0156250000,,,
0.7239999988,5,159470.7343750000,145386.9843750000,169121.7968750000,159226.1406250000,128434.5937500000,62983.9375000000,113206.0546875000,148651.7500000000,,,
0.7279999990,5,160502.0468750000,145422.2656250000,170161.8906250000,160188.2968750000,129403.8593750000,63991.9921875000,114160.8906250000,148053.1875000000,,,
0.7319999989,5,160540.1093750000,145460.3750000000,170177.8437500000,160263.1875000000,129443.3203125000,63924.5312500000,114143.2421875000,148160.5000000000,,,
0.7359999989,5,159565.4375000000,145514.4531250000,169177.9687500000,159351.8281250000,128534.5312500000,63002.8984375000,113251.9765625000,148926.6718750000,,,
0.7399999988,5,158885.3437500000,145427.2968750000,168517.0937500000,158688.0625000000,127905.6875000000,62371.9375000000,112613.3906250000,149199.9843750000,,,
0.7439999988,5,159418.1562500000,145323.8750000000,169072.5625000000,159172.2031250000,128385.3750000000,62735.1054687500,113095.7890625000,148596.5781250000,,,
0.7479999987,5,160408.2187500000,145291.5468750000,170051.0312500000,160126.5000000000,129287.6171875000,63673.8554687500,114059.9062500000,147891.8281250000,,,
0.7519999989,5,160522.6875000000,145443.0937500000,170143.6718750000,160237.6250000000,129411.5859375000,63868.7968750000,114176.7968750000,148133.2812500000,,,
0.7559999989,5,159575.5000000000,145512.5156250000,169195.5156250000,159353.3906250000,128562.0546875000,63050.6679687500,113278.6640625000,148934.3750000000,,,
0.7599999988,5,158869.7812500000,145406.5468750000,168505.2656250000,158681.0312500000,127902.8750000000,62375.9843750000,112621.1171875000,149206.6875000000,,,
0.7639999988,5,159408.7500000000,145305.6093750000,169059.2031250000,159174.6093750000,128376.5468750000,62871.0156250000,113133.5546875000,148604.4062500000,,,
0.7679999988,6,160437.6093750000,145331.4687500000,170082.8906250000,160157.5156250000,129318.3828125000,63744.3164062500,114095.1250000000,147916.4375000000,,,
0.7719999987,6,160552.2812500000,145485.9843750000,170181.7343750000,160260.6093750000,129451.6875000000,63935.0468750000,114204.3984375000,148152.2656250000,,,
0.7759999987,6,159608.1406250000,145554.2812500000,169237.6718750000,159374.5000000000,128608.8046875000,63135.0234375000,113313.3671875000,148987.6875000000,,,
0.7799999986,6,158893.5000000000,145426.5468750000,168528.4218750000,158743.5625000000,127922.4218750000,62352.8398437500,112625.7812500000,149246.0156250000,,,
0.7839999986,6,159411.7812500000,145306.8437500000,169062.2343750000,159179.8125000000,128378.6718750000,62803.1562500000,113141.8984375000,148603.5781250000,,,
0.7879999985,6,160447.3750000000,145359.6093750000,170083.5312500000,160146.9218750000,129321.4921875000,63844.9257812500,114100.9453125000,147925.2968750000,,,
0.7919999987,6,160563.5781250000,145493.1250000000,170180.2343750000,160288.8125000000,129446.8593750000,63910.4257812500,114203.5390625000,148117.2812500000,,,
0.7959999987,6,159608.5937500000,145538.8593750000,169225.4375000000,159388.7343750000,128590.5390625000,63064.1328125000,113303.2578125000,148957.6562500000,,,
0.7999999986,6,158881.9843750000,145419.8437500000,168523.2968750000,158685.1718750000,127922.6093750000,62334.7890625000,112637.4218750000,149267.5312500000,,,
0.8039999986,6,159391.9843750000,145299.5468750000,169046.4843750000,159175.6562500000,128363.3828125000,62759.9726562500,113122.8750000000,148595.5781250000,,,
0.8079999986,6,160429.2968750000,145334.7968750000,170072.9687500000,160156.8906250000,129305.5312500000,63734.2851562500,114093.2734375000,147853.4062500000,,,
0.8119999988,6,160566.4375000000,145493.5000000000,170214.2968750000,160269.0625000000,129481.5390625000,63922.0664062500,114224.1093750000,148091.4062500000,,,
0.8159999987,6,159597.5781250000,145527.6718750000,169222.0625000000,159362.3437500000,128586.7578125000,63055.7656250000,113307.0625000000,148948.2343750000,,,
0.8199999987,6,158852.1875000000,145400.3437500000,168483.2187500000,158650.3593750000,127878.2734375000,62408.1718750000,112612.1875000000,149278.2031250000,,,
0.8239999986,6,159357.0000000000,145272.7812500000,169005.3437500000,159129.4687500000,128318.9375000000,62774.6445312500,113104.1796875000,148588.9218750000,,,
0.8279999986,6,160431.6875000000,145356.8906250000,170073.9687500000,160155.0156250000,129303.9218750000,63727.6601562500,114108.1875000000,147871.3593750000,,,
0.8319999985,6,160577.2031250000,145507.4375000000,170206.2500000000,160298.8125000000,129466.3046875000,63921.3945312500,114238.4375000000,148082.8437500000,,,
0.8359999987,6,159626.9375000000,145557.6562500000,169248.3750000000,159407.0625000000,128608.2656250000,63090.1523437500,113333.0312500000,148980.0156250000,,,
0.8399999987,6,158893.6875000000,145432.4843750000,168535.7187500000,158714.1562500000,127932.1640625000,62378.2382812500,112669.5859375000,149310.4218750000,,,
0.8439999986,6,159428.8125000000,145368.4843750000,169100.7968750000,159206.9843750000,128425.1484375000,62870.9609375000,113209.5937500000,148695.0625000000,,,
0.8479999986,6,160480.4843750000,145420.7812500000,170140.8906250000,160194.7656250000,129380.3359375000,63814.7773437500,114189.7265625000,147937.7968750000,,,
0.8519999986,6,160602.2031250000,145531.9531250000,170241.1250000000,160317.3125000000,129505.0625000000,63927.8867187500,114243.6093750000,148120.0781250000,,,
0.8559999987,6,159637.2968750000,145555.0312500000,169257.0625000000,159434.3906250000,128613.8984375000,63052.7890625000,113335.0937500000,148968.0625000000,,,
0.8599999987,6,158900.8750000000,145440.2500000000,168534.7031250000,158737.5000000000,127927.1953125000,62376.4140625000,112664.4921875000,149308.6250000000,,,
0.8639999987,6,159404.5937500000,145342.4687500000,169062.3125000000,159193.6562500000,128373.3593750000,62805.5156250000,113143.8828125000,148668.6093750000,,,
0.8679999986,6,160441.1562500000,145395.0312500000,170083.4375000000,160175.4062500000,129312.9609375000,63757.2187500000,114117.6796875000,147932.4531250000,,,
0.8719999986,6,160600.2656250000,145534.4062500000,170230.2812500000,160324.7500000000,129490.7890625000,63938.3984375000,114260.6718750000,148131.4218750000,,,
0.8759999985,6,159663.2343750000,145583.2500000000,169295.8281250000,159440.5781250000,128659.0703125000,63114.9609375000,113406.3906250000,148996.8437500000,,,
0.8799999987,6,158921.7031250000,145466.7500000000,168571.3906250000,158742.1093750000,127964.9609375000,62376.0390625000,112721.2421875000,149323.1093750000,,,
0.8839999987,6,159382.1875000000,145331.0312500000,169026.6718750000,159183.5468750000,128341.6796875000,62744.8164062500,113118.5312500000,148657.8125000000,,,
0.8879999986,6,160432.4375000000,145371.4843750000,170081.7343750000,160168.6093750000,129317.6015625000,63716.9570312500,114125.0312500000,147935.6562500000,,,
0.8919999986,6,160602.9218750000,145522.2812500000,170248.0312500000,160320.4218750000,129516.2187500000,63940.7343750000,114306.9140625000,148146.5312500000,,,
0.8959999986,7,159666.2187500000,145581.8437500000,169303.8750000000,159435.2500000000,128671.7812500000,63135.2382812500,113406.6562500000,148987.7656250000,33029,0.8975439209,0.0000000000
0.8999999985,7,158914.4687500000,145462.3593750000,168561.1406250000,158730.1718750000,127967.0000000000,62380.7617187500,112747.8281250000,149298.0312500000,,,
0.9039999985,7,159364.2968750000,145319.1875000000,169017.9687500000,159164.1562500000,128332.8046875000,62750.6367187500,113078.1406250000,148655.3906250000,,,
0.9079999984,7,160405.9843750000,145347.0781250000,170060.6875000000,160140.4843750000,129302.0156250000,63710.1445312500,114061.3281250000,147946.7343750000,,,
0.9119999984,7,160610.0468750000,145512.6250000000,170267.5156250000,160322.2500000000,129541.0312500000,63925.1250000000,114309.2734375000,148149.7968750000,,,
0.9159999983,7,159676.8593750000,145581.5625000000,169304.4062500000,159469.9843750000,128657.2187500000,63098.7343750000,113403.1171875000,148965.7500000000,,,
0.9199999985,7,158898.0468750000,145448.9218750000,168533.9218750000,158716.1250000000,127924.1171875000,62365.9531250000,112673.2578125000,149258.1718750000,,,
0.9239999985,7,159355.2343750000,145312.5625000000,169011.9218750000,159134.4062500000,128335.9140625000,62733.7929687500,113145.0078125000,148647.6406250000,,,
0.9279999984,7,160429.0781250000,145357.0312500000,170100.0625000000,160134.7656250000,129332.2734375000,63712.2109375000,114124.8437500000,147965.8437500000,,,
0.9319999984,7,160619.3125000000,145515.0156250000,170251.6093750000,160320.2968750000,129506.4296875000,63947.4921875000,114279.5000000000,148152.4843750000,,,
0.9359999984,7,159676.1562500000,145567.3437500000,169295.1562500000,159448.4687500000,128650.0312500000,63102.0351562500,113386.4609375000,148944.0312500000,,,
0.9399999985,7,158907.5468750000,145452.1875000000,168541.8281250000,158721.1875000000,127936.8515625000,62370.4335937500,112701.5859375000,149258.4062500000,,,
0.9439999985,7,159366.3125000000,145322.0312500000,169020.9843750000,159140.9218750000,128344.8203125000,62741.2773437500,113164.8046875000,148657.2656250000,,,
0.9479999985,7,160422.7812500000,145358.0468750000,170071.1406250000,160134.2031250000,129311.5703125000,63719.3437500000,114153.9765625000,147968.1250000000,,,
0.9519999984,7,160622.2656250000,145516.0625000000,170250.0000000000,160318.4218750000,129511.7109375000,63957.7656250000,114309.4062500000,148149.0937500000,,,
0.9559999984,7,159701.8593750000,145593.2031250000,169320.2812500000,159459.7343750000,128683.3671875000,63123.5703125000,113442.9218750000,148961.5625000000,,,
0.9599999983,7,158931.8750000000,145467.8281250000,168581.9062500000,158729.9531250000,127980.3906250000,62369.6015625000,112719.8750000000,149260.8281250000,,,
0.9639999985,7,159376.3125000000,145337.8281250000,169036.2656250000,159138.5468750000,128361.6640625000,62736.6367187500,113160.7500000000,148667.4375000000,,,
0.9679999985,7,160424.7968750000,145368.5937500000,170064.0156250000,160126.7187500000,129301.2109375000,63711.4296875000,114138.5234375000,147973.7656250000,,,
0.9719999984,7,160626.2500000000,145522.1718750000,170244.8125000000,160319.7656250000,129510.7734375000,63959.4023437500,114327.4296875000,148150.1406250000,,,
0.9759999984,7,159710.3906250000,145594.7187500000,169333.0312500000,159456.8906250000,128699.1406250000,63138.8867187500,113497.0234375000,148963.8281250000,,,
0.9799999984,7,158937.8906250000,145480.8437500000,168581.9218750000,158730.7656250000,127991.8906250000,62394.4648437500,112758.0156250000,149294.5312500000,,,
0.9839999985,7,159375.4531250000,145346.0625000000,169043.5156250000,159128.4843750000,128379.7968750000,62767.2382812500,113148.9765625000,148702.5781250000,,,
0.9879999985,7,160414.3125000000,145353.9687500000,170060.3437500000,160114.1406250000,129302.5000000000,63697.6718750000,114158.2656250000,147973.2812500000,,,
0.9919999985,7,160618.2031250000,145496.6875000000,170244.0468750000,160310.2656250000,129510.0781250000,63937.9960937500,114320.0312500000,148127.7187500000,,,
0.9959999984,7,159708.4062500000,145572.5937500000,169342.4687500000,159450.4843750000,128705.1718750000,63146.2617187500,113465.6093750000,148951.4218750000,,,
0.9999999984,7,158930.7968750000,145469.8437500000,168589.2187500000,158713.2812500000,127998.1171875000,62420.9921875000,112776.0937500000,149304.8437500000,,,
1.0039999983,7,159373.7500000000,145340.1562500000,169059.3593750000,159107.6718750000,128403.2109375000,62713.1679687500,113214.2343750000,148713.2812500000,,,
1.0079999985,7,160436.2812500000,145371.2968750000,170116.3906250000,160116.7968750000,129375.4062500000,63696.9726562500,114147.3984375000,147999.5937500000,,,
1.0119999985,7,160604.8281250000,145485.7500000000,170215.9531250000,160316.1406250000,129483.0937500000,63938.0781250000,114248.5234375000,148113.5000000000,,,
1.0159999984,7,159683.8281250000,145552.0000000000,169300.8906250000,159436.5000000000,128669.3671875000,63134.8359375000,113448.7109375000,148926.1406250000,,,
1.0199999984,7,158925.4375000000,145462.5156250000,168605.5312500000,158684.9062500000,128031.5078125000,62420.2968750000,112767.3515625000,149294.8906250000,,,
1.0239999983,8,159391.0468750000,145370.5781250000,169093.4062500000,159120.8125000000,128437.2187500000,62767.0000000000,113216.9453125000,148742.2500000000,,,
1.0279999983,8,160393.3906250000,145361.6093750000,170010.0781250000,160124.6250000000,129255.7812500000,63689.5429687500,114023.2421875000,147976.7343750000,,,
1.0319999983,8,160623.0625000000,145489.7656250000,170243.2656250000,160333.2812500000,129507.2890625000,63928.5546875000,114312.4140625000,148102.1406250000,,,
1.0359999982,8,159721.2187500000,145567.1250000000,169347.8281250000,159466.2812500000,128706.8671875000,63129.3398437500,113521.1875000000,148926.4843750000,,,
1.0399999982,8,158920.3906250000,145452.8281250000,168565.4062500000,158700.2656250000,127977.7890625000,62363.5664062500,112786.7187500000,149282.4375000000,,,
1.0439999981,8,159347.2187500000,145332.5156250000,169009.0156250000,159124.8593750000,128336.5546875000,62710.0273437500,113096.5156250000,148704.5781250000,,,
1.0479999983,8,160431.3593750000,145385.0000000000,170084.4687500000,160130.6093750000,129333.3984375000,63723.9023437500,114164.9687500000,147997.3125000000,,,
1.0519999983,8,160674.1562500000,145544.4531250000,170300.4531250000,160364.0937500000,129575.3125000000,64016.3984375000,114446.6562500000,148150.9218750000,,,
1.0559999982,8,159771.3750000000,145622.2187500000,169415.9375000000,159499.7343750000,128790.1171875000,63269.1875000000,113551.6796875000,148989.2500000000,,,
1.0599999982,8,158929.1718750000,145473.2187500000,168587.5937500000,158685.0625000000,127997.0468750000,62353.8320312500,112735.1953125000,149305.3750000000,,,
1.0639999982,8,159335.9218750000,145351.7187500000,169008.2187500000,159049.0937500000,128354.2031250000,62676.0976562500,113108.5312500000,148731.7500000000,,,
1.0679999983,8,160456.1250000000,145401.7968750000,170216.0156250000,160064.4062500000,129513.4609375000,63682.2773437500,114260.6718750000,148011.1875000000,,,
1.0719999983,8,160646.0468750000,145506.2343750000,170273.2031250000,160334.2656250000,129540.2265625000,63972.4648437500,114357.6328125000,148091.9687500000,,,
1.0759999983,8,159736.7500000000,145583.4531250000,169342.9531250000,159499.4375000000,128684.4921875000,63205.0312500000,113496.8046875000,148938.3437500000,,,
1.0799999982,8,158945.6093750000,145487.3281250000,168588.0468750000,158740.3125000000,127999.6718750000,62486.3046875000,112711.6406250000,149334.9843750000,,,
1.0839999982,8,159359.7968750000,145365.5625000000,169007.5625000000,159140.6875000000,128337.5781250000,62728.2929687500,113098.8437500000,148747.0937500000,,,
1.0879999981,8,160425.2187500000,145389.4062500000,170079.8125000000,160127.7187500000,129331.3593750000,63673.3710937500,114160.4140625000,147987.0937500000,,,
1.0919999983,8,160693.4687500000,145550.0312500000,170329.5156250000,160380.8593750000,129591.1328125000,64023.4257812500,114409.9375000000,148127.8593750000,,,
1.0959999983,8,159806.3281250000,145634.4218750000,169444.0937500000,159530.9531250000,128819.0859375000,63252.8281250000,113668.5234375000,148979.8125000000,,,
1.0999999982,8,159008.2187500000,145550.1406250000,168679.0468750000,158765.7187500000,128105.8906250000,62465.6250000000,112848.1406250000,149398.5000000000,,,
1.1039999982,8,159389.7500000000,145385.1406250000,169087.5781250000,159126.0468750000,128431.1875000000,62777.0039062500,113170.2187500000,148773.3593750000,,,
1.1079999981,8,160443.6562500000,145421.4531250000,170103.8125000000,160127.8437500000,129351.3203125000,63787.0703125000,114149.9531250000,148029.2343750000,,,
1.1119999983,8,160701.4375000000,145563.5312500000,170332.7343750000,160392.0468750000,129591.8281250000,64012.8320312500,114357.5781250000,148139.5468750000,,,
1.1159999983,8,159783.1875000000,145589.0625000000,169408.5937500000,159515.7187500000,128766.7031250000,63149.6953125000,113532.7500000000,148918.2500000000,,,
1.1199999982,8,158991.6093750000,145526.5625000000,168657.9687500000,158739.2968750000,128063.5859375000,62450.6328125000,112913.7500000000,149377.9843750000,,,
1.1239999982,8,159374.5781250000,145408.4687500000,169022.9843750000,159112.0937500000,128366.4609375000,62766.8359375000,113082.8593750000,148816.1406250000,,,
1.1279999982,8,160386.7031250000,145363.2187500000,170012.0312500000,160096.0937500000,129257.4687500000,63643.1171875000,114163.7656250000,147963.3593750000,,,
1.1319999981,8,160682.8750000000,145532.0156250000,170328.2031250000,160329.8437500000,129611.0937500000,64021.8164062500,114421.1250000000,148109.7500000000,,,
1.1359999983,8,159827.8125000000,145634.2812500000,169486.8593750000,159534.5937500000,128853.8984375000,63245.0742187500,113522.3359375000,148967.3281250000,,,
1.1399999983,8,158962.5000000000,145501.2968750000,168597.5625000000,158727.0937500000,127995.9453125000,62481.1835937500,112774.9453125000,149344.2968750000,,,
1.1439999982,8,159356.1718750000,145386.6406250000,169029.7812500000,159067.6250000000,128374.3203125000,62778.8828125000,113165.0703125000,148801.0156250000,,,
1.1479999982,8,160435.5000000000,145416.0625000000,170082.2031250000,160108.1250000000,129333.6718750000,63674.8203125000,114193.3984375000,148044.6562500000,,,
1.1519999981,9,160697.0156250000,145542.3437500000,170318.6406250000,160367.3750000000,129580.3281250000,64028.5507812500,114428.5781250000,148136.1718750000,,,
1.1559999981,9,159882.7656250000,145673.3437500000,169574.7500000000,159525.3906250000,128957.8906250000,63317.1992187500,113618.9531250000,149026.5781250000,,,
1.1599999981,9,158991.9062500000,145531.4531250000,168638.2500000000,158740.8437500000,128047.4453125000,62386.5273437500,112658.0000000000,149385.0937500000,,,
1.1639999980,9,159275.5156250000,145314.9375000000,168889.4687500000,159044.8437500000,128219.9609375000,62617.0898437500,113058.0468750000,148734.7031250000,,,
1.1679999980,9,160398.9062500000,145384.1718750000,170035.9218750000,160080.1093750000,129286.6250000000,63693.0312500000,114190.9843750000,148026.6875000000,,,
1.1719999979,9,160702.3750000000,145554.4843750000,170351.8437500000,160354.6562500000,129626.2968750000,63997.1406250000,114476.0546875000,148153.2812500000,,,
1.1759999981,9,159777.7187500000,145577.1093750000,169403.1718750000,159507.8593750000,128764.9062500000,63177.6445312500,113491.7656250000,148920.4531250000,,,
1.1799999981,9,158950.4375000000,145494.9531250000,168564.8906250000,158736.5781250000,127964.8828125000,62430.1679687500,112724.4921875000,149357.1093750000,,,
1.1839999980,9,159373.4531250000,145420.1718750000,169052.5156250000,159101.0937500000,128414.4765625000,62799.8828125000,113246.8515625000,148871.5781250000,,,
1.1879999980,9,160407.7343750000,145393.6093750000,170081.3906250000,160101.1093750000,129338.8437500000,63616.0234375000,114151.8515625000,148048.8593750000,,,
1.1919999979,9,160647.8750000000,145474.8906250000,170271.9843750000,160399.5312500000,129514.7421875000,63896.3437500000,114280.7890625000,148051.1718750000,,,
1.1959999981,9,159792.1093750000,145588.6093750000,169395.5468750000,159586.1250000000,128737.7343750000,63196.0703125000,113481.6484375000,148921.5468750000,,,
1.1999999981,9,158972.2187500000,145532.9843750000,168607.0312500000,158737.6093750000,128003.3437500000,62494.8085937500,112701.1015625000,149405.1562500000,,,
1.2039999980,9,159339.1093750000,145415.8437500000,168997.3437500000,159078.5937500000,128343.2656250000,62816.2968750000,113205.9453125000,148868.3593750000,,,
1.2079999980,9,160398.6718750000,145387.5312500000,170058.1875000000,160095.3437500000,129297.0312500000,63660.2265625000,114106.2812500000,148033.0468750000,,,
1.2119999980,9,160674.8281250000,145505.5937500000,170303.2031250000,160383.1718750000,129544.4140625000,63869.6562500000,114334.2421875000,148078.1093750000,,,
1.2159999979,9,159790.8281250000,145578.4218750000,169403.0937500000,159554.6093750000,128752.7265625000,63117.0820312500,113541.2500000000,148905.3750000000,,,
1.2199999981,9,158986.2500000000,145517.5625000000,168633.6406250000,158766.2968750000,128042.7187500000,62373.2773437500,112842.3203125000,149370.7968750000,,,
1.2239999981,9,159357.1406250000,145405.5781250000,169034.0625000000,159094.3906250000,128388.0000000000,62684.2812500000,113207.6328125000,148842.3437500000,,,
1.2279999980,9,160372.0156250000,145384.5781250000,170005.4531250000,160075.7031250000,129248.8046875000,63641.6953125000,114038.1562500000,148030.2812500000,,,
1.2319999980,9,160673.4843750000,145510.1562500000,170296.6406250000,160342.4531250000,129554.2578125000,63939.1523437500,114405.3750000000,148087.0312500000,,,
1.2359999979,9,159858.5468750000,145628.3906250000,169521.7500000000,159541.5468750000,128908.2187500000,63246.2812500000,113659.9609375000,148951.9687500000,,,
1.2399999981,9,159025.5468750000,145564.7031250000,168687.3125000000,158770.0781250000,128111.7343750000,62476.4101562500,112757.0234375000,149424.7812500000,,,
1.2439999981,9,159308.5156250000,145388.9218750000,168928.3906250000,159086.5625000000,128242.6796875000,62632.9960937500,113097.6640625000,148821.1875000000,,,
1.2479999980,9,160388.3125000000,145411.7656250000,170024.0000000000,160110.5937500000,129259.9062500000,63674.3359375000,114152.6562500000,148055.4375000000,,,
1.2519999980,9,160697.5781250000,145545.2343750000,170329.2343750000,160367.3750000000,129580.2968750000,63965.4648437500,114411.8906250000,148122.6875000000,,,
1.2559999980,9,159850.4531250000,145609.1562500000,169502.0625000000,159553.3437500000,128851.5703125000,63211.3867187500,113599.3203125000,148918.9218750000,,,
1.2599999979,9,159017.5937500000,145548.9687500000,168675.0000000000,158781.0781250000,128083.1718750000,62470.3203125000,112859.8906250000,149396.3593750000,,,
1.2639999981,9,159356.6562500000,145431.2187500000,169021.7343750000,159120.1406250000,128353.9921875000,62714.5078125000,113171.7734375000,148872.8906250000,,,
1.2679999981,9,160408.7031250000,145420.0312500000,170071.5000000000,160075.2968750000,129320.2812500000,63613.3710937500,114241.7343750000,148067.4531250000,,,
1.2719999980,9,160718.8437500000,145536.7812500000,170364.7656250000,160373.8125000000,129625.0390625000,63960.8789062500,114499.9531250000,148095.8906250000,,,
1.2759999980,9,159864.7187500000,145622.5312500000,169495.3593750000,159592.0156250000,128849.6093750000,63252.1562500000,113603.9296875000,148925.1718750000,,,
1.2799999979,10,159003.6718750000,145536.8750000000,168639.8906250000,158785.0312500000,128034.1406250000,62460.8242187500,112786.7968750000,149385.7031250000,,,
1.2839999979,10,159332.1718750000,145409.4062500000,168982.2031250000,159087.3906250000,128316.8203125000,62646.9960937500,113096.5937500000,148846.9062500000,,,
1.2879999978,10,160418.9531250000,145444.2187500000,170068.5156250000,160101.0000000000,129305.7187500000,63611.4375000000,114201.9062500000,148092.3125000000,,,
1.2919999978,10,160722.2031250000,145530.6718750000,170358.1718750000,160398.9062500000,129599.2343750000,63965.3828125000,114484.9296875000,148077.7187500000,,,
1.2959999978,10,159911.3437500000,145649.9843750000,169584.4843750000,159605.5937500000,128950.0625000000,63273.1328125000,113619.9687500000,148935.9218750000,,,
1.2999999977,10,159049.8593750000,145578.7187500000,168693.4218750000,158791.8593750000,128092.5546875000,62477.8046875000,112792.4296875000,149410.4687500000,,,
1.3039999979,10,159322.8125000000,145412.7968750000,168931.6875000000,159077.8906250000,128258.4218750000,62677.5742187500,113191.3828125000,148850.0625000000,,,
1.3079999979,10,160399.4687500000,145417.6406250000,170052.1250000000,160077.9531250000,129299.2578125000,63686.2734375000,114148.1562500000,148069.1718750000,,,
1.3119999978,10,160772.8593750000,145577.5312500000,170429.0625000000,160441.1562500000,129688.8203125000,63972.1953125000,114543.9921875000,148127.9062500000,,,
1.3159999978,10,159940.3125000000,145674.3593750000,169577.2500000000,159682.7656250000,128921.1484375000,63261.8125000000,113737.0234375000,148952.9375000000,,,
1.3199999977,10,159033.5312500000,145564.8125000000,168643.0000000000,158792.2656250000,128039.6406250000,62455.6210937500,112812.7890625000,149391.7968750000,,,
1.3239999979,10,159319.7500000000,145413.7500000000,168950.8437500000,159052.0625000000,128291.6875000000,62662.4179687500,113141.4375000000,148856.0156250000,,,
1.3279999979,10,160409.1562500000,145438.4375000000,170063.8750000000,160069.5312500000,129313.4453125000,63628.6835937500,114222.4765625000,148091.8281250000,,,
1.3319999978,10,160800.4062500000,145618.0625000000,170455.2968750000,160426.0625000000,129711.3515625000,64035.3906250000,114502.1250000000,148176.5156250000,,,
1.3359999978,10,159925.7187500000,145654.7031250000,169532.7656250000,159651.2968750000,128878.6562500000,63277.4765625000,113677.3984375000,148913.9843750000,,,
1.3399999978,10,159065.8593750000,145585.6562500000,168714.3281250000,158814.2812500000,128121.6015625000,62471.2031250000,112867.8828125000,149399.8750000000,,,
1.3439999977,10,159335.7968750000,145427.7343750000,168987.4531250000,159068.5312500000,128324.3828125000,62694.7656250000,113168.1562500000,148873.0312500000,,,
1.3479999979,10,160399.0937500000,145425.4531250000,170062.3437500000,160075.5468750000,129306.1796875000,63633.4882812500,114169.2109375000,148080.5468750000,,,
1.3519999979,10,160773.4843750000,145592.6562500000,170405.2968750000,160434.0000000000,129656.8750000000,64043.4609375000,114467.6875000000,148148.8281250000,,,
1.3559999978,10,159939.1562500000,145667.4687500000,169561.6562500000,159661.0156250000,128907.7578125000,63274.2851562500,113767.4375000000,148935.5468750000,,,
1.3599999978,10,159061.5937500000,145569.7812500000,168715.5312500000,158814.2031250000,128127.8828125000,62448.3515625000,112933.0078125000,149385.4687500000,,,
1.3639999977,10,159352.5781250000,145443.9062500000,169032.0312500000,159059.8750000000,128385.6406250000,62694.1250000000,113257.8984375000,148897.0625000000,,,
1.3679999979,10,160396.5312500000,145428.1250000000,170058.3437500000,160071.3125000000,129301.9375000000,63597.1445312500,114256.7031250000,148094.1875000000,,,
1.3719999979,10,160773.9843750000,145575.6875000000,170409.0000000000,160443.8593750000,129659.1250000000,63969.3242187500,114553.5937500000,148126.7343750000,,,
1.3759999978,10,159962.6562500000,145691.0625000000,169587.6250000000,159663.7500000000,128948.2343750000,63297.2734375000,113816.7656250000,148960.9218750000,,,
1.3799999978,10,159077.7031250000,145587.8281250000,168733.4218750000,158827.1093750000,128141.3750000000,62415.4960937500,113020.9296875000,149402.3906250000,,,
1.3839999977,10,159355.9531250000,145454.0468750000,169039.7500000000,159069.9375000000,128378.7500000000,62628.3554687500,113327.8515625000,148907.1250000000,,,
1.3879999977,10,160410.3125000000,145443.1718750000,170076.2343750000,160070.9062500000,129318.5156250000,63598.2421875000,114321.0468750000,148109.0312500000,,,
1.3919999979,10,160808.6250000000,145587.0000000000,170502.5312500000,160444.4062500000,129771.6718750000,64001.9960937500,114664.0234375000,148135.3437500000,,,
1.3959999979,10,159968.1406250000,145672.9062500000,169608.3281250000,159702.0468750000,128958.8046875000,63282.4921875000,113749.0703125000,148932.6562500000,,,
1.3999999978,10,159050.0312500000,145572.4375000000,168663.8125000000,158830.4062500000,128067.6640625000,62381.6445312500,113057.6484375000,149398.5781250000,,,
1.4039999978,10,159332.0625000000,145428.9375000000,168991.8281250000,159089.5156250000,128339.5078125000,62581.4687500000,113345.0703125000,148887.7500000000,,,
1.4079999977,11,160418.7343750000,145442.5312500000,170111.5156250000,160100.5156250000,129376.2343750000,63586.6289062500,114318.3359375000,148111.9218750000,,,
1.4119999977,11,160813.3125000000,145587.5937500000,170493.2187500000,160483.4062500000,129769.3125000000,64007.1718750000,114648.1406250000,148132.2343750000,,,
1.4159999976,11,159963.4218750000,145671.5468750000,169595.2656250000,159679.0000000000,128946.8437500000,63233.0859375000,113943.9296875000,148926.0312500000,,,
1.4199999976,11,159040.6718750000,145546.9531250000,168683.5625000000,158810.8750000000,128095.3203125000,62366.3046875000,113062.0703125000,149373.1718750000,,,
1.4239999976,11,159341.5000000000,145446.9687500000,169036.5937500000,159110.7187500000,128388.1093750000,62608.0781250000,113408.2656250000,148925.1093750000,,,
1.4279999975,11,160418.8593750000,145447.8437500000,170122.5937500000,160083.4531250000,129375.9375000000,63598.6445312500,114341.4843750000,148126.2968750000,,,
1.4319999977,11,160785.5312500000,145556.2812500000,170436.0000000000,160438.8750000000,129696.1406250000,63943.8437500000,114731.6171875000,148093.5468750000,,,
1.4359999977,11,160006.3750000000,145677.5781250000,169686.6562500000,159699.0468750000,129043.1562500000,63294.1328125000,113993.3359375000,148927.0156250000,,,
1.4399999976,11,159087.6875000000,145580.9687500000,168751.8437500000,158851.0156250000,128166.1328125000,62419.4101562500,113048.5312500000,149406.0156250000,,,
1.4439999976,11,159326.3750000000,145440.0156250000,168977.5312500000,159084.8125000000,128319.4687500000,62619.2109375000,113341.4531250000,148914.8437500000,,,
1.4479999975,11,160429.2500000000,145466.7500000000,170128.5937500000,160101.6875000000,129384.5781250000,63564.0976562500,114442.0156250000,148136.8437500000,,,
1.4519999977,11,160814.5781250000,145581.9531250000,170491.5000000000,160480.5000000000,129750.4062500000,63952.5351562500,114733.2265625000,148110.0937500000,,,
1.4559999977,11,160000.6562500000,145683.2343750000,169648.1562500000,159711.6250000000,129010.3281250000,63274.4179687500,113921.2890625000,148933.1875000000,,,
1.4599999976,11,159103.0312500000,145609.7968750000,168761.2812500000,158865.8750000000,128172.1406250000,62429.2031250000,113099.5468750000,149438.2500000000,,,
1.4639999976,11,159309.9843750000,145423.8750000000,168972.4062500000,159076.3593750000,128318.4531250000,62558.5898437500,113337.3984375000,148888.4218750000,,,
1.4679999975,11,160402.9062500000,145450.9062500000,170095.1562500000,160082.5156250000,129348.0156250000,63555.2460937500,114400.2265625000,148113.6093750000,,,
1.4719999975,11,160824.4375000000,145605.0312500000,170485.2187500000,160483.2187500000,129743.0546875000,64028.9765625000,114742.6640625000,148127.9062500000,,,
1.4759999977,11,160019.0312500000,145703.4687500000,169646.7343750000,159730.2968750000,129004.6171875000,63359.2578125000,114009.1875000000,148942.5468750000,,,
1.4799999977,11,159086.5000000000,145576.8593750000,168744.6875000000,158861.2500000000,128156.9531250000,62384.5429687500,113113.5703125000,149402.0937500000,,,
1.4839999976,11,159330.1093750000,145448.7343750000,169005.7656250000,159098.4218750000,128360.6406250000,62613.9257812500,113374.7656250000,148935.5468750000,,,
1.4879999976,11,160424.6406250000,145470.2500000000,170138.4687500000,160103.1093750000,129406.9453125000,63555.9960937500,114442.2578125000,148151.4062500000,,,
1.4919999975,11,160843.4843750000,145611.3281250000,170523.7343750000,160504.6093750000,129780.5546875000,63959.7226562500,114774.9843750000,148135.9843750000,,,
1.4959999977,11,160018.0937500000,145698.4218750000,169654.6562500000,159736.3750000000,129016.0937500000,63295.5273437500,113969.5468750000,148934.1093750000,,,
1.4999999977,11,159107.1250000000,145602.0937500000,168769.2500000000,158860.6093750000,128181.3671875000,62468.1992187500,113059.3906250000,149426.3125000000,,,
1.5039999976,11,159358.6406250000,145496.1875000000,169046.3281250000,159107.5625000000,128397.2812500000,62585.0898437500,113261.3359375000,148986.2500000000,,,
1.5079999976,11,160376.0312500000,145429.4218750000,170031.0000000000,160136.9687500000,129274.1250000000,63491.8125000000,114329.2578125000,148105.2187500000,,,
1.5119999975,11,160820.8750000000,145584.0781250000,170480.7968750000,160553.1406250000,129733.9375000000,64016.2656250000,114785.6875000000,148112.6406250000,,,
1.5159999975,11,160053.8125000000,145691.0937500000,169726.7968750000,159753.4375000000,129073.5234375000,63339.3828125000,114035.8203125000,148915.1718750000,,,
1.5199999977,11,159089.3281250000,145581.2031250000,168734.7656250000,158851.7031250000,128148.2109375000,62441.9414062500,113163.4062500000,149406.7031250000,,,
1.5239999976,11,159314.7656250000,145447.1250000000,169007.2500000000,159070.6250000000,128370.6718750000,62517.0156250000,113352.1250000000,148947.7343750000,,,
1.5279999976,11,160372.4843750000,145444.9531250000,170042.8281250000,160073.0000000000,129301.6406250000,63507.6914062500,114327.1328125000,148146.2812500000,,,
1.5319999976,11,160830.5000000000,145580.7187500000,170499.5000000000,160499.9531250000,129761.2968750000,63978.5546875000,114692.1875000000,148103.2656250000,,,
1.5359999975,12,160086.5937500000,145726.0156250000,169789.2656250000,159769.6718750000,129176.4921875000,63347.8320312500,113933.3906250000,148961.2187500000,,,
1.5399999975,12,159097.9531250000,145601.7187500000,168760.8906250000,158880.5625000000,128158.5390625000,62477.4804687500,113164.8515625000,149445.9218750000,,,
1.5439999974,12,159260.6875000000,145416.6250000000,168889.5000000000,159063.2812500000,128227.3671875000,62644.7421875000,113246.4765625000,148936.6718750000,,,
1.5479999974,12,160363.0156250000,145440.3593750000,170016.8281250000,160080.1250000000,129274.9531250000,63489.3437500000,114326.8437500000,148147.5468750000,,,
1.5519999973,12,160828.9687500000,145588.4687500000,170482.5156250000,160532.3437500000,129730.2890625000,64016.1835937500,114731.1328125000,148119.8125000000,,,
1.5559999973,12,160019.9687500000,145653.0937500000,169643.1250000000,159756.0312500000,128989.5156250000,63297.4609375000,113951.4687500000,148870.1562500000,,,
1.5599999975,12,159098.5781250000,145585.7968750000,168754.5781250000,158883.8437500000,128171.9531250000,62414.0195312500,113124.6718750000,149403.5156250000,,,
1.5639999975,12,159348.4218750000,145478.5000000000,169061.5156250000,159104.0156250000,128424.0234375000,62667.5156250000,113314.1484375000,148991.5312500000,,,
1.5679999974,12,160379.2031250000,145452.7500000000,170034.2187500000,160056.6406250000,129291.9843750000,63647.4062500000,114283.8984375000,148167.1250000000,,,
1.5719999974,12,160831.8437500000,145604.2656250000,170464.1406250000,160463.1250000000,129730.2343750000,64080.0742187500,114693.0937500000,148147.0312500000,,,
1.5759999973,12,160099.7031250000,145750.8281250000,169754.4375000000,159784.7343750000,129122.8984375000,63494.0117187500,114001.9218750000,148984.0156250000,,,
1.5799999975,12,159118.7968750000,145620.6562500000,168777.5937500000,158860.2031250000,128187.9062500000,62488.9609375000,113051.6953125000,149453.5312500000,,,
1.5839999975,12,159329.2656250000,145500.5468750000,169012.3437500000,159026.4218750000,128390.2812500000,62750.7695312500,113346.1718750000,149040.2343750000,,,
1.5879999974,12,160422.2968750000,145512.4375000000,170136.2500000000,160061.4062500000,129413.5468750000,63753.9179687500,114307.8515625000,148247.7500000000,,,
1.5919999974,12,160878.5781250000,145624.0156250000,170604.7187500000,160499.0937500000,129864.2343750000,64082.0312500000,114686.9843750000,148157.9531250000,,,
1.5959999973,12,160090.2187500000,145766.0312500000,169714.2187500000,159782.8593750000,129060.0859375000,63446.0546875000,113803.4062500000,148990.0000000000,,,
1.5999999973,12,159098.5781250000,145611.9218750000,168712.3593750000,158859.2500000000,128131.3984375000,62499.3945312500,113071.1640625000,149436.9062500000,,,
1.6039999975,12,159313.0468750000,145460.5937500000,169004.2187500000,159020.1406250000,128368.3125000000,62622.9648437500,113250.8203125000,148989.0937500000,,,
1.6079999974,12,160366.9687500000,145479.6562500000,170054.6562500000,160032.9843750000,129311.6718750000,63694.7500000000,114136.1875000000,148223.7656250000,,,
1.6119999974,12,160833.6718750000,145647.1562500000,170467.6250000000,160503.1718750000,129725.7031250000,64151.0976562500,114741.1640625000,148206.2343750000,,,
1.6159999974,12,160057.5781250000,145674.1718750000,169669.4375000000,159745.6093750000,129016.5781250000,63383.5585937500,113891.8125000000,148893.9531250000,,,
1.6199999973,12,159138.8906250000,145625.7031250000,168772.9843750000,158874.5312500000,128197.5156250000,62608.2109375000,112976.4296875000,149461.5781250000,,,
1.6239999975,12,159303.9062500000,145494.7812500000,168953.3281250000,159044.0937500000,128318.4531250000,62726.0937500000,113248.7812500000,149048.4375000000,,,
1.6279999975,12,160371.5312500000,145494.4062500000,170055.6718750000,160017.6406250000,129324.3906250000,63671.5742187500,114207.9140625000,148247.9062500000,,,
1.6319999974,12,160876.1875000000,145655.2343750000,170573.7343750000,160465.9375000000,129852.8359375000,64230.6796875000,114726.0859375000,148211.2656250000,,,
1.6359999974,12,160138.8906250000,145769.2031250000,169827.5156250000,159795.7968750000,129190.6796875000,63398.0703125000,114074.0468750000,148987.0000000000,,,
1.6399999973,12,159172.1562500000,145686.5625000000,168843.7187500000,158918.0312500000,128265.6406250000,62629.5625000000,112808.3906250000,149525.4687500000,,,
1.6439999973,12,159290.6562500000,145459.4531250000,168967.5468750000,159012.2968750000,128347.3437500000,62673.7382812500,113149.4296875000,149003.5468750000,,,
1.6479999975,12,160360.0937500000,145461.5781250000,170031.8437500000,160007.6093750000,129302.5859375000,63537.4648437500,114308.4140625000,148197.1406250000,,,
1.6519999974,12,160831.1562500000,145611.2812500000,170472.3281250000,160470.5781250000,129749.0859375000,64280.5156250000,114533.2890625000,148155.6250000000,,,
1.6559999974,12,160076.3750000000,145689.0781250000,169713.6406250000,159773.2656250000,129064.6718750000,63444.2031250000,113771.3593750000,148891.2656250000,,,
1.6599999974,12,159098.5468750000,145570.6718750000,168759.2500000000,158845.2968750000,128169.0000000000,62330.7656250000,112939.5781250000,149391.0156250000,,,
1.6639999973,13,159365.0781250000,145588.9531250000,169051.5312500000,159040.7500000000,128449.8515625000,62829.3867187500,113318.8906250000,149151.2031250000,,,
1.6679999973,13,160403.9218750000,145560.1718750000,170069.4062500000,160062.1562500000,129341.3906250000,63594.2734375000,114097.8906250000,148305.3437500000,,,
1.6719999972,13,160821.6250000000,145573.1875000000,170471.5468750000,160480.5781250000,129694.9062500000,64050.6523437500,114548.5781250000,148103.7656250000,,,
1.6759999972,13,160099.6250000000,145736.3437500000,169710.0625000000,159785.7343750000,129065.3125000000,63582.4179687500,113852.6562500000,148952.7187500000,,,
1.6799999971,13,159087.5781250000,145599.6406250000,168698.4687500000,158864.1250000000,128088.1562500000,62591.8242187500,112884.0000000000,149450.9062500000,,,
1.6839999971,13,159230.8906250000,145426.6875000000,168912.6406250000,158976.3437500000,128277.2265625000,62434.0820312500,113098.6875000000,148980.6406250000,,,
1.6879999973,13,160376.1093750000,145521.2656250000,170100.6250000000,160012.2968750000,129403.0546875000,63525.5273437500,114098.1796875000,148269.2968750000,,,
1.6919999972,13,160891.7656250000,145702.4687500000,170534.3125000000,160524.2812500000,129822.2343750000,64215.1757812500,114671.2890625000,148233.4218750000,,,
1.6959999972,13,160069.0000000000,145670.8125000000,169659.5625000000,159793.3281250000,129015.9375000000,63417.9179687500,113858.1015625000,148878.8281250000,,,
1.6999999972,13,159082.7500000000,145545.6875000000,168700.5312500000,158881.2656250000,128086.0390625000,62428.0468750000,112988.2343750000,149359.6562500000,,,
1.7039999971,13,159273.7187500000,145477.5156250000,168951.8906250000,159014.8906250000,128303.4843750000,62780.2226562500,113164.8046875000,149050.4531250000,,,
1.7079999973,13,160349.1562500000,145501.2500000000,170018.2187500000,160022.3750000000,129286.7031250000,63634.7187500000,114150.8046875000,148254.1562500000,,,
1.7119999973,13,160770.5781250000,145519.7343750000,170426.8281250000,160452.6875000000,129685.6562500000,63902.5937500000,114549.7343750000,148031.8906250000,,,
1.7159999972,13,160122.4843750000,145731.4843750000,169830.0625000000,159765.2343750000,129212.2968750000,63555.3789062500,113858.8203125000,148931.0937500000,,,
1.7199999972,13,159113.0000000000,145666.1250000000,168708.5781250000,158868.2812500000,128135.3906250000,62576.4531250000,113035.3828125000,149517.7968750000,,,
1.7239999971,13,159162.0156250000,145386.2968750000,168775.6875000000,158945.0000000000,128128.4687500000,62340.9023437500,112994.5312500000,148926.0000000000,,,
1.7279999971,13,160217.2187500000,145374.9687500000,169826.3437500000,159921.4843750000,129078.9921875000,63552.4570312500,114149.6015625000,148122.8750000000,,,
1.7319999973,13,160833.1562500000,145611.9218750000,170516.7187500000,160445.8281250000,129784.8203125000,64202.6523437500,114679.9531250000,148146.1562500000,,,
1.7359999972,13,160053.5781250000,145610.6250000000,169720.5000000000,159774.4375000000,129062.4453125000,63350.9687500000,113834.2031250000,148776.0625000000,,,
1.7399999972,13,159104.6718750000,145620.1718750000,168698.2500000000,158871.6406250000,128119.2187500000,62661.8554687500,113033.8281250000,149451.7656250000,,,
1.7439999972,13,159273.5156250000,145522.0156250000,168952.4843750000,158991.9375000000,128333.0937500000,62788.4570312500,113004.9687500000,149093.0468750000,,,
1.7479999971,13,160272.2812500000,145439.0000000000,169927.2656250000,159958.6875000000,129170.2656250000,63563.1875000000,114053.0703125000,148198.8281250000,,,
1.7519999973,13,160744.5625000000,145474.2343750000,170355.1406250000,160435.9531250000,129594.2734375000,63848.0898437500,114612.3593750000,147965.2656250000,,,
1.7559999973,13,160059.3125000000,145612.3437500000,169684.9687500000,159776.6875000000,129035.5703125000,63373.3671875000,113914.3750000000,148773.8125000000,,,
1.7599999972,13,159115.1718750000,145598.3125000000,168749.5625000000,158861.3906250000,128180.3984375000,62625.6718750000,113034.3906250000,149411.8593750000,,,
1.7639999972,13,159283.9687500000,145530.9218750000,168984.7656250000,158973.7968750000,128369.8203125000,62814.8750000000,113157.8281250000,149107.2656250000,,,
1.7679999971,13,160283.3281250000,145502.6718750000,169910.1093750000,159941.0625000000,129182.5234375000,63591.6171875000,114020.8828125000,148288.0312500000,,,
1.7719999971,13,160718.4687500000,145453.6875000000,170310.4218750000,160418.5468750000,129539.9843750000,63926.0898437500,114447.8906250000,147962.4375000000,,,
1.7759999973,13,160043.7343750000,145596.3906250000,169651.2656250000,159751.4531250000,128990.3437500000,63466.5468750000,113872.9296875000,148762.4375000000,,,
1.7799999972,13,159127.2187500000,145623.1250000000,168735.7343750000,158864.5468750000,128149.7187500000,62738.3242187500,113068.2968750000,149440.6093750000,,,
1.7839999972,13,159225.6093750000,145484.4062500000,168875.1250000000,158952.9375000000,128260.2734375000,62670.3593750000,113084.4687500000,149071.8593750000,,,
1.7879999971,13,160208.6093750000,145372.2812500000,169835.6406250000,159920.4062500000,129085.7265625000,63549.5078125000,113937.6015625000,148135.2031250000,,,
1.7919999971,14,160773.9375000000,145557.2500000000,170372.5156250000,160431.2343750000,129662.7734375000,64212.3085937500,114584.8984375000,148082.0937500000,,,
1.7959999971,14,160140.9062500000,145725.4531250000,169814.5937500000,159775.4062500000,129214.0937500000,63570.0781250000,114005.7578125000,148898.5312500000,,,
1.7999999970,14,159129.4687500000,145635.5156250000,168768.5781250000,158854.3906250000,128164.1953125000,62594.1562500000,112999.4140625000,149456.0000000000,,,
1.8039999970,14,159153.9687500000,145403.2187500000,168740.8750000000,158927.7968750000,128093.7109375000,62548.8828125000,113107.8046875000,148984.3906250000,,,
1.8079999969,14,160251.4375000000,145449.4843750000,169912.1718750000,159913.0312500000,129212.4609375000,63575.5234375000,114065.6484375000,148229.5156250000,,,
1.8119999969,14,160773.2343750000,145581.0937500000,170370.6093750000,160449.5468750000,129652.9296875000,64081.6835937500,114430.8593750000,148083.0625000000,,,
1.8159999971,14,160058.7812500000,145655.7187500000,169623.8906250000,159797.8750000000,128959.1250000000,63399.0625000000,113803.2187500000,148823.8125000000,,,
1.8199999970,14,159136.3125000000,145646.4375000000,168766.2500000000,158865.4062500000,128187.1015625000,62793.3398437500,113180.0078125000,149492.7500000000,,,
1.8239999970,14,159284.3125000000,145515.9218750000,169021.7656250000,158983.3750000000,128395.6484375000,62747.5781250000,113187.6015625000,149104.0468750000,,,
1.8279999970,14,160188.5468750000,145344.1250000000,169795.5468750000,159932.0468750000,129043.7500000000,63322.6171875000,113907.3671875000,148079.1718750000,,,
1.8319999969,14,160723.7031250000,145485.0000000000,170285.5312500000,160404.6562500000,129520.8046875000,64142.6484375000,114489.2187500000,147993.8750000000,,,
1.8359999971,14,160110.1718750000,145710.9687500000,169697.5468750000,159768.2500000000,129042.6484375000,63622.5429687500,113988.4843750000,148876.8125000000,,,
1.8399999971,14,159117.7500000000,145628.4687500000,168713.9531250000,158857.0937500000,128107.6562500000,62498.7226562500,112992.6328125000,149451.3437500000,,,
1.8439999970,14,159202.7500000000,145429.0781250000,168899.4218750000,158923.2187500000,128270.9765625000,62513.6093750000,112995.6093750000,149012.3750000000,,,
1.8479999970,14,160245.5937500000,145455.2187500000,169902.7031250000,159904.7343750000,129172.0156250000,63482.2109375000,114062.7812500000,148231.5468750000,,,
1.8519999969,14,160763.7187500000,145516.6718750000,170367.6562500000,160421.6875000000,129612.2421875000,64083.2382812500,114647.0468750000,148029.4531250000,,,
1.8559999969,14,160150.8281250000,145723.6562500000,169752.1250000000,159825.7812500000,129105.3593750000,63658.8593750000,114006.1562500000,148871.0156250000,,,
1.8599999971,14,159114.2968750000,145627.4687500000,168708.9375000000,158871.8437500000,128113.6093750000,62683.0742187500,113001.3203125000,149441.9218750000,,,
1.8639999970,14,159127.2812500000,145354.9843750000,168791.4687500000,158901.0625000000,128153.7890625000,62370.7812500000,112987.5625000000,148928.3906250000,,,
1.8679999970,14,160182.3281250000,145347.0156250000,169857.7187500000,159880.0937500000,129113.4609375000,63408.9843750000,113997.7109375000,148114.5000000000,,,
1.8719999969,14,160745.3437500000,145520.8906250000,170350.7343750000,160425.4687500000,129616.9140625000,64058.2421875000,114514.4609375000,148028.9062500000,,,
1.8759999969,14,160096.0156250000,145657.0625000000,169724.9531250000,159802.4375000000,129085.3750000000,63500.9062500000,114033.0859375000,148798.3593750000,,,
1.8799999971,14,159087.1718750000,145585.7968750000,168715.9843750000,158859.9062500000,128143.9218750000,62566.7187500000,112896.4218750000,149399.8906250000,,,
1.8839999971,14,159108.2343750000,145397.1562500000,168704.8750000000,158904.8906250000,128063.9375000000,62529.4882812500,112974.4687500000,148995.0937500000,,,
1.8879999970,14,160240.6562500000,145495.0468750000,169889.8593750000,159887.7812500000,129163.9140625000,63642.9023437500,114154.4531250000,148323.3125000000,,,
1.8919999970,14,160850.9687500000,145609.5625000000,170513.9843750000,160470.5781250000,129780.2578125000,64170.4921875000,114626.4453125000,148131.0000000000,,,
1.8959999969,14,160074.2031250000,145603.3906250000,169657.6875000000,159808.6562500000,128986.8828125000,63380.7148437500,113798.4218750000,148737.4687500000,,,
1.8999999969,14,159089.2656250000,145560.2343750000,168708.2031250000,158861.8437500000,128115.9765625000,62561.0585937500,112868.6875000000,149384.8437500000,,,
1.9039999971,14,159177.5468750000,145455.6562500000,168828.1250000000,158929.7812500000,128193.9140625000,62487.7265625000,113006.2578125000,149051.2031250000,,,
1.9079999970,14,160189.4062500000,145389.4843750000,169807.1406250000,159902.2187500000,129071.4843750000,63393.8593750000,114065.2421875000,148166.4531250000,,,
1.9119999970,14,160743.1718750000,145543.7031250000,170275.9843750000,160450.9218750000,129492.7812500000,64085.7890625000,114621.5078125000,148042.1406250000,,,
1.9159999969,14,160089.4375000000,145608.4375000000,169683.8906250000,159807.6250000000,129029.8828125000,63501.8164062500,113971.5312500000,148737.1250000000,,,
1.9199999969,15,159093.4843750000,145541.4062500000,168718.5000000000,158851.8125000000,128154.1953125000,62559.4492187500,112968.3828125000,149362.1875000000,,,
1.9239999969,15,159171.7656250000,145452.4843750000,168823.4375000000,158910.1562500000,128186.4843750000,62548.6132812500,112891.8828125000,149070.0156250000,,,
1.9279999968,15,160195.4687500000,145420.1093750000,169817.8125000000,159889.0000000000,129081.6718750000,63468.8515625000,114091.9062500000,148216.8593750000,,,
1.9319999968,15,160805.9843750000,145585.1250000000,170399.3906250000,160451.7968750000,129662.5078125000,64225.5585937500,114709.4062500000,148105.1875000000,,,
1.9359999967,15,160124.8437500000,145647.9375000000,169726.0781250000,159826.7656250000,129077.4140625000,63574.2890625000,113893.8281250000,148779.9218750000,,,
1.9399999967,15,159129.1875000000,145622.5312500000,168711.1250000000,158884.3750000000,128114.1484375000,62681.5156250000,112998.7421875000,149442.8125000000,,,
1.9439999969,15,159151.1250000000,145439.7656250000,168801.4687500000,158912.4375000000,128176.4531250000,62449.4257812500,113059.7890625000,149047.6093750000,,,
1.9479999968,15,160171.9687500000,145377.7343750000,169828.6406250000,159880.2187500000,129088.1640625000,63333.6171875000,114026.9687500000,148163.9843750000,,,
1.9519999968,15,160765.0937500000,145512.4062500000,170381.1250000000,160447.4843750000,129608.2187500000,63914.4492187500,114620.8906250000,148014.5937500000,,,
1.9559999967,15,160116.5468750000,145637.2343750000,169717.3125000000,159831.5937500000,129067.1406250000,63488.6484375000,113991.9687500000,148763.1875000000,,,
1.9599999967,15,159174.2656250000,145688.9218750000,168819.4062500000,158890.9531250000,128258.3984375000,62632.1914062500,113116.8671875000,149524.7812500000,,,
1.9639999969,15,159195.5312500000,145511.7343750000,168852.0312500000,158937.6093750000,128231.3046875000,62558.1093750000,113117.7031250000,149127.4375000000,,,
1.9679999969,15,160129.4843750000,145339.2968750000,169712.5937500000,159872.5781250000,128960.0390625000,63398.9023437500,113843.2421875000,148134.0781250000,,,
1.9719999968,15,160742.2031250000,145481.8281250000,170337.5625000000,160413.1250000000,129584.1328125000,64188.5156250000,114533.9062500000,147989.4062500000,,,
1.9759999968,15,160143.4062500000,145657.4687500000,169773.0468750000,159832.8593750000,129133.8437500000,63576.3828125000,113935.3750000000,148783.6093750000,,,
1.9799999967,15,159118.1875000000,145568.5468750000,168771.8906250000,158880.9375000000,128202.0156250000,62365.8750000000,113002.9296875000,149361.8125000000,,,
1.9839999967,15,159108.0781250000,145410.8906250000,168704.4843750000,158890.2500000000,128062.6796875000,62501.3515625000,113072.8828125000,149029.5625000000,,,
1.9879999969,15,160138.3281250000,145398.8750000000,169717.2343750000,159858.6406250000,128974.2031250000,63493.4492187500,113965.7656250000,148217.5156250000,,,
1.9919999968,15,160766.4218750000,145524.6406250000,170377.1562500000,160431.2812500000,129616.4843750000,63954.7070312500,114627.8671875000,148015.9531250000,,,
1.9959999968,15,160117.2812500000,145631.8125000000,169706.4531250000,159819.6562500000,129052.1953125000,63541.6210937500,113892.2968750000,148746.2343750000,,,
1.9999999967,15,159129.3906250000,145602.2656250000,168736.8750000000,158872.8437500000,128165.8593750000,62614.4062500000,113094.2890625000,149407.3281250000,,,
2.0039999967,15,159133.7343750000,145436.4531250000,168753.8125000000,158894.5937500000,128115.8906250000,62492.6367187500,113126.8203125000,149048.7968750000,,,
2.0079999969,15,160178.1406250000,145425.4843750000,169806.0156250000,159866.5000000000,129073.7343750000,63527.1640625000,113968.0390625000,148237.8593750000,,,
2.0119999968,15,160761.8906250000,145523.7812500000,170365.5781250000,160424.0937500000,129625.4375000000,63977.7734375000,114564.0546875000,148011.9843750000,,,
2.0159999968,15,160124.5156250000,145624.6875000000,169733.7187500000,159837.5468750000,129080.3046875000,63414.8320312500,113953.7734375000,148711.5781250000,,,
2.0199999968,15,159102.7812500000,145551.0000000000,168702.2031250000,158893.1406250000,128122.5703125000,62581.9804687500,112987.4765625000,149342.5000000000,,,
2.0239999967,15,159118.3906250000,145461.7656250000,168714.3750000000,158891.1093750000,128081.2343750000,62603.7578125000,113103.6718750000,149095.9531250000,,,
2.0279999967,15,160105.8750000000,145383.4218750000,169705.8750000000,159827.5156250000,128957.8125000000,63253.3632812500,113989.4453125000,148186.5625000000,,,
2.0319999969,15,160745.6406250000,145485.1562500000,170376.0625000000,160421.0468750000,129626.7265625000,63966.1601562500,114541.3671875000,147962.1718750000,,,
2.0359999968,15,160147.8593750000,145642.2187500000,169765.1093750000,159828.5312500000,129110.1093750000,63635.0976562500,113983.7890625000,148738.4687500000,,,
2.0399999968,15,159116.7656250000,145605.8593750000,168701.8281250000,158866.7187500000,128118.0937500000,62693.5078125000,112998.6953125000,149425.3750000000,,,
2.0439999967,15,159096.9375000000,145400.6875000000,168734.9687500000,158860.5000000000,128095.1015625000,62317.7539062500,113105.9296875000,149013.0625000000,,,
2.0479999967,16,160084.1562500000,145323.0937500000,169699.4687500000,159804.0312500000,128956.3593750000,63273.8281250000,113949.5078125000,148127.0312500000,,,
2.0519999966,16,160715.8750000000,145461.9843750000,170317.2656250000,160381.4531250000,129557.5781250000,63969.8359375000,114542.7343750000,147940.9531250000,,,
2.0559999966,16,160101.1562500000,145586.7343750000,169702.7968750000,159795.0625000000,129048.8437500000,63435.6718750000,113998.2187500000,148680.4218750000,,,
2.0599999966,16,159071.2187500000,145525.3593750000,168694.3125000000,158828.5625000000,128112.7031250000,62495.5585937500,112908.3046875000,149329.0781250000,,,
2.0639999965,16,159026.0781250000,145354.3906250000,168631.7968750000,158777.6250000000,127990.7421875000,62397.7656250000,112986.4843750000,148990.9375000000,,,
2.0679999965,16,160055.3750000000,145327.4218750000,169668.9531250000,159734.9375000000,128945.8984375000,63338.4453125000,113985.6406250000,148150.0625000000,,,
2.0719999967,16,160736.3593750000,145487.4375000000,170340.0156250000,160388.8593750000,129597.6796875000,64008.4609375000,114608.6328125000,147970.4687500000,,,
2.0759999966,16,160132.6718750000,145613.6562500000,169716.1093750000,159828.0000000000,129052.0390625000,63507.2070312500,114009.3750000000,148699.6250000000,,,
2.0799999966,16,159097.7500000000,145547.9218750000,168693.1406250000,158859.3750000000,128112.0546875000,62549.0156250000,113066.7656250000,149348.6093750000,,,
2.0839999965,16,159061.1250000000,145385.8906250000,168684.5781250000,158820.2500000000,128066.4609375000,62455.0859375000,113046.3046875000,149028.0312500000,,,
2.0879999965,16,160056.5312500000,145334.1406250000,169675.7812500000,159751.6875000000,128950.1093750000,63338.9257812500,113967.1562500000,148159.6875000000,,,
2.0919999967,16,160686.5000000000,145448.4375000000,170282.3906250000,160341.5156250000,129526.8984375000,63959.5078125000,114522.7265625000,147928.2968750000,,,
2.0959999966,16,160123.2343750000,145603.3281250000,169711.9687500000,159820.5000000000,129048.8984375000,63514.9609375000,114016.8593750000,148682.6718750000,,,
2.0999999966,16,159120.4687500000,145571.7343750000,168727.3906250000,158892.8281250000,128145.4531250000,62572.8320312500,113053.7343750000,149368.8593750000,,,
2.1039999966,16,159072.6093750000,145406.1406250000,168701.5625000000,158842.0156250000,128085.1796875000,62465.5976562500,113044.1250000000,149052.2500000000,,,
2.1079999965,16,160064.5781250000,145354.5937500000,169684.0156250000,159764.4843750000,128962.7500000000,63359.2578125000,113973.7812500000,148187.8906250000,,,
2.1119999965,16,160659.6718750000,145418.7500000000,170286.9218750000,160297.8437500000,129549.6406250000,63928.3164062500,114510.0078125000,147898.7968750000,,,
2.1159999967,16,160067.6562500000,145540.7343750000,169678.5468750000,159757.0625000000,129023.3359375000,63419.9023437500,113982.0468750000,148606.6562500000,,,
2.1199999966,16,159106.6250000000,145551.7812500000,168697.6093750000,158897.2031250000,128112.6171875000,62543.5976562500,113078.8906250000,149335.3125000000,,,
2.1239999966,16,159103.3437500000,145452.8125000000,168711.9843750000,158887.0625000000,128088.9921875000,62470.0507812500,113086.5625000000,149101.8437500000,,,
2.1279999965,16,160091.4687500000,145375.7812500000,169715.7031250000,159809.2500000000,128994.6640625000,63358.1835937500,113959.0546875000,148204.2187500000,,,
2.1319999965,16,160731.6875000000,145470.7187500000,170342.1562500000,160411.7031250000,129598.7500000000,63995.7187500000,114564.1875000000,147936.7031250000,,,
2.1359999967,16,160144.9062500000,145598.0000000000,169748.9843750000,159842.9687500000,129089.1015625000,63516.5429687500,114048.5859375000,148657.4375000000,,,
2.1399999966,16,159116.5468750000,145557.3906250000,168737.0625000000,158871.9218750000,128156.2031250000,62575.3554687500,113099.7343750000,149350.6718750000,,,
2.1439999966,16,159051.0468750000,145399.0781250000,168683.5625000000,158812.7031250000,128055.7812500000,62513.3164062500,113008.5625000000,149065.6406250000,,,
2.1479999966,16,160053.5000000000,145350.1406250000,169692.7968750000,159748.5625000000,128967.5468750000,63364.5664062500,113971.7187500000,148205.9062500000,,,
2.1519999965,16,160696.6406250000,145445.7343750000,170300.7968750000,160369.3281250000,129548.6718750000,63920.3750000000,114564.6171875000,147923.8750000000,,,
2.1559999965,16,160113.3125000000,145561.5781250000,169695.2343750000,159826.0937500000,129032.4062500000,63454.5312500000,114006.0468750000,148631.6250000000,,,
2.1599999967,16,159099.2968750000,145520.4218750000,168703.8281250000,158870.6406250000,128120.1015625000,62532.4921875000,113057.9453125000,149321.3125000000,,,
2.1639999966,16,159053.3750000000,145390.6406250000,168690.4843750000,158819.5156250000,128077.1093750000,62433.7890625000,113007.3046875000,149061.3125000000,,,
2.1679999966,16,160022.5468750000,145330.4218750000,169647.0156250000,159737.2031250000,128928.7890625000,63304.0859375000,113946.8515625000,148188.0156250000,,,
2.1719999965,16,160686.5468750000,145430.7343750000,170298.4375000000,160363.9375000000,129549.9375000000,63966.8320312500,114610.1093750000,147915.4218750000,,,
2.1759999965,17,160096.2812500000,145540.6562500000,169696.8906250000,159811.5625000000,129036.3437500000,63479.6875000000,113988.4296875000,148608.3281250000,,,
2.1799999964,17,159054.9062500000,145488.6093750000,168655.7968750000,158834.7812500000,128076.0312500000,62514.0937500000,113004.9687500000,149292.6093750000,,,
2.1839999964,17,159000.8125000000,145348.5000000000,168624.8437500000,158782.7968750000,128006.0546875000,62404.5507812500,112980.8281250000,149022.9843750000,,,
2.1879999964,17,160016.2656250000,145319.8437500000,169648.9375000000,159728.2812500000,128926.6953125000,63334.7148437500,113941.1640625000,148181.9531250000,,,
2.1919999963,17,160702.2187500000,145438.5937500000,170345.4531250000,160362.7031250000,129594.8125000000,63964.3632812500,114569.7968750000,147924.5468750000,,,
2.1959999963,17,160112.2031250000,145552.4062500000,169721.6250000000,159807.4062500000,129063.3046875000,63438.7578125000,114025.1171875000,148615.1406250000,,,
2.1999999965,17,159058.3437500000,145491.0000000000,168640.6718750000,158837.2500000000,128059.5156250000,62510.0156250000,112997.7500000000,149281.4218750000,,,
2.2039999964,17,159006.0625000000,145358.5000000000,168611.7812500000,158789.2656250000,127990.1796875000,62408.6835937500,112956.8750000000,149024.4062500000,,,
2.2079999964,17,160034.2656250000,145340.3906250000,169661.8906250000,159753.0156250000,128940.4843750000,63313.7421875000,113950.9531250000,148200.7343750000,,,
2.2119999963,17,160721.7656250000,145463.9687500000,170329.9218750000,160405.0468750000,129582.2578125000,63975.4960937500,114593.9921875000,147952.5937500000,,,
2.2159999963,17,160165.4843750000,145595.7500000000,169760.1718750000,159878.8906250000,129100.5859375000,63526.0898437500,114048.5078125000,148652.5312500000,,,
2.2199999965,17,159132.4843750000,145556.5625000000,168736.0781250000,158898.9375000000,128161.1171875000,62569.4257812500,113073.5234375000,149341.0468750000,,,
2.2239999964,17,159062.9531250000,145419.7656250000,168688.6250000000,158821.0781250000,128078.3984375000,62448.1367187500,113046.9453125000,149092.5937500000,,,
2.2279999964,17,160034.9062500000,145348.2031250000,169667.8750000000,159733.5156250000,128953.6015625000,63317.1210937500,113958.5468750000,148229.2968750000,,,
2.2319999964,17,160703.2656250000,145441.3750000000,170327.6250000000,160367.3906250000,129583.3046875000,63975.3593750000,114568.6953125000,147944.7968750000,,,
2.2359999963,17,160152.4687500000,145570.2968750000,169763.9843750000,159847.0156250000,129107.1796875000,63529.4179687500,114046.0156250000,148629.5937500000,,,
2.2399999963,17,159125.3906250000,145543.6250000000,168734.3906250000,158877.6406250000,128156.5000000000,62602.5000000000,113079.8281250000,149323.5000000000,,,
2.2439999965,17,159036.6406250000,145392.4062500000,168665.7500000000,158796.9843750000,128053.6640625000,62407.8789062500,113024.3359375000,149060.5937500000,,,
2.2479999964,17,160005.7500000000,145329.5937500000,169637.5937500000,159705.9687500000,128924.1796875000,63274.0429687500,113919.9765625000,148213.8750000000,,,
2.2519999964,17,160697.5156250000,145441.3593750000,170317.5937500000,160361.0312500000,129568.7109375000,63936.8710937500,114553.6250000000,147949.2812500000,,,
2.2559999963,17,160150.0000000000,145565.4062500000,169754.5156250000,159845.3281250000,129093.3984375000,63501.0117187500,114031.7421875000,148616.7187500000,,,
2.2599999963,17,159120.9687500000,145536.7812500000,168727.7656250000,158873.9062500000,128149.4218750000,62571.1445312500,113070.2031250000,149298.9375000000,,,
2.2639999965,17,159026.1250000000,145385.6250000000,168653.6718750000,158785.3437500000,128040.7890625000,62430.9179687500,112983.7500000000,149050.4843750000,,,
2.2679999964,17,160007.0468750000,145340.2031250000,169643.2031250000,159707.2812500000,128930.6171875000,63305.4531250000,113907.9062500000,148234.2812500000,,,
2.2719999964,17,160708.4843750000,145456.0781250000,170332.3437500000,160368.6093750000,129588.7187500000,63978.7656250000,114573.6328125000,147969.5312500000,,,
2.2759999963,17,160166.2031250000,145573.7031250000,169766.7656250000,159863.4062500000,129107.2890625000,63539.9843750000,114063.4218750000,148616.2031250000,,,
2.2799999963,17,159125.6093750000,145527.6718750000,168739.9062500000,158883.1718750000,128162.4843750000,62588.6328125000,113093.1562500000,149279.5468750000,,,
2.2839999963,17,159018.7812500000,145382.9062500000,168648.8437500000,158772.8281250000,128041.2734375000,62441.2695312500,112987.2109375000,149040.1562500000,,,
2.2879999964,17,159980.5625000000,145325.4062500000,169610.6875000000,159684.1562500000,128900.7031250000,63291.9609375000,113884.6250000000,148219.9375000000,,,
2.2919999964,17,160678.2343750000,145428.4843750000,170296.4843750000,160353.1718750000,129554.4921875000,63957.7109375000,114531.6562500000,147943.0000000000,,,
2.2959999964,17,160151.0000000000,145555.1562500000,169758.8906250000,159860.3750000000,129096.9921875000,63523.7851562500,114032.9218750000,148585.5000000000,,,
2.2999999963,17,159121.7812500000,145532.0937500000,168735.5937500000,158893.5468750000,128155.1328125000,62585.7617187500,113071.9140625000,149264.8125000000,,,
2.3039999963,18,159003.0937500000,145384.9687500000,168632.7812500000,158776.6562500000,128024.6171875000,62431.4023437500,112964.6250000000,149037.0937500000,,,
2.3079999962,18,159964.1718750000,145326.2343750000,169603.5000000000,159676.8593750000,128897.1406250000,63291.8007812500,113875.0000000000,148228.1406250000,,,
2.3119999962,18,160669.8437500000,145432.9062500000,170296.8593750000,160338.6718750000,129560.3671875000,63974.7968750000,114537.5859375000,147957.7968750000,,,
2.3159999961,18,160150.2968750000,145554.4375000000,169762.5312500000,159848.2812500000,129107.7734375000,63535.8007812500,114035.9062500000,148591.8281250000,,,
2.3199999961,18,159122.3593750000,145528.1250000000,168738.3593750000,158873.7031250000,128165.3828125000,62591.4492187500,113076.6875000000,149259.5000000000,,,
2.3239999961,18,159004.1406250000,145383.1562500000,168637.8593750000,158762.6875000000,128035.7187500000,62430.6757812500,112974.7656250000,149034.6093750000,,,
2.3279999963,18,159985.4687500000,145333.6406250000,169629.2500000000,159686.0937500000,128926.9375000000,63299.4453125000,113905.0078125000,148242.2500000000,,,
2.3319999962,18,160711.9218750000,145451.0937500000,170340.8125000000,160367.3750000000,129606.5546875000,64005.0000000000,114581.1171875000,147978.7187500000,,,
2.3359999962,18,160197.6718750000,145584.6718750000,169809.5781250000,159885.9062500000,129153.5078125000,63588.4531250000,114085.6562500000,148614.8437500000,,,
2.3399999961,18,159162.7343750000,145556.5000000000,168781.4531250000,158911.4062500000,128204.3515625000,62642.2500000000,113115.8515625000,149275.5937500000,,,
2.3439999961,18,159024.3906250000,145399.8593750000,168664.5937500000,158785.2343750000,128058.3593750000,62454.7890625000,112999.5234375000,149047.1250000000,,,
2.3479999963,18,159992.3437500000,145353.8125000000,169644.9218750000,159698.5312500000,128938.1250000000,63318.5937500000,113914.6640625000,148268.6250000000,,,
2.3519999962,18,160712.6250000000,145465.0937500000,170352.5156250000,160376.2187500000,129615.7265625000,64016.6679687500,114583.8750000000,148004.1562500000,,,
2.3559999962,18,160198.5000000000,145585.3437500000,169820.7656250000,159889.0156250000,129164.2578125000,63595.0234375000,114088.0468750000,148617.7656250000,,,
2.3599999961,18,159149.0625000000,145543.2031250000,168774.2500000000,158901.7500000000,128200.3046875000,62627.6562500000,113100.9375000000,149258.2812500000,,,
2.3639999961,18,159016.3593750000,145397.8437500000,168658.3750000000,158770.9375000000,128058.0937500000,62452.4570312500,112984.0703125000,149042.7031250000,,,
2.3679999961,18,159986.5468750000,145352.7968750000,169635.3437500000,159678.2500000000,128938.0937500000,63310.6015625000,113902.2500000000,148275.3281250000,,,
2.3719999962,18,160716.7187500000,145465.8750000000,170351.9687500000,160368.5156250000,129621.6328125000,64010.2304687500,114581.0859375000,148008.7656250000,,,
2.3759999962,18,160213.6250000000,145593.2500000000,169831.4843750000,159910.7812500000,129176.6250000000,63600.3867187500,114096.7109375000,148617.3281250000,,,
2.3799999962,18,159169.2500000000,145556.1562500000,168788.5625000000,158920.4843750000,128213.8203125000,62645.4687500000,113116.0625000000,149256.2343750000,,,
2.3839999961,18,159014.7031250000,145403.1562500000,168651.6718750000,158766.2500000000,128051.5156250000,62454.5195312500,112984.4218750000,149043.9843750000,,,
2.3879999961,18,159974.5781250000,145352.8437500000,169622.1406250000,159672.3593750000,128925.8671875000,63306.4179687500,113895.8671875000,148283.5781250000,,,
2.3919999963,18,160711.3906250000,145469.0625000000,170349.3125000000,160374.3125000000,129621.4453125000,64019.3750000000,114582.6406250000,148022.2343750000,,,
2.3959999962,18,160225.8750000000,145604.7500000000,169850.9687500000,159920.3750000000,129201.1171875000,63623.5078125000,114118.9687500000,148627.7656250000,,,
2.3999999962,18,159179.4218750000,145566.0000000000,168810.9687500000,158930.0312500000,128241.9062500000,62657.6445312500,113138.8359375000,149260.8750000000,,,
2.4039999961,18,159023.4218750000,145414.9843750000,168670.4375000000,158777.8437500000,128076.6015625000,62457.8750000000,113000.1406250000,149059.7656250000,,,
2.4079999961,18,159970.6093750000,145355.3437500000,169625.4218750000,159670.7968750000,128934.7421875000,63299.7656250000,113892.8046875000,148296.9687500000,,,
2.4119999961,18,160719.1875000000,145477.7500000000,170360.3437500000,160366.1562500000,129636.2734375000,64022.6210937500,114588.8906250000,148041.6250000000,,,
2.4159999962,18,160231.9375000000,145605.1562500000,169853.2656250000,159899.2656250000,129203.9296875000,63627.3164062500,114117.8437500000,148638.7656250000,,,
2.4199999962,18,159177.1406250000,145556.3750000000,168800.4687500000,158904.3593750000,128229.6484375000,62656.9218750000,113123.7656250000,149256.2812500000,,,
2.4239999962,18,159003.7656250000,145398.0937500000,168645.0468750000,158739.8281250000,128048.7578125000,62445.0781250000,112969.1875000000,149049.1718750000,,,
2.4279999961,18,159940.7031250000,145332.7187500000,169592.1250000000,159618.4218750000,128899.4218750000,63276.2968750000,113853.1093750000,148284.9531250000,,,
2.4319999961,19,160694.9531250000,145455.4375000000,170334.6250000000,160333.6562500000,129608.3281250000,64005.0000000000,114557.1093750000,148022.4531250000,,,
2.4359999960,19,160219.6562500000,145588.7500000000,169844.6875000000,159904.9062500000,129193.9296875000,63614.0664062500,114103.6562500000,148612.2031250000,,,
2.4399999960,19,159179.7968750000,145559.5312500000,168807.9375000000,158932.3281250000,128238.1718750000,62658.4492187500,113126.5234375000,149251.8437500000,,,
2.4439999959,19,159009.3593750000,145410.1875000000,168656.6093750000,158770.1093750000,128061.8750000000,62450.2031250000,112979.7031250000,149056.8125000000,,,
2.4479999959,19,159959.7031250000,145359.1406250000,169621.5781250000,159661.5937500000,128930.7500000000,63289.9218750000,113882.8593750000,148307.1406250000,,,
2.4519999959,19,160733.7812500000,145492.6718750000,170382.3593750000,160399.6406250000,129655.8828125000,64037.1601562500,114599.6250000000,148050.7500000000,,,
2.4559999960,19,160267.5937500000,145629.0000000000,169899.1875000000,159965.3281250000,129246.2031250000,63661.5976562500,114147.1328125000,148637.1562500000,,,
2.4599999960,19,159212.4375000000,145590.0625000000,168844.8437500000,158969.8593750000,128273.6328125000,62691.6562500000,113153.3984375000,149270.6718750000,,,
2.4639999960,19,159024.0156250000,145433.2812500000,168670.4218750000,158783.5000000000,128077.6171875000,62465.5195312500,112977.6328125000,149082.6093750000,,,
2.4679999959,19,159968.6875000000,145377.7812500000,169622.3125000000,159676.0312500000,128935.2265625000,63299.0429687500,113869.2578125000,148330.9843750000,,,
2.4719999959,19,160736.9687500000,145498.5937500000,170377.9062500000,160384.5937500000,129657.0078125000,64040.2695312500,114591.8203125000,148058.6093750000,,,
2.4759999961,19,160270.7500000000,145627.0156250000,169897.6406250000,159936.0937500000,129254.2734375000,63661.4101562500,114148.6875000000,148636.4062500000,,,
2.4799999960,19,159200.4531250000,145575.3593750000,168833.7031250000,158938.1562500000,128272.5859375000,62678.0312500000,113146.9609375000,149258.5468750000,,,
2.4839999960,19,158999.7343750000,145414.0000000000,168649.5000000000,158757.1562500000,128064.7421875000,62443.2304687500,112963.3906250000,149067.5156250000,,,
2.4879999959,19,159948.7812500000,145366.0625000000,169608.4687500000,159651.2656250000,128925.3828125000,63288.4726562500,113858.3125000000,148324.3750000000,,,
2.4919999959,19,160731.8750000000,145491.4062500000,170380.0000000000,160382.0156250000,129659.1562500000,64040.4062500000,114584.7656250000,148050.6875000000,,,
2.4959999959,19,160271.7812500000,145618.0937500000,169903.3437500000,159958.5156250000,129253.2031250000,63665.7539062500,114139.1171875000,148622.1406250000,,,
2.4999999960,19,159214.0468750000,145579.7343750000,168847.3281250000,158962.6406250000,128277.4140625000,62694.3125000000,113144.8750000000,149261.5937500000,,,
2.5039999960,19,159002.3593750000,145417.8593750000,168648.3437500000,158757.0468750000,128058.6796875000,62441.4335937500,112954.4375000000,149079.6406250000,,,
2.5079999960,19,159942.8593750000,145366.9843750000,169598.6718750000,159641.6718750000,128914.1484375000,63280.6132812500,113855.7656250000,148333.1250000000,,,
2.5119999959,19,160714.7187500000,145481.1093750000,170356.7968750000,160364.5781250000,129636.2500000000,64029.6210937500,114571.6171875000,148042.9687500000,,,
2.5159999959,19,160246.8593750000,145592.0937500000,169873.4062500000,159924.5312500000,129225.2812500000,63649.9570312500,114115.1640625000,148596.9218750000,,,
2.5199999961,19,159202.2656250000,145563.6406250000,168833.8437500000,158947.1718750000,128266.5546875000,62693.6679687500,113135.0000000000,149244.2656250000,,,
2.5239999960,19,159011.7187500000,145425.0468750000,168663.9843750000,158765.4218750000,128075.7968750000,62470.4257812500,112969.9921875000,149080.7968750000,,,
2.5279999960,19,159950.2812500000,145373.5000000000,169615.3593750000,159645.9062500000,128928.6562500000,63282.1992187500,113857.4531250000,148334.3281250000,,,
2.5319999959,19,160726.7812500000,145481.9687500000,170380.2656250000,160380.1406250000,129654.4609375000,64023.8007812500,114578.2421875000,148035.2343750000,,,
2.5359999959,19,160276.9843750000,145607.8125000000,169914.7187500000,159973.8593750000,129259.3750000000,63665.9140625000,114139.0312500000,148597.7187500000,,,
2.5399999958,19,159225.3125000000,145580.8906250000,168866.0312500000,158964.3281250000,128292.6250000000,62704.7968750000,113147.4453125000,149251.6718750000,,,
2.5439999960,19,159016.2812500000,145433.6250000000,168675.0781250000,158762.4218750000,128079.7656250000,62461.0390625000,112960.3906250000,149087.9062500000,,,
2.5479999960,19,159940.5781250000,145372.7656250000,169614.1250000000,159634.7031250000,128921.8437500000,63272.1679687500,113840.6093750000,148335.7812500000,,,
2.5519999960,19,160730.2187500000,145491.4531250000,170393.7343750000,160383.8593750000,129663.8750000000,64030.8007812500,114582.5078125000,148038.6250000000,,,
2.5559999959,19,160282.9062500000,145615.3750000000,169925.1250000000,159976.9218750000,129268.4921875000,63676.2148437500,114147.1640625000,148598.4531250000,,,
2.5599999959,20,159241.5625000000,145596.1250000000,168881.7968750000,158985.1250000000,128308.9296875000,62725.0507812500,113172.8750000000,149264.4687500000,,,
2.5639999958,20,159016.2031250000,145437.7656250000,168669.5625000000,158761.2656250000,128078.6875000000,62467.4492187500,112972.4296875000,149099.8593750000,,,
2.5679999958,20,159940.6093750000,145379.8750000000,169600.4687500000,159634.1250000000,128914.1171875000,63287.8320312500,113844.7109375000,148349.5156250000,,,
2.5719999957,20,160736.3125000000,145496.7968750000,170383.8906250000,160380.1406250000,129660.8437500000,64048.3164062500,114584.0390625000,148047.3125000000,,,
2.5759999957,20,160315.9843750000,145636.5468750000,169948.7812500000,159988.7812500000,129299.5234375000,63706.6562500000,114176.2109375000,148613.9531250000,,,
2.5799999957,20,159258.6562500000,145608.2656250000,168895.2343750000,158994.1250000000,128329.2109375000,62738.9687500000,113176.6562500000,149273.2343750000,,,
2.5839999958,20,159023.0937500000,145456.3281250000,168678.1406250000,158764.6875000000,128092.3437500000,62476.2734375000,112965.8359375000,149119.7656250000,,,
2.5879999958,20,159937.4375000000,145393.6718750000,169603.7656250000,159635.5312500000,128922.7578125000,63285.7929687500,113833.9843750000,148367.0312500000,,,
2.5919999958,20,160724.7968750000,145496.3437500000,170381.0000000000,160365.2812500000,129663.7968750000,64040.5117187500,114570.2812500000,148047.9218750000,,,
2.5959999957,20,160308.0312500000,145630.1250000000,169948.6562500000,159978.6406250000,129302.9843750000,63707.7578125000,114170.4140625000,148609.0468750000,,,
2.5999999957,20,159256.0000000000,145602.6875000000,168896.8750000000,158989.2968750000,128333.7656250000,62743.2617187500,113180.5156250000,149268.7343750000,,,
2.6039999959,20,159025.4531250000,145457.3750000000,168681.7031250000,158768.1562500000,128099.3984375000,62478.7148437500,112972.5390625000,149121.4843750000,,,
2.6079999958,20,159944.7812500000,145400.0000000000,169608.9531250000,159625.2343750000,128929.5156250000,63287.2148437500,113839.7500000000,148376.8750000000,,,
2.6119999958,20,160735.9062500000,145494.5781250000,170384.9687500000,160378.0156250000,129662.6406250000,64037.4531250000,114567.0312500000,148044.9687500000,,,
2.6159999957,20,160319.2812500000,145623.2656250000,169950.3593750000,159992.1875000000,129294.6718750000,63705.9609375000,114163.4453125000,148589.7031250000,,,
2.6199999957,20,159257.7343750000,145596.3125000000,168889.1562500000,158991.8281250000,128315.4453125000,62738.8359375000,113163.3828125000,149251.4531250000,,,
2.6239999956,20,159010.2187500000,145444.3281250000,168659.7187500000,158753.8281250000,128067.9609375000,62460.6367187500,112942.9531250000,149105.9531250000,,,
2.6279999958,20,159928.3906250000,145387.6562500000,169589.9062500000,159614.5468750000,128904.8671875000,63277.6914062500,113812.9062500000,148362.0156250000,,,
2.6319999958,20,160734.0000000000,145496.1562500000,170386.1718750000,160385.4687500000,129662.7500000000,64048.9062500000,114566.3125000000,148039.2031250000,,,
2.6359999957,20,160324.9687500000,145626.4843750000,169963.7968750000,160024.2031250000,129310.7656250000,63719.8007812500,114168.8359375000,148586.9687500000,,,
2.6399999957,20,159258.4687500000,145595.5312500000,168903.2812500000,158995.1718750000,128335.9687500000,62738.9960937500,113171.4765625000,149249.3125000000,,,
2.6439999957,20,159006.8125000000,145444.8750000000,168671.7500000000,158757.5937500000,128088.8593750000,62456.3437500000,112951.5937500000,149112.2812500000,,,
2.6479999959,20,159912.2812500000,145379.0781250000,169589.5625000000,159614.8281250000,128912.1093750000,63254.5976562500,113813.4687500000,148362.5000000000,,,
2.6519999958,20,160717.8750000000,145478.9375000000,170383.3750000000,160380.1562500000,129662.1328125000,64021.8437500000,114560.3515625000,148020.1875000000,,,
2.6559999958,20,160324.7812500000,145619.2343750000,169968.7343750000,160015.0625000000,129314.9218750000,63712.1562500000,114169.7968750000,148571.2187500000,,,
2.6599999957,20,159264.4375000000,145596.5156250000,168906.9375000000,159018.0781250000,128336.2109375000,62738.7031250000,113168.5546875000,149246.8281250000,,,
2.6639999957,20,159009.2812500000,145450.1875000000,168667.6250000000,158783.0156250000,128079.3359375000,62454.1445312500,112942.7656250000,149118.9375000000,,,
2.6679999956,20,159911.1250000000,145388.5625000000,169578.2031250000,159615.4375000000,128895.1562500000,63251.2187500000,113800.0546875000,148370.2187500000,,,
2.6719999958,20,160720.3750000000,145490.9531250000,170373.0781250000,160377.2187500000,129648.2421875000,64020.2890625000,114548.8750000000,148030.0312500000,,,
2.6759999958,20,160337.0312500000,145628.9687500000,169972.1718750000,160021.6250000000,129316.8281250000,63717.6523437500,114178.3046875000,148575.6562500000,,,
2.6799999957,20,159290.9218750000,145617.5156250000,168928.0468750000,159036.3437500000,128359.0859375000,62758.9804687500,113196.7734375000,149260.0468750000,,,
2.6839999957,20,159018.2500000000,145464.2343750000,168672.9843750000,158776.2031250000,128090.6250000000,62456.7226562500,112949.2031250000,149133.2031250000,,,
2.6879999957,21,159913.8125000000,145395.5781250000,169584.1093750000,159620.9375000000,128907.3828125000,63248.2695312500,113802.7890625000,148384.7812500000,,,
2.6919999956,21,160722.5000000000,145486.9062500000,170383.7812500000,160388.9531250000,129664.3828125000,64019.4843750000,114557.5937500000,148030.9687500000,,,
2.6959999956,21,160343.6562500000,145625.2812500000,169986.8437500000,160043.5468750000,129334.8515625000,63727.8984375000,114189.7031250000,148568.4687500000,,,
2.6999999955,21,159292.2812500000,145615.0625000000,168935.4218750000,159052.6093750000,128369.1171875000,62770.5664062500,113204.6875000000,149254.4843750000,,,
2.7039999955,21,159010.2968750000,145464.8281250000,168667.0156250000,158775.5625000000,128087.2500000000,62463.6406250000,112948.0781250000,149134.3750000000,,,
2.7079999954,21,159882.1875000000,145379.5312500000,169550.7968750000,159582.0156250000,128877.6406250000,63239.0156250000,113776.0781250000,148373.3593750000,,,
2.7119999956,21,160696.4687500000,145474.0781250000,170355.8906250000,160347.7812500000,129639.8437500000,64022.4062500000,114537.5546875000,148020.4062500000,,,
2.7159999956,21,160318.8437500000,145605.0468750000,169961.7968750000,160003.9218750000,129311.1093750000,63726.5859375000,114170.7656250000,148549.8437500000,,,
2.7199999955,21,159270.6093750000,145595.0937500000,168914.1718750000,159025.2187500000,128345.6796875000,62765.1757812500,113184.5937500000,149238.2968750000,,,
2.7239999955,21,158996.7031250000,145453.1875000000,168654.6718750000,158765.9062500000,128071.4218750000,62457.3359375000,112931.4765625000,149132.0781250000,,,
2.7279999955,21,159871.3125000000,145366.9843750000,169540.1562500000,159592.7500000000,128862.8046875000,63218.7109375000,113756.6875000000,148370.4062500000,,,
2.7319999957,21,160690.3593750000,145457.3750000000,170345.8281250000,160365.9218750000,129625.0937500000,63995.4765625000,114519.7187500000,148003.9843750000,,,
2.7359999956,21,160340.9531250000,145607.0312500000,169976.4375000000,160031.6562500000,129322.3515625000,63722.4804687500,114178.9140625000,148542.1562500000,,,
2.7399999956,21,159289.3125000000,145601.3281250000,168925.6875000000,159042.5781250000,128358.1796875000,62765.0390625000,113192.8593750000,149236.5937500000,,,
2.7439999955,21,158994.4062500000,145457.9062500000,168647.6093750000,158762.9218750000,128067.7968750000,62445.5898437500,112920.9921875000,149138.3750000000,,,
2.7479999955,21,159871.7031250000,145382.4218750000,169539.7968750000,159574.6718750000,128866.0000000000,63219.0039062500,113756.4453125000,148389.1562500000,,,
2.7519999954,21,160695.2968750000,145468.3125000000,170354.3906250000,160353.0156250000,129636.8671875000,64002.5859375000,114527.2265625000,148015.3437500000,,,
2.7559999956,21,160346.9531250000,145608.3281250000,169987.0625000000,160033.4843750000,129336.0000000000,63730.4218750000,114187.3437500000,148540.0625000000,,,
2.7599999956,21,159292.1718750000,145593.1718750000,168932.0625000000,159048.2812500000,128368.0468750000,62761.6093750000,113195.0000000000,149226.7500000000,,,
2.7639999955,21,159006.4375000000,145461.0468750000,168664.0625000000,158769.0468750000,128086.9218750000,62449.7187500000,112937.2187500000,149142.2343750000,,,
2.7679999955,21,159888.5156250000,145399.9218750000,169558.4687500000,159597.2031250000,128887.1093750000,63230.7812500000,113771.4921875000,148410.2187500000,,,
2.7719999955,21,160713.2968750000,145484.4062500000,170377.0000000000,160383.9375000000,129662.3750000000,64017.3906250000,114542.6484375000,148035.0468750000,,,
2.7759999956,21,160371.7656250000,145624.7968750000,170018.3593750000,160066.7187500000,129371.3515625000,63755.5546875000,114217.8125000000,148557.9531250000,,,
2.7799999956,21,159319.0312500000,145624.0937500000,168960.0937500000,159078.0625000000,128399.0000000000,62798.1679687500,113220.5078125000,149257.6562500000,,,
2.7839999956,21,159007.9687500000,145481.4218750000,168664.5625000000,158779.6562500000,128090.3046875000,62470.5078125000,112935.9843750000,149163.5937500000,,,
2.7879999955,21,159865.6875000000,145396.8593750000,169534.9375000000,159581.7812500000,128866.6406250000,63226.4335937500,113754.3203125000,148411.1718750000,,,
2.7919999955,21,160696.2343750000,145474.9687500000,170355.8125000000,160358.1875000000,129641.2343750000,64011.1132812500,114531.8984375000,148023.7812500000,,,
2.7959999954,21,160368.0625000000,145616.8750000000,170007.6250000000,160049.0625000000,129355.6093750000,63763.7617187500,114207.0000000000,148539.1718750000,,,
2.7999999956,21,159313.5000000000,145603.5781250000,168952.3437500000,159062.3906250000,128382.7421875000,62799.2382812500,113204.8203125000,149228.5000000000,,,
2.8039999956,21,158995.0468750000,145456.5625000000,168651.6875000000,158759.2031250000,128068.2578125000,62454.6835937500,112913.8828125000,149141.5468750000,,,
2.8079999955,21,159852.3906250000,145371.1093750000,169523.3593750000,159563.1406250000,128845.3203125000,63209.6445312500,113732.1406250000,148395.0312500000,,,
2.8119999955,21,160695.4531250000,145460.2343750000,170358.1093750000,160368.2500000000,129633.0312500000,64013.8242187500,114520.0390625000,148014.2187500000,,,
2.8159999955,22,160381.5312500000,145617.7968750000,170025.8750000000,160069.5937500000,129366.4218750000,63775.9101562500,114213.8437500000,148539.3125000000,,,
2.8199999954,22,159322.2187500000,145611.5625000000,168965.2968750000,159078.9218750000,128393.4765625000,62813.8828125000,113213.2187500000,149233.7656250000,,,
2.8239999954,22,158997.8281250000,145468.1250000000,168654.8906250000,158770.5468750000,128074.5859375000,62467.3164062500,112918.1718750000,149152.2187500000,,,
2.8279999953,22,159855.1406250000,145389.4843750000,169521.9062500000,159568.8750000000,128848.1875000000,63215.5429687500,113729.5156250000,148407.6406250000,,,
2.8319999953,22,160701.0937500000,145474.7031250000,170360.0781250000,160356.5312500000,129638.1250000000,64024.9023437500,114522.9140625000,148021.5937500000,,,
2.8359999952,22,160357.4218750000,145592.9531250000,169995.9843750000,160043.7656250000,129339.3281250000,63762.1796875000,114185.6796875000,148508.3750000000,,,
2.8399999954,22,159301.7500000000,145591.1562500000,168937.3437500000,159060.8125000000,128367.5625000000,62799.3984375000,113189.6640625000,149207.9218750000,,,
2.8439999954,22,158971.8906250000,145448.6718750000,168627.2031250000,158752.9687500000,128044.4921875000,62445.0273437500,112885.4453125000,149136.7500000000,,,
2.8479999953,22,159830.9531250000,145375.2656250000,169498.8125000000,159569.6562500000,128821.1250000000,63201.5156250000,113700.1718750000,148404.8750000000,,,
2.8519999953,22,160690.0312500000,145469.5937500000,170350.4218750000,160366.8906250000,129627.0781250000,64023.1054687500,114512.6093750000,148026.5468750000,,,
2.8559999953,22,160389.2343750000,145623.5000000000,170028.9843750000,160081.3906250000,129371.6484375000,63798.3632812500,114217.8671875000,148540.0312500000,,,
2.8599999954,22,159336.5156250000,145623.7656250000,168975.1718750000,159088.3906250000,128408.9531250000,62838.8828125000,113230.7265625000,149242.4218750000,,,
2.8639999954,22,158995.8281250000,145478.6718750000,168650.4843750000,158757.2968750000,128077.5390625000,62470.8554687500,112919.8906250000,149173.1718750000,,,
2.8679999954,22,159835.7031250000,145389.6406250000,169500.6718750000,159549.1406250000,128833.7578125000,63204.7070312500,113708.8593750000,148425.3906250000,,,
2.8719999953,22,160706.0312500000,145482.1718750000,170362.3593750000,160363.1093750000,129644.0312500000,64026.9414062500,114519.5859375000,148030.2968750000,,,
2.8759999953,22,160410.8437500000,145631.5781250000,170052.6718750000,160084.4687500000,129395.2500000000,63805.9531250000,114233.1015625000,148530.1875000000,,,
2.8799999952,22,159356.4687500000,145630.6093750000,168998.5781250000,159101.0468750000,128428.8515625000,62839.7148437500,113236.7109375000,149235.9375000000,,,
2.8839999954,22,159000.6406250000,145476.7031250000,168659.5468750000,158771.9375000000,128082.2578125000,62462.3007812500,112911.7578125000,149168.8281250000,,,
2.8879999954,22,159834.8437500000,145387.6093750000,169505.6250000000,159535.0468750000,128837.5937500000,63196.9570312500,113712.6171875000,148427.7343750000,,,
2.8919999953,22,160688.0000000000,145459.4062500000,170350.2812500000,160340.5937500000,129632.6250000000,64007.7070312500,114511.0546875000,148014.2187500000,,,
2.8959999953,22,160397.5156250000,145608.3750000000,170040.7031250000,160071.7656250000,129384.6328125000,63799.5703125000,114221.7500000000,148514.1406250000,,,
2.8999999953,22,159353.3125000000,145616.7656250000,168994.5937500000,159095.0937500000,128426.0078125000,62845.0781250000,113237.0625000000,149227.1406250000,,,
2.9039999954,22,158994.0000000000,145471.0781250000,168651.6718750000,158763.8437500000,128075.3125000000,62461.5742187500,112906.0468750000,149166.8125000000,,,
2.9079999954,22,159810.2187500000,145369.9218750000,169482.5312500000,159529.2031250000,128812.3281250000,63175.3632812500,113683.1406250000,148416.2187500000,,,
2.9119999954,22,160677.1093750000,145450.8750000000,170341.2500000000,160350.0468750000,129619.8593750000,63995.9335937500,114494.6171875000,148007.3750000000,,,
2.9159999953,22,160404.5156250000,145606.7968750000,170051.2968750000,160095.0156250000,129392.0312500000,63800.2656250000,114230.3359375000,148503.1562500000,,,
2.9199999953,22,159363.2343750000,145614.6875000000,169010.1250000000,159116.5468750000,128441.3281250000,62846.0703125000,113254.6250000000,149215.9687500000,,,
2.9239999952,22,158992.9531250000,145469.1718750000,168655.3906250000,158768.8281250000,128081.8046875000,62460.6367187500,112917.1562500000,149164.0000000000,,,
2.9279999954,22,159808.2656250000,145374.3750000000,169479.0156250000,159532.6875000000,128813.5312500000,63179.3085937500,113684.5625000000,148423.8437500000,,,
2.9319999954,22,160682.0468750000,145458.9218750000,170343.0625000000,160355.1093750000,129627.3203125000,64011.0351562500,114500.2968750000,148013.9375000000,,,
2.9359999953,22,160402.5781250000,145605.8593750000,170045.3750000000,160106.3281250000,129391.6015625000,63809.5195312500,114225.9609375000,148497.0625000000,,,
2.9399999953,22,159362.1875000000,145621.6562500000,169005.0468750000,159135.0312500000,128439.6328125000,62864.4179687500,113249.6953125000,149218.5000000000,,,
2.9439999952,23,158977.6562500000,145471.0937500000,168636.8125000000,158749.0781250000,128068.1484375000,62467.3437500000,112899.0468750000,149168.7343750000,,,
2.9479999952,23,159782.0312500000,145368.1875000000,169454.3125000000,159500.5625000000,128795.4531250000,63178.1289062500,113666.0781250000,148422.7187500000,,,
2.9519999952,23,160668.9843750000,145459.1718750000,170333.4375000000,160340.4375000000,129622.6484375000,64021.6835937500,114497.8359375000,148012.9843750000,,,
2.9559999951,23,160414.6562500000,145620.3437500000,170059.5312500000,160105.9062500000,129408.9296875000,63838.7031250000,114247.4765625000,148507.7968750000,,,
2.9599999951,23,159363.7656250000,145625.1406250000,169004.1093750000,159123.2187500000,128444.0078125000,62878.5507812500,113257.1484375000,149220.4531250000,,,
