Time:250Hz,Epoch,Channel 1,Channel 2,Channel 3,Channel 4,Channel 5,Channel 6,Channel 7,Channel 8,Event Id,Event Date,Event Duration
0.0000000000,0,23935.7148437500,158085.2343750000,186754.6718750000,163459.4687500000,126921.0468750000,136654.1093750000,151711.0156250000,155934.5937500000,,,
0.0040000000,0,23851.1718750000,158089.8437500000,186730.4843750000,163380.8593750000,126829.5078125000,136587.9218750000,151632.5312500000,155857.4687500000,,,
0.0079999999,0,23688.4687500000,158021.0781250000,186651.3593750000,163202.4062500000,126662.5390625000,136439.7031250000,151478.0625000000,155698.5312500000,,,
0.0119999999,0,23656.2285156250,157965.1250000000,186604.9062500000,163153.0000000000,126625.8984375000,136421.1406250000,151439.3906250000,155655.4843750000,,,
0.0159999998,0,23808.4179687500,158004.2812500000,186663.2343750000,163311.3906250000,126778.2187500000,136556.0000000000,151565.5625000000,155797.2656250000,,,
0.0199999998,0,23956.8242187500,158098.3593750000,186757.8437500000,163450.7812500000,126923.8359375000,136687.2343750000,151704.9843750000,155938.5312500000,,,
0.0240000000,0,23869.5722656250,158105.4062500000,186733.8906250000,163343.0312500000,126828.9921875000,136621.1718750000,151635.4375000000,155864.6875000000,,,
0.0279999999,0,23678.4648437500,158016.5937500000,186631.9843750000,163163.0937500000,126636.4375000000,136457.9375000000,151461.4375000000,155683.9843750000,,,
0.0319999999,0,23645.8750000000,157955.9218750000,186589.1875000000,163135.6250000000,126603.2578125000,136435.7031250000,151416.5937500000,155644.8750000000,,,
0.0359999998,0,23831.6445312500,158029.8750000000,186686.3593750000,163323.0625000000,126791.7421875000,136597.0625000000,151578.7812500000,155829.0937500000,,,
0.0399999998,0,23982.7871093750,158130.2656250000,186787.9375000000,163476.3125000000,126945.0312500000,136702.1875000000,151720.1718750000,155970.2656250000,,,
0.0440000000,0,23868.0703125000,158097.5468750000,186732.1718750000,163372.9375000000,126826.5546875000,136589.7968750000,151622.5000000000,155853.2031250000,,,
0.0480000000,0,23680.4492187500,158005.3593750000,186626.6875000000,163179.8281250000,126636.9218750000,136429.6406250000,151442.4843750000,155673.7187500000,,,
0.0519999999,0,23664.6777343750,157959.0156250000,186600.4687500000,163159.0625000000,126620.8593750000,136401.6406250000,151409.8906250000,155651.7812500000,,,
0.0559999999,0,23831.9941406250,158004.3750000000,186674.8281250000,163335.1250000000,126787.3906250000,136541.5781250000,151559.6875000000,155798.5781250000,,,
0.0599999998,0,23986.4882812500,158103.3906250000,186775.7656250000,163482.7500000000,126939.5312500000,136667.1250000000,151702.8906250000,155946.4375000000,,,
0.0639999998,0,23893.6308593750,158093.4375000000,186742.0937500000,163363.7500000000,126841.5468750000,136590.5937500000,151625.0000000000,155856.7031250000,,,
0.0680000000,0,23700.1894531250,157995.4843750000,186633.4375000000,163161.5937500000,126642.1250000000,136440.6406250000,151441.9687500000,155671.5156250000,,,
0.0719999999,0,23671.5429687500,157943.5625000000,186593.9062500000,163129.1875000000,126608.1953125000,136410.5468750000,151402.2187500000,155644.1875000000,,,
0.0759999999,0,23858.0117187500,158024.0625000000,186692.3125000000,163319.2187500000,126791.0937500000,136564.2656250000,151561.4531250000,155836.6093750000,,,
0.0799999998,0,23985.6308593750,158092.9375000000,186761.7500000000,163473.8281250000,126916.7812500000,136645.4062500000,151682.4062500000,155939.4687500000,,,
0.0839999998,0,23909.6972656250,158087.7656250000,186735.6250000000,163384.7968750000,126837.5000000000,136573.3281250000,151620.1406250000,155858.2500000000,,,
0.0880000000,0,23744.5527343750,158012.1250000000,186648.2656250000,163202.6250000000,126665.2187500000,136441.4218750000,151462.1093750000,155694.2812500000,,,
0.0919999999,0,23704.5078125000,157959.6250000000,186609.4375000000,163192.2968750000,126627.2890625000,136408.7968750000,151426.5781250000,155657.8906250000,,,
0.0959999999,0,23852.9960937500,157999.3750000000,186670.8906250000,163371.3906250000,126771.0859375000,136521.4843750000,151551.9062500000,155798.1718750000,,,
0.0999999999,0,23982.9492187500,158077.6718750000,186748.0000000000,163484.7343750000,126896.9375000000,136630.7031250000,151667.2500000000,155923.8281250000,,,
0.1039999998,0,23904.0917968750,158080.1406250000,186723.0000000000,163351.3281250000,126813.6015625000,136574.7500000000,151607.7500000000,155849.6718750000,,,
0.1079999998,0,23715.3437500000,157988.0000000000,186615.4218750000,163139.5156250000,126622.1171875000,136431.3281250000,151439.3437500000,155664.4687500000,,,
0.1120000000,0,23662.4238281250,157914.6562500000,186557.6875000000,163096.1718750000,126568.4687500000,136404.5937500000,151378.5625000000,155612.2187500000,,,
0.1159999999,0,23809.5175781250,157946.1093750000,186613.4062500000,163269.2812500000,126717.4453125000,136534.8125000000,151498.1875000000,155746.5312500000,,,
0.1199999999,0,23954.7578125000,158034.1406250000,186701.9375000000,163427.1718750000,126862.1484375000,136667.3593750000,151633.3906250000,155883.2968750000,,,
0.1239999998,0,23910.8515625000,158061.9843750000,186706.2343750000,163361.8593750000,126815.0468750000,136636.2812500000,151596.5156250000,155840.5468750000,,,
0.1279999998,1,23783.0703125000,158022.7656250000,186656.4062500000,163193.0000000000,126689.3046875000,136534.9375000000,151473.0468750000,155713.4062500000,,,
0.1319999998,1,23713.7343750000,157940.8281250000,186580.7031250000,163159.0312500000,126617.1562500000,136487.7343750000,151406.3750000000,155633.5625000000,,,
0.1359999997,1,23842.6152343750,157973.6093750000,186625.5468750000,163312.2500000000,126742.6015625000,136616.8125000000,151524.2656250000,155770.5468750000,,,
0.1399999997,1,23977.7441406250,158053.9062500000,186703.9062500000,163456.6875000000,126871.5312500000,136742.6562500000,151637.2343750000,155898.7031250000,,,
0.1439999996,1,23889.3398437500,158039.1562500000,186667.0000000000,163363.0156250000,126777.6562500000,136704.7343750000,151558.6718750000,155808.7187500000,,,
0.1479999996,1,23716.7382812500,157951.7656250000,186569.0156250000,163166.0625000000,126601.9218750000,136578.0468750000,151403.1875000000,155632.3281250000,,,
0.1519999998,1,23695.6562500000,157906.1718750000,186537.0625000000,163115.4843750000,126579.4687500000,136575.0468750000,151374.8125000000,155608.6406250000,,,
0.1559999997,1,23885.1542968750,157982.0312500000,186634.9218750000,163303.8437500000,126770.9218750000,136745.1718750000,151547.4062500000,155792.9375000000,,,
0.1599999997,1,24025.8105468750,158065.5156250000,186722.4843750000,163477.2031250000,126907.6875000000,136865.4687500000,151680.9218750000,155921.7343750000,,,
0.1639999996,1,23940.1406250000,158062.6250000000,186695.6406250000,163388.8750000000,126811.0781250000,136811.9843750000,151605.3437500000,155840.7656250000,,,
0.1679999996,1,23763.5429687500,157981.8125000000,186598.1406250000,163181.7500000000,126630.7500000000,136674.6875000000,151446.4687500000,155665.6093750000,,,
0.1719999998,1,23735.4335937500,157936.5625000000,186566.2500000000,163155.4375000000,126601.6484375000,136654.2187500000,151404.9843750000,155639.1718750000,,,
0.1759999997,1,23887.2734375000,157982.1093750000,186635.8750000000,163323.4375000000,126753.7343750000,136778.3593750000,151535.6562500000,155787.8437500000,,,
0.1799999997,1,24035.5996093750,158064.9531250000,186726.4062500000,163449.7968750000,126898.7890625000,136896.0312500000,151670.8125000000,155918.3906250000,,,
0.1839999997,1,23979.5683593750,158083.2031250000,186721.0468750000,163342.7968750000,126838.0859375000,136860.7187500000,151624.4062500000,155861.7656250000,,,
0.1879999996,1,23798.1972656250,157997.7656250000,186616.4843750000,163156.9687500000,126655.7500000000,136699.5000000000,151458.9531250000,155678.0000000000,,,
0.1919999996,1,23746.0566406250,157931.5937500000,186561.7187500000,163118.2187500000,126603.5546875000,136652.2968750000,151413.8593750000,155625.2187500000,,,
0.1959999998,1,23881.2128906250,157963.7656250000,186618.3593750000,163308.9531250000,126736.0312500000,136768.0625000000,151530.7968750000,155760.5468750000,,,
0.1999999997,1,24034.6621093750,158064.0000000000,186725.4062500000,163456.4687500000,126888.8906250000,136900.9062500000,151666.6875000000,155915.6562500000,,,
0.2039999997,1,23973.5332031250,158070.4531250000,186711.6250000000,163370.6718750000,126823.7890625000,136859.8437500000,151605.6875000000,155850.3906250000,,,
0.2079999996,1,23822.7675781250,158017.4843750000,186640.1718750000,163193.6718750000,126669.0546875000,136750.2500000000,151463.5937500000,155709.7343750000,,,
0.2119999996,1,23771.1347656250,157965.1562500000,186596.3750000000,163168.6093750000,126620.3437500000,136708.7187500000,151423.5468750000,155665.8593750000,,,
0.2159999998,1,23897.3867187500,157985.4531250000,186646.0781250000,163306.0781250000,126748.2578125000,136810.1875000000,151546.0937500000,155779.7656250000,,,
0.2199999997,1,24029.8593750000,158057.2656250000,186728.3593750000,163466.8281250000,126880.0078125000,136920.7812500000,151657.9687500000,155904.8437500000,,,
0.2239999997,1,23977.2343750000,158071.3437500000,186724.7968750000,163407.2187500000,126827.1171875000,136883.6562500000,151611.9375000000,155851.9687500000,,,
0.2279999997,1,23800.1289062500,157994.7656250000,186629.4218750000,163218.6406250000,126649.5859375000,136742.6250000000,151443.8750000000,155680.6093750000,,,
0.2319999996,1,23739.6191406250,157926.3906250000,186565.8437500000,163118.3750000000,126588.3203125000,136704.8906250000,151380.3281250000,155619.0000000000,,,
0.2359999996,1,23891.4316406250,157971.3437500000,186631.1875000000,163234.3750000000,126740.8593750000,136843.7187500000,151518.9218750000,155764.9062500000,,,
0.2399999998,1,24061.6445312500,158079.8125000000,186746.9843750000,163421.9218750000,126910.9921875000,136989.6093750000,151674.0312500000,155930.4375000000,,,
0.2439999997,1,23997.5390625000,158099.2343750000,186735.9843750000,163383.4062500000,126836.2890625000,136956.2343750000,151621.3281250000,155876.6718750000,,,
0.2479999997,1,23802.3007812500,157989.6406250000,186613.9375000000,163185.0625000000,126636.1171875000,136785.3281250000,151443.5468750000,155663.2500000000,,,
0.2519999996,1,23753.0839843750,157919.8593750000,186564.9687500000,163150.0468750000,126588.8046875000,136739.9531250000,151390.9531250000,155609.2656250000,,,
0.2559999996,2,23894.1406250000,157967.0781250000,186634.1875000000,163308.2031250000,126732.3515625000,136862.5000000000,151514.8906250000,155761.7656250000,,,
0.2599999995,2,24018.4882812500,158032.3750000000,186698.5937500000,163395.1875000000,126851.1484375000,136963.9843750000,151624.2500000000,155876.0937500000,,,
0.2639999995,2,23944.9687500000,158030.0156250000,186674.7656250000,163325.2343750000,126769.9609375000,136907.9531250000,151558.1875000000,155804.4687500000,,,
0.2679999995,2,23789.7480468750,157971.8281250000,186602.9687500000,163151.3906250000,126616.2187500000,136779.1406250000,151419.0156250000,155655.4218750000,,,
0.2719999994,2,23776.8203125000,157953.5937500000,186590.4687500000,163126.5000000000,126601.6250000000,136776.3750000000,151398.7812500000,155647.5625000000,,,
0.2759999994,2,23945.1015625000,158005.2343750000,186671.1250000000,163317.6093750000,126768.1640625000,136924.3281250000,151545.6093750000,155800.0468750000,,,
0.2799999996,2,24112.0429687500,158111.9531250000,186776.4062500000,163510.3281250000,126934.2734375000,137061.2500000000,151693.5000000000,155962.0468750000,,,
0.2839999995,2,24050.7285156250,158119.8906250000,186759.3750000000,163440.5312500000,126869.2812500000,137012.0625000000,151640.1562500000,155898.9687500000,,,
0.2879999995,2,23849.0800781250,158011.3750000000,186636.3437500000,163192.3437500000,126667.2578125000,136839.0312500000,151457.6093750000,155689.4062500000,,,
0.2919999994,2,23776.1230468750,157928.5156250000,186563.8437500000,163108.2343750000,126595.0781250000,136774.4375000000,151384.2656250000,155614.5781250000,,,
0.2959999994,2,23940.9726562500,157987.7187500000,186643.6093750000,163280.5156250000,126759.2031250000,136910.3750000000,151530.5937500000,155778.9375000000,,,
0.2999999996,2,24096.8613281250,158089.3750000000,186745.2812500000,163468.1875000000,126909.2968750000,137045.4218750000,151672.3437500000,155936.8437500000,,,
0.3039999995,2,24045.6308593750,158106.6093750000,186741.4843750000,163414.3593750000,126856.8906250000,137004.7343750000,151628.9218750000,155885.0781250000,,,
0.3079999995,2,23843.1777343750,158001.9531250000,186616.9687500000,163197.7500000000,126649.9843750000,136827.6250000000,151433.2187500000,155676.8281250000,,,
0.3119999995,2,23778.8046875000,157923.3593750000,186554.0781250000,163145.3593750000,126586.4140625000,136767.2500000000,151362.3593750000,155607.1406250000,,,
0.3159999994,2,23933.7558593750,157977.2031250000,186630.8906250000,163282.5312500000,126742.4687500000,136908.0625000000,151508.3750000000,155765.5781250000,,,
0.3199999994,2,24084.5507812500,158068.9843750000,186727.7187500000,163460.1406250000,126891.6015625000,137040.5468750000,151657.5625000000,155913.5625000000,,,
0.3239999996,2,24045.5234375000,158095.8593750000,186734.5000000000,163415.8593750000,126850.5078125000,137015.0625000000,151626.0000000000,155877.1875000000,,,
0.3279999995,2,23865.5214843750,158014.0312500000,186633.1250000000,163224.4062500000,126663.8515625000,136871.9843750000,151463.2968750000,155697.9062500000,,,
0.3319999995,2,23778.4296875000,157915.4218750000,186548.0937500000,163146.1406250000,126574.3437500000,136787.0156250000,151376.1250000000,155602.3125000000,,,
0.3359999994,2,23925.7363281250,157956.3593750000,186615.1406250000,163271.6093750000,126722.2187500000,136903.5937500000,151501.5468750000,155749.1406250000,,,
0.3399999994,2,24099.4902343750,158069.2187500000,186732.9843750000,163449.8750000000,126894.2500000000,137041.5000000000,151658.1250000000,155921.2031250000,,,
0.3439999996,2,24052.3906250000,158091.0625000000,186729.4687500000,163419.2343750000,126844.1796875000,136995.0000000000,151615.6093750000,155874.8281250000,,,
0.3479999995,2,23868.4179687500,158005.2812500000,186621.5781250000,163183.0937500000,126656.4765625000,136842.3750000000,151450.9843750000,155688.0468750000,,,
0.3519999995,2,23813.3515625000,157937.6406250000,186567.4531250000,163119.3437500000,126602.8281250000,136792.3593750000,151395.1093750000,155627.1875000000,,,
0.3559999994,2,23965.1914062500,157987.8750000000,186641.7500000000,163285.6875000000,126754.4843750000,136919.5156250000,151522.8593750000,155777.8906250000,,,
0.3599999994,2,24116.7910156250,158079.3906250000,186737.0781250000,163458.0781250000,126903.8046875000,137050.2187500000,151666.0937500000,155924.5000000000,,,
0.3639999994,2,24065.9082031250,158094.8437500000,186729.2812500000,163393.1718750000,126849.2421875000,137016.8593750000,151626.2031250000,155876.0312500000,,,
0.3679999996,2,23903.7421875000,158030.2031250000,186644.0625000000,163217.1562500000,126687.9609375000,136887.4375000000,151482.0156250000,155714.1406250000,,,
0.3719999995,2,23829.4726562500,157957.9375000000,186578.2656250000,163161.0468750000,126613.2109375000,136822.2968750000,151408.1250000000,155637.2656250000,,,
0.3759999995,2,23964.2265625000,157987.4687500000,186635.5625000000,163296.6406250000,126745.9531250000,136924.8593750000,151522.0312500000,155768.0468750000,,,
0.3799999994,2,24123.0937500000,158080.8593750000,186736.9687500000,163450.5937500000,126901.8437500000,137057.9218750000,151664.3437500000,155922.2968750000,,,
0.3839999994,3,24079.7226562500,158102.3437500000,186734.7500000000,163390.1718750000,126854.8750000000,137036.4062500000,151629.5625000000,155880.3281250000,,,
0.3879999993,3,23910.6093750000,158024.4062500000,186641.2187500000,163213.1718750000,126686.0312500000,136897.3593750000,151476.7812500000,155705.3125000000,,,
0.3919999993,3,23848.3007812500,157954.4531250000,186579.4218750000,163164.5156250000,126624.5859375000,136836.5937500000,151414.9375000000,155638.2343750000,,,
0.3959999993,3,23986.4355468750,157990.9375000000,186639.3437500000,163310.0781250000,126762.8515625000,136948.9375000000,151531.5781250000,155775.7187500000,,,
0.3999999992,3,24142.0039062500,158082.9375000000,186738.3437500000,163480.9062500000,126916.0859375000,137083.6718750000,151676.8281250000,155926.3281250000,,,
0.4039999992,3,24117.6484375000,158123.1562500000,186757.2500000000,163408.4531250000,126888.1093750000,137080.6093750000,151663.8125000000,155905.9375000000,,,
0.4079999994,3,23928.0703125000,158032.1093750000,186646.1875000000,163235.1093750000,126698.7500000000,136920.7031250000,151494.3281250000,155707.5625000000,,,
0.4119999993,3,23870.9394531250,157964.0000000000,186594.2031250000,163216.4062500000,126644.9687500000,136871.4531250000,151440.5000000000,155642.4218750000,,,
0.4159999993,3,24006.8730468750,158005.2031250000,186656.5312500000,163327.1875000000,126774.8671875000,136997.2812500000,151563.2343750000,155782.3750000000,,,
0.4199999992,3,24160.5097656250,158099.3125000000,186752.3906250000,163411.0000000000,126923.0312500000,137140.3125000000,151706.2968750000,155939.2500000000,,,
0.4239999992,3,24117.1933593750,158109.6406250000,186742.6562500000,163360.7968750000,126874.1875000000,137107.9218750000,151676.1562500000,155885.4843750000,,,
0.4279999994,3,23953.2832031250,158042.4218750000,186653.0156250000,163184.5781250000,126707.1406250000,136976.4375000000,151528.7968750000,155720.3125000000,,,
0.4319999993,3,23888.5878906250,157972.2656250000,186587.8906250000,163139.3750000000,126637.3750000000,136914.9531250000,151463.0781250000,155643.4375000000,,,
0.4359999993,3,24033.8300781250,158010.4843750000,186651.0156250000,163291.0000000000,126776.1796875000,137034.5000000000,151590.3281250000,155779.4687500000,,,
0.4399999992,3,24213.1347656250,158120.6718750000,186771.0312500000,163458.9062500000,126950.5234375000,137195.0312500000,151762.4843750000,155957.0937500000,,,
0.4439999992,3,24194.1718750000,158163.2968750000,186789.7031250000,163421.5156250000,126926.0390625000,137188.0625000000,151754.7343750000,155934.6093750000,,,
0.4479999992,3,24027.0703125000,158096.6562500000,186700.5156250000,163229.5468750000,126755.5859375000,137053.2500000000,151606.0312500000,155766.9843750000,,,
0.4519999993,3,23948.4550781250,158018.9062500000,186629.8437500000,163159.1250000000,126671.3359375000,136991.2656250000,151531.4531250000,155688.2500000000,,,
0.4559999993,3,24092.1679687500,158045.4062500000,186688.3125000000,163312.8437500000,126813.3281250000,137090.4375000000,151654.0781250000,155810.7187500000,,,
0.4599999993,3,24241.2187500000,158128.6875000000,186777.6093750000,163463.3125000000,126956.2890625000,137210.4531250000,151787.4375000000,155959.3437500000,,,
0.4639999992,3,24197.2578125000,158151.7343750000,186778.2812500000,163417.7968750000,126910.5859375000,137193.2343750000,151764.1562500000,155924.3750000000,,,
0.4679999992,3,24025.7558593750,158081.9062500000,186685.4531250000,163220.4687500000,126740.9140625000,137070.0937500000,151616.8750000000,155753.9687500000,,,
0.4719999994,3,23960.5253906250,158020.2812500000,186625.0156250000,163152.1718750000,126673.3203125000,137025.3125000000,151544.2656250000,155693.6406250000,,,
0.4759999993,3,24113.0078125000,158062.0312500000,186692.1250000000,163330.8906250000,126822.7187500000,137137.9843750000,151662.2031250000,155827.0000000000,,,
0.4799999993,3,24273.5390625000,158140.3281250000,186781.4375000000,163488.7968750000,126970.7265625000,137264.5937500000,151785.9062500000,155966.2343750000,,,
0.4839999992,3,24222.5761718750,158149.3125000000,186772.5937500000,163424.9218750000,126916.5937500000,137228.0312500000,151762.5937500000,155916.4531250000,,,
0.4879999992,3,24022.0273437500,158062.8437500000,186662.7500000000,163219.0937500000,126717.7109375000,137066.4843750000,151603.9218750000,155730.5781250000,,,
0.4919999992,3,23950.9492187500,158000.1250000000,186606.8125000000,163146.5468750000,126648.1328125000,137004.5468750000,151533.8125000000,155666.9531250000,,,
0.4959999993,3,24091.3105468750,158033.9218750000,186669.7812500000,163305.7031250000,126791.0156250000,137109.5625000000,151644.0937500000,155799.0625000000,,,
0.4999999993,3,24257.0429687500,158123.2187500000,186774.0156250000,163482.5156250000,126957.6875000000,137236.6093750000,151786.7343750000,155956.2656250000,,,
0.5039999993,3,24219.4648437500,158147.0156250000,186775.3281250000,163437.0000000000,126917.6953125000,137206.5468750000,151750.0468750000,155925.6250000000,,,
0.5079999992,3,24046.0878906250,158077.8281250000,186678.7187500000,163208.1718750000,126742.1171875000,137074.1718750000,151593.7343750000,155762.5468750000,,,
0.5119999992,4,23953.9531250000,157988.5156250000,186592.6093750000,163104.7812500000,126645.8281250000,136990.6562500000,151496.7968750000,155660.5000000000,,,
0.5159999991,4,24095.6015625000,158018.7500000000,186658.7812500000,163273.0312500000,126786.0000000000,137093.1093750000,151609.9062500000,155789.2656250000,,,
0.5199999991,4,24258.0351562500,158113.8593750000,186765.9687500000,163459.7187500000,126946.2578125000,137225.4843750000,151753.1875000000,155949.8437500000,,,
0.5239999990,4,24226.0371093750,158134.5625000000,186765.1406250000,163390.6718750000,126911.3359375000,137204.8281250000,151727.0937500000,155912.1875000000,,,
0.5279999990,4,24049.6015625000,158057.9843750000,186662.6250000000,163198.0312500000,126729.5390625000,137061.1406250000,151557.5468750000,155733.8750000000,,,
0.5319999990,4,23981.2050781250,157987.0937500000,186601.2031250000,163150.3750000000,126661.0078125000,136990.5156250000,151481.3437500000,155660.7656250000,,,
0.5359999991,4,24135.4863281250,158035.6406250000,186678.7500000000,163301.6718750000,126814.1328125000,137102.0156250000,151598.1562500000,155811.5312500000,,,
0.5399999991,4,24320.6386718750,158145.2968750000,186800.7500000000,163463.6875000000,126996.3906250000,137249.0781250000,151746.4218750000,155988.3125000000,,,
0.5439999991,4,24263.5078125000,158163.1250000000,186792.7656250000,163435.0156250000,126937.4375000000,137216.7343750000,151719.1250000000,155945.2968750000,,,
0.5479999990,4,24053.6777343750,158066.0312500000,186665.0937500000,163240.7187500000,126724.7656250000,137047.5156250000,151541.1093750000,155743.9843750000,,,
0.5519999990,4,23961.4902343750,157978.3750000000,186582.5312500000,163151.4687500000,126631.5859375000,136969.4062500000,151456.0156250000,155651.1875000000,,,
0.5559999992,4,24089.4062500000,157994.4218750000,186633.1406250000,163281.9687500000,126757.3515625000,137059.9843750000,151557.6250000000,155764.0468750000,,,
0.5599999991,4,24262.6230468750,158089.6093750000,186744.8906250000,163453.9531250000,126926.8125000000,137191.5468750000,151700.0468750000,155930.7500000000,,,
0.5639999991,4,24253.8242187500,158128.9531250000,186767.1718750000,163411.6718750000,126917.2968750000,137175.5156250000,151681.5625000000,155916.4843750000,,,
0.5679999990,4,24078.6503906250,158063.7187500000,186676.9218750000,163244.6875000000,126741.7968750000,137033.8125000000,151523.1875000000,155745.6250000000,,,
0.5719999990,4,23966.7480468750,157969.8437500000,186584.8906250000,163163.3906250000,126624.9062500000,136950.8281250000,151412.9218750000,155639.8125000000,,,
0.5759999990,4,24096.3789062500,157994.9531250000,186638.4062500000,163273.8906250000,126754.1640625000,137053.2812500000,151516.4843750000,155762.2812500000,,,
0.5799999991,4,24279.1171875000,158101.7031250000,186758.0000000000,163450.4375000000,126935.0234375000,137198.7656250000,151683.9375000000,155944.0000000000,,,
0.5839999991,4,24252.4296875000,158131.2031250000,186763.9218750000,163418.3281250000,126902.4843750000,137182.3750000000,151665.7968750000,155916.8593750000,,,
0.5879999991,4,24052.4707031250,158031.9687500000,186640.7031250000,163225.3125000000,126696.3046875000,137015.5156250000,151482.5468750000,155713.0156250000,,,
0.5919999990,4,23971.2539062500,157956.6250000000,186574.0781250000,163131.0312500000,126616.1875000000,136938.5312500000,151401.5468750000,155633.0781250000,,,
0.5959999990,4,24088.2792968750,157976.0156250000,186618.7968750000,163228.0781250000,126734.7968750000,137028.2031250000,151507.5000000000,155744.7968750000,,,
0.5999999992,4,24258.4121093750,158066.7031250000,186724.6562500000,163400.0156250000,126902.1640625000,137169.7656250000,151664.3281250000,155905.7031250000,,,
0.6039999991,4,24268.6582031250,158127.0000000000,186767.3125000000,163377.4218750000,126908.8750000000,137183.7656250000,151668.6875000000,155920.4218750000,,,
0.6079999991,4,24122.0214843750,158076.0937500000,186697.9687500000,163212.5468750000,126759.9843750000,137051.4843750000,151527.1875000000,155764.7187500000,,,
0.6119999990,4,24016.5019531250,157990.6406250000,186617.7968750000,163167.8593750000,126648.4531250000,136969.3750000000,151433.5937500000,155665.8906250000,,,
0.6159999990,4,24147.0996093750,158026.1406250000,186677.8593750000,163307.6406250000,126783.1328125000,137072.8593750000,151543.0000000000,155799.2500000000,,,
0.6199999989,4,24291.3222656250,158093.6875000000,186754.8437500000,163432.1406250000,126928.2656250000,137178.1406250000,151673.6093750000,155936.5000000000,,,
0.6239999991,4,24270.4550781250,158122.6250000000,186763.4687500000,163400.1406250000,126904.0156250000,137159.2812500000,151660.7812500000,155912.4062500000,,,
0.6279999991,4,24091.7128906250,158045.5625000000,186663.2187500000,163208.5000000000,126723.4765625000,137014.3125000000,151496.9062500000,155733.8750000000,,,
0.6319999991,4,24029.5917968750,157993.5625000000,186618.0156250000,163133.5625000000,126661.0078125000,136972.0156250000,151431.1250000000,155676.7500000000,,,
0.6359999990,4,24168.6386718750,158030.7812500000,186679.0312500000,163284.1406250000,126799.5468750000,137078.3906250000,151550.2187500000,155802.1093750000,,,
0.6399999990,5,24285.6894531250,158074.9062500000,186729.2968750000,163439.8437500000,126907.9296875000,137170.8125000000,151663.0156250000,155908.7656250000,,,
0.6439999989,5,24252.8593750000,158094.2187500000,186732.1406250000,163402.2812500000,126869.6875000000,137151.3906250000,151640.0468750000,155882.0156250000,,,
0.6479999989,5,24077.2558593750,158022.4687500000,186641.7343750000,163208.7656250000,126690.7812500000,137006.4843750000,151478.4531250000,155714.5468750000,,,
0.6519999988,5,23998.8808593750,157955.5312500000,186580.6562500000,163139.6406250000,126611.6015625000,136937.4843750000,151392.7031250000,155638.0468750000,,,
0.6559999988,5,24135.1093750000,157995.5156250000,186642.7500000000,163278.6406250000,126749.4375000000,137052.4218750000,151515.8281250000,155775.0156250000,,,
0.6599999988,5,24315.7832031250,158101.4062500000,186755.3437500000,163439.1718750000,126928.9375000000,137201.1562500000,151682.5625000000,155950.2031250000,,,
0.6639999989,5,24282.6308593750,158114.8437500000,186745.0156250000,163399.6250000000,126888.3281250000,137174.7343750000,151650.7968750000,155906.8750000000,,,
0.6679999989,5,24112.5000000000,158044.7031250000,186654.8750000000,163225.5312500000,126718.0625000000,137039.9218750000,151491.4062500000,155741.1718750000,,,
0.6719999989,5,24013.0957031250,157964.2656250000,186576.2812500000,163137.0156250000,126620.1015625000,136953.3125000000,151394.5156250000,155641.2031250000,,,
0.6759999988,5,24111.9902343750,157961.6875000000,186597.6250000000,163249.7968750000,126715.4062500000,137029.1093750000,151483.8906250000,155730.2031250000,,,
0.6799999988,5,24289.4179687500,158059.8593750000,186710.0937500000,163442.7343750000,126895.6718750000,137177.7031250000,151654.4531250000,155903.9531250000,,,
0.6839999990,5,24273.6992187500,158095.7500000000,186725.5937500000,163399.3437500000,126876.2812500000,137168.1406250000,151644.6562500000,155889.4531250000,,,
0.6879999989,5,24109.1191406250,158026.2343750000,186632.1250000000,163207.5625000000,126707.0859375000,137025.0937500000,151476.4375000000,155721.0000000000,,,
0.6919999989,5,24002.3945312500,157942.3593750000,186547.1562500000,163129.0468750000,126600.2578125000,136937.2031250000,151374.6718750000,155619.9687500000,,,
0.6959999988,5,24107.0273437500,157957.9687500000,186591.9218750000,163255.2031250000,126709.9062500000,137024.2343750000,151479.3593750000,155727.5468750000,,,
0.6999999988,5,24290.0351562500,158065.8750000000,186711.9218750000,163426.9062500000,126893.2890625000,137180.0468750000,151648.9218750000,155911.0312500000,,,
0.7039999987,5,24296.5800781250,158122.8437500000,186746.8437500000,163412.9687500000,126896.3437500000,137193.4531250000,151651.2343750000,155925.0937500000,,,
0.7079999989,5,24133.6621093750,158064.9062500000,186662.8125000000,163262.4375000000,126729.7031250000,137056.2031250000,151500.3281250000,155763.4375000000,,,
0.7119999989,5,24024.1738281250,157972.4531250000,186578.2187500000,163177.9531250000,126623.5390625000,136959.6406250000,151409.1875000000,155648.7968750000,,,
0.7159999989,5,24120.5996093750,157970.9687500000,186604.3125000000,163239.9062500000,126718.3281250000,137029.8125000000,151493.3281250000,155737.0937500000,,,
0.7199999988,5,24301.8906250000,158065.7968750000,186717.1562500000,163415.4062500000,126897.5781250000,137176.5781250000,151652.8750000000,155909.3437500000,,,
0.7239999988,5,24308.9707031250,158117.9843750000,186750.5937500000,163407.8906250000,126903.5312500000,137185.7031250000,151664.5312500000,155915.8437500000,,,
0.7279999990,5,24145.4902343750,158056.1875000000,186665.5937500000,163239.4843750000,126740.0781250000,137048.6406250000,151523.1093750000,155752.7343750000,,,
0.7319999989,5,24046.0605468750,157972.5781250000,186586.1562500000,163131.2031250000,126644.3750000000,136954.9218750000,151422.1406250000,155652.7187500000,,,
0.7359999989,5,24179.2050781250,158001.8750000000,186645.3281250000,163258.1406250000,126778.0625000000,137053.4218750000,151529.2187500000,155772.9843750000,,,
0.7399999988,5,24320.3710937500,158070.6718750000,186725.3281250000,163432.6562500000,126912.4687500000,137170.1250000000,151665.7656250000,155908.1406250000,,,
0.7439999988,5,24298.5644531250,158108.8906250000,186743.1718750000,163433.9062500000,126886.5000000000,137168.4062500000,151648.9218750000,155904.8750000000,,,
0.7479999987,5,24120.7343750000,158036.2343750000,186646.9375000000,163213.6718750000,126710.4921875000,137022.2187500000,151490.0625000000,155731.1093750000,,,
0.7519999989,5,24013.9003906250,157951.3750000000,186564.1875000000,163106.6250000000,126607.6093750000,136935.8593750000,151396.1250000000,155631.7656250000,,,
0.7559999989,5,24143.7207031250,157982.2187500000,186622.4375000000,163253.6406250000,126738.3593750000,137040.5937500000,151509.7812500000,155755.3281250000,,,
0.7599999988,5,24329.0078125000,158080.9687500000,186735.9218750000,163443.5625000000,126921.4531250000,137187.1718750000,151674.0625000000,155928.3125000000,,,
0.7639999988,5,24342.3652343750,158133.1406250000,186769.2968750000,163420.6562500000,126934.4296875000,137197.4843750000,151677.0156250000,155940.0000000000,,,
0.7679999988,6,24162.8164062500,158065.3906250000,186672.1718750000,163235.4531250000,126754.0234375000,137053.0625000000,151521.3593750000,155763.6562500000,,,
0.7719999987,6,24016.1269531250,157958.2031250000,186562.5156250000,163133.1562500000,126607.5000000000,136937.0312500000,151398.2500000000,155633.8906250000,,,
0.7759999987,6,24120.6796875000,157968.8750000000,186603.5312500000,163259.7812500000,126714.9765625000,137015.4687500000,151484.0781250000,155736.7500000000,,,
0.7799999986,6,24304.8144531250,158074.0312500000,186723.8593750000,163430.3906250000,126900.2578125000,137179.4218750000,151651.0156250000,155920.0312500000,,,
0.7839999986,6,24282.2031250000,158105.4062500000,186733.1093750000,163417.7343750000,126878.1875000000,137167.5468750000,151638.2500000000,155900.9531250000,,,
0.7879999985,6,24095.5214843750,158024.3281250000,186627.5625000000,163232.8281250000,126692.9296875000,137005.1406250000,151469.4375000000,155715.8281250000,,,
0.7919999987,6,23989.0644531250,157929.7187500000,186540.0468750000,163133.0468750000,126588.8281250000,136897.9843750000,151353.7500000000,155602.1875000000,,,
0.7959999987,6,24114.5644531250,157957.8125000000,186599.2656250000,163243.9843750000,126716.1015625000,136996.2812500000,151462.1875000000,155727.1250000000,,,
0.7999999986,6,24304.4121093750,158073.7500000000,186726.0625000000,163425.5156250000,126911.7421875000,137159.6875000000,151651.2656250000,155920.6718750000,,,
0.8039999986,6,24286.8691406250,158099.2656250000,186733.8281250000,163420.9062500000,126893.0468750000,137143.2968750000,151648.4218750000,155893.4687500000,,,
0.8079999986,6,24107.9121093750,158030.7031250000,186636.2812500000,163215.8281250000,126708.9140625000,137002.5937500000,151484.7500000000,155726.0937500000,,,
0.8119999988,6,24029.7539062500,157970.7656250000,186576.4687500000,163110.0625000000,126633.5703125000,136929.5781250000,151398.8593750000,155646.0156250000,,,
0.8159999987,6,24124.2734375000,157975.2656250000,186606.4375000000,163238.7500000000,126724.4687500000,137007.2031250000,151476.0625000000,155734.3906250000,,,
0.8199999987,6,24298.6972656250,158074.0312500000,186723.3281250000,163414.6875000000,126899.3203125000,137156.0625000000,151642.1875000000,155916.2968750000,,,
0.8239999986,6,24302.8027343750,158122.9218750000,186755.7500000000,163429.2656250000,126904.7109375000,137160.6562500000,151658.0000000000,155923.5156250000,,,
0.8279999986,6,24113.0351562500,158034.3750000000,186642.1093750000,163220.1875000000,126712.2656250000,136995.3437500000,151485.1250000000,155723.0625000000,,,
0.8319999985,6,24005.2636718750,157941.7343750000,186551.8281250000,163101.9687500000,126602.7265625000,136904.5468750000,151376.2031250000,155606.9218750000,,,
0.8359999987,6,24116.6835937500,157965.3750000000,186603.7500000000,163237.3906250000,126719.5312500000,137006.4843750000,151477.5625000000,155727.3906250000,,,
0.8399999987,6,24287.3789062500,158055.0937500000,186711.6875000000,163437.5312500000,126894.2031250000,137144.1093750000,151631.8906250000,155898.7031250000,,,
0.8439999986,6,24296.1777343750,158105.0625000000,186744.0468750000,163419.0468750000,126904.0937500000,137152.5000000000,151646.6250000000,155909.1875000000,,,
0.8479999986,6,24113.9746093750,158034.1718750000,186644.8593750000,163215.4687500000,126724.5468750000,137006.4218750000,151491.7812500000,155734.3281250000,,,
0.8519999986,6,24018.9433593750,157961.5937500000,186574.4531250000,163139.0781250000,126633.0625000000,136932.9375000000,151399.8281250000,155642.5156250000,,,
0.8559999987,6,24135.6191406250,157990.2031250000,186627.7500000000,163269.7343750000,126754.5390625000,137031.6406250000,151501.2187500000,155761.7500000000,,,
0.8599999987,6,24301.4335937500,158069.7343750000,186724.0781250000,163444.1250000000,126919.9765625000,137161.3281250000,151654.7812500000,155916.6093750000,,,
0.8639999987,6,24287.2988281250,158095.7031250000,186735.4687500000,163446.1718750000,126899.3750000000,137146.5468750000,151651.3125000000,155900.4687500000,,,
0.8679999986,6,24110.3261718750,158032.2343750000,186641.3593750000,163266.3281250000,126720.7656250000,137012.0781250000,151485.7656250000,155736.2187500000,,,
0.8719999986,6,23999.0156250000,157948.2812500000,186555.3593750000,163125.1093750000,126611.8671875000,136920.8593750000,151384.4687500000,155625.8125000000,,,
0.8759999985,6,24111.9355468750,157971.5312500000,186610.1875000000,163233.8750000000,126730.6953125000,137012.8281250000,151486.3906250000,155741.3125000000,,,
0.8799999987,6,24309.7753906250,158093.2500000000,186750.9218750000,163442.6562500000,126934.7265625000,137178.6718750000,151663.4062500000,155948.8281250000,,,
0.8839999987,6,24285.4746093750,158118.2812500000,186752.3437500000,163442.1718750000,126903.3984375000,137162.6406250000,151651.6406250000,155925.1718750000,,,
0.8879999986,6,24107.1347656250,158044.3281250000,186648.2656250000,163254.8750000000,126719.8046875000,137016.3750000000,151487.2656250000,155747.0937500000,,,
0.8919999986,6,24018.5683593750,157959.7031250000,186569.5156250000,163138.8906250000,126632.7890625000,136923.0625000000,151396.5781250000,155634.8437500000,,,
0.8959999986,7,24131.8652343750,157985.8125000000,186624.7500000000,163258.0937500000,126750.5703125000,137016.1875000000,151508.5468750000,155751.4531250000,,,
0.8999999985,7,24293.2792968750,158079.1406250000,186735.0937500000,163441.4531250000,126912.0078125000,137164.8125000000,151658.7187500000,155929.0625000000,,,
0.9039999985,7,24300.4140625000,158130.5468750000,186767.8125000000,163436.5468750000,126918.5546875000,137187.5000000000,151674.3593750000,155941.0000000000,,,
0.9079999984,7,24112.9023437500,158040.8437500000,186651.9531250000,163225.2343750000,126731.7109375000,137020.3906250000,151498.9062500000,155741.2343750000,,,
0.9119999984,7,23976.1894531250,157948.6875000000,186552.6250000000,163123.5312500000,126594.1953125000,136916.8906250000,151369.2031250000,155625.8906250000,,,
0.9159999983,7,24079.6953125000,157956.2031250000,186591.0312500000,163258.1718750000,126700.1718750000,137001.5937500000,151454.2031250000,155725.6718750000,,,
0.9199999985,7,24277.1601562500,158057.0781250000,186718.1406250000,163479.1562500000,126901.4687500000,137154.8593750000,151630.3437500000,155913.6406250000,,,
0.9239999985,7,24294.0585937500,158117.0468750000,186760.9843750000,163460.8906250000,126922.5781250000,137177.0625000000,151678.8906250000,155935.3125000000,,,
0.9279999984,7,24102.1191406250,158041.0937500000,186645.9062500000,163215.5468750000,126728.5156250000,137025.0312500000,151519.1562500000,155741.9218750000,,,
0.9319999984,7,23974.1230468750,157941.4687500000,186542.9218750000,163096.7031250000,126601.5468750000,136915.6875000000,151392.7031250000,155610.1250000000,,,
0.9359999984,7,24084.3085937500,157966.9218750000,186596.9687500000,163250.7656250000,126712.5859375000,137012.6406250000,151478.4531250000,155731.3281250000,,,
0.9399999985,7,24289.5253906250,158080.0937500000,186735.4375000000,163452.9531250000,126922.6875000000,137175.7031250000,151663.4062500000,155933.9218750000,,,
0.9439999985,7,24274.7460937500,158107.0937500000,186741.5937500000,163458.3437500000,126902.7812500000,137160.1875000000,151661.2187500000,155910.4218750000,,,
0.9479999985,7,24074.8417968750,158024.4531250000,186628.0781250000,163241.2500000000,126703.1718750000,137000.2500000000,151484.4843750000,155719.0937500000,,,
0.9519999984,7,23939.4960937500,157925.3750000000,186526.0781250000,163093.5937500000,126572.3906250000,136889.7187500000,151355.1406250000,155591.5000000000,,,
0.9559999984,7,24050.2441406250,157937.9531250000,186570.2187500000,163187.9843750000,126685.1250000000,136979.7031250000,151446.9062500000,155698.4218750000,,,
0.9599999983,7,24255.0859375000,158053.6875000000,186707.5468750000,163403.9218750000,126888.8359375000,137158.5625000000,151639.4843750000,155903.2812500000,,,
0.9639999985,7,24280.6738281250,158119.3281250000,186752.7187500000,163431.9843750000,126914.0781250000,137189.5156250000,151676.5781250000,155927.3437500000,,,
0.9679999985,7,24077.6835937500,158028.7187500000,186631.5312500000,163263.5312500000,126710.7343750000,137017.0937500000,151493.2187500000,155723.7656250000,,,
0.9719999984,7,23977.6367187500,157957.6250000000,186562.4375000000,163204.5625000000,126614.7656250000,136933.2031250000,151392.9375000000,155629.6250000000,,,
0.9759999984,7,24103.1660156250,157990.4218750000,186619.8437500000,163261.6093750000,126742.5468750000,137037.7187500000,151501.5937500000,155751.9531250000,,,
0.9799999984,7,24250.1230468750,158045.8281250000,186694.7500000000,163387.2656250000,126890.7421875000,137146.4687500000,151631.9687500000,155885.0156250000,,,
0.9839999985,7,24251.1953125000,158082.6875000000,186719.3437500000,163374.9531250000,126889.7500000000,137150.0000000000,151639.8125000000,155888.3750000000,,,
0.9879999985,7,24091.3632812500,158034.5156250000,186642.4218750000,163236.4687500000,126729.5937500000,137024.2343750000,151502.0156250000,155730.6875000000,,,
0.9919999985,7,23962.5898437500,157951.2343750000,186548.1718750000,163153.5625000000,126598.9140625000,136932.7656250000,151383.9218750000,155614.8437500000,,,
0.9959999984,7,24087.3671875000,157988.4062500000,186610.9375000000,163258.3125000000,126727.2343750000,137052.2968750000,151491.2968750000,155751.8437500000,,,
0.9999999984,7,24286.0117187500,158098.0312500000,186737.1093750000,163422.7500000000,126928.0234375000,137221.0781250000,151671.8593750000,155945.9531250000,,,
1.0039999983,7,24273.1640625000,158123.5625000000,186746.0625000000,163442.5156250000,126912.7031250000,137205.0468750000,151662.6406250000,155929.2812500000,,,
1.0079999985,7,24074.2773437500,158020.0625000000,186622.1250000000,163233.7187500000,126715.5937500000,137021.5781250000,151488.9375000000,155707.9218750000,,,
1.0119999985,7,23956.0996093750,157932.2656250000,186533.7500000000,163120.2500000000,126599.4531250000,136921.1093750000,151381.3281250000,155593.6562500000,,,
1.0159999984,7,24078.7832031250,157958.9375000000,186595.0625000000,163270.6250000000,126729.2968750000,137011.6250000000,151479.3593750000,155718.9843750000,,,
1.0199999984,7,24270.4550781250,158069.8750000000,186723.9687500000,163502.6562500000,126918.9531250000,137173.1718750000,151649.4843750000,155923.0312500000,,,
1.0239999983,8,24281.8808593750,158124.9375000000,186755.2187500000,163452.1718750000,126925.9296875000,137192.0937500000,151672.9062500000,155939.0468750000,,,
1.0279999983,8,24096.1914062500,158052.8906250000,186651.0937500000,163211.0468750000,126738.9296875000,137043.3593750000,151514.3593750000,155750.0312500000,,,
1.0319999983,8,23962.4296875000,157954.9843750000,186552.8437500000,163094.5625000000,126612.3828125000,136931.8125000000,151388.9375000000,155618.5156250000,,,
1.0359999982,8,24043.9414062500,157950.1406250000,186576.8437500000,163203.2343750000,126696.8671875000,136999.6093750000,151453.0156250000,155705.9062500000,,,
1.0399999982,8,24246.9316406250,158053.5625000000,186706.3437500000,163395.1250000000,126901.7343750000,137164.6718750000,151637.0937500000,155904.3281250000,,,
1.0439999981,8,24306.5566406250,158153.9531250000,186787.9687500000,163469.2031250000,126960.5000000000,137231.1406250000,151696.5937500000,155975.9531250000,,,
1.0479999983,8,24095.9765625000,158061.9843750000,186657.5312500000,163252.2968750000,126747.3984375000,137051.9375000000,151508.2656250000,155758.3437500000,,,
1.0519999983,8,23942.3125000000,157943.0468750000,186533.6093750000,163092.2500000000,126592.4218750000,136916.3750000000,151365.4218750000,155603.1718750000,,,
1.0559999982,8,24062.6093750000,157957.8281250000,186583.8437500000,163215.3437500000,126718.4375000000,137011.6875000000,151467.0468750000,155715.3906250000,,,
1.0599999982,8,24283.0332031250,158083.9687500000,186729.1875000000,163439.5781250000,126941.0078125000,137207.5625000000,151656.9531250000,155938.3750000000,,,
1.0639999982,8,24268.2285156250,158117.3906250000,186737.0000000000,163416.7656250000,126918.0703125000,137202.6562500000,151658.7656250000,155929.9218750000,,,
1.0679999983,8,24058.3984375000,158028.5156250000,186622.1406250000,163221.6718750000,126710.5468750000,137040.6718750000,151484.2968750000,155725.4062500000,,,
1.0719999983,8,23955.2402343750,157961.3125000000,186554.5625000000,163127.6250000000,126613.2656250000,136955.2968750000,151384.8125000000,155630.4843750000,,,
1.0759999983,8,24068.6445312500,157982.0781250000,186601.9531250000,163223.4062500000,126728.0937500000,137052.5000000000,151476.1406250000,155746.6250000000,,,
1.0799999982,8,24280.5664062500,158082.3906250000,186732.1718750000,163428.2031250000,126941.2421875000,137223.1406250000,151655.7656250000,155938.1875000000,,,
1.0839999982,8,24289.9550781250,158111.7656250000,186748.0312500000,163437.6406250000,126942.7500000000,137206.2500000000,151663.6718750000,155922.7031250000,,,
1.0879999981,8,24076.6640625000,158037.7656250000,186635.7812500000,163225.2031250000,126723.3437500000,137073.0468750000,151502.9375000000,155732.5156250000,,,
1.0919999983,8,23948.7226562500,157977.3593750000,186553.7812500000,163097.6093750000,126599.8828125000,137032.5781250000,151400.9531250000,155636.2187500000,,,
1.0959999983,8,24065.8554687500,157995.2812500000,186600.7656250000,163226.4218750000,126720.6093750000,137044.3750000000,151495.8593750000,155746.3281250000,,,
1.0999999982,8,24273.6191406250,158064.5000000000,186726.5156250000,163451.7187500000,126931.4843750000,137180.8437500000,151675.1562500000,155918.5468750000,,,
1.1039999982,8,24285.2871093750,158136.1406250000,186778.3125000000,163502.0625000000,126950.4687500000,137253.5312500000,151675.5312500000,155964.0625000000,,,
1.1079999981,8,24108.3417968750,158069.2812500000,186674.3437500000,163319.0000000000,126772.1328125000,137091.2031250000,151531.4218750000,155777.9687500000,,,
1.1119999983,8,23948.4824218750,157952.0156250000,186551.2031250000,163134.7343750000,126613.0468750000,136962.2968750000,151381.5625000000,155616.8281250000,,,
1.1159999983,8,24027.8476562500,157937.2343750000,186567.9375000000,163193.7656250000,126693.1953125000,137027.6093750000,151449.9843750000,155693.0781250000,,,
1.1199999982,8,24242.1035156250,158043.5781250000,186699.9531250000,163404.9218750000,126905.5468750000,137207.3437500000,151648.5312500000,155898.9687500000,,,
1.1239999982,8,24299.7714843750,158124.8281250000,186769.7812500000,163449.2343750000,126964.0468750000,137245.1718750000,151682.3281250000,155958.3593750000,,,
1.1279999982,8,24114.5644531250,158073.8906250000,186683.4375000000,163255.5781250000,126776.8828125000,137109.1718750000,151518.3906250000,155789.4218750000,,,
1.1319999981,8,23953.6582031250,157962.2500000000,186562.6562500000,163101.5312500000,126615.6484375000,136972.3281250000,151399.2187500000,155626.4843750000,,,
1.1359999983,8,24038.3085937500,157951.6562500000,186587.0937500000,163219.0937500000,126705.8515625000,137014.5781250000,151479.4687500000,155709.1250000000,,,
1.1399999983,8,24247.8437500000,158044.6093750000,186713.5000000000,163439.2500000000,126916.0078125000,137175.2968750000,151664.4062500000,155903.1250000000,,,
1.1439999982,8,24300.6835937500,158125.8437500000,186776.4531250000,163468.3750000000,126969.5937500000,137226.2343750000,151708.4687500000,155960.2500000000,,,
1.1479999982,8,24129.0488281250,158068.8750000000,186683.1875000000,163276.2187500000,126794.4453125000,137084.3906250000,151551.5625000000,155786.0937500000,,,
1.1519999981,9,23976.4843750000,157965.9375000000,186573.5937500000,163133.0000000000,126643.4921875000,136946.5781250000,151404.5468750000,155639.6718750000,,,
1.1559999981,9,24056.5214843750,157952.9531250000,186599.4062500000,163230.5781250000,126728.7890625000,137017.6093750000,151477.0781250000,155713.5468750000,,,
1.1599999981,9,24220.9667968750,158040.4375000000,186707.6875000000,163436.3593750000,126898.7031250000,137162.7968750000,151644.6562500000,155899.0781250000,,,
1.1639999980,9,24257.1230468750,158107.3906250000,186760.1718750000,163479.4218750000,126936.7421875000,137192.8593750000,151681.1718750000,155940.1875000000,,,
1.1679999980,9,24104.1835937500,158071.9531250000,186696.2031250000,163334.8593750000,126784.3906250000,137079.3593750000,151526.7500000000,155793.3125000000,,,
1.1719999979,9,23974.5527343750,157979.1562500000,186595.9218750000,163161.7812500000,126654.4921875000,136958.4687500000,151401.9531250000,155651.6718750000,,,
1.1759999981,9,24048.1796875000,157957.9375000000,186600.5625000000,163191.6562500000,126733.0000000000,137008.0937500000,151461.5000000000,155714.7031250000,,,
1.1799999981,9,24260.4765625000,158060.7812500000,186726.9218750000,163423.2031250000,126949.4296875000,137180.1718750000,151656.2812500000,155922.7343750000,,,
1.1839999980,9,24256.7753906250,158121.8750000000,186761.8593750000,163469.8281250000,126938.2421875000,137215.1562500000,151675.2968750000,155953.2812500000,,,
1.1879999980,9,24076.6914062500,158054.7968750000,186663.9687500000,163274.6718750000,126756.8203125000,137050.9218750000,151518.5781250000,155765.5000000000,,,
1.1919999979,9,23916.6718750000,157941.0937500000,186544.8750000000,163116.6562500000,126600.0390625000,136894.9531250000,151368.0000000000,155600.0156250000,,,
1.1959999981,9,23992.6035156250,157928.2500000000,186559.0312500000,163193.2031250000,126678.8750000000,136954.7187500000,151428.1875000000,155678.2187500000,,,
1.1999999981,9,24191.5175781250,158017.1406250000,186669.2187500000,163392.9843750000,126881.3515625000,137123.3750000000,151596.1875000000,155868.5468750000,,,
1.2039999980,9,24244.5703125000,158072.9531250000,186716.2187500000,163432.8906250000,126935.7187500000,137151.8750000000,151641.9531250000,155899.1093750000,,,
1.2079999980,9,24059.2304687500,158030.1718750000,186639.9062500000,163270.8593750000,126745.2265625000,137026.3281250000,151501.5937500000,155745.2031250000,,,
1.2119999980,9,23945.8007812500,157967.8906250000,186570.0937500000,163119.4531250000,126634.6953125000,136939.1562500000,151392.6718750000,155640.5625000000,,,
1.2159999979,9,23989.0097656250,157939.1875000000,186562.5156250000,163196.2187500000,126676.6718750000,136975.1718750000,151437.7031250000,155691.6875000000,,,
1.2199999981,9,24174.2968750000,158007.1875000000,186662.8906250000,163407.8593750000,126866.0625000000,137120.2500000000,151618.5312500000,155861.6093750000,,,
1.2239999981,9,24254.5761718750,158077.8906250000,186730.0312500000,163445.2812500000,126948.9140625000,137176.0000000000,151654.6093750000,155911.0937500000,,,
1.2279999980,9,24070.2265625000,158026.8125000000,186640.9843750000,163264.2812500000,126765.6406250000,137044.9687500000,151484.5312500000,155740.4531250000,,,
1.2319999980,9,23902.7773437500,157930.7343750000,186534.0625000000,163141.3125000000,126598.2421875000,136922.6250000000,151364.4531250000,155597.4375000000,,,
1.2359999979,9,23988.8769531250,157924.5000000000,186556.2656250000,163239.8593750000,126674.4218750000,136978.5781250000,151426.3906250000,155677.3593750000,,,
1.2399999981,9,24198.6523437500,158025.9375000000,186685.0781250000,163438.7187500000,126886.9296875000,137154.2343750000,151625.5312500000,155883.2031250000,,,
1.2439999981,9,24248.0039062500,158106.8750000000,186751.7187500000,163471.4687500000,126942.3437500000,137213.0625000000,151699.3593750000,155942.7343750000,,,
1.2479999980,9,24071.5957031250,158056.2187500000,186664.9531250000,163283.4687500000,126770.3906250000,137072.3750000000,151548.3750000000,155770.1875000000,,,
1.2519999980,9,23917.5292968750,157946.2656250000,186550.8281250000,163114.7812500000,126617.2890625000,136932.7500000000,151406.4531250000,155608.6718750000,,,
1.2559999980,9,23978.8183593750,157925.1562500000,186551.5312500000,163171.8281250000,126676.7500000000,136979.7031250000,151457.9843750000,155665.7187500000,,,
1.2599999979,9,24179.8769531250,158019.9218750000,186668.8437500000,163382.2187500000,126875.9843750000,137150.5468750000,151638.3281250000,155866.9218750000,,,
1.2639999981,9,24219.3046875000,158083.2187500000,186716.7187500000,163432.1406250000,126914.8515625000,137179.0312500000,151670.7656250000,155907.1562500000,,,
1.2679999981,9,24054.1074218750,158032.2343750000,186637.0937500000,163272.1250000000,126749.1171875000,137051.8906250000,151529.9218750000,155740.0468750000,,,
1.2719999980,9,23910.3144531250,157938.6562500000,186538.5625000000,163117.5781250000,126607.9531250000,136927.5625000000,151403.9375000000,155594.1093750000,,,
1.2759999980,9,23985.2285156250,157939.6718750000,186562.2343750000,163197.5000000000,126683.9921875000,136988.5937500000,151465.7812500000,155686.1406250000,,,
1.2799999979,10,24207.7167968750,158045.2187500000,186695.2656250000,163402.6406250000,126909.2187500000,137165.6718750000,151662.0625000000,155894.5468750000,,,
1.2839999979,10,24261.8984375000,158113.1093750000,186751.6250000000,163468.7812500000,126960.6093750000,137216.2812500000,151722.8437500000,155936.1718750000,,,
1.2879999978,10,24086.8027343750,158062.2187500000,186663.3125000000,163288.4218750000,126782.0859375000,137077.4687500000,151566.4218750000,155768.2031250000,,,
1.2919999978,10,23878.4765625000,157925.2187500000,186519.4687500000,163115.5312500000,126573.5156250000,136901.4687500000,151372.2812500000,155575.0937500000,,,
1.2959999978,10,23940.8906250000,157907.7500000000,186532.2343750000,163168.8593750000,126637.5625000000,136963.2343750000,151429.8437500000,155646.2968750000,,,
1.2999999977,10,24146.4023437500,157997.9062500000,186648.9687500000,163384.6718750000,126847.5000000000,137125.7812500000,151609.8281250000,155842.3750000000,,,
1.3039999979,10,24204.9003906250,158075.9531250000,186717.9843750000,163456.8125000000,126908.7656250000,137182.2187500000,151675.7968750000,155902.7187500000,,,
1.3079999979,10,24051.5859375000,158038.7031250000,186652.7812500000,163283.9531250000,126756.0156250000,137063.6875000000,151545.9531250000,155749.6250000000,,,
1.3119999978,10,23903.5820312500,157942.3281250000,186551.5781250000,163111.2187500000,126608.2187500000,136937.2031250000,151403.9531250000,155599.7968750000,,,
1.3159999978,10,23998.8261718750,157943.0312500000,186580.4687500000,163203.8593750000,126707.6484375000,137016.5937500000,151480.8125000000,155686.1562500000,,,
1.3199999977,10,24202.4863281250,158049.3437500000,186702.2187500000,163419.9375000000,126914.7968750000,137199.5468750000,151661.5312500000,155897.1250000000,,,
1.3239999979,10,24233.0644531250,158105.2656250000,186744.7031250000,163474.2031250000,126942.2656250000,137224.5156250000,151694.2812500000,155931.0781250000,,,
1.3279999979,10,24064.3535156250,158046.7500000000,186662.9687500000,163293.5468750000,126773.1796875000,137081.0625000000,151546.6250000000,155753.0625000000,,,
1.3319999978,10,23926.7285156250,157968.4062500000,186583.5781250000,163167.0000000000,126639.7109375000,136969.8125000000,151429.4687500000,155625.8906250000,,,
1.3359999978,10,23979.5683593750,157948.4218750000,186585.6406250000,163253.1250000000,126693.7812500000,137017.3125000000,151475.6562500000,155682.8281250000,,,
1.3399999978,10,24178.8574218750,158030.9218750000,186692.7656250000,163443.4843750000,126898.3046875000,137171.8906250000,151647.5781250000,155870.2656250000,,,
1.3439999977,10,24252.0820312500,158115.5468750000,186762.6093750000,163470.2500000000,126972.9765625000,137235.0781250000,151715.5000000000,155944.8125000000,,,
1.3479999979,10,24063.0117187500,158062.2968750000,186671.3906250000,163306.6406250000,126782.5625000000,137096.2812500000,151549.6875000000,155773.5468750000,,,
1.3519999979,10,23860.2109375000,157940.3750000000,186538.9687500000,163159.8906250000,126579.7343750000,136936.1250000000,151372.9062500000,155594.1875000000,,,
1.3559999978,10,23938.3437500000,157919.7500000000,186548.1718750000,163213.7500000000,126665.8359375000,136979.6093750000,151425.5781250000,155657.8906250000,,,
1.3599999978,10,24125.3476562500,158006.1875000000,186649.9375000000,163380.1562500000,126854.9062500000,137131.1718750000,151590.7968750000,155849.5312500000,,,
1.3639999977,10,24174.5117187500,158080.1093750000,186706.8593750000,163432.5937500000,126900.5859375000,137182.2500000000,151657.8281250000,155910.3906250000,,,
1.3679999979,10,24029.9941406250,158051.7031250000,186645.0000000000,163248.2187500000,126757.3515625000,137066.2343750000,151540.1406250000,155764.7187500000,,,
1.3719999979,10,23903.9042968750,157980.0156250000,186563.3281250000,163095.8750000000,126635.6875000000,136951.1406250000,151405.3593750000,155637.3750000000,,,
1.3759999978,10,23968.5976562500,157957.4062500000,186567.8593750000,163181.8125000000,126702.9062500000,136991.5156250000,151432.7187500000,155688.9218750000,,,
1.3799999978,10,24142.2988281250,158020.1875000000,186660.0000000000,163362.2968750000,126879.3437500000,137122.4843750000,151621.4375000000,155855.6250000000,,,
1.3839999977,10,24173.8417968750,158078.1093750000,186706.7968750000,163438.7187500000,126911.5781250000,137155.9843750000,151671.7187500000,155900.0156250000,,,
1.3879999977,10,24004.2988281250,158039.8281250000,186635.7812500000,163286.4218750000,126737.9375000000,137039.9218750000,151517.8437500000,155752.8437500000,,,
1.3919999979,10,23851.4121093750,157947.8281250000,186532.9687500000,163126.0781250000,126589.9531250000,136923.3281250000,151376.7031250000,155602.2812500000,,,
1.3959999979,10,23919.5136718750,157920.7656250000,186533.7968750000,163187.1250000000,126662.0000000000,136971.3437500000,151425.6875000000,155655.1093750000,,,
1.3999999978,10,24113.9472656250,158011.5781250000,186651.8906250000,163410.3906250000,126862.4453125000,137137.6093750000,151602.5312500000,155856.7968750000,,,
1.4039999978,10,24169.7109375000,158087.7343750000,186716.8906250000,163482.7500000000,126913.2187500000,137188.3906250000,151663.8906250000,155919.0625000000,,,
1.4079999977,11,24009.0468750000,158030.2187500000,186636.8125000000,163295.7968750000,126752.3359375000,137043.9531250000,151514.0625000000,155744.3906250000,,,
1.4119999977,11,23862.8652343750,157941.3437500000,186542.0000000000,163119.3906250000,126610.1796875000,136928.4218750000,151379.7968750000,155597.4687500000,,,
1.4159999976,11,23932.8984375000,157935.2187500000,186561.2812500000,163194.0156250000,126683.8593750000,136992.0781250000,151437.5468750000,155669.2656250000,,,
1.4199999976,11,24144.9531250000,158034.1093750000,186687.2187500000,163406.3593750000,126899.5625000000,137162.5781250000,151622.6718750000,155874.6093750000,,,
1.4239999976,11,24181.5117187500,158086.6562500000,186727.5625000000,163468.1406250000,126930.8906250000,137192.7031250000,151659.8125000000,155910.0156250000,,,
1.4279999975,11,24009.0195312500,158041.1718750000,186649.7812500000,163316.5937500000,126761.9921875000,137062.2187500000,151518.4843750000,155750.9687500000,,,
1.4319999977,11,23856.7246093750,157957.2656250000,186554.3125000000,163145.5937500000,126613.3984375000,136948.4062500000,151388.5937500000,155611.0625000000,,,
1.4359999977,11,23917.2343750000,157931.7343750000,186553.1406250000,163177.2500000000,126675.9218750000,136988.7500000000,151434.7500000000,155661.8125000000,,,
1.4399999976,11,24102.2265625000,158006.5625000000,186649.9687500000,163354.4843750000,126861.9062500000,137145.2031250000,151597.0312500000,155845.2500000000,,,
1.4439999976,11,24163.1660156250,158080.0000000000,186712.7812500000,163417.5156250000,126923.2734375000,137207.8281250000,151663.3593750000,155911.3125000000,,,
1.4479999975,11,24010.7089843750,158041.5781250000,186645.8281250000,163280.2812500000,126768.3515625000,137074.7343750000,151532.0312500000,155758.3593750000,,,
1.4519999977,11,23863.5097656250,157950.3750000000,186552.0312500000,163136.4531250000,126622.2734375000,136929.7656250000,151396.7968750000,155608.4062500000,,,
1.4559999977,11,23914.3378906250,157927.1250000000,186551.2500000000,163159.3593750000,126675.0078125000,136969.5468750000,151435.9531250000,155657.6250000000,,,
1.4599999976,11,24094.0195312500,157999.9375000000,186645.5156250000,163338.7968750000,126855.2578125000,137126.0312500000,151600.9218750000,155834.4843750000,,,
1.4639999976,11,24174.1093750000,158100.4375000000,186730.0468750000,163429.6250000000,126932.5312500000,137208.7187500000,151677.9531250000,155935.4218750000,,,
1.4679999975,11,24008.4824218750,158057.7500000000,186653.6406250000,163284.8281250000,126762.7968750000,137071.6562500000,151533.1406250000,155770.4062500000,,,
1.4719999975,11,23826.0390625000,157931.8437500000,186524.5625000000,163124.2031250000,126582.2890625000,136908.6093750000,151372.1718750000,155577.0468750000,,,
1.4759999977,11,23886.2285156250,157897.9375000000,186523.1250000000,163175.2343750000,126648.0000000000,136943.2656250000,151416.1875000000,155623.7500000000,,,
1.4799999977,11,24100.8847656250,157992.1406250000,186641.5625000000,163398.4531250000,126863.3828125000,137116.5312500000,151594.2968750000,155830.4375000000,,,
1.4839999976,11,24204.2031250000,158097.2812500000,186734.5625000000,163491.3125000000,126967.9062500000,137208.0781250000,151688.6718750000,155934.1093750000,,,
1.4879999976,11,24055.1542968750,158059.4687500000,186662.1093750000,163303.4687500000,126821.2734375000,137081.2500000000,151573.8593750000,155773.8750000000,,,
1.4919999975,11,23866.7812500000,157947.0781250000,186535.2968750000,163138.3125000000,126629.0390625000,136933.8750000000,151383.6875000000,155599.7187500000,,,
1.4959999977,11,23867.1308593750,157922.4062500000,186528.6250000000,163200.0156250000,126630.9140625000,136984.1562500000,151406.7812500000,155652.4531250000,,,
1.4999999977,11,24063.9238281250,158001.8281250000,186639.1250000000,163402.0468750000,126833.1250000000,137137.7656250000,151600.8125000000,155836.4531250000,,,
1.5039999976,11,24144.0957031250,158073.9687500000,186708.0312500000,163463.7968750000,126912.0625000000,137195.2187500000,151664.1406250000,155899.9062500000,,,
1.5079999976,11,23999.7929687500,158043.1250000000,186647.9531250000,163284.3750000000,126767.3593750000,137071.9843750000,151537.1562500000,155754.5000000000,,,
1.5119999975,11,23854.9257812500,157956.6718750000,186554.5781250000,163142.1093750000,126622.8437500000,136930.6250000000,151402.1093750000,155609.5781250000,,,
1.5159999975,11,23915.0878906250,157943.2343750000,186565.0468750000,163243.0937500000,126683.9921875000,136969.4687500000,151440.3906250000,155673.2656250000,,,
1.5199999977,11,24124.3554687500,158032.3125000000,186680.1875000000,163411.8437500000,126894.7343750000,137139.1093750000,151613.8437500000,155871.9375000000,,,
1.5239999976,11,24179.1250000000,158091.6250000000,186731.2812500000,163438.7343750000,126948.6250000000,137184.6250000000,151675.9687500000,155920.4062500000,,,
1.5279999976,11,24018.0859375000,158046.2031250000,186650.4687500000,163284.7031250000,126786.5078125000,137046.6093750000,151550.0312500000,155763.8906250000,,,
1.5319999976,11,23857.3671875000,157963.6718750000,186549.8593750000,163136.3750000000,126625.5781250000,136916.3593750000,151408.3906250000,155618.8593750000,,,
1.5359999975,12,23907.0156250000,157947.1093750000,186556.4062500000,163185.1875000000,126679.9140625000,136963.8593750000,151433.0937500000,155674.0156250000,,,
1.5399999975,12,24102.2792968750,158030.8437500000,186667.5312500000,163370.2656250000,126875.6640625000,137129.8593750000,151610.5781250000,155865.3125000000,,,
1.5439999974,12,24153.9121093750,158084.8125000000,186717.5781250000,163444.7812500000,126924.4296875000,137163.3281250000,151660.2500000000,155911.4375000000,,,
1.5479999974,12,23989.8691406250,158037.2812500000,186637.0000000000,163277.4375000000,126757.7031250000,137030.4843750000,151516.3437500000,155750.6718750000,,,
1.5519999973,12,23822.2832031250,157939.1093750000,186526.3593750000,163109.4375000000,126591.7500000000,136893.7187500000,151370.7031250000,155592.0468750000,,,
1.5559999973,12,23905.0292968750,157943.3437500000,186558.4687500000,163173.4687500000,126680.9140625000,136956.8906250000,151444.4062500000,155672.6406250000,,,
1.5599999975,12,24104.8007812500,158034.3750000000,186673.3281250000,163393.2031250000,126879.7421875000,137115.4062500000,151617.7812500000,155869.3906250000,33029,1.5614444648,0.0000000000
1.5639999975,12,24155.4687500000,158087.9531250000,186718.8750000000,163484.9218750000,126926.7578125000,137159.4218750000,151663.4687500000,155915.5937500000,,,
1.5679999974,12,24002.6894531250,158052.9687500000,186648.2187500000,163304.6562500000,126774.5156250000,137038.4687500000,151534.2656250000,155769.2500000000,,,
1.5719999974,12,23840.5507812500,157962.3125000000,186544.1562500000,163138.0312500000,126616.5937500000,136913.4062500000,151392.1875000000,155614.1718750000,,,
1.5759999973,12,23887.6230468750,157935.3750000000,186544.5468750000,163194.3125000000,126670.1250000000,136956.3750000000,151424.3437500000,155655.6718750000,,,
1.5799999975,12,24076.9863281250,158010.9375000000,186650.8281250000,163395.4687500000,126862.4453125000,137116.8437500000,151586.3750000000,155842.1093750000,,,
1.5839999975,12,24148.3593750000,158080.4062500000,186717.4218750000,163466.3906250000,126932.5312500000,137177.4687500000,151653.0781250000,155906.7187500000,,,
1.5879999974,12,24007.6777343750,158050.7500000000,186654.3906250000,163313.2343750000,126785.4062500000,137063.3906250000,151524.0625000000,155766.7343750000,,,
1.5919999974,12,23837.7070312500,157954.3125000000,186538.9687500000,163134.5000000000,126615.6015625000,136923.7812500000,151376.7968750000,155601.4843750000,,,
1.5959999973,12,23892.2636718750,157924.5468750000,186535.0625000000,163173.6250000000,126675.5468750000,136959.5312500000,151431.7500000000,155641.0781250000,,,
1.5999999973,12,24076.1542968750,157996.7968750000,186637.7343750000,163364.8125000000,126863.2500000000,137109.8281250000,151578.1406250000,155823.6718750000,,,
1.6039999975,12,24123.8710937500,158075.9062500000,186702.0312500000,163430.1250000000,126903.9609375000,137192.0312500000,151649.6562500000,155904.9218750000,,,
1.6079999974,12,23986.2480468750,158053.3437500000,186646.3125000000,163300.1718750000,126772.2421875000,137085.1250000000,151542.9218750000,155772.1562500000,,,
1.6119999974,12,23842.1601562500,157973.9062500000,186552.5156250000,163148.5468750000,126628.9531250000,136959.1406250000,151406.4531250000,155626.7812500000,,,
1.6159999974,12,23905.4062500000,157961.5000000000,186562.7031250000,163165.0781250000,126693.8671875000,137013.2031250000,151444.7500000000,155681.0156250000,,,
1.6199999973,12,24084.7910156250,158027.7500000000,186656.1250000000,163372.3281250000,126872.8750000000,137158.7968750000,151598.8437500000,155851.8906250000,,,
1.6239999975,12,24134.8964843750,158079.4375000000,186703.2656250000,163460.1718750000,126921.3671875000,137200.2343750000,151672.1875000000,155897.0156250000,,,
1.6279999975,12,23973.1054687500,158040.6875000000,186630.2187500000,163304.4687500000,126758.2109375000,137080.5937500000,151532.8906250000,155751.9062500000,,,
1.6319999974,12,23815.9804687500,157948.3593750000,186523.8437500000,163136.2968750000,126600.9296875000,136948.2500000000,151375.5000000000,155595.7500000000,,,
1.6359999974,12,23840.4687500000,157907.5468750000,186502.2031250000,163159.6562500000,126624.5546875000,136967.5781250000,151400.1718750000,155620.7500000000,,,
1.6399999973,12,24035.3046875000,157985.7343750000,186614.2031250000,163370.3750000000,126824.2500000000,137132.4062500000,151583.7968750000,155814.4531250000,,,
1.6439999973,12,24126.6347656250,158075.9531250000,186700.0937500000,163450.5937500000,126918.2890625000,137202.6250000000,151663.7031250000,155906.5312500000,,,
1.6479999975,12,23986.0859375000,158052.4375000000,186641.6406250000,163286.0156250000,126778.1171875000,137096.3281250000,151539.1250000000,155775.0468750000,,,
1.6519999974,12,23796.5078125000,157934.6562500000,186507.3750000000,163102.1562500000,126586.5000000000,136946.7500000000,151375.6406250000,155576.1093750000,,,
1.6559999974,12,23841.3007812500,157904.6406250000,186503.2968750000,163166.6093750000,126632.4140625000,136989.8750000000,151402.9687500000,155617.0468750000,,,
1.6599999974,12,24037.6113281250,157990.9375000000,186618.8281250000,163369.9062500000,126829.8281250000,137161.4531250000,151566.6562500000,155816.3281250000,,,
1.6639999973,13,24117.2734375000,158071.8750000000,186696.0937500000,163450.7500000000,126910.9609375000,137233.5312500000,151654.8281250000,155901.3593750000,,,
1.6679999973,13,23958.1914062500,158031.7031250000,186621.3125000000,163279.7343750000,126755.2343750000,137111.5937500000,151532.9218750000,155749.1093750000,,,
1.6719999972,13,23794.7910156250,157933.7187500000,186510.8125000000,163092.2187500000,126597.1953125000,136980.3750000000,151382.3906250000,155584.4843750000,,,
1.6759999972,13,23849.6953125000,157923.2812500000,186522.7656250000,163151.2343750000,126654.4062500000,137028.1250000000,151418.3437500000,155642.6250000000,,,
1.6799999971,13,24022.2421875000,157991.9531250000,186619.3125000000,163376.0312500000,126827.3046875000,137177.0468750000,151571.5937500000,155816.6250000000,,,
1.6839999971,13,24118.6406250000,158072.9218750000,186700.1406250000,163475.2187500000,126925.2578125000,137253.5625000000,151662.3593750000,155904.2031250000,,,
1.6879999973,13,24001.8847656250,158067.5937500000,186659.0781250000,163318.7656250000,126810.0625000000,137160.4843750000,151573.1562500000,155795.4843750000,,,
1.6919999972,13,23851.7890625000,157987.3906250000,186563.6562500000,163157.7187500000,126666.8046875000,137027.5312500000,151428.9843750000,155637.1250000000,,,
1.6959999972,13,23836.5273437500,157926.0468750000,186519.8281250000,163184.1406250000,126648.9687500000,137037.1875000000,151418.5781250000,155635.6093750000,,,
1.6999999972,13,24031.3359375000,158010.3750000000,186642.5312500000,163370.0937500000,126848.4921875000,137201.4218750000,151587.0468750000,155839.9062500000,,,
1.7039999971,13,24112.4726562500,158076.7812500000,186704.0156250000,163445.8437500000,126929.1484375000,137261.3437500000,151668.1562500000,155909.6718750000,,,
1.7079999973,13,24004.0039062500,158048.6562500000,186640.6875000000,163284.9375000000,126817.1640625000,137158.2343750000,151549.2031250000,155773.0625000000,,,
1.7119999973,13,23766.5214843750,157934.7656250000,186499.8593750000,163102.7343750000,126579.4921875000,136998.4062500000,151327.1718750000,155580.0781250000,,,
1.7159999972,13,23749.3808593750,157880.5781250000,186473.3437500000,163162.8437500000,126569.8125000000,137002.9062500000,151352.1406250000,155594.9062500000,,,
1.7199999972,13,23991.5859375000,157984.7656250000,186617.5625000000,163396.9531250000,126815.3671875000,137198.5781250000,151547.4531250000,155819.5468750000,,,
1.7239999971,13,24097.1562500000,158074.2968750000,186702.2656250000,163464.2968750000,126918.9062500000,137282.1562500000,151665.4531250000,155908.7812500000,,,
1.7279999971,13,23964.6816406250,158052.3281250000,186645.7500000000,163293.1250000000,126785.0312500000,137169.3750000000,151550.0000000000,155776.2031250000,,,
1.7319999973,13,23803.2402343750,157969.5000000000,186542.7031250000,163120.9531250000,126623.7812500000,137035.0156250000,151392.8593750000,155620.7968750000,,,
1.7359999972,13,23816.9472656250,157922.3125000000,186517.8593750000,163159.0156250000,126637.8593750000,137044.4062500000,151405.4375000000,155634.1875000000,,,
1.7399999972,13,23995.0722656250,157980.6875000000,186610.2656250000,163356.3906250000,126820.9453125000,137184.0156250000,151560.6875000000,155806.2656250000,,,
1.7439999972,13,24078.2207031250,158053.1250000000,186680.2500000000,163451.3750000000,126903.1875000000,137261.9062500000,151647.2656250000,155888.2968750000,,,
1.7479999971,13,23908.3027343750,158005.2812500000,186596.0156250000,163294.2187500000,126735.7343750000,137131.8125000000,151496.3593750000,155730.4375000000,,,
1.7519999973,13,23739.1621093750,157917.2968750000,186492.5156250000,163128.4843750000,126569.8125000000,136992.1562500000,151347.0468750000,155570.5781250000,,,
1.7559999973,13,23798.8691406250,157907.6406250000,186509.2343750000,163196.3437500000,126633.4921875000,137042.3125000000,151391.5156250000,155627.7968750000,,,
1.7599999972,13,24001.0273437500,157999.4062500000,186628.5781250000,163386.8906250000,126839.0546875000,137216.9843750000,151575.3750000000,155834.7812500000,,,
1.7639999972,13,24086.1875000000,158070.4062500000,186697.9687500000,163467.2031250000,126925.6640625000,137282.9375000000,151665.1562500000,155908.8125000000,,,
1.7679999971,13,23933.0859375000,158026.3593750000,186623.8593750000,163300.2031250000,126767.0625000000,137160.5781250000,151534.7500000000,155751.5781250000,,,
1.7719999971,13,23743.6953125000,157920.7343750000,186499.5781250000,163112.0937500000,126576.9453125000,137007.0937500000,151357.4531250000,155571.9218750000,,,
1.7759999973,13,23778.4296875000,157884.7187500000,186486.1875000000,163138.1250000000,126617.2578125000,137025.9218750000,151378.6718750000,155597.4062500000,,,
1.7799999972,13,23981.5273437500,157971.0781250000,186604.6093750000,163349.2812500000,126827.2812500000,137197.5000000000,151562.0000000000,155797.9062500000,,,
1.7839999972,13,24081.1171875000,158069.2031250000,186697.4375000000,163460.5781250000,126926.3828125000,137292.0468750000,151664.9687500000,155907.2500000000,,,
1.7879999971,13,23948.1875000000,158057.2031250000,186647.8750000000,163324.9375000000,126792.4062500000,137188.4687500000,151557.7343750000,155784.3593750000,,,
1.7919999971,14,23769.5781250000,157957.4062500000,186530.5468750000,163146.7343750000,126615.6484375000,137039.2500000000,151395.4062500000,155605.6406250000,,,
1.7959999971,14,23801.8984375000,157923.3593750000,186522.0468750000,163176.5000000000,126652.2109375000,137060.7968750000,151418.6250000000,155636.3593750000,,,
1.7999999970,14,24002.0996093750,158001.7656250000,186632.7500000000,163357.6875000000,126855.3359375000,137220.7031250000,151594.2031250000,155829.2343750000,,,
1.8039999970,14,24094.9843750000,158080.6250000000,186705.9375000000,163434.3906250000,126946.9062500000,137300.5625000000,151679.1093750000,155918.8437500000,,,
1.8079999969,14,23946.5507812500,158055.0312500000,186645.0312500000,163304.3125000000,126795.6250000000,137192.9375000000,151566.3750000000,155785.3750000000,,,
1.8119999969,14,23779.0742187500,157955.1250000000,186532.1875000000,163129.0000000000,126628.7421875000,137049.5781250000,151411.3125000000,155610.1718750000,,,
1.8159999971,14,23826.3066406250,157937.5781250000,186537.9843750000,163171.6718750000,126681.4218750000,137084.2031250000,151440.5156250000,155649.8750000000,,,
1.8199999970,14,24002.4472656250,158025.0156250000,186646.7968750000,163387.1875000000,126856.0859375000,137251.1718750000,151602.9218750000,155839.4843750000,,,
1.8239999970,14,24090.0488281250,158100.6562500000,186717.2031250000,163478.8906250000,126942.6953125000,137324.6406250000,151709.4062500000,155922.9687500000,,,
1.8279999970,14,23989.9765625000,158068.3593750000,186662.1406250000,163345.6718750000,126842.2968750000,137223.1406250000,151624.4843750000,155793.6718750000,,,
1.8319999969,14,23783.5000000000,157970.7031250000,186546.4218750000,163182.6406250000,126641.3984375000,137090.0781250000,151410.6718750000,155625.6250000000,,,
1.8359999971,14,23755.4433593750,157921.0000000000,186509.5781250000,163174.2500000000,126617.6093750000,137090.0312500000,151419.0156250000,155629.3281250000,,,
1.8399999971,14,23964.6289062500,158008.6406250000,186625.1250000000,163367.8437500000,126829.2890625000,137254.5000000000,151618.1875000000,155820.9218750000,,,
1.8439999970,14,24066.2851562500,158093.0156250000,186703.9062500000,163459.7656250000,126930.7343750000,137345.5625000000,151714.1250000000,155913.3125000000,,,
1.8479999970,14,23940.6230468750,158064.7656250000,186647.5000000000,163327.2187500000,126803.1640625000,137253.2343750000,151617.4843750000,155788.6562500000,,,
1.8519999969,14,23794.4960937500,157991.0625000000,186558.8437500000,163147.9843750000,126655.3750000000,137136.7500000000,151483.5156250000,155646.6718750000,,,
1.8559999969,14,23813.4335937500,157951.1875000000,186538.6250000000,163148.1562500000,126674.7968750000,137128.8125000000,151489.6562500000,155654.1562500000,,,
1.8599999971,14,23997.4316406250,158024.5312500000,186638.5312500000,163357.0937500000,126858.6093750000,137273.9218750000,151658.5625000000,155827.1718750000,,,
1.8639999970,14,24092.8378906250,158117.0781250000,186723.0312500000,163456.5468750000,126956.1015625000,137365.4843750000,151757.3750000000,155935.5000000000,,,
1.8679999970,14,23963.6367187500,158094.4062500000,186668.2500000000,163325.7968750000,126824.4921875000,137274.4843750000,151646.3750000000,155814.0468750000,,,
1.8719999969,14,23776.7929687500,157969.2812500000,186534.6875000000,163140.0468750000,126637.7500000000,137107.5625000000,151472.2968750000,155610.6093750000,,,
1.8759999969,14,23799.6464843750,157940.4843750000,186529.2343750000,163165.6406250000,126665.4843750000,137106.9843750000,151501.2656250000,155636.7343750000,,,
1.8799999971,14,23994.7500000000,158028.7031250000,186644.0312500000,163359.2343750000,126865.3359375000,137276.3125000000,151685.6406250000,155832.0937500000,,,
1.8839999971,14,24093.2148437500,158113.2968750000,186727.0000000000,163453.5781250000,126968.1484375000,137378.6406250000,151786.0625000000,155934.7187500000,,,
1.8879999970,14,23960.3378906250,158088.1562500000,186669.9218750000,163332.0468750000,126834.6562500000,137279.9218750000,151670.5781250000,155812.7343750000,,,
1.8919999970,14,23784.0351562500,157993.4218750000,186560.0312500000,163163.8593750000,126661.1171875000,137134.6093750000,151504.5468750000,155648.1562500000,,,
1.8959999969,14,23811.2070312500,157968.1562500000,186553.2343750000,163187.2500000000,126692.7656250000,137152.9531250000,151526.2656250000,155676.3750000000,,,
1.8999999969,14,24026.3203125000,158073.5468750000,186685.2812500000,163416.0937500000,126912.7578125000,137335.0468750000,151716.0937500000,155884.5937500000,,,
1.9039999971,14,24107.7519531250,158147.8437500000,186755.6093750000,163516.2343750000,126996.0937500000,137391.0312500000,151801.6250000000,155965.1406250000,,,
1.9079999970,14,23964.3066406250,158109.5937500000,186685.3906250000,163361.1093750000,126852.7890625000,137267.0312500000,151682.9375000000,155827.7500000000,,,
1.9119999970,14,23785.0820312500,158003.2187500000,186561.1875000000,163124.2031250000,126675.0937500000,137128.2031250000,151518.8125000000,155648.3750000000,,,
1.9159999969,14,23811.1523437500,157971.8281250000,186548.6093750000,163160.4375000000,126702.0468750000,137154.4843750000,151522.6250000000,155672.3281250000,,,
1.9199999969,15,23965.1113281250,158019.6093750000,186623.7812500000,163361.5156250000,126855.1171875000,137284.2812500000,151660.5937500000,155820.2968750000,,,
1.9239999969,15,24060.5722656250,158090.3125000000,186696.9062500000,163455.1562500000,126954.3046875000,137366.6250000000,151767.7968750000,155907.1562500000,,,
1.9279999968,15,23914.2031250000,158072.6093750000,186641.5156250000,163308.3593750000,126807.9687500000,137280.9218750000,151661.2187500000,155791.3281250000,,,
1.9319999968,15,23753.2167968750,157988.6250000000,186542.7500000000,163148.2343750000,126652.7968750000,137139.0312500000,151509.3906250000,155634.9062500000,,,
1.9359999967,15,23788.7558593750,157964.9062500000,186541.7656250000,163173.7968750000,126694.6718750000,137147.2343750000,151531.1250000000,155660.6250000000,,,
1.9399999967,15,23998.5312500000,158059.6562500000,186665.7031250000,163366.2187500000,126909.2968750000,137314.1562500000,151696.9375000000,155859.5937500000,,,
1.9439999969,15,24063.3066406250,158140.0000000000,186740.8906250000,163489.8906250000,126976.3828125000,137388.2343750000,151787.6562500000,155957.0937500000,,,
1.9479999968,15,23916.5898437500,158096.1562500000,186665.9218750000,163352.8750000000,126831.6250000000,137256.9375000000,151666.7968750000,155817.7968750000,,,
1.9519999968,15,23729.5332031250,157983.4531250000,186539.7500000000,163138.8437500000,126650.5468750000,137067.1250000000,151485.6406250000,155630.5312500000,,,
1.9559999967,15,23749.3007812500,157952.6562500000,186527.6562500000,163158.1250000000,126675.8671875000,137079.2187500000,151495.0156250000,155651.0312500000,,,
1.9599999967,15,23929.7070312500,158023.4062500000,186628.7187500000,163361.5937500000,126860.3515625000,137230.8125000000,151659.8750000000,155822.2343750000,,,
1.9639999969,15,24036.9941406250,158115.5468750000,186722.3281250000,163490.1875000000,126966.6484375000,137335.7187500000,151760.8281250000,155936.3281250000,,,
1.9679999969,15,23892.3437500000,158079.3437500000,186651.4687500000,163330.8281250000,126819.3671875000,137228.1093750000,151634.4375000000,155800.7500000000,,,
1.9719999968,15,23703.5703125000,157974.5625000000,186528.8593750000,163135.4687500000,126634.1562500000,137072.7343750000,151462.6718750000,155619.2343750000,,,
1.9759999968,15,23706.8144531250,157930.6875000000,186505.6093750000,163136.9062500000,126643.3828125000,137073.1875000000,151455.5156250000,155626.5625000000,,,
1.9799999967,15,23894.4082031250,158015.0937500000,186619.8437500000,163351.2187500000,126836.9062500000,137230.5781250000,151617.3281250000,155817.7968750000,,,
1.9839999967,15,24002.5820312500,158098.2187500000,186702.2656250000,163445.4218750000,126947.8437500000,137315.5781250000,151715.1562500000,155918.9531250000,,,
1.9879999969,15,23885.7460937500,158071.7500000000,186642.5937500000,163297.8906250000,126834.1171875000,137214.7500000000,151615.8281250000,155794.3593750000,,,
1.9919999968,15,23689.4882812500,157968.1250000000,186520.0312500000,163131.4687500000,126640.7031250000,137055.9062500000,151446.4218750000,155612.7500000000,,,
1.9959999968,15,23690.6953125000,157931.4687500000,186508.6093750000,163171.2187500000,126647.9765625000,137068.4062500000,151442.5312500000,155626.3437500000,,,
1.9999999967,15,23885.3964843750,158021.9062500000,186626.4062500000,163366.7812500000,126846.6718750000,137236.3750000000,151612.3750000000,155824.2187500000,,,
2.0039999967,15,23976.5117187500,158097.0312500000,186696.3593750000,163469.0781250000,126936.2578125000,137323.5937500000,151700.6875000000,155917.3437500000,,,
2.0079999969,15,23848.4628906250,158062.4375000000,186632.4687500000,163329.8906250000,126808.2343750000,137215.5781250000,151593.6250000000,155787.6250000000,,,
2.0119999968,15,23664.6503906250,157956.0937500000,186511.3750000000,163134.3125000000,126628.0156250000,137063.5781250000,151429.7968750000,155604.5156250000,,,
2.0159999968,15,23683.2382812500,157926.0156250000,186503.3750000000,163150.5156250000,126653.1250000000,137079.4843750000,151430.6718750000,155624.1250000000,,,
2.0199999968,15,23860.4785156250,158000.7968750000,186604.3125000000,163331.9531250000,126832.1562500000,137232.2343750000,151583.7187500000,155801.9218750000,,,
2.0239999967,15,23968.6250000000,158077.4531250000,186686.4375000000,163455.8750000000,126940.8125000000,137305.5937500000,151680.2343750000,155896.9531250000,,,
2.0279999967,15,23867.9628906250,158076.1718750000,186659.9375000000,163348.2187500000,126843.0468750000,137227.5468750000,151611.4062500000,155808.8750000000,,,
2.0319999969,15,23677.6855468750,157987.2031250000,186546.2187500000,163139.5625000000,126654.3593750000,137087.8593750000,151432.8281250000,155639.7031250000,,,
2.0359999968,15,23684.6875000000,157948.5781250000,186524.1406250000,163161.9062500000,126662.1640625000,137096.8125000000,151421.0781250000,155644.0000000000,,,
2.0399999968,15,23856.8046875000,158014.2968750000,186623.3281250000,163382.8750000000,126842.0546875000,137231.3593750000,151589.1093750000,155815.8750000000,,,
2.0439999967,15,23946.0410156250,158087.2968750000,186698.6250000000,163487.1875000000,126937.1718750000,137311.9843750000,151700.6093750000,155911.7968750000,,,
2.0479999967,16,23817.5898437500,158058.4218750000,186636.7656250000,163301.8593750000,126810.2187500000,137211.1093750000,151577.3593750000,155787.3906250000,,,
2.0519999966,16,23639.7597656250,157966.1406250000,186526.0156250000,163117.6718750000,126633.1171875000,137068.0000000000,151414.8437500000,155617.6250000000,,,
2.0559999966,16,23653.2773437500,157938.7812500000,186517.8437500000,163172.7656250000,126649.7968750000,137083.2656250000,151422.2031250000,155632.3906250000,,,
2.0599999966,16,23839.1816406250,158017.1406250000,186626.9687500000,163366.5937500000,126841.7890625000,137228.9687500000,151585.9218750000,155820.6406250000,,,
2.0639999965,16,23936.9492187500,158089.9843750000,186700.8906250000,163449.3125000000,126942.1562500000,137306.3437500000,151679.8281250000,155917.6562500000,,,
2.0679999965,16,23828.1035156250,158078.5781250000,186659.7500000000,163332.2812500000,126836.5625000000,137219.4375000000,151594.7500000000,155811.3437500000,,,
2.0719999967,16,23621.3320312500,157968.6093750000,186526.7343750000,163147.0156250000,126629.7343750000,137067.5781250000,151411.4218750000,155610.1250000000,,,
2.0759999966,16,23621.0644531250,157915.0468750000,186496.1093750000,163148.0468750000,126633.3828125000,137063.9843750000,151405.3750000000,155602.2031250000,,,
2.0799999966,16,23799.6992187500,157990.9531250000,186601.7968750000,163340.6718750000,126815.6875000000,137221.8125000000,151557.4687500000,155797.2343750000,,,
2.0839999965,16,23902.6425781250,158062.4843750000,186677.5937500000,163443.7343750000,126918.2031250000,137300.5781250000,151656.4062500000,155894.1718750000,,,
2.0879999965,16,23787.1210937500,158040.4218750000,186627.5468750000,163325.4375000000,126802.9531250000,137192.0312500000,151556.9062500000,155774.5937500000,,,
2.0919999967,16,23605.7500000000,157942.3593750000,186512.2812500000,163137.5000000000,126621.9531250000,137032.8906250000,151382.5781250000,155590.3750000000,,,
2.0959999966,16,23595.4492187500,157892.4062500000,186479.1093750000,163136.9687500000,126614.8750000000,137028.2500000000,151368.4218750000,155585.4687500000,,,
2.0999999966,16,23773.7089843750,157970.3593750000,186584.1406250000,163326.7812500000,126797.0468750000,137192.6562500000,151551.9687500000,155779.4687500000,,,
2.1039999966,16,23884.3769531250,158055.0156250000,186668.5156250000,163446.1718750000,126911.0937500000,137283.6562500000,151667.2187500000,155890.0937500000,,,
2.1079999965,16,23792.6464843750,158053.6093750000,186637.7656250000,163343.5000000000,126822.1562500000,137198.3437500000,151577.9531250000,155797.7343750000,,,
2.1119999965,16,23601.6718750000,157965.7656250000,186519.8750000000,163157.2187500000,126630.8906250000,137053.4218750000,151402.8593750000,155618.4062500000,,,
2.1159999967,16,23579.9472656250,157904.1406250000,186474.1093750000,163162.9218750000,126608.9453125000,137036.9218750000,151380.7656250000,155594.6718750000,,,
2.1199999966,16,23759.6542968750,157959.1250000000,186567.8593750000,163349.9375000000,126793.9375000000,137172.7187500000,151539.5781250000,155758.3906250000,,,
2.1239999966,16,23869.5722656250,158042.9687500000,186656.3125000000,163454.4062500000,126904.2031250000,137271.2968750000,151644.9843750000,155871.3906250000,,,
2.1279999965,16,23753.2714843750,158036.9531250000,186616.1093750000,163330.8125000000,126788.0078125000,137195.8906250000,151570.7656250000,155778.4062500000,,,
2.1319999965,16,23584.6406250000,157955.9218750000,186513.4062500000,163149.7031250000,126624.0468750000,137066.0781250000,151409.6718750000,155616.5312500000,,,
2.1359999967,16,23578.1757812500,157905.9375000000,186486.6093750000,163170.2968750000,126625.4687500000,137051.5937500000,151394.2187500000,155602.5625000000,,,
2.1399999966,16,23748.1210937500,157959.3593750000,186577.3750000000,163346.9218750000,126800.4062500000,137187.0468750000,151542.0468750000,155761.0781250000,,,
2.1439999966,16,23873.1660156250,158046.6093750000,186670.2968750000,163440.2656250000,126924.9140625000,137292.2187500000,151666.0156250000,155876.5468750000,,,
2.1479999966,16,23779.4218750000,158044.3281250000,186637.7343750000,163328.9218750000,126831.9687500000,137223.9218750000,151583.5312500000,155788.1718750000,,,
2.1519999965,16,23587.4023437500,157951.7187500000,186519.5468750000,163146.2656250000,126642.3671875000,137070.6562500000,151405.8593750000,155613.0156250000,,,
2.1559999965,16,23573.1074218750,157903.1406250000,186486.7968750000,163140.7187500000,126630.3515625000,137055.7812500000,151387.9687500000,155599.7968750000,,,
2.1599999967,16,23755.6035156250,157979.6093750000,186593.3906250000,163331.9062500000,126815.9062500000,137202.7656250000,151551.9687500000,155783.1562500000,,,
2.1639999966,16,23899.3164062500,158097.1718750000,186714.3593750000,163509.5781250000,126963.1562500000,137333.8906250000,151689.3750000000,155934.2343750000,,,
2.1679999966,16,23783.0703125000,158079.4218750000,186664.7656250000,163393.7031250000,126849.3828125000,137241.9531250000,151592.8750000000,155822.5468750000,,,
2.1719999965,16,23585.9550781250,157967.8906250000,186532.0000000000,163135.7812500000,126651.7265625000,137076.5312500000,151416.3281250000,155626.9062500000,,,
2.1759999965,17,23575.1718750000,157908.2187500000,186490.4218750000,163125.2500000000,126645.0468750000,137055.3750000000,151395.5937500000,155602.2656250000,,,
2.1799999964,17,23746.2441406250,157979.0781250000,186589.1875000000,163346.1718750000,126820.5156250000,137196.3437500000,151559.2343750000,155779.9531250000,,,
2.1839999964,17,23892.2089843750,158091.4843750000,186705.7187500000,163495.9218750000,126966.8906250000,137325.7187500000,151701.3437500000,155927.0468750000,,,
2.1879999964,17,23764.9375000000,158071.2031250000,186647.0312500000,163348.4531250000,126835.5937500000,137242.8593750000,151583.9062500000,155813.2656250000,,,
2.1919999963,17,23560.2851562500,157959.3593750000,186512.9062500000,163117.3906250000,126630.7500000000,137084.0781250000,151407.7968750000,155615.6250000000,,,
2.1959999963,17,23560.4472656250,157919.6718750000,186490.3125000000,163122.0781250000,126633.4609375000,137078.5000000000,151401.4375000000,155611.6250000000,,,
2.1999999965,17,23739.9941406250,157993.5625000000,186594.9531250000,163342.6093750000,126815.9062500000,137224.4531250000,151559.5312500000,155789.9375000000,,,
2.2039999964,17,23858.7343750000,158073.7812500000,186678.4218750000,163454.0468750000,126934.2421875000,137320.1562500000,151672.5781250000,155897.9531250000,,,
2.2079999964,17,23773.3867187500,158060.5625000000,186635.9687500000,163314.4531250000,126847.6093750000,137250.8750000000,151583.9375000000,155797.2343750000,,,
2.2119999963,17,23579.2500000000,157975.7500000000,186526.4218750000,163153.7031250000,126655.2109375000,137107.2500000000,151414.1875000000,155632.3281250000,,,
2.2159999963,17,23536.0117187500,157913.6093750000,186477.0156250000,163133.4843750000,126612.2968750000,137075.0625000000,151391.9218750000,155601.7500000000,,,
2.2199999965,17,23724.1679687500,157972.0000000000,186572.6406250000,163310.9062500000,126802.9531250000,137207.1562500000,151552.0937500000,155765.7500000000,,,
2.2239999964,17,23867.8554687500,158075.8281250000,186682.3593750000,163452.4531250000,126951.1406250000,137317.4218750000,151686.1875000000,155904.4062500000,,,
2.2279999964,17,23758.8496093750,158077.1875000000,186652.5156250000,163362.6250000000,126843.6640625000,137252.5781250000,151588.0156250000,155823.4375000000,,,
2.2319999964,17,23580.0273437500,157984.1718750000,186544.5000000000,163191.2187500000,126665.5390625000,137104.9218750000,151427.7187500000,155646.1406250000,,,
2.2359999963,17,23566.9921875000,157932.9375000000,186509.4687500000,163163.0625000000,126653.3906250000,137084.2031250000,151414.2656250000,155623.3437500000,,,
2.2399999963,17,23761.7207031250,158012.6093750000,186620.4843750000,163333.2968750000,126852.1718750000,137238.4375000000,151587.8281250000,155810.9843750000,,,
2.2439999965,17,23889.6074218750,158111.0468750000,186719.2968750000,163479.7968750000,126981.7734375000,137348.4531250000,151701.2812500000,155941.9375000000,,,
2.2479999964,17,23759.5742187500,158074.7031250000,186653.5312500000,163367.6875000000,126848.4375000000,137251.5312500000,151600.2187500000,155813.4062500000,,,
2.2519999964,17,23579.8652343750,157973.6875000000,186537.1718750000,163179.0937500000,126672.1093750000,137085.1406250000,151424.1250000000,155629.0000000000,,,
2.2559999963,17,23549.3417968750,157920.0625000000,186495.3593750000,163154.3750000000,126644.4296875000,137070.5625000000,151395.5156250000,155607.5156250000,,,
2.2599999963,17,23728.7285156250,157999.8593750000,186602.0625000000,163333.2968750000,126825.3984375000,137233.6562500000,151575.7031250000,155796.9375000000,,,
2.2639999965,17,23864.2871093750,158094.2187500000,186697.3906250000,163441.8437500000,126957.6328125000,137346.6406250000,151701.2812500000,155923.7500000000,,,
2.2679999964,17,23765.7968750000,158080.9531250000,186655.4375000000,163326.9687500000,126859.8671875000,137259.6718750000,151619.8281250000,155824.6406250000,,,
2.2719999964,17,23579.5703125000,157981.4375000000,186535.1562500000,163140.5000000000,126672.4375000000,137101.4531250000,151452.3281250000,155636.8125000000,,,
2.2759999963,17,23556.4511718750,157928.0937500000,186498.1562500000,163153.3750000000,126649.3437500000,137086.8906250000,151432.4687500000,155614.6562500000,,,
2.2799999963,17,23729.8828125000,157990.8750000000,186596.8281250000,163349.9375000000,126825.0781250000,137235.2656250000,151589.2812500000,155784.9531250000,,,
2.2839999963,17,23866.3789062500,158089.9531250000,186700.1250000000,163474.4687500000,126962.9687500000,137358.7812500000,151724.1093750000,155920.3750000000,,,
2.2879999964,17,23767.0839843750,158089.2656250000,186662.8906250000,163364.6093750000,126865.6875000000,137291.2500000000,151640.5312500000,155833.5781250000,,,
2.2919999964,17,23597.1132812500,158005.0312500000,186555.8750000000,163168.5625000000,126697.4296875000,137138.5156250000,151487.0625000000,155664.8593750000,,,
2.2959999964,17,23590.8906250000,157966.8125000000,186534.0156250000,163177.8906250000,126693.9453125000,137127.5781250000,151479.1406250000,155654.8593750000,,,
2.2999999963,17,23752.6269531250,158015.8281250000,186615.2343750000,163366.3750000000,126850.8828125000,137253.8906250000,151624.8906250000,155803.3437500000,,,
2.3039999963,18,23872.5214843750,158085.1562500000,186694.1718750000,163457.8906250000,126969.7812500000,137358.6562500000,151746.2031250000,155907.3906250000,,,
2.3079999962,18,23773.6816406250,158085.0156250000,186662.3593750000,163324.5000000000,126869.9218750000,137302.1718750000,151681.9218750000,155826.6875000000,,,
2.3119999962,18,23582.9511718750,157995.6562500000,186544.5468750000,163149.7343750000,126678.0390625000,137157.7343750000,151522.1406250000,155647.1875000000,,,
2.3159999961,18,23559.0781250000,157945.6875000000,186506.7656250000,163154.6093750000,126656.8515625000,137132.4687500000,151485.9843750000,155623.9062500000,,,
2.3199999961,18,23741.3359375000,158010.9375000000,186604.1250000000,163346.5468750000,126839.3203125000,137282.8281250000,151643.7500000000,155794.6093750000,,,
2.3239999961,18,23882.5273437500,158109.0000000000,186706.2031250000,163481.4375000000,126977.3515625000,137404.0625000000,151776.2812500000,155930.9375000000,,,
2.3279999963,18,23809.8125000000,158106.6875000000,186679.5000000000,163351.2187500000,126898.8359375000,137337.8906250000,151705.8906250000,155843.9062500000,,,
2.3319999962,18,23642.3085937500,158026.1250000000,186578.7031250000,163153.7812500000,126733.3750000000,137204.7500000000,151559.8750000000,155675.6718750000,,,
2.3359999962,18,23635.4414062500,157993.0781250000,186560.1093750000,163173.3281250000,126731.5468750000,137195.5937500000,151554.0312500000,155671.4843750000,,,
2.3399999961,18,23771.4570312500,158040.7187500000,186638.1562500000,163355.3750000000,126871.2421875000,137315.8750000000,151668.5937500000,155819.3281250000,,,
2.3439999961,18,23875.8203125000,158113.1093750000,186715.5468750000,163462.2343750000,126965.9453125000,137420.6875000000,151779.5781250000,155931.2812500000,,,
2.3479999963,18,23805.9218750000,158118.3125000000,186695.4531250000,163387.7500000000,126894.2812500000,137352.4843750000,151706.1718750000,155856.6406250000,,,
2.3519999962,18,23607.0097656250,158024.4375000000,186571.7500000000,163191.7031250000,126697.7265625000,137192.7031250000,151535.0937500000,155673.6406250000,,,
2.3559999962,18,23576.1640625000,157977.0156250000,186532.5156250000,163171.1093750000,126672.2500000000,137174.8593750000,151501.0000000000,155653.0937500000,,,
2.3599999961,18,23749.4628906250,158030.3906250000,186619.2031250000,163323.1093750000,126849.1093750000,137301.0937500000,151651.0468750000,155807.2031250000,,,
2.3639999961,18,23884.8066406250,158114.0781250000,186712.5625000000,163444.4843750000,126983.4375000000,137412.3281250000,151782.9531250000,155929.5468750000,,,
2.3679999961,18,23802.3007812500,158116.8593750000,186689.9218750000,163346.3125000000,126900.2343750000,137348.5625000000,151714.0312500000,155851.9531250000,,,
2.3719999962,18,23614.1171875000,158018.9531250000,186573.6562500000,163159.7031250000,126712.1015625000,137191.9062500000,151540.1562500000,155666.4218750000,,,
2.3759999962,18,23588.0468750000,157968.9843750000,186536.2343750000,163147.4843750000,126690.2968750000,137166.1250000000,151510.5468750000,155645.6875000000,,,
2.3799999962,18,23760.8613281250,158027.7031250000,186627.1093750000,163331.9062500000,126865.1250000000,137297.0937500000,151659.5156250000,155809.9218750000,,,
2.3839999961,18,23910.0996093750,158130.4531250000,186735.6250000000,163489.3593750000,127014.8437500000,137416.4062500000,151799.2656250000,155956.0937500000,,,
2.3879999961,18,23825.2070312500,158134.9687500000,186707.9531250000,163393.2968750000,126928.1562500000,137348.7500000000,151723.7343750000,155878.9843750000,,,
2.3919999963,18,23632.3574218750,158032.2031250000,186582.4843750000,163192.7812500000,126730.4531250000,137175.6718750000,151551.6406250000,155684.0468750000,,,
2.3959999962,18,23597.6484375000,157972.5000000000,186538.7656250000,163165.6562500000,126697.6718750000,137147.4218750000,151513.0468750000,155648.5625000000,,,
2.3999999962,18,23758.9042968750,158021.9843750000,186618.9531250000,163331.4218750000,126859.5703125000,137276.4687500000,151652.5000000000,155802.7343750000,,,
2.4039999961,18,23885.7988281250,158105.6718750000,186707.5781250000,163457.0000000000,126984.2656250000,137391.9843750000,151767.3437500000,155927.9375000000,,,
2.4079999961,18,23801.6035156250,158107.6406250000,186684.1562500000,163382.3906250000,126899.9687500000,137328.0468750000,151688.8125000000,155853.0156250000,,,
2.4119999961,18,23628.8164062500,158024.0625000000,186578.4531250000,163207.0781250000,126725.8359375000,137181.0937500000,151517.2343750000,155676.7968750000,,,
2.4159999962,18,23562.3515625000,157946.4843750000,186510.8593750000,163135.5468750000,126663.9843750000,137134.8750000000,151462.1406250000,155618.6562500000,,,
2.4199999962,18,23713.7343750000,157989.9687500000,186587.6250000000,163304.9531250000,126819.3125000000,137261.2812500000,151614.5468750000,155770.4062500000,,,
2.4239999962,18,23855.4628906250,158085.3750000000,186688.4531250000,163434.9375000000,126959.9375000000,137379.9531250000,151737.7343750000,155910.1875000000,,,
2.4279999961,18,23794.6835937500,158101.1093750000,186673.5625000000,163351.3750000000,126892.3203125000,137327.8281250000,151690.3593750000,155846.1250000000,,,
2.4319999961,19,23621.7890625000,158021.9062500000,186566.7343750000,163175.8593750000,126713.8984375000,137181.4687500000,151522.1718750000,155672.6718750000,,,
2.4359999960,19,23585.6328125000,157957.6718750000,186516.8750000000,163150.9687500000,126680.3750000000,137138.7968750000,151460.9843750000,155627.3906250000,,,
2.4399999960,19,23760.9160156250,158024.4843750000,186619.7031250000,163346.6250000000,126854.6093750000,137288.9218750000,151625.8906250000,155801.6562500000,,,
2.4439999959,19,23902.0253906250,158127.0000000000,186727.7968750000,163459.5000000000,126996.3359375000,137416.3750000000,151772.9218750000,155949.7187500000,,,
2.4479999959,19,23809.7304687500,158112.3593750000,186687.8593750000,163363.3437500000,126900.6640625000,137339.3437500000,151688.5625000000,155854.6875000000,,,
2.4519999959,19,23624.1230468750,158019.1250000000,186572.6875000000,163176.8750000000,126713.0156250000,137190.3906250000,151516.9062500000,155671.4843750000,,,
2.4559999960,19,23605.1054687500,157962.4531250000,186529.9531250000,163145.8125000000,126692.0156250000,137155.3906250000,151505.7031250000,155634.5000000000,,,
2.4599999960,19,23748.3359375000,158007.0468750000,186603.8281250000,163297.8125000000,126838.4609375000,137288.3437500000,151617.2500000000,155785.2656250000,,,
2.4639999960,19,23891.2968750000,158105.5937500000,186712.7500000000,163440.9687500000,126985.1562500000,137417.0156250000,151746.1250000000,155933.0312500000,,,
2.4679999959,19,23827.7285156250,158113.1250000000,186693.0937500000,163375.5937500000,126916.8906250000,137357.8437500000,151697.8437500000,155860.5781250000,,,
2.4719999959,19,23647.8867187500,158023.1406250000,186576.9843750000,163195.4687500000,126727.5000000000,137195.2500000000,151547.0781250000,155672.2968750000,,,
2.4759999961,19,23596.9511718750,157959.3593750000,186519.0781250000,163117.7656250000,126673.2109375000,137160.8906250000,151503.6250000000,155623.3125000000,,,
2.4799999960,19,23761.8808593750,158012.9531250000,186601.6562500000,163278.1875000000,126837.8750000000,137296.4218750000,151645.2031250000,155781.2187500000,,,
2.4839999960,19,23939.5761718750,158130.5625000000,186728.7343750000,163440.1093750000,127012.8046875000,137439.6875000000,151808.8593750000,155948.0312500000,,,
2.4879999959,19,23870.4296875000,158145.7968750000,186711.9687500000,163368.0937500000,126942.1328125000,137384.6718750000,151734.2187500000,155884.5312500000,,,
2.4919999959,19,23657.1679687500,158039.6093750000,186577.3750000000,163161.2968750000,126730.0781250000,137210.3750000000,151559.2656250000,155680.0781250000,,,
2.4959999959,19,23604.5957031250,157967.2968750000,186521.1093750000,163111.2343750000,126678.4453125000,137167.6250000000,151518.5156250000,155628.2031250000,,,
2.4999999960,19,23775.3457031250,158024.7187500000,186608.5000000000,163295.8281250000,126845.4609375000,137310.0468750000,151662.3906250000,155792.9375000000,,,
2.5039999960,19,23920.9355468750,158109.5312500000,186702.2968750000,163455.4218750000,126985.6093750000,137429.1875000000,151792.5000000000,155924.6875000000,,,
2.5079999960,19,23843.2597656250,158107.5000000000,186678.5781250000,163385.2812500000,126906.0312500000,137369.3750000000,151733.2343750000,155847.6250000000,,,
2.5119999959,19,23664.5703125000,158021.4843750000,186569.0625000000,163174.5625000000,126728.0937500000,137227.2812500000,151567.6562500000,155669.4218750000,,,
2.5159999959,19,23636.5683593750,157981.0625000000,186534.4062500000,163135.5468750000,126700.0078125000,137210.1875000000,151528.7343750000,155647.5156250000,,,
2.5199999961,19,23790.6875000000,158034.0625000000,186614.3906250000,163310.2031250000,126852.3593750000,137324.7812500000,151661.9843750000,155799.9218750000,,,
2.5239999960,19,23913.2109375000,158108.9531250000,186696.0937500000,163451.2656250000,126968.8437500000,137420.8281250000,151761.3593750000,155919.8906250000,,,
2.5279999960,19,23847.6035156250,158110.8750000000,186673.8906250000,163365.5937500000,126898.6796875000,137360.0000000000,151702.6562500000,155846.2656250000,,,
2.5319999959,19,23674.7617187500,158031.5468750000,186566.5156250000,163184.2812500000,126725.2500000000,137213.3281250000,151540.0781250000,155676.5000000000,,,
2.5359999959,19,23619.4277343750,157959.8750000000,186507.3281250000,163137.0937500000,126670.2656250000,137152.6562500000,151474.0781250000,155621.0625000000,,,
2.5399999958,19,23772.9843750000,158005.7031250000,186588.0781250000,163279.4687500000,126825.5312500000,137285.7031250000,151613.4375000000,155770.5937500000,,,
2.5439999960,19,23935.0703125000,158106.0000000000,186699.3125000000,163414.2968750000,126985.1562500000,137408.8125000000,151766.0312500000,155923.4375000000,,,
2.5479999960,19,23867.0761718750,158107.6406250000,186672.7656250000,163354.2500000000,126909.5703125000,137344.5468750000,151710.3281250000,155848.4375000000,,,
2.5519999960,19,23685.2226562500,158018.3125000000,186559.5781250000,163178.1406250000,126724.2812500000,137186.6406250000,151533.7812500000,155664.9687500000,,,
2.5559999959,19,23633.4023437500,157957.1406250000,186507.4062500000,163114.3750000000,126673.0781250000,137145.5468750000,151456.9062500000,155619.0781250000,,,
2.5599999959,20,23790.2324218750,158004.2031250000,186587.0625000000,163280.0937500000,126829.6093750000,137267.4843750000,151599.9843750000,155770.8593750000,,,
2.5639999958,20,23947.5976562500,158098.9218750000,186694.6718750000,163457.7031250000,126983.1953125000,137387.8125000000,151742.0468750000,155919.2656250000,,,
2.5679999958,20,23875.5253906250,158102.8906250000,186672.4687500000,163389.2187500000,126902.1093750000,137330.8125000000,151683.4687500000,155850.7968750000,,,
2.5719999957,20,23694.4492187500,158018.9375000000,186562.9218750000,163203.2968750000,126720.6640625000,137174.5468750000,151526.5625000000,155674.4375000000,,,
2.5759999957,20,23661.4316406250,157953.2187500000,186511.0312500000,163150.7968750000,126690.1640625000,137118.5156250000,151487.9062500000,155622.1718750000,,,
2.5799999957,20,23789.6679687500,157987.6093750000,186572.1562500000,163273.0312500000,126812.7109375000,137232.8906250000,151586.4375000000,155755.6562500000,,,
2.5839999958,20,23931.6914062500,158074.0000000000,186671.1562500000,163426.2187500000,126951.3593750000,137348.5625000000,151723.0937500000,155896.4531250000,,,
2.5879999958,20,23889.6875000000,158094.8125000000,186670.0000000000,163360.6406250000,126904.7109375000,137307.0781250000,151686.0156250000,155848.3750000000,,,
2.5919999958,20,23712.1523437500,158003.6718750000,186551.8437500000,163158.2812500000,126718.6484375000,137152.2500000000,151524.7968750000,155658.1250000000,,,
2.5959999957,20,23665.8847656250,157938.6562500000,186493.5625000000,163114.2500000000,126671.3046875000,137103.9687500000,151467.9375000000,155601.3281250000,,,
2.5999999957,20,23782.4531250000,157976.3437500000,186557.3125000000,163285.2343750000,126785.2500000000,137218.3750000000,151562.6875000000,155742.0312500000,,,
2.6039999959,20,23949.5546875000,158077.6406250000,186669.8593750000,163442.9218750000,126947.7109375000,137350.4218750000,151716.2187500000,155899.7656250000,,,
2.6079999958,20,23891.8867187500,158098.3281250000,186659.7500000000,163375.5156250000,126887.0937500000,137306.7500000000,151657.0781250000,155849.6718750000,,,
2.6119999958,20,23705.7949218750,158009.0156250000,186542.2187500000,163177.9218750000,126694.5390625000,137162.8750000000,151483.0781250000,155664.1406250000,,,
2.6159999957,20,23661.6191406250,157946.6718750000,186492.3750000000,163117.8593750000,126647.7343750000,137118.1406250000,151448.1562500000,155613.1250000000,,,
2.6199999957,20,23836.0976562500,157992.2187500000,186576.7968750000,163289.3593750000,126819.5000000000,137247.8281250000,151586.0000000000,155757.7187500000,,,
2.6239999956,20,23995.5820312500,158091.1093750000,186684.9375000000,163446.2031250000,126971.7968750000,137388.4218750000,151727.6562500000,155911.7031250000,,,
2.6279999958,20,23941.6152343750,158119.1718750000,186684.0000000000,163368.3593750000,126915.6015625000,137363.9375000000,151707.6718750000,155872.3281250000,,,
2.6319999958,20,23754.2089843750,158015.1250000000,186555.1406250000,163160.8125000000,126721.8437500000,137190.0156250000,151540.0625000000,155662.5625000000,,,
2.6359999957,20,23712.7148437500,157948.4375000000,186498.5312500000,163127.9218750000,126665.4062500000,137142.7031250000,151464.7968750000,155608.6718750000,,,
2.6399999957,20,23868.6328125000,158000.4843750000,186583.0937500000,163293.6562500000,126821.4843750000,137273.5937500000,151594.1562500000,155768.0781250000,,,
2.6439999957,20,24026.1855468750,158103.5312500000,186701.0000000000,163485.5156250000,126985.0468750000,137411.4843750000,151758.9531250000,155926.7812500000,,,
2.6479999959,20,23981.4472656250,158122.9687500000,186693.5468750000,163414.4375000000,126932.1796875000,137372.1093750000,151720.1406250000,155874.5625000000,,,
2.6519999958,20,23794.7382812500,158028.3437500000,186573.5156250000,163171.1406250000,126745.1796875000,137208.9843750000,151554.4531250000,155680.6562500000,,,
2.6559999958,20,23707.2167968750,157937.5781250000,186490.6093750000,163106.1250000000,126652.4531250000,137144.1562500000,151474.0468750000,155596.0625000000,,,
2.6599999957,20,23857.2871093750,157972.7500000000,186558.3906250000,163257.2812500000,126794.2031250000,137267.4843750000,151605.9843750000,155734.9531250000,,,
2.6639999957,20,24046.5175781250,158084.8281250000,186680.3593750000,163422.0312500000,126973.0312500000,137418.8437500000,151755.7812500000,155906.6093750000,,,
2.6679999956,20,24026.9902343750,158127.3437500000,186692.9843750000,163361.0937500000,126938.5937500000,137400.8906250000,151716.2968750000,155879.6562500000,,,
2.6719999958,20,23837.5996093750,158057.2031250000,186584.5468750000,163179.9062500000,126745.7421875000,137245.6562500000,151564.6250000000,155706.3281250000,,,
2.6759999958,20,23760.6464843750,157977.6250000000,186511.4218750000,163115.8593750000,126676.6171875000,137173.6406250000,151525.3906250000,155627.7500000000,,,
2.6799999957,20,23897.1718750000,157994.2812500000,186564.9062500000,163281.8593750000,126812.7968750000,137271.4062500000,151634.2500000000,155741.5000000000,,,
2.6839999957,20,24026.8027343750,158069.4687500000,186649.9375000000,163417.7031250000,126933.2500000000,137389.3125000000,151734.8437500000,155874.8750000000,,,
2.6879999957,21,23966.5332031250,158086.1250000000,186638.6406250000,163341.3281250000,126867.8593750000,137351.0000000000,151697.1562500000,155824.0468750000,,,
2.6919999956,21,23802.3554687500,158018.4843750000,186539.8906250000,163137.0937500000,126698.5625000000,137196.6718750000,151544.3750000000,155658.7500000000,,,
2.6959999956,21,23771.6699218750,157963.5781250000,186497.7187500000,163095.0625000000,126663.6406250000,137150.2500000000,151487.3281250000,155612.3750000000,,,
2.6999999955,21,23941.9375000000,158009.5781250000,186584.1718750000,163286.7187500000,126826.4765625000,137292.5312500000,151620.0156250000,155768.4218750000,,,
2.7039999955,21,24114.3769531250,158130.2500000000,186710.4531250000,163468.8125000000,127000.1718750000,137442.5781250000,151796.9375000000,155949.8437500000,,,
2.7079999954,21,24029.4042968750,158117.3437500000,186667.3125000000,163393.9218750000,126913.0000000000,137360.7968750000,151729.9531250000,155857.7968750000,,,
2.7119999956,21,23841.0332031250,158023.4687500000,186546.0000000000,163176.3906250000,126721.3281250000,137191.8750000000,151554.0625000000,155663.4218750000,,,
2.7159999956,21,23753.2167968750,157934.5781250000,186463.4218750000,163097.5312500000,126631.6093750000,137119.7968750000,151438.7812500000,155581.3906250000,,,
2.7199999955,21,23898.1640625000,157967.0000000000,186531.3281250000,163240.4375000000,126771.5703125000,137246.0781250000,151565.4843750000,155723.5000000000,,,
2.7239999955,21,24070.8984375000,158073.1718750000,186653.9531250000,163428.4687500000,126942.5625000000,137388.1562500000,151722.5312500000,155892.6406250000,,,
2.7279999955,21,24031.6308593750,158106.1250000000,186662.2968750000,163396.1250000000,126899.2187500000,137354.7656250000,151693.8281250000,155857.8281250000,,,
2.7319999957,21,23844.9218750000,158021.7968750000,186552.3906250000,163182.1093750000,126710.7343750000,137194.9531250000,151527.0156250000,155672.3281250000,,,
2.7359999956,21,23791.6796875000,157954.1250000000,186494.5781250000,163128.1406250000,126658.3281250000,137132.3281250000,151458.9531250000,155613.0468750000,,,
2.7399999956,21,23959.7480468750,157996.2343750000,186576.3125000000,163289.0468750000,126828.2734375000,137248.5468750000,151593.9375000000,155760.4843750000,,,
2.7439999955,21,24116.5488281250,158090.6562500000,186682.3906250000,163446.2812500000,126981.6953125000,137372.4687500000,151736.0468750000,155915.7656250000,,,
2.7479999955,21,24049.2519531250,158092.2968750000,186654.7031250000,163369.7812500000,126912.0625000000,137308.1718750000,151666.0937500000,155842.6093750000,,,
2.7519999954,21,23842.4804687500,157999.8281250000,186530.0468750000,163153.3281250000,126701.2421875000,137156.1250000000,151488.4843750000,155646.2500000000,,,
2.7559999956,21,23775.6132812500,157931.4687500000,186470.1718750000,163103.2968750000,126632.9765625000,137109.7968750000,151426.4843750000,155584.9375000000,,,
2.7599999956,21,23930.6191406250,157968.9375000000,186545.1406250000,163273.3593750000,126788.3046875000,137220.9218750000,151561.7500000000,155729.5937500000,,,
2.7639999955,21,24108.8515625000,158078.0468750000,186671.4218750000,163453.9687500000,126965.8437500000,137362.4062500000,151724.7812500000,155904.2031250000,,,
2.7679999955,21,24064.7031250000,158105.3593750000,186672.5468750000,163390.1406250000,126917.9375000000,137320.7031250000,151686.6093750000,155862.3281250000,,,
2.7719999955,21,23874.3457031250,158014.1562500000,186554.9062500000,163186.3906250000,126724.0937500000,137162.2656250000,151511.7812500000,155663.5781250000,,,
2.7759999956,21,23808.8457031250,157930.7343750000,186478.1406250000,163094.2343750000,126655.7265625000,137096.3281250000,151430.1718750000,155583.5937500000,,,
2.7799999956,21,23968.1699218750,157978.3437500000,186557.3125000000,163263.4375000000,126816.4687500000,137225.3437500000,151558.2187500000,155741.8125000000,,,
2.7839999956,21,24108.3144531250,158076.2500000000,186664.0468750000,163452.7656250000,126955.0078125000,137359.0468750000,151708.9843750000,155905.7031250000,,,
2.7879999955,21,24057.8085937500,158082.3437500000,186646.5312500000,163388.6093750000,126900.1796875000,137304.6093750000,151665.1562500000,155840.1718750000,,,
2.7919999955,21,23871.0996093750,157990.6875000000,186528.7187500000,163174.7812500000,126709.2890625000,137138.6093750000,151492.5000000000,155638.4375000000,,,
2.7959999954,21,23792.1093750000,157913.2500000000,186455.7656250000,163082.5156250000,126626.7578125000,137072.5625000000,151412.0000000000,155562.8125000000,,,
2.7999999956,21,23938.7460937500,157952.0937500000,186527.3125000000,163230.3125000000,126772.0000000000,137192.0937500000,151530.5937500000,155710.7343750000,,,
2.8039999956,21,24122.9062500000,158060.8281250000,186652.7812500000,163408.7500000000,126954.8984375000,137350.3125000000,151693.5000000000,155888.3750000000,,,
2.8079999955,21,24086.4824218750,158092.2343750000,186656.2343750000,163382.5156250000,126915.9765625000,137315.8906250000,151670.0625000000,155852.0781250000,,,
2.8119999955,21,23897.3046875000,158017.3281250000,186548.1406250000,163192.1093750000,126728.8437500000,137158.3125000000,151495.8750000000,155670.2343750000,,,
2.8159999955,22,23820.1386718750,157941.0625000000,186482.3750000000,163133.1875000000,126658.1640625000,137093.8437500000,151411.0937500000,155596.8750000000,,,
2.8199999954,22,23958.1914062500,157971.4062500000,186543.8281250000,163243.5312500000,126796.8906250000,137214.2187500000,151543.6562500000,155733.4531250000,,,
2.8239999954,22,24139.6972656250,158073.6562500000,186662.7031250000,163421.3593750000,126977.2109375000,137359.2343750000,151700.9843750000,155907.3906250000,,,
2.8279999953,22,24079.6953125000,158084.3593750000,186649.4062500000,163388.9062500000,126909.7578125000,137305.2031250000,151648.1250000000,155851.3125000000,,,
2.8319999953,22,23874.9082031250,157990.2656250000,186527.3906250000,163182.1093750000,126700.0625000000,137132.5468750000,151467.0937500000,155647.1875000000,,,
2.8359999952,22,23803.0800781250,157909.6093750000,186456.7031250000,163108.3125000000,126628.0703125000,137063.7500000000,151386.5000000000,155564.1406250000,,,
2.8399999954,22,23942.2851562500,157935.0625000000,186518.5625000000,163261.6093750000,126765.2109375000,137177.4218750000,151508.2500000000,155694.4687500000,,,
2.8439999954,22,24127.7617187500,158042.6718750000,186645.1562500000,163455.1562500000,126950.1250000000,137326.5156250000,151675.0312500000,155875.7343750000,,,
2.8479999953,22,24086.9375000000,158079.8750000000,186650.3593750000,163398.6718750000,126903.8046875000,137307.0781250000,151653.5156250000,155848.2968750000,,,
2.8519999953,22,23878.8242187500,157991.0156250000,186520.7343750000,163174.1718750000,126692.5781250000,137137.5625000000,151471.5468750000,155645.9531250000,,,
2.8559999953,22,23793.4238281250,157906.5781250000,186437.4531250000,163084.3906250000,126605.7578125000,137064.1250000000,151388.4531250000,155559.3125000000,,,
2.8599999954,22,23940.8906250000,157934.9843750000,186503.4375000000,163236.7968750000,126752.0703125000,137176.6562500000,151518.2187500000,155694.0156250000,,,
2.8639999954,22,24115.3964843750,158034.1875000000,186624.6093750000,163415.2500000000,126926.1484375000,137321.6406250000,151665.4218750000,155866.2187500000,,,
2.8679999954,22,24081.3046875000,158063.0000000000,186629.9062500000,163370.8593750000,126891.0078125000,137289.7187500000,151634.2812500000,155827.5937500000,,,
2.8719999953,22,23907.3378906250,157995.3593750000,186536.8593750000,163197.9375000000,126719.8828125000,137142.0156250000,151478.8281250000,155652.3906250000,,,
2.8759999953,22,23832.6113281250,157935.8906250000,186480.8750000000,163138.8437500000,126645.4218750000,137088.0937500000,151401.9531250000,155591.5625000000,,,
2.8799999952,22,23978.7109375000,157972.4218750000,186551.4375000000,163280.2500000000,126791.5546875000,137199.5468750000,151521.7031250000,155733.0000000000,,,
2.8839999954,22,24151.8476562500,158064.4218750000,186662.5156250000,163441.6562500000,126961.3906250000,137339.6406250000,151687.0937500000,155894.5156250000,,,
2.8879999954,22,24115.3691406250,158089.1562500000,186659.2500000000,163389.5156250000,126919.2812500000,137312.7656250000,151663.9218750000,155851.8750000000,,,
2.8919999953,22,23931.3691406250,158012.7968750000,186544.0468750000,163185.1562500000,126729.6484375000,137157.7343750000,151495.0468750000,155663.6250000000,,,
2.8959999953,22,23830.9746093750,157921.3281250000,186458.5625000000,163102.7968750000,126629.7343750000,137071.1718750000,151396.4218750000,155567.2343750000,,,
2.8999999953,22,23966.2910156250,157951.6562500000,186524.0937500000,163269.6718750000,126764.6484375000,137180.5468750000,151508.1093750000,155707.3437500000,,,
2.9039999954,22,24152.3027343750,158054.4375000000,186648.4843750000,163505.3593750000,126950.2031250000,137320.3750000000,151671.1093750000,155887.2187500000,,,
2.9079999954,22,24120.4648437500,158089.9531250000,186661.8750000000,163469.7500000000,126918.0468750000,137299.2968750000,151650.5312500000,155860.9375000000,,,
2.9119999954,22,23923.4042968750,158003.2343750000,186539.8593750000,163178.0000000000,126718.5390625000,137144.9531250000,151480.2187500000,155660.5781250000,,,
2.9159999953,22,23819.6562500000,157907.9375000000,186448.4531250000,163073.8437500000,126615.8125000000,137059.9375000000,151374.3750000000,155557.9218750000,,,
2.9199999953,22,23949.9296875000,157928.9687500000,186505.0937500000,163236.5312500000,126748.1250000000,137168.7500000000,151480.6718750000,155689.4062500000,,,
2.9239999952,22,24131.2207031250,158029.8437500000,186619.8125000000,163431.5468750000,126924.1875000000,137331.2187500000,151664.8593750000,155870.3750000000,,,
2.9279999954,22,24113.5449218750,158066.9687500000,186630.7500000000,163394.8281250000,126901.3359375000,137308.2500000000,151664.9687500000,155844.4375000000,,,
2.9319999954,22,23931.0468750000,157996.4531250000,186526.4531250000,163209.2968750000,126719.0000000000,137154.9375000000,151483.4375000000,155662.4218750000,,,
2.9359999953,22,23837.4648437500,157914.8437500000,186446.7656250000,163149.5937500000,126621.5234375000,137083.5625000000,151404.7187500000,155568.6562500000,,,
2.9399999953,22,23981.6601562500,157935.6718750000,186508.7500000000,163279.4375000000,126766.7421875000,137189.5312500000,151518.9687500000,155697.5625000000,,,
2.9439999952,23,24146.1074218750,158027.4843750000,186617.2343750000,163428.8437500000,126930.1406250000,137328.2968750000,151672.8750000000,155860.5312500000,,,
2.9479999952,23,24104.5859375000,158052.1093750000,186618.1718750000,163387.0781250000,126881.8359375000,137300.5625000000,151651.4218750000,155823.6562500000,,,
2.9519999952,23,23925.4140625000,157983.9843750000,186519.2656250000,163201.4218750000,126701.1640625000,137153.0312500000,151481.0156250000,155648.2343750000,,,
2.9559999951,23,23844.6542968750,157910.5781250000,186448.5000000000,163122.3125000000,126621.7656250000,137084.0000000000,151395.7500000000,155566.7968750000,,,
2.9599999951,23,23999.7128906250,157949.7031250000,186521.9062500000,163273.8125000000,126777.6875000000,137208.0468750000,151522.7812500000,155712.0937500000,,,
