Time:250Hz,Epoch,Channel 1,Channel 2,Channel 3,Channel 4,Channel 5,Channel 6,Channel 7,Channel 8,Event Id,Event Date,Event Duration
0.0000000000,0,179593.5781250000,164423.1406250000,193496.8125000000,179896.7187500000,168072.0625000000,139694.6718750000,163659.5312500000,153726.6406250000,,,
0.0040000000,0,179621.8750000000,164445.9062500000,193518.1406250000,179940.6875000000,168094.9687500000,139719.9375000000,163691.1562500000,154327.4687500000,,,
0.0079999999,0,179683.2656250000,164490.6718750000,193593.4843750000,179971.5312500000,168165.8906250000,139770.2187500000,163760.2500000000,154038.7812500000,,,
0.0119999999,0,179713.0937500000,164519.3750000000,193632.0468750000,180018.4218750000,168203.7343750000,139795.2500000000,163795.7656250000,153324.0937500000,,,
0.0159999998,0,179679.0937500000,164494.7031250000,193592.5625000000,179968.6875000000,168167.1250000000,139777.0156250000,163750.2812500000,153151.4531250000,,,
0.0199999998,0,179653.6562500000,164476.2656250000,193559.5781250000,179928.6718750000,168141.2187500000,139754.5312500000,163684.6250000000,153783.3750000000,,,
0.0240000000,0,179673.0468750000,164483.3750000000,193597.4531250000,179956.7812500000,168176.7031250000,139746.4062500000,163661.3593750000,154305.3281250000,,,
0.0279999999,0,179718.4687500000,164522.1875000000,193644.4062500000,180010.0156250000,168215.3750000000,139793.1093750000,163794.4218750000,153989.2031250000,,,
0.0319999999,0,179700.2812500000,164514.8125000000,193602.5156250000,180006.7187500000,168180.0468750000,139816.5781250000,163852.3906250000,153222.8750000000,,,
0.0359999998,0,179682.1250000000,164507.3593750000,193577.0937500000,179983.0156250000,168160.1562500000,139824.6406250000,163829.1562500000,153012.3750000000,,,
0.0399999998,0,179684.0468750000,164510.8125000000,193577.6875000000,179963.0781250000,168159.1250000000,139818.9375000000,163785.7968750000,153614.9062500000,,,
0.0440000000,0,179695.2656250000,164517.7187500000,193594.2812500000,179973.1093750000,168172.1875000000,139829.6406250000,163780.6875000000,154138.4531250000,,,
0.0480000000,0,179724.5312500000,164540.8593750000,193634.9687500000,179999.7968750000,168211.3750000000,139870.3593750000,163814.8593750000,153832.1718750000,,,
0.0519999999,0,179739.4375000000,164555.4531250000,193649.4218750000,180019.8125000000,168229.1718750000,139903.2343750000,163825.2656250000,153080.6562500000,,,
0.0559999999,0,179724.4687500000,164540.8906250000,193634.0312500000,180000.0937500000,168216.8593750000,139895.8125000000,163805.0468750000,152871.5625000000,,,
0.0599999998,0,179693.6250000000,164512.1875000000,193599.8281250000,179985.3906250000,168184.6093750000,139859.8125000000,163736.6562500000,153503.3281250000,,,
0.0639999998,0,179701.0781250000,164521.4375000000,193606.1875000000,180010.0156250000,168189.3906250000,139873.5781250000,163775.9531250000,154038.0000000000,,,
0.0680000000,0,179726.1875000000,164541.0937500000,193635.7500000000,180020.4062500000,168216.0468750000,139905.1875000000,163844.0000000000,153801.2656250000,,,
0.0719999999,0,179724.5000000000,164543.0625000000,193635.2968750000,180002.2187500000,168215.1875000000,139920.3437500000,163827.2500000000,153150.4218750000,,,
0.0759999999,0,179695.7968750000,164522.4375000000,193607.5312500000,179974.6093750000,168191.1250000000,139893.6875000000,163741.8593750000,152982.8125000000,,,
0.0799999998,0,179684.6875000000,164522.1406250000,193586.7968750000,179945.3750000000,168171.8437500000,139878.2968750000,163692.5781250000,153601.3281250000,,,
0.0839999998,0,179690.4843750000,164523.2656250000,193591.2187500000,179973.2500000000,168174.4531250000,139879.6093750000,163697.1718750000,154220.4218750000,,,
0.0880000000,0,179709.9531250000,164525.9531250000,193623.0156250000,179994.7343750000,168202.7656250000,139885.0781250000,163819.4531250000,154034.7187500000,,,
0.0919999999,0,179723.9687500000,164540.7031250000,193632.6718750000,179997.1406250000,168210.9843750000,139903.7968750000,163857.6718750000,153358.3281250000,,,
0.0959999999,0,179722.2656250000,164543.5937500000,193625.7500000000,179999.5625000000,168208.7343750000,139906.6406250000,163776.6718750000,153152.3125000000,,,
0.0999999999,0,179673.1875000000,164501.6718750000,193571.2500000000,179952.2656250000,168160.5468750000,139860.8281250000,163715.7031250000,153801.1250000000,,,
0.1039999998,0,179670.3125000000,164497.1718750000,193569.3437500000,179959.2968750000,168157.8437500000,139850.5781250000,163735.7187500000,154485.5312500000,,,
0.1079999998,0,179698.9375000000,164516.2968750000,193604.8437500000,179982.6093750000,168186.6718750000,139870.7812500000,163741.8281250000,154365.2500000000,,,
0.1120000000,0,179711.4062500000,164530.8281250000,193617.8593750000,179990.2812500000,168198.9687500000,139883.6250000000,163743.4687500000,153783.0312500000,,,
0.1159999999,0,179699.0781250000,164528.8437500000,193603.2656250000,179974.8750000000,168184.1250000000,139878.2343750000,163740.5625000000,153639.7187500000,,,
0.1199999999,0,179690.1875000000,164529.0312500000,193590.1562500000,179974.5937500000,168172.5937500000,139865.9531250000,163743.4062500000,154271.7812500000,,,
0.1239999998,0,179709.5312500000,164553.3906250000,193604.4218750000,179990.6250000000,168184.1562500000,139879.6875000000,163745.0000000000,154885.3125000000,,,
0.1279999998,1,179734.7968750000,164561.5312500000,193640.1250000000,180031.6718750000,168216.3750000000,139894.2812500000,163778.1406250000,154663.5937500000,,,
0.1319999998,1,179737.2968750000,164552.0468750000,193646.4218750000,180056.9531250000,168219.4218750000,139883.2343750000,163787.0468750000,153924.4843750000,,,
0.1359999997,1,179712.6718750000,164537.5000000000,193618.1250000000,180009.9375000000,168192.5781250000,139864.8281250000,163766.1875000000,153715.1718750000,,,
0.1399999997,1,179670.8750000000,164506.8750000000,193579.2968750000,179928.1250000000,168155.8593750000,139839.9375000000,163711.0156250000,154365.7343750000,,,
0.1439999996,1,179680.1875000000,164513.5468750000,193597.2812500000,179954.6093750000,168169.9375000000,139819.5000000000,163714.0468750000,155133.4375000000,,,
0.1479999996,1,179705.4531250000,164534.5781250000,193611.0468750000,180029.0312500000,168184.2343750000,139835.4843750000,163734.3750000000,155208.4062500000,,,
0.1519999998,1,179714.7031250000,164541.3125000000,193622.2031250000,180044.8906250000,168196.9531250000,139859.3281250000,163757.6875000000,154839.7656250000,,,
0.1559999997,1,179712.8906250000,164543.5156250000,193628.3125000000,179996.3125000000,168204.1875000000,139840.5312500000,163722.9531250000,154770.1562500000,,,
0.1599999997,1,179686.9531250000,164529.8281250000,193599.1718750000,179917.4843750000,168177.5625000000,139797.1093750000,163701.1718750000,155431.8593750000,,,
0.1639999996,1,179691.4843750000,164528.6250000000,193608.5781250000,179941.9375000000,168185.2500000000,139798.6250000000,163715.9218750000,156146.5156250000,,,
0.1679999996,1,179726.7031250000,164549.4218750000,193651.9843750000,179995.4531250000,168227.3125000000,139825.7500000000,163774.1718750000,156096.3750000000,,,
0.1719999998,1,179731.3593750000,164545.0468750000,193654.3437500000,180008.2968750000,168223.6875000000,139826.6875000000,163749.2031250000,155490.9531250000,,,
0.1759999997,1,179715.3281250000,164539.2500000000,193623.5000000000,180023.3750000000,168198.8906250000,139828.0312500000,163712.8906250000,155285.5468750000,,,
0.1799999997,1,179690.2187500000,164528.3593750000,193597.5000000000,179976.5468750000,168174.0937500000,139806.2187500000,163737.1093750000,155894.2500000000,,,
0.1839999997,1,179712.3750000000,164567.1406250000,193619.3593750000,179987.8437500000,168189.6250000000,139798.1250000000,163785.5468750000,156502.4843750000,,,
0.1879999996,1,179718.7031250000,164547.3437500000,193616.5781250000,180012.5625000000,168183.9687500000,139790.3125000000,163766.0468750000,156342.9218750000,,,
0.1919999996,1,179719.1093750000,164529.9218750000,193627.5625000000,180020.8750000000,168193.2812500000,139810.2968750000,163770.3750000000,155744.9218750000,,,
0.1959999998,1,179698.9687500000,164512.2656250000,193613.6250000000,180007.1718750000,168180.8906250000,139780.5781250000,163720.9687500000,155677.1562500000,,,
0.1999999997,1,179666.2968750000,164494.5937500000,193573.1718750000,179966.0312500000,168144.7500000000,139738.2500000000,163642.6875000000,156642.7968750000,,,
0.2039999997,1,179664.5468750000,164487.0000000000,193577.2500000000,179971.8437500000,168147.2500000000,139719.6718750000,163675.7343750000,157744.5937500000,,,
0.2079999996,1,179708.9375000000,164519.4218750000,193624.1093750000,180021.6875000000,168191.6406250000,139778.2187500000,163737.6406250000,158057.8593750000,,,
0.2119999996,1,179735.4218750000,164539.8906250000,193651.0625000000,180073.8281250000,168213.9375000000,139789.8125000000,163742.0156250000,157783.1406250000,,,
0.2159999998,1,179714.0156250000,164525.0625000000,193629.7343750000,180040.9375000000,168195.0937500000,139769.2812500000,163730.4531250000,157864.4843750000,,,
0.2199999997,1,179687.0000000000,164524.7968750000,193598.1406250000,179962.8125000000,168167.9375000000,139760.2500000000,163705.9687500000,158749.8593750000,,,
0.2239999997,1,179688.1562500000,164522.7812500000,193596.7968750000,179952.7500000000,168167.5000000000,139726.9687500000,163688.8281250000,159711.7812500000,,,
0.2279999997,1,179705.2343750000,164521.3281250000,193617.2656250000,179977.8593750000,168187.6406250000,139757.1406250000,163671.5000000000,160015.1718750000,,,
0.2319999996,1,179681.7187500000,164493.1406250000,193604.6562500000,179988.1250000000,168174.3750000000,139735.7031250000,163666.7500000000,159895.2968750000,,,
0.2359999996,1,179661.2500000000,164479.9218750000,193580.5781250000,179988.1250000000,168148.4062500000,139716.9531250000,163695.6718750000,160226.5000000000,,,
0.2399999998,1,179655.7031250000,164486.1406250000,193565.2656250000,179970.0312500000,168137.2656250000,139707.4687500000,163679.3906250000,161419.9531250000,,,
0.2439999997,1,179672.4062500000,164515.6250000000,193582.7812500000,179961.4375000000,168154.0625000000,139741.9062500000,163675.3437500000,162539.1875000000,,,
0.2479999997,1,179703.6093750000,164536.1406250000,193628.1093750000,179981.6093750000,168196.6250000000,139751.7968750000,163723.9687500000,162712.0000000000,,,
0.2519999996,1,179717.0156250000,164535.5781250000,193645.9375000000,180027.6718750000,168217.2031250000,139744.3750000000,163723.2343750000,162235.6093750000,,,
0.2559999996,2,179684.0781250000,164510.0625000000,193598.5468750000,180017.3125000000,168177.2656250000,139739.8437500000,163702.1875000000,162159.9218750000,,,
0.2599999995,2,179652.0000000000,164486.5468750000,193561.7500000000,179986.0625000000,168141.1406250000,139710.9687500000,163697.6250000000,163020.9062500000,,,
0.2639999995,2,179640.8593750000,164474.8437500000,193548.8750000000,179985.2656250000,168126.3593750000,139695.3906250000,163660.5781250000,164000.8750000000,,,
0.2679999995,2,179650.7656250000,164480.6093750000,193559.3125000000,180003.3906250000,168136.1718750000,139705.4843750000,163663.6093750000,164229.5156250000,,,
0.2719999994,2,179666.4843750000,164491.7812500000,193583.1718750000,180048.1562500000,168156.5000000000,139707.7812500000,163686.5000000000,163936.3906250000,,,
0.2759999994,2,179653.0781250000,164479.8593750000,193582.0468750000,179985.9843750000,168154.8906250000,139698.9062500000,163686.7656250000,164014.9062500000,,,
0.2799999996,2,179628.3125000000,164469.3437500000,193562.0468750000,179909.1875000000,168137.0000000000,139687.2656250000,163634.2187500000,164907.9218750000,,,
0.2839999995,2,179617.9531250000,164459.6406250000,193539.6718750000,179915.1562500000,168116.5625000000,139669.0468750000,163604.4687500000,165977.9062500000,,,
0.2879999995,2,179650.6093750000,164482.5781250000,193575.8281250000,179945.9687500000,168149.1562500000,139690.5625000000,163689.3593750000,166276.3593750000,,,
0.2919999994,2,179674.8437500000,164513.7656250000,193607.0468750000,179971.3125000000,168175.2187500000,139741.7343750000,163706.6718750000,165890.2031250000,,,
0.2959999994,2,179644.8593750000,164481.6406250000,193572.4531250000,179947.2812500000,168141.6250000000,139692.6562500000,163677.9062500000,165796.1562500000,,,
0.2999999996,2,179593.3906250000,164426.0312500000,193503.7656250000,179917.0781250000,168076.5937500000,139638.0000000000,163628.9687500000,166420.7343750000,,,
0.3039999995,2,179596.7656250000,164433.4843750000,193503.9531250000,179948.6562500000,168075.7500000000,139645.0937500000,163616.5937500000,167174.3125000000,,,
0.3079999995,2,179636.9218750000,164466.9375000000,193548.6093750000,180014.3125000000,168117.0156250000,139680.4218750000,163654.0156250000,167183.3750000000,,,
0.3119999995,2,179659.8593750000,164486.5156250000,193576.8281250000,180030.1875000000,168142.9531250000,139703.2812500000,163689.6562500000,166694.1406250000,,,
0.3159999994,2,179639.7343750000,164470.8281250000,193559.5156250000,179975.4375000000,168126.0625000000,139696.3281250000,163664.1562500000,166433.6718750000,,,
0.3199999994,2,179617.6093750000,164458.6250000000,193545.7812500000,179929.7656250000,168113.1875000000,139695.3437500000,163628.4843750000,166810.7812500000,,,
0.3239999996,2,179620.1562500000,164463.7656250000,193547.0000000000,179949.1250000000,168116.1562500000,139669.6406250000,163596.3437500000,167286.1562500000,,,
0.3279999995,2,179633.5468750000,164467.7343750000,193555.8437500000,179977.1406250000,168129.1718750000,139666.9687500000,163650.4687500000,167130.4531250000,,,
0.3319999995,2,179654.3593750000,164484.4531250000,193580.8125000000,179999.7968750000,168151.6718750000,139691.4531250000,163701.1406250000,166471.9375000000,,,
0.3359999994,2,179657.1406250000,164489.0937500000,193586.0000000000,180001.8125000000,168156.1875000000,139698.5312500000,163714.9843750000,166067.4687500000,,,
0.3399999994,2,179635.3125000000,164471.2031250000,193562.5468750000,179985.4218750000,168137.4843750000,139679.5156250000,163676.8437500000,166384.5000000000,,,
0.3439999996,2,179644.5625000000,164478.0625000000,193568.0468750000,179990.4375000000,168143.3906250000,139661.1093750000,163645.7812500000,166816.3125000000,,,
0.3479999995,2,179669.8125000000,164497.5156250000,193593.3906250000,180011.0937500000,168166.8906250000,139699.2343750000,163679.5468750000,166579.5781250000,,,
0.3519999995,2,179687.4531250000,164511.9218750000,193621.2343750000,180041.9375000000,168190.7812500000,139721.4062500000,163724.1250000000,165805.8437500000,,,
0.3559999994,2,179673.6718750000,164503.7656250000,193612.2812500000,180027.2343750000,168184.0312500000,139717.6250000000,163703.1718750000,165388.0156250000,,,
0.3599999994,2,179626.9531250000,164473.4531250000,193558.0468750000,179947.9218750000,168134.3437500000,139695.9843750000,163640.4375000000,165832.8281250000,,,
0.3639999994,2,179617.6093750000,164464.7968750000,193532.5156250000,179946.2343750000,168113.0000000000,139665.4375000000,163668.2343750000,166334.0468750000,,,
0.3679999996,2,179648.5312500000,164482.0156250000,193580.0468750000,179981.1093750000,168153.3437500000,139692.8125000000,163691.1875000000,166154.7656250000,,,
0.3719999995,2,179675.8125000000,164506.0937500000,193622.1562500000,179994.5156250000,168193.7031250000,139689.6718750000,163739.6093750000,165415.1562500000,,,
0.3759999995,2,179657.8125000000,164489.0312500000,193586.8281250000,179986.6093750000,168162.1406250000,139694.5000000000,163693.6093750000,164877.2656250000,,,
0.3799999994,2,179631.5312500000,164469.7500000000,193555.7968750000,179972.4218750000,168136.2500000000,139686.5937500000,163671.0937500000,165089.4218750000,,,
0.3839999994,3,179655.9375000000,164498.0468750000,193581.2968750000,179993.0468750000,168162.0781250000,139703.2812500000,163676.0000000000,165469.5000000000,,,
0.3879999993,3,179692.5468750000,164527.6875000000,193620.8125000000,180034.3437500000,168196.1718750000,139711.0312500000,163716.4531250000,165209.1562500000,,,
0.3919999993,3,179710.9843750000,164549.5156250000,193643.9375000000,180036.2187500000,168217.9531250000,139759.8437500000,163748.3125000000,164360.5312500000,,,
0.3959999993,3,179712.5625000000,164561.9687500000,193650.8437500000,180029.7031250000,168231.7656250000,139751.3750000000,163789.2187500000,163752.2031250000,,,
0.3999999992,3,179703.5000000000,164560.5468750000,193636.0468750000,180026.1093750000,168217.7656250000,139720.3593750000,163730.5156250000,163882.6718750000,,,
0.4039999992,3,179685.3906250000,164530.3437500000,193607.2343750000,180024.9062500000,168187.0468750000,139731.7656250000,163701.9687500000,164200.0312500000,,,
0.4079999994,3,179707.5156250000,164538.9531250000,193641.1406250000,180042.3437500000,168216.8593750000,139767.1406250000,163758.6250000000,163892.4843750000,,,
0.4119999993,3,179726.7968750000,164571.2187500000,193659.1718750000,180055.4531250000,168235.5781250000,139761.2656250000,163775.7343750000,163081.3281250000,,,
0.4159999993,3,179709.1562500000,164552.2812500000,193642.5312500000,180036.5781250000,168223.2656250000,139764.2656250000,163768.1406250000,162538.2656250000,,,
0.4199999992,3,179690.2656250000,164533.3437500000,193628.0312500000,180005.5468750000,168212.9062500000,139775.4531250000,163759.9843750000,162769.9062500000,,,
0.4239999992,3,179699.0781250000,164541.2343750000,193647.0625000000,180022.0156250000,168230.7500000000,139763.8750000000,163771.7656250000,163189.1406250000,,,
0.4279999994,3,179723.5781250000,164564.4062500000,193666.7343750000,180052.6718750000,168248.2656250000,139798.3125000000,163798.5781250000,162980.5156250000,,,
0.4319999993,3,179732.2031250000,164574.0312500000,193674.2968750000,180048.0781250000,168254.7031250000,139803.8906250000,163848.3906250000,162267.9218750000,,,
0.4359999993,3,179723.4843750000,164570.1562500000,193657.2656250000,180035.0937500000,168240.3281250000,139779.1093750000,163828.3593750000,161812.7812500000,,,
0.4399999992,3,179704.8437500000,164562.0781250000,193644.4062500000,180009.2968750000,168227.0000000000,139757.3750000000,163786.9375000000,162129.5781250000,,,
0.4439999992,3,179713.7656250000,164566.0937500000,193655.5156250000,180023.4062500000,168240.1562500000,139816.4062500000,163814.2187500000,162631.5625000000,,,
0.4479999992,3,179741.9843750000,164584.0625000000,193681.7500000000,180062.9062500000,168262.2031250000,139819.5781250000,163859.1250000000,162525.4687500000,,,
0.4519999993,3,179742.3281250000,164586.6406250000,193687.4843750000,180062.4531250000,168265.7500000000,139825.0312500000,163835.8593750000,161833.4843750000,,,
0.4559999993,3,179717.3906250000,164574.6562500000,193656.8281250000,180046.3906250000,168233.2187500000,139796.0312500000,163792.7656250000,161332.0312500000,,,
0.4599999993,3,179693.0312500000,164562.9531250000,193628.0000000000,180012.8125000000,168209.9843750000,139777.3906250000,163723.7812500000,161632.8281250000,,,
0.4639999992,3,179685.4687500000,164528.3125000000,193636.3593750000,180015.6562500000,168220.6875000000,139790.4218750000,163708.6718750000,162166.8906250000,,,
0.4679999992,3,179723.5000000000,164562.9531250000,193676.5000000000,180047.2500000000,168260.7031250000,139815.4531250000,163852.0625000000,162116.9687500000,,,
0.4719999994,3,179719.4843750000,164556.6562500000,193661.6562500000,180055.2656250000,168238.7968750000,139797.0468750000,163841.2656250000,161451.5781250000,,,
0.4759999993,3,179710.7343750000,164561.0781250000,193640.0625000000,180039.6562500000,168221.4375000000,139809.0312500000,163813.5000000000,160969.1562500000,,,
0.4799999993,3,179710.3281250000,164573.2343750000,193641.5156250000,180022.9218750000,168225.5937500000,139820.4687500000,163810.5468750000,161242.2031250000,,,
0.4839999992,3,179723.0000000000,164587.0156250000,193654.0625000000,180038.1875000000,168234.7656250000,139811.2343750000,163803.6250000000,161743.4531250000,,,
0.4879999992,3,179743.9375000000,164598.1718750000,193677.4062500000,180053.8750000000,168256.4218750000,139831.5468750000,163818.0000000000,161662.7343750000,,,
0.4919999992,3,179743.6562500000,164584.7968750000,193683.7031250000,180047.2812500000,168260.9218750000,139826.3125000000,163821.8593750000,161008.0625000000,,,
0.4959999993,3,179736.9687500000,164584.4218750000,193681.2656250000,180028.2031250000,168256.9062500000,139827.8437500000,163801.5937500000,160526.8750000000,,,
0.4999999993,3,179714.1718750000,164577.3593750000,193642.5937500000,180006.0000000000,168223.5312500000,139788.5156250000,163726.3281250000,160847.7812500000,,,
0.5039999993,3,179732.0156250000,164591.2343750000,193675.5000000000,180028.2031250000,168259.5000000000,139792.3281250000,163702.3750000000,161431.5312500000,,,
0.5079999992,3,179759.0781250000,164613.3906250000,193691.2656250000,180072.3593750000,168273.1562500000,139779.0000000000,163717.0937500000,161404.1250000000,,,
0.5119999992,4,179748.9531250000,164575.6250000000,193689.3437500000,180077.2812500000,168264.6250000000,139790.2968750000,163817.1718750000,160779.4375000000,,,
0.5159999991,4,179727.7656250000,164575.3750000000,193646.1562500000,180049.3906250000,168220.6406250000,139805.9062500000,163791.8281250000,160340.6875000000,,,
0.5199999991,4,179698.9843750000,164554.5312500000,193617.0781250000,180030.8593750000,168192.2812500000,139759.9843750000,163770.9843750000,160670.1093750000,,,
0.5239999990,4,179712.0312500000,164584.5000000000,193627.9375000000,180051.1562500000,168201.4375000000,139735.2187500000,163746.0156250000,161246.0625000000,,,
0.5279999990,4,179747.7500000000,164618.5312500000,193664.7500000000,180093.8125000000,168236.8437500000,139771.4531250000,163747.1718750000,161214.5156250000,,,
0.5319999990,4,179743.5937500000,164572.2968750000,193666.6250000000,180101.9843750000,168236.0625000000,139820.5468750000,163763.6562500000,160583.2812500000,,,
0.5359999991,4,179733.8125000000,164572.7187500000,193667.0781250000,180072.2968750000,168237.0468750000,139810.1406250000,163776.9062500000,160142.5468750000,,,
0.5399999991,4,179723.4218750000,164578.5156250000,193667.0781250000,180041.3750000000,168238.5468750000,139788.8906250000,163753.3125000000,160423.3125000000,,,
0.5439999991,4,179707.3906250000,164566.4531250000,193632.5000000000,180046.2812500000,168207.5468750000,139757.7343750000,163684.7031250000,160969.9531250000,,,
0.5479999990,4,179724.7968750000,164570.7968750000,193647.6250000000,180060.6250000000,168218.5468750000,139772.5625000000,163707.5156250000,161020.2500000000,,,
0.5519999990,4,179754.7187500000,164597.6406250000,193690.2187500000,180071.2500000000,168262.6875000000,139762.6562500000,163791.9843750000,160530.5781250000,,,
0.5559999992,4,179737.5625000000,164588.7031250000,193670.2187500000,180077.5781250000,168246.0312500000,139767.6562500000,163742.6562500000,160173.5000000000,,,
0.5599999991,4,179704.0937500000,164566.0468750000,193624.9062500000,180042.7968750000,168200.9218750000,139791.9218750000,163695.9843750000,160473.0468750000,,,
0.5639999991,4,179713.4218750000,164569.2656250000,193641.8593750000,180047.2812500000,168214.8437500000,139745.1406250000,163699.0781250000,160979.7656250000,,,
0.5679999990,4,179717.0937500000,164548.8281250000,193646.5312500000,180065.5468750000,168219.4218750000,139781.5781250000,163673.2968750000,160952.4375000000,,,
0.5719999990,4,179729.7343750000,164565.7187500000,193676.9218750000,180039.7656250000,168254.2500000000,139783.3906250000,163740.9375000000,160377.9843750000,,,
0.5759999990,4,179715.9375000000,164557.7812500000,193653.7968750000,180020.2656250000,168230.8281250000,139787.2656250000,163778.2031250000,159905.8906250000,,,
0.5799999991,4,179711.8906250000,164565.3281250000,193651.2500000000,180018.6093750000,168220.5625000000,139787.0468750000,163719.6718750000,160102.5781250000,,,
0.5839999991,4,179715.6406250000,164592.3281250000,193631.2500000000,180033.8437500000,168205.4062500000,139770.0312500000,163684.0468750000,160565.7187500000,,,
0.5879999991,4,179739.6562500000,164589.0000000000,193669.8437500000,180052.3750000000,168249.6562500000,139791.8750000000,163754.4375000000,160527.8437500000,,,
0.5919999990,4,179738.2500000000,164571.8906250000,193684.4062500000,180033.6250000000,168260.9218750000,139793.9687500000,163771.1250000000,159921.0000000000,,,
0.5959999990,4,179717.0625000000,164570.8125000000,193653.3437500000,180008.9218750000,168226.5937500000,139747.4218750000,163750.0312500000,159436.9843750000,,,
0.5999999992,4,179697.8125000000,164544.4843750000,193629.0781250000,180009.9375000000,168203.0625000000,139773.2812500000,163687.5468750000,159639.2812500000,,,
0.6039999991,4,179713.2812500000,164562.6093750000,193657.2656250000,180018.4375000000,168233.5937500000,139789.6250000000,163757.6875000000,160119.1093750000,,,
0.6079999991,4,179739.7812500000,164592.1718750000,193671.5625000000,180050.3125000000,168237.8750000000,139772.5000000000,163712.4843750000,160135.9218750000,,,
0.6119999990,4,179749.1718750000,164578.7031250000,193669.2500000000,180077.4218750000,168239.6562500000,139809.4375000000,163723.6406250000,159561.9062500000,,,
0.6159999990,4,179760.2812500000,164599.1406250000,193697.9531250000,180067.1250000000,168273.4218750000,139792.1406250000,163809.7187500000,159069.6093750000,,,
0.6199999989,4,179737.1562500000,164595.8750000000,193663.9687500000,180050.9531250000,168242.0156250000,139752.1250000000,163729.2968750000,159265.2500000000,,,
0.6239999991,4,179704.8437500000,164569.3906250000,193628.0312500000,180020.3437500000,168208.0312500000,139705.1250000000,163727.4062500000,159750.1718750000,,,
0.6279999991,4,179724.7656250000,164573.7500000000,193654.6250000000,180052.1093750000,168226.9687500000,139796.4843750000,163709.5156250000,159749.2812500000,,,
0.6319999991,4,179728.1250000000,164585.8437500000,193656.5625000000,180052.0000000000,168222.8281250000,139743.7187500000,163666.1093750000,159199.5000000000,,,
0.6359999990,4,179743.6562500000,164615.3437500000,193689.3906250000,180046.6093750000,168253.2187500000,139749.2187500000,163714.9843750000,158712.0468750000,,,
0.6399999990,5,179703.0625000000,164543.3593750000,193649.5156250000,180026.2968750000,168216.7968750000,139787.9062500000,163697.0625000000,158865.5937500000,,,
0.6439999989,5,179696.4375000000,164548.0937500000,193613.0781250000,180050.9687500000,168189.0468750000,139775.5156250000,163603.2656250000,159301.3750000000,,,
0.6479999989,5,179720.5312500000,164577.1250000000,193651.6562500000,180072.2187500000,168226.4531250000,139768.9687500000,163765.1718750000,159305.4062500000,,,
0.6519999988,5,179740.7187500000,164579.2187500000,193682.9062500000,180090.4843750000,168250.0000000000,139805.9843750000,163801.5937500000,158765.8281250000,,,
0.6559999988,5,179727.0937500000,164578.4687500000,193669.0312500000,180051.3593750000,168227.2031250000,139831.0312500000,163711.9531250000,158280.0937500000,,,
0.6599999988,5,179715.9687500000,164585.5937500000,193664.0937500000,180013.7500000000,168230.5937500000,139781.7031250000,163689.7343750000,158437.3906250000,,,
0.6639999989,5,179724.4687500000,164587.0468750000,193706.1093750000,180006.5312500000,168282.0000000000,139769.8437500000,163756.0937500000,158895.5937500000,,,
0.6679999989,5,179718.8437500000,164565.9375000000,193670.3281250000,180045.8750000000,168239.2812500000,139748.1250000000,163718.7343750000,158901.5937500000,,,
0.6719999989,5,179716.6406250000,164553.1718750000,193633.2812500000,180044.0781250000,168194.5312500000,139791.6093750000,163687.4843750000,158351.6875000000,,,
0.6759999988,5,179729.7812500000,164573.5312500000,193656.8906250000,180046.5781250000,168222.2500000000,139759.2343750000,163713.7500000000,157855.3125000000,,,
0.6799999988,5,179730.9843750000,164600.1875000000,193667.1093750000,180062.0468750000,168233.7500000000,139712.6718750000,163717.8437500000,157982.8906250000,,,
0.6839999990,5,179702.2031250000,164550.9687500000,193629.3593750000,180033.6250000000,168201.0312500000,139804.4843750000,163631.9687500000,158400.8750000000,,,
0.6879999989,5,179722.8125000000,164558.2656250000,193666.0781250000,180034.0781250000,168240.2656250000,139795.3281250000,163682.3437500000,158360.9687500000,,,
0.6919999989,5,179711.9375000000,164550.1093750000,193665.9843750000,180026.7343750000,168229.1093750000,139746.4375000000,163745.7187500000,157747.5156250000,,,
0.6959999988,5,179700.9218750000,164541.3750000000,193649.1875000000,180016.9062500000,168213.1718750000,139767.2968750000,163710.0937500000,157201.7656250000,,,
0.6999999988,5,179678.3125000000,164541.2812500000,193606.1875000000,179986.5468750000,168176.7343750000,139749.8437500000,163670.4062500000,157321.9843750000,,,
0.7039999987,5,179680.8906250000,164531.4375000000,193619.5781250000,180004.3906250000,168188.4218750000,139765.5312500000,163650.2656250000,157719.4062500000,,,
0.7079999989,5,179721.1250000000,164563.4218750000,193678.8281250000,180020.5000000000,168253.0156250000,139785.0000000000,163727.5312500000,157710.2343750000,,,
0.7119999989,5,179751.9843750000,164592.2812500000,193728.2031250000,180042.3437500000,168297.9062500000,139796.4062500000,163752.3906250000,157168.8281250000,,,
0.7159999989,5,179737.0781250000,164592.5937500000,193673.9687500000,180067.8750000000,168243.0000000000,139801.8750000000,163722.1406250000,156678.8281250000,,,
0.7199999988,5,179734.9531250000,164605.2656250000,193672.8750000000,180026.5156250000,168235.4218750000,139765.0468750000,163715.9687500000,156836.2343750000,,,
0.7239999988,5,179703.2812500000,164560.1718750000,193634.9375000000,180004.3125000000,168201.4375000000,139753.0000000000,163693.0625000000,157306.0625000000,,,
0.7279999990,5,179735.5000000000,164585.0937500000,193668.7968750000,180059.6093750000,168239.6562500000,139775.1406250000,163764.3281250000,157370.6718750000,,,
0.7319999989,5,179750.9687500000,164606.5937500000,193688.4062500000,180051.4375000000,168258.1562500000,139786.2968750000,163762.9687500000,156887.1406250000,,,
0.7359999989,5,179735.6250000000,164584.0937500000,193689.5312500000,180028.2656250000,168256.9843750000,139828.7812500000,163703.9062500000,156461.0781250000,,,
0.7399999988,5,179717.9531250000,164560.5000000000,193672.9062500000,180050.3125000000,168242.5156250000,139826.5000000000,163658.7656250000,156701.0625000000,,,
0.7439999988,5,179693.8437500000,164550.2968750000,193633.0937500000,179995.9843750000,168208.4062500000,139780.9062500000,163649.8593750000,157284.5781250000,,,
0.7479999987,5,179715.8593750000,164560.5937500000,193673.3750000000,179984.7031250000,168247.2187500000,139800.9062500000,163736.4687500000,157407.5781250000,,,
0.7519999989,5,179743.1093750000,164598.8437500000,193695.4062500000,179995.6406250000,168273.7187500000,139769.2031250000,163801.2968750000,156989.3906250000,,,
0.7559999989,5,179775.7343750000,164642.9687500000,193737.9687500000,180029.7343750000,168294.2968750000,139840.0781250000,163720.1093750000,156617.5000000000,,,
0.7599999988,5,179720.8750000000,164572.8281250000,193646.9687500000,180077.0781250000,168206.9531250000,139790.1875000000,163647.0937500000,156867.5156250000,,,
0.7639999988,5,179714.7031250000,164575.2500000000,193634.8593750000,180087.3125000000,168198.6406250000,139760.2968750000,163642.4218750000,157406.8750000000,,,
0.7679999988,6,179738.2343750000,164580.8437500000,193683.6250000000,180042.8750000000,168248.1875000000,139803.9218750000,163718.6562500000,157557.3750000000,,,
0.7719999987,6,179750.9687500000,164597.1093750000,193693.8125000000,180052.0781250000,168260.2187500000,139804.9531250000,163735.3125000000,157258.0156250000,,,
0.7759999987,6,179738.4218750000,164581.1250000000,193692.3906250000,180072.1093750000,168254.9375000000,139820.1093750000,163718.6562500000,157050.3125000000,,,
0.7799999986,6,179691.8281250000,164544.9687500000,193633.6875000000,179987.5937500000,168197.1718750000,139771.1718750000,163620.9687500000,157504.7500000000,,,
0.7839999986,6,179662.3281250000,164526.7812500000,193594.2812500000,179910.0000000000,168163.2343750000,139731.1406250000,163636.6875000000,158254.2656250000,,,
0.7879999985,6,179707.2812500000,164563.4375000000,193660.4218750000,179990.2812500000,168225.7031250000,139831.0000000000,163677.8906250000,158509.5156250000,,,
0.7919999987,6,179742.7031250000,164593.2656250000,193691.0781250000,180048.4062500000,168250.1875000000,139811.3437500000,163690.4843750000,158131.2343750000,,,
0.7959999987,6,179735.6875000000,164605.7968750000,193679.8125000000,179973.8593750000,168237.2656250000,139825.4218750000,163693.8750000000,157768.3281250000,,,
0.7999999986,6,179677.3750000000,164524.1250000000,193628.0468750000,179909.7812500000,168192.8437500000,139779.5000000000,163629.5781250000,158028.3750000000,,,
0.8039999986,6,179673.0468750000,164535.3281250000,193614.9375000000,179943.1718750000,168177.0156250000,139792.0000000000,163587.8125000000,158603.7656250000,,,
0.8079999986,6,179727.6875000000,164583.4062500000,193681.3437500000,180018.9531250000,168233.7812500000,139809.7031250000,163627.4843750000,158704.2656250000,,,
0.8119999988,6,179736.4375000000,164585.6562500000,193672.5156250000,180064.2812500000,168233.0312500000,139817.7812500000,163716.7031250000,158215.5625000000,,,
0.8159999987,6,179741.5312500000,164584.2812500000,193704.0625000000,180031.4218750000,168259.8750000000,139817.9218750000,163724.0156250000,157738.6093750000,,,
0.8199999987,6,179709.9062500000,164573.2656250000,193657.8750000000,179986.1406250000,168218.7031250000,139786.3125000000,163562.4375000000,157921.9687500000,,,
0.8239999986,6,179703.0156250000,164564.5468750000,193645.4062500000,179982.3906250000,168221.2187500000,139844.5156250000,163669.1406250000,158420.0312500000,,,
0.8279999986,6,179757.0937500000,164610.0937500000,193701.1718750000,180061.2968750000,168275.5468750000,139840.8437500000,163809.0781250000,158468.7187500000,,,
0.8319999985,6,179776.3750000000,164621.7031250000,193702.1406250000,180122.8906250000,168255.7968750000,139907.1562500000,163639.8750000000,157895.4687500000,,,
0.8359999987,6,179770.2812500000,164620.5937500000,193701.2187500000,180131.2343750000,168249.8750000000,139854.7968750000,163646.0000000000,157378.0468750000,,,
0.8399999987,6,179730.7500000000,164585.1718750000,193674.4531250000,180010.2812500000,168230.4531250000,139827.4062500000,163637.7656250000,157547.3437500000,,,
0.8439999986,6,179732.7812500000,164598.6093750000,193681.0781250000,179981.4531250000,168237.7812500000,139836.6093750000,163674.5000000000,158080.3593750000,,,
0.8479999986,6,179760.4062500000,164633.7656250000,193694.1093750000,180033.3593750000,168253.5468750000,139849.4843750000,163699.8750000000,158124.3437500000,,,
0.8519999986,6,179773.9531250000,164610.7500000000,193741.0468750000,180057.2812500000,168304.5156250000,139881.6406250000,163790.8906250000,157500.9375000000,,,
0.8559999987,6,179781.9531250000,164624.2500000000,193757.8906250000,180043.1250000000,168316.0468750000,139901.5781250000,163732.5468750000,156897.7968750000,,,
0.8599999987,6,179736.6250000000,164601.5312500000,193658.0312500000,180022.1406250000,168217.3906250000,139868.4687500000,163633.9218750000,157069.2968750000,,,
0.8639999987,6,179741.0937500000,164608.6718750000,193657.6093750000,180057.5937500000,168210.6250000000,139871.7812500000,163586.0468750000,157666.5937500000,,,
0.8679999986,6,179777.0625000000,164635.4531250000,193703.0156250000,180133.0312500000,168259.6562500000,139838.4687500000,163658.0312500000,157798.3281250000,,,
0.8719999986,6,179789.7812500000,164632.7031250000,193732.6562500000,180075.5781250000,168292.6875000000,139892.9843750000,163734.9687500000,157292.3437500000,,,
0.8759999985,6,179751.6406250000,164605.3125000000,193695.5312500000,179998.7812500000,168252.5312500000,139887.8906250000,163703.2656250000,156825.9687500000,,,
0.8799999987,6,179720.1718750000,164594.4687500000,193655.1406250000,179972.9218750000,168215.1406250000,139866.7343750000,163652.6250000000,157074.1562500000,,,
0.8839999987,6,179739.8906250000,164613.0312500000,193681.1093750000,180014.0468750000,168236.3593750000,139875.6406250000,163641.0000000000,157641.6875000000,,,
0.8879999986,6,179778.5937500000,164642.2187500000,193730.2656250000,180077.6093750000,168287.2656250000,139904.3125000000,163681.5937500000,157725.6875000000,,,
0.8919999986,6,179787.0156250000,164636.1562500000,193746.0156250000,180090.3437500000,168301.6875000000,139920.6406250000,163744.7031250000,157164.1718750000,,,
0.8959999986,7,179782.3593750000,164633.3750000000,193752.2343750000,180071.0937500000,168309.1562500000,139913.0468750000,163754.3593750000,156630.3593750000,,,
0.8999999985,7,179751.2343750000,164614.4531250000,193689.1562500000,180048.7812500000,168250.0000000000,139882.8281250000,163676.0000000000,156870.9687500000,,,
0.9039999985,7,179755.8593750000,164626.8437500000,193685.6875000000,180045.1875000000,168243.8906250000,139896.8281250000,163681.2187500000,157493.2656250000,,,
0.9079999984,7,179792.0156250000,164664.4531250000,193726.6718750000,180095.8750000000,168284.0156250000,139903.1875000000,163698.7031250000,157634.0625000000,,,
0.9119999984,7,179791.9062500000,164651.0937500000,193742.5312500000,180099.3906250000,168298.3906250000,139884.2812500000,163710.8437500000,157130.7500000000,,,
0.9159999983,7,179757.3593750000,164606.2812500000,193710.2031250000,180049.2031250000,168260.8750000000,139870.7812500000,163702.7968750000,156638.5937500000,,,
0.9199999985,7,179734.9531250000,164597.7500000000,193674.7968750000,180027.9062500000,168232.3281250000,139862.8437500000,163672.4687500000,156904.9375000000,,,
0.9239999985,7,179734.7187500000,164604.3437500000,193681.6093750000,180035.2031250000,168241.2656250000,139868.5312500000,163687.8437500000,157572.9843750000,,,
0.9279999984,7,179758.0312500000,164625.9062500000,193714.3437500000,180069.0312500000,168271.1093750000,139892.4218750000,163716.2656250000,157696.3906250000,,,
0.9319999984,7,179788.6875000000,164665.3437500000,193747.8125000000,180088.8750000000,168302.1406250000,139901.9687500000,163737.5156250000,157127.3593750000,,,
0.9359999984,7,179783.6406250000,164641.4375000000,193745.7187500000,180106.4687500000,168299.0625000000,139908.6875000000,163760.3125000000,156593.1562500000,,,
0.9399999985,7,179778.9218750000,164647.0468750000,193739.8125000000,180100.1093750000,168296.9218750000,139940.0937500000,163744.2968750000,156831.4843750000,,,
0.9439999985,7,179762.0156250000,164639.7187500000,193702.3750000000,180082.3593750000,168260.0625000000,139918.2500000000,163669.5937500000,157504.7031250000,,,
0.9479999985,7,179788.2500000000,164652.6562500000,193735.3593750000,180123.3125000000,168293.6406250000,139898.3750000000,163724.4687500000,157706.4531250000,,,
0.9519999984,7,179795.4218750000,164656.6250000000,193747.2031250000,180124.9843750000,168303.3750000000,139902.6718750000,163718.2500000000,157170.0156250000,,,
0.9559999984,7,179759.6093750000,164629.9687500000,193708.4375000000,180041.0781250000,168264.8906250000,139899.3281250000,163703.5468750000,156644.8906250000,,,
0.9599999983,7,179728.6562500000,164599.2187500000,193679.7968750000,180018.1718750000,168245.1718750000,139890.7968750000,163675.6093750000,156889.1093750000,,,
0.9639999985,7,179722.1875000000,164601.5625000000,193666.7343750000,180035.6875000000,168234.6093750000,139871.1093750000,163667.0000000000,157533.8750000000,,,
0.9679999985,7,179759.0156250000,164631.9687500000,193704.3906250000,180070.0937500000,168265.9375000000,139903.2343750000,163714.3125000000,157631.9218750000,,,
0.9719999984,7,179801.0000000000,164670.2968750000,193752.3750000000,180117.3593750000,168307.9687500000,139943.6250000000,163768.4062500000,157025.0468750000,,,
0.9759999984,7,179784.5000000000,164650.7968750000,193737.1875000000,180091.6406250000,168296.0625000000,139920.0312500000,163709.7187500000,156443.1875000000,,,
0.9799999984,7,179749.7031250000,164622.8281250000,193699.9843750000,180041.0468750000,168258.7187500000,139897.0468750000,163683.0937500000,156660.7656250000,,,
0.9839999985,7,179738.7656250000,164618.0000000000,193685.9531250000,180043.2031250000,168246.7343750000,139891.7343750000,163678.6093750000,157302.7031250000,,,
0.9879999985,7,179764.9531250000,164639.8125000000,193709.1093750000,180079.8125000000,168271.1406250000,139901.2031250000,163735.5312500000,157413.1875000000,,,
0.9919999985,7,179798.2343750000,164679.5781250000,193729.2031250000,180120.7343750000,168289.0781250000,139947.4375000000,163726.1718750000,156804.8593750000,,,
0.9959999984,7,179807.9375000000,164675.8593750000,193753.3906250000,180131.1250000000,168309.4687500000,139948.6406250000,163737.1562500000,156215.4687500000,,,
0.9999999984,7,179783.0312500000,164656.5625000000,193737.7031250000,180063.2031250000,168298.2656250000,139942.3750000000,163730.1875000000,156427.0625000000,,,
1.0039999983,7,179772.9375000000,164649.1718750000,193724.8750000000,180054.3281250000,168283.2343750000,139927.8125000000,163711.7812500000,157080.2187500000,,,
1.0079999985,7,179769.4843750000,164640.7187500000,193702.5625000000,180062.3281250000,168258.1093750000,139914.6093750000,163691.9062500000,157234.9218750000,,,
1.0119999985,7,179797.6875000000,164664.2656250000,193739.6250000000,180089.4687500000,168293.7031250000,139935.8593750000,163716.7187500000,156676.1406250000,,,
1.0159999984,7,179801.0468750000,164662.5000000000,193764.8437500000,180085.0937500000,168318.6718750000,139933.6250000000,163738.6093750000,156113.2031250000,,,
1.0199999984,7,179780.5781250000,164646.8281250000,193744.3750000000,180063.6406250000,168304.6406250000,139927.2656250000,163757.2187500000,156342.7343750000,,,
1.0239999983,8,179763.7968750000,164633.2031250000,193706.6718750000,180064.5781250000,168262.4531250000,139896.8750000000,163657.2656250000,157017.0156250000,,,
1.0279999983,8,179769.2656250000,164638.5156250000,193703.2656250000,180060.8750000000,168260.7656250000,139911.0937500000,163638.2187500000,157192.5937500000,,,
1.0319999983,8,179782.0000000000,164642.3593750000,193728.9062500000,180068.6250000000,168289.2187500000,139920.3437500000,163673.1875000000,156604.3906250000,,,
1.0359999982,8,179765.1562500000,164630.6250000000,193713.3437500000,180049.6875000000,168271.0625000000,139920.0781250000,163745.6875000000,156015.0000000000,,,
1.0399999982,8,179751.2343750000,164625.7187500000,193692.1875000000,180033.5156250000,168252.8750000000,139913.5312500000,163726.8906250000,156230.7500000000,,,
1.0439999981,8,179775.5937500000,164652.2812500000,193718.4375000000,180074.7968750000,168277.4375000000,139930.8593750000,163701.2968750000,156883.2656250000,,,
1.0479999983,8,179808.2343750000,164682.0781250000,193745.3750000000,180115.3750000000,168301.1562500000,139959.0000000000,163702.9843750000,157027.0468750000,,,
1.0519999983,8,179818.0468750000,164682.0000000000,193756.3750000000,180098.5312500000,168313.6250000000,139973.2500000000,163746.8125000000,156449.3593750000,,,
1.0559999982,8,179841.4375000000,164702.6562500000,193791.2031250000,180108.3281250000,168350.9687500000,139978.3125000000,163785.2031250000,155878.5000000000,,,
1.0599999982,8,179823.5312500000,164691.3906250000,193770.7968750000,180113.9062500000,168332.0625000000,139939.4218750000,163749.7968750000,156086.9375000000,,,
1.0639999982,8,179808.2031250000,164682.4843750000,193741.4531250000,180108.9687500000,168302.1718750000,139956.5625000000,163731.3906250000,156731.1250000000,,,
1.0679999983,8,179863.4687500000,164722.5468750000,193816.5312500000,180162.6093750000,168370.2812500000,139986.3125000000,163787.8281250000,156893.4531250000,,,
1.0719999983,8,179835.8437500000,164694.7031250000,193788.5000000000,180106.5468750000,168340.7187500000,139969.3593750000,163727.2343750000,156324.3437500000,,,
1.0759999983,8,179780.6562500000,164657.5625000000,193718.6562500000,180035.5000000000,168278.8437500000,139909.6250000000,163690.9218750000,155748.1406250000,33029,1.0769601588,0.0000000000
1.0799999982,8,179780.0000000000,164656.0312500000,193723.4843750000,180050.8750000000,168282.1875000000,139904.1718750000,163735.3437500000,155946.5781250000,,,
1.0839999982,8,179778.5156250000,164636.7968750000,193711.1406250000,180106.7187500000,168269.5000000000,139885.9062500000,163728.9531250000,156533.4375000000,,,
1.0879999981,8,179791.7343750000,164645.9687500000,193732.4375000000,180103.1406250000,168286.4062500000,139903.5312500000,163716.5312500000,156661.4375000000,,,
1.0919999983,8,179808.0000000000,164657.4843750000,193767.5468750000,180092.1406250000,168321.8125000000,139936.4375000000,163753.3593750000,156083.0156250000,,,
1.0959999983,8,179797.0468750000,164659.4687500000,193752.5937500000,180090.6250000000,168304.6406250000,139944.2500000000,163763.0781250000,155499.9843750000,,,
1.0999999982,8,179771.5781250000,164647.3906250000,193704.2500000000,180070.0781250000,168258.0468750000,139932.0156250000,163681.5937500000,155695.2812500000,,,
1.1039999982,8,179771.8125000000,164642.6562500000,193718.0625000000,180080.0000000000,168269.1875000000,139904.2343750000,163672.0312500000,156318.3125000000,,,
1.1079999981,8,179790.4062500000,164657.2968750000,193733.4375000000,180117.9843750000,168282.6562500000,139928.2343750000,163679.9843750000,156464.8906250000,,,
1.1119999983,8,179790.1875000000,164654.1562500000,193726.2812500000,180102.6562500000,168277.4218750000,139943.7968750000,163718.0625000000,155919.5937500000,,,
1.1159999983,8,179802.9843750000,164661.4218750000,193762.1093750000,180094.5156250000,168307.1406250000,139897.4375000000,163732.8125000000,155368.1562500000,,,
1.1199999982,8,179781.8750000000,164648.2812500000,193730.0625000000,180101.3281250000,168276.1562500000,139864.9687500000,163656.4531250000,155556.4218750000,,,
1.1239999982,8,179740.4531250000,164611.1562500000,193666.7031250000,180054.2968750000,168223.4843750000,139871.7968750000,163661.8125000000,156174.1406250000,,,
1.1279999982,8,179753.2031250000,164609.0156250000,193696.9375000000,180049.2812500000,168246.4375000000,139891.0312500000,163671.8281250000,156375.0312500000,,,
1.1319999981,8,179783.5625000000,164643.4531250000,193721.7343750000,180091.4843750000,168268.2500000000,139900.8437500000,163681.2187500000,155886.2500000000,,,
1.1359999983,8,179791.4687500000,164646.2656250000,193740.8906250000,180132.4687500000,168286.5937500000,139917.9843750000,163716.9062500000,155376.3437500000,,,
1.1399999983,8,179790.2187500000,164658.1250000000,193749.2031250000,180101.9687500000,168301.1093750000,139908.2812500000,163735.7187500000,155587.3437500000,,,
1.1439999982,8,179774.6875000000,164657.2656250000,193726.2968750000,180069.0000000000,168278.9531250000,139907.8437500000,163690.0312500000,156248.1875000000,,,
1.1479999982,8,179758.7500000000,164627.0312500000,193688.1406250000,180072.2500000000,168236.5468750000,139898.9218750000,163590.9843750000,156442.6250000000,,,
1.1519999981,9,179791.6562500000,164645.3906250000,193745.3125000000,180084.3125000000,168297.6093750000,139930.0312500000,163691.5625000000,155927.3125000000,,,
1.1559999981,9,179816.5468750000,164673.3593750000,193781.6875000000,180093.0625000000,168336.3750000000,139957.7656250000,163780.4531250000,155392.1875000000,,,
1.1599999981,9,179802.6562500000,164677.0156250000,193745.6718750000,180077.6093750000,168296.2812500000,139941.8125000000,163706.6718750000,155588.3906250000,,,
1.1639999980,9,179787.4531250000,164671.5625000000,193715.7031250000,180063.8750000000,168274.4375000000,139932.8281250000,163681.5000000000,156266.4843750000,,,
1.1679999980,9,179788.1250000000,164670.9218750000,193719.1718750000,180096.8125000000,168273.9375000000,139873.0156250000,163680.7500000000,156485.8125000000,,,
1.1719999979,9,179827.8437500000,164696.5937500000,193795.6875000000,180127.0937500000,168349.4843750000,139926.5156250000,163736.0312500000,155968.2812500000,,,
1.1759999981,9,179808.8593750000,164667.0781250000,193774.0937500000,180106.8437500000,168328.8593750000,139980.5156250000,163702.2968750000,155391.7656250000,,,
1.1799999981,9,179771.0937500000,164658.9531250000,193710.4687500000,180065.0781250000,168274.1250000000,139940.7656250000,163711.4375000000,155582.7031250000,,,
1.1839999980,9,179751.0000000000,164621.2187500000,193691.3593750000,180060.1250000000,168250.3281250000,139908.6250000000,163692.6562500000,156264.2656250000,,,
1.1879999980,9,179798.9843750000,164659.6562500000,193766.6718750000,180104.0312500000,168323.2812500000,139927.5937500000,163787.5312500000,156500.5625000000,,,
1.1919999979,9,179832.4375000000,164709.6718750000,193764.4375000000,180164.9687500000,168313.4062500000,139960.9843750000,163687.2968750000,155990.9375000000,,,
1.1959999981,9,179865.0781250000,164769.5781250000,193820.4687500000,180158.2343750000,168370.3281250000,139940.8750000000,163785.0625000000,155451.8437500000,,,
1.1999999981,9,179799.2968750000,164661.6718750000,193759.3125000000,180105.6406250000,168309.9062500000,139936.7343750000,163736.6562500000,155653.7343750000,,,
1.2039999980,9,179760.8125000000,164629.3437500000,193700.7656250000,180078.7656250000,168259.6406250000,139935.7656250000,163641.9375000000,156321.2031250000,,,
1.2079999980,9,179764.7343750000,164636.2187500000,193693.5000000000,180066.6718750000,168251.7500000000,139931.2343750000,163650.6562500000,156573.7812500000,,,
1.2119999980,9,179815.4843750000,164683.5781250000,193782.7031250000,180100.2812500000,168342.6562500000,139966.8281250000,163749.6406250000,156136.3125000000,,,
1.2159999979,9,179811.0468750000,164659.8437500000,193786.4062500000,180118.6406250000,168345.8906250000,139948.4062500000,163726.6406250000,155626.1875000000,,,
1.2199999981,9,179791.2031250000,164680.3125000000,193726.2500000000,180059.1250000000,168290.0000000000,139920.4843750000,163719.0625000000,155809.7031250000,,,
1.2239999981,9,179790.4531250000,164663.5625000000,193738.2968750000,180085.0468750000,168298.3437500000,139929.6875000000,163814.2500000000,156468.7968750000,,,
1.2279999980,9,179779.3281250000,164643.7968750000,193703.9062500000,180088.6406250000,168259.6406250000,139958.7812500000,163619.3125000000,156697.7031250000,,,
1.2319999980,9,179811.5312500000,164687.6875000000,193756.4531250000,180099.4375000000,168301.9062500000,139959.7031250000,163653.0156250000,156211.4531250000,,,
1.2359999979,9,179852.1406250000,164707.2031250000,193846.3281250000,180135.1093750000,168384.3281250000,140036.4843750000,163692.7187500000,155671.0312500000,,,
1.2399999981,9,179823.3437500000,164682.6406250000,193799.9218750000,180126.0000000000,168350.0468750000,139953.6093750000,163717.6093750000,155877.1093750000,,,
1.2439999981,9,179794.4531250000,164669.5312500000,193713.6875000000,180086.7031250000,168275.6250000000,139938.4843750000,163737.2500000000,156587.6718750000,,,
1.2479999980,9,179831.0625000000,164710.0000000000,193749.2656250000,180105.2656250000,168316.8750000000,139936.3593750000,163826.4062500000,156862.5468750000,,,
1.2519999980,9,179839.0000000000,164701.8125000000,193769.8906250000,180111.7812500000,168323.3593750000,139967.9375000000,163765.8125000000,156376.0000000000,,,
1.2559999980,9,179840.8750000000,164702.1093750000,193793.5156250000,180118.7031250000,168350.2187500000,140004.3906250000,163798.1093750000,155824.9687500000,,,
1.2599999979,9,179835.8125000000,164704.6562500000,193792.2812500000,180141.6406250000,168343.0000000000,139991.0000000000,163659.0781250000,155975.9218750000,,,
1.2639999981,9,179798.9531250000,164670.3281250000,193720.0468750000,180132.4375000000,168271.8593750000,139964.3906250000,163616.0625000000,156629.0625000000,,,
1.2679999981,9,179829.2187500000,164681.1093750000,193779.5156250000,180152.7343750000,168321.5937500000,139935.2656250000,163726.3281250000,156866.9843750000,,,
1.2719999980,9,179850.5937500000,164714.9062500000,193791.9843750000,180133.5937500000,168344.2656250000,139975.2812500000,163783.3281250000,156382.0000000000,,,
1.2759999980,9,179852.7031250000,164700.0156250000,193838.0156250000,180103.9531250000,168398.3125000000,140027.4843750000,163879.8593750000,155808.5468750000,,,
1.2799999979,10,179813.4687500000,164676.6250000000,193745.8750000000,180112.5937500000,168309.4687500000,139984.5156250000,163741.4843750000,155961.2187500000,,,
1.2839999979,10,179799.8906250000,164670.1406250000,193727.2968750000,180093.4375000000,168284.3437500000,139934.4531250000,163674.6875000000,156599.8906250000,,,
1.2879999978,10,179831.5156250000,164700.7968750000,193775.6250000000,180109.0937500000,168334.0625000000,140021.1406250000,163749.0468750000,156853.6718750000,,,
1.2919999978,10,179876.8750000000,164733.7031250000,193849.4218750000,180158.7500000000,168401.3593750000,139938.5625000000,163782.5781250000,156396.6250000000,,,
1.2959999978,10,179873.4687500000,164759.6250000000,193801.6250000000,180147.2656250000,168357.1093750000,139987.2187500000,163739.3281250000,155874.4218750000,,,
1.2999999977,10,179860.6406250000,164746.0781250000,193791.2343750000,180127.0781250000,168348.4375000000,140061.2968750000,163730.1875000000,156030.2343750000,,,
1.3039999979,10,179788.8437500000,164659.2500000000,193697.0312500000,180097.4531250000,168260.0625000000,139979.9218750000,163676.8437500000,156676.8906250000,,,
1.3079999979,10,179787.3906250000,164646.4531250000,193731.7187500000,180089.7812500000,168291.5000000000,139954.8906250000,163760.3593750000,156967.4218750000,,,
1.3119999978,10,179835.3750000000,164703.8281250000,193812.3125000000,180101.5937500000,168361.7812500000,139965.5937500000,163742.3906250000,156543.4531250000,,,
1.3159999978,10,179833.1250000000,164708.9062500000,193775.6875000000,180101.7968750000,168334.8906250000,139870.8906250000,163729.2968750000,155994.9062500000,,,
1.3199999977,10,179810.9531250000,164702.2968750000,193760.9218750000,180084.0468750000,168325.7031250000,139982.0625000000,163730.5156250000,156120.8437500000,,,
1.3239999979,10,179781.5000000000,164656.7500000000,193728.7656250000,180101.8906250000,168290.4843750000,139971.6875000000,163672.6562500000,156790.4062500000,,,
1.3279999979,10,179809.1406250000,164673.4062500000,193747.6718750000,180139.7031250000,168296.1875000000,139983.3593750000,163658.5937500000,157042.4531250000,,,
1.3319999978,10,179829.2343750000,164693.4531250000,193746.0625000000,180145.3906250000,168307.1875000000,140031.9218750000,163737.1562500000,156572.8437500000,,,
1.3359999978,10,179836.0781250000,164685.1406250000,193792.6562500000,180108.5312500000,168350.1093750000,140010.3437500000,163849.4062500000,155992.2343750000,,,
1.3399999978,10,179796.9687500000,164645.3593750000,193786.4843750000,180074.9843750000,168334.2343750000,139953.5781250000,163740.4062500000,156106.7812500000,,,
1.3439999977,10,179784.7656250000,164662.7656250000,193728.4687500000,180080.5937500000,168283.6718750000,139932.5000000000,163671.0781250000,156743.2812500000,,,
1.3479999979,10,179837.3906250000,164734.9687500000,193791.4531250000,180120.6406250000,168358.9843750000,139972.7812500000,163861.1562500000,157020.6718750000,,,
1.3519999979,10,179891.5781250000,164778.4531250000,193883.7500000000,180182.4531250000,168442.7812500000,139957.2343750000,163896.5156250000,156552.1406250000,,,
1.3559999978,10,179882.4531250000,164740.3125000000,193860.5468750000,180151.6406250000,168415.4375000000,139933.5000000000,163760.2500000000,155969.2343750000,,,
1.3599999978,10,179826.7500000000,164729.1718750000,193751.7031250000,180098.7187500000,168299.2812500000,139856.0312500000,163556.8437500000,156098.3593750000,,,
1.3639999977,10,179726.0781250000,164579.6406250000,193620.4062500000,180083.3750000000,168178.9531250000,140020.6875000000,163571.6406250000,156737.7968750000,,,
1.3679999979,10,179822.0781250000,164659.7031250000,193814.5468750000,180140.7187500000,168366.2031250000,140044.5312500000,163756.2343750000,156947.0156250000,,,
1.3719999979,10,179870.0000000000,164734.9375000000,193850.4531250000,180134.3437500000,168416.9531250000,140081.9062500000,163853.6250000000,156451.9531250000,,,
1.3759999978,10,179850.6093750000,164725.7968750000,193807.7656250000,180139.7031250000,168371.0468750000,140031.6093750000,163780.1562500000,155859.2500000000,,,
1.3799999978,10,179803.9687500000,164693.9843750000,193759.7968750000,180103.3281250000,168313.9843750000,139993.3281250000,163817.8906250000,155990.8281250000,,,
1.3839999977,10,179807.1562500000,164694.0937500000,193773.0312500000,180135.3593750000,168319.5000000000,139975.5000000000,163777.0000000000,156654.1406250000,,,
1.3879999977,10,179851.3593750000,164746.2968750000,193846.0937500000,180141.5781250000,168403.5312500000,139906.2187500000,163798.2968750000,156934.8125000000,,,
1.3919999979,10,179900.1875000000,164787.1406250000,193875.6718750000,180171.2187500000,168433.5468750000,140041.1562500000,163855.6562500000,156465.2968750000,,,
1.3959999979,10,179870.9531250000,164737.8437500000,193843.8906250000,180160.5937500000,168412.3281250000,140093.4843750000,163699.6875000000,155845.5937500000,,,
1.3999999978,10,179802.9062500000,164667.2656250000,193784.4843750000,180090.1562500000,168349.8906250000,140004.4062500000,163634.3750000000,155922.0312500000,,,
1.4039999978,10,179826.0156250000,164710.4062500000,193806.0937500000,180102.7656250000,168350.9375000000,139996.2500000000,163689.4531250000,156589.8281250000,,,
1.4079999977,11,179827.2031250000,164716.1875000000,193735.9375000000,180204.4062500000,168282.2187500000,140030.0781250000,163758.2656250000,156884.2031250000,,,
1.4119999977,11,179813.5468750000,164683.4531250000,193761.0312500000,180105.7500000000,168300.4375000000,139912.9687500000,163659.0000000000,156423.2656250000,,,
1.4159999976,11,179866.3281250000,164751.8750000000,193860.1093750000,180098.1250000000,168406.7343750000,140096.7031250000,163826.0312500000,155805.3281250000,,,
1.4199999976,11,179843.4531250000,164737.4062500000,193852.8281250000,180095.2343750000,168407.4218750000,140099.7343750000,163775.2031250000,155917.2031250000,,,
1.4239999976,11,179759.4687500000,164648.3906250000,193674.1093750000,180084.3750000000,168230.1093750000,140073.1875000000,163533.6562500000,156587.9218750000,,,
1.4279999975,11,179847.3125000000,164718.7968750000,193820.0937500000,180130.7500000000,168394.9062500000,140048.5000000000,163670.7500000000,156873.1718750000,,,
1.4319999977,11,179848.2500000000,164719.4062500000,193797.0312500000,180146.1406250000,168346.4062500000,140040.7812500000,163724.9843750000,156411.2656250000,,,
1.4359999977,11,179814.9687500000,164711.9062500000,193698.1093750000,180157.8281250000,168247.7031250000,140007.9531250000,163644.1718750000,155811.3906250000,,,
1.4399999976,11,179852.1718750000,164758.4062500000,193790.6250000000,180125.4843750000,168333.9375000000,140090.6718750000,163775.7812500000,155909.7812500000,,,
1.4439999976,11,179816.7656250000,164718.2812500000,193782.2031250000,180088.5468750000,168325.4375000000,139928.1875000000,163651.4843750000,156584.1406250000,,,
1.4479999975,11,179820.6250000000,164708.5312500000,193792.8125000000,180092.6875000000,168347.9375000000,140032.2500000000,163777.6093750000,156877.3593750000,,,
1.4519999977,11,179851.0781250000,164747.5468750000,193793.2031250000,180163.0937500000,168346.0312500000,140090.4843750000,163647.9218750000,156424.9531250000,,,
1.4559999977,11,179861.9375000000,164722.7968750000,193846.6250000000,180153.7031250000,168395.7500000000,140215.0937500000,163699.4843750000,155790.0468750000,,,
1.4599999976,11,179834.9843750000,164696.2187500000,193819.9843750000,180112.9375000000,168362.1562500000,140068.2656250000,163589.7187500000,155849.0468750000,,,
1.4639999976,11,179803.1406250000,164697.2031250000,193742.0468750000,180100.0625000000,168297.6718750000,140016.5312500000,163640.5156250000,156488.8593750000,,,
1.4679999975,11,179824.8593750000,164755.5468750000,193728.6875000000,180159.9843750000,168286.0312500000,140054.1406250000,163782.4843750000,156798.0937500000,,,
1.4719999975,11,179845.3906250000,164758.1250000000,193776.0625000000,180157.6406250000,168314.3281250000,139990.7031250000,163745.4531250000,156380.8750000000,,,
1.4759999977,11,179826.2812500000,164662.8750000000,193834.7187500000,180085.7031250000,168368.0781250000,140157.3281250000,163643.9531250000,155779.3437500000,,,
1.4799999977,11,179788.3281250000,164683.5000000000,193724.5000000000,180067.1562500000,168303.7343750000,140141.2031250000,163643.6875000000,155844.1718750000,,,
1.4839999976,11,179789.6718750000,164701.0625000000,193691.3593750000,180102.2812500000,168251.3125000000,140036.4375000000,163518.4218750000,156453.4843750000,,,
1.4879999976,11,179848.8750000000,164780.8125000000,193786.8906250000,180142.3593750000,168335.1875000000,140042.7656250000,163667.3125000000,156754.6406250000,,,
1.4919999975,11,179850.8281250000,164709.1875000000,193826.3281250000,180206.2187500000,168362.2500000000,140150.2656250000,163577.3281250000,156301.6718750000,,,
1.4959999977,11,179834.7031250000,164680.9843750000,193810.5781250000,180180.9843750000,168344.9218750000,140068.0781250000,163861.2968750000,155678.9531250000,,,
1.4999999977,11,179811.3750000000,164680.5000000000,193770.0156250000,180112.4218750000,168311.0000000000,140170.2187500000,163813.3593750000,155719.0156250000,,,
1.5039999976,11,179761.9218750000,164684.5156250000,193681.7031250000,180030.9062500000,168234.9375000000,140116.2343750000,163597.7656250000,156385.8125000000,,,
1.5079999976,11,179779.5312500000,164715.7187500000,193690.4687500000,180049.5781250000,168246.2500000000,140022.5156250000,163666.9687500000,156741.1562500000,,,
1.5119999975,11,179823.7343750000,164702.5937500000,193776.9687500000,180113.2500000000,168317.8437500000,140044.7968750000,163770.2812500000,156281.8593750000,,,
1.5159999975,11,179830.2500000000,164689.2343750000,193775.7031250000,180147.8593750000,168319.7656250000,140085.4375000000,163710.7187500000,155618.7031250000,,,
1.5199999977,11,179802.9843750000,164687.0468750000,193733.7031250000,180104.6250000000,168268.6250000000,140183.2031250000,163470.8125000000,155664.2500000000,,,
1.5239999976,11,179754.3437500000,164650.7968750000,193640.5312500000,180077.4687500000,168185.5312500000,140077.8437500000,163522.0468750000,156285.6562500000,,,
1.5279999976,11,179792.3593750000,164668.3750000000,193734.0000000000,180088.0468750000,168277.8281250000,140094.9843750000,163665.7343750000,156609.1875000000,,,
1.5319999976,11,179825.2656250000,164740.7031250000,193732.7187500000,180118.7500000000,168279.3437500000,140087.3906250000,163630.3593750000,156211.8281250000,,,
1.5359999975,12,179829.7812500000,164709.2812500000,193757.5468750000,180134.0937500000,168310.0312500000,140248.3281250000,163779.5468750000,155596.7656250000,,,
1.5399999975,12,179868.0000000000,164751.0625000000,193824.9531250000,180149.3906250000,168362.2031250000,140215.7968750000,163682.6562500000,155614.0156250000,,,
1.5439999974,12,179847.8750000000,164775.6093750000,193784.9062500000,180100.6718750000,168324.8125000000,140159.8906250000,163662.0937500000,156238.3281250000,,,
1.5479999974,12,179795.7031250000,164688.7500000000,193689.6562500000,180112.0000000000,168227.3437500000,140130.9375000000,163532.9687500000,156557.7500000000,,,
1.5519999973,12,179808.7500000000,164663.4062500000,193725.1250000000,180118.8906250000,168256.4218750000,140186.8593750000,163660.3125000000,156147.3437500000,,,
1.5559999973,12,179836.4531250000,164720.8906250000,193791.6718750000,180100.8125000000,168327.7031250000,140165.4218750000,163809.1718750000,155565.9687500000,,,
1.5599999975,12,179824.8593750000,164710.4062500000,193795.9531250000,180081.4687500000,168331.3281250000,140141.3125000000,163621.6875000000,155616.3906250000,,,
1.5639999975,12,179809.1718750000,164680.6250000000,193751.5625000000,180083.0312500000,168279.4531250000,140126.4843750000,163559.1093750000,156242.0156250000,,,
1.5679999974,12,179863.2187500000,164762.1406250000,193779.8593750000,180139.4062500000,168321.6250000000,140205.4687500000,163674.0156250000,156613.8906250000,,,
1.5719999974,12,179870.6718750000,164752.8281250000,193786.5781250000,180182.8125000000,168317.9218750000,140192.6250000000,163735.0625000000,156247.5781250000,,,
1.5759999973,12,179831.9687500000,164706.0000000000,193759.2656250000,180132.5156250000,168281.7343750000,140230.8437500000,163618.0781250000,155638.4375000000,,,
1.5799999975,12,179772.5156250000,164662.3906250000,193695.1093750000,180078.9218750000,168226.3281250000,140180.9218750000,163593.7187500000,155664.1406250000,,,
1.5839999975,12,179800.1093750000,164688.7031250000,193730.3750000000,180128.2187500000,168262.4531250000,140166.7343750000,163630.4062500000,156292.0156250000,,,
1.5879999974,12,179860.1875000000,164752.0625000000,193834.3437500000,180141.6875000000,168370.3593750000,140154.1875000000,163818.7812500000,156650.1718750000,,,
1.5919999974,12,179854.3906250000,164736.8281250000,193785.4375000000,180147.6093750000,168310.2812500000,140264.0156250000,163639.0781250000,156240.8750000000,,,
1.5959999973,12,179840.6718750000,164705.9531250000,193778.1250000000,180126.7500000000,168313.5468750000,140263.4843750000,163797.0312500000,155587.8906250000,,,
1.5999999973,12,179871.9375000000,164757.7656250000,193815.1562500000,180135.5156250000,168343.7500000000,140280.8593750000,163694.9218750000,155597.9218750000,,,
1.6039999975,12,179855.0625000000,164758.3125000000,193792.8437500000,180104.1875000000,168325.2968750000,140241.3593750000,163606.1875000000,156220.9375000000,,,
1.6079999974,12,179841.2500000000,164726.4218750000,193783.7500000000,180101.9062500000,168312.8281250000,140217.1406250000,163563.5625000000,156590.0937500000,,,
1.6119999974,12,179882.9843750000,164771.5781250000,193851.2968750000,180121.5937500000,168376.9218750000,140260.4062500000,163805.2656250000,156201.6562500000,,,
1.6159999974,12,179896.1250000000,164780.7500000000,193859.1250000000,180132.8125000000,168380.3593750000,140180.3593750000,163771.4062500000,155591.5312500000,,,
1.6199999973,12,179809.3125000000,164707.2031250000,193701.0156250000,180124.2812500000,168234.0468750000,140098.1875000000,163576.7656250000,155581.7968750000,,,
1.6239999975,12,179773.9531250000,164648.7031250000,193698.2500000000,180084.3750000000,168230.6875000000,140233.0156250000,163545.4687500000,156187.7031250000,,,
1.6279999975,12,179856.5468750000,164741.0312500000,193807.0156250000,180128.6875000000,168334.9218750000,140185.4531250000,163782.9531250000,156534.5781250000,,,
1.6319999974,12,179897.1562500000,164802.9375000000,193806.5000000000,180168.2968750000,168342.2187500000,140383.7812500000,163651.6250000000,156089.7031250000,,,
1.6359999974,12,179931.4531250000,164790.7812500000,193892.4062500000,180214.0468750000,168413.3750000000,140363.1875000000,163714.5781250000,155431.3281250000,,,
1.6399999973,12,179886.5625000000,164746.8281250000,193828.1406250000,180188.4062500000,168358.9375000000,140165.9062500000,163709.1093750000,155414.5312500000,,,
1.6439999973,12,179843.7812500000,164728.1875000000,193740.3906250000,180117.3906250000,168275.0312500000,140257.0937500000,163636.9843750000,155994.8906250000,,,
1.6479999975,12,179856.7031250000,164739.2031250000,193774.3906250000,180140.9687500000,168297.9375000000,140297.5000000000,163713.4531250000,156342.7656250000,,,
1.6519999974,12,179900.7656250000,164794.6562500000,193822.5156250000,180185.1093750000,168353.0312500000,140261.3906250000,163737.0468750000,155941.9843750000,,,
1.6559999974,12,179952.3750000000,164868.6562500000,193895.3125000000,180186.0781250000,168421.9375000000,140212.3281250000,163704.2031250000,155335.4843750000,,,
1.6599999974,12,179890.7656250000,164795.7812500000,193819.1093750000,180168.7187500000,168346.7187500000,140216.0625000000,163644.1093750000,155334.2031250000,,,
1.6639999973,13,179851.5468750000,164737.6250000000,193803.4687500000,180121.5156250000,168325.7812500000,140330.2656250000,163705.9218750000,155966.0156250000,,,
1.6679999973,13,179891.4062500000,164749.9687500000,193861.6250000000,180153.0937500000,168388.2812500000,140268.9218750000,163769.5156250000,156349.2500000000,,,
1.6719999972,13,179904.8437500000,164781.1093750000,193834.5312500000,180174.4843750000,168371.5312500000,140287.4843750000,163742.0625000000,155990.9375000000,,,
1.6759999972,13,179909.5625000000,164791.5625000000,193856.2500000000,180166.7968750000,168392.3437500000,140324.4531250000,163712.4843750000,155392.8593750000,,,
1.6799999971,13,179876.7187500000,164761.3593750000,193816.5312500000,180140.3750000000,168338.1093750000,140275.2812500000,163664.4218750000,155381.6562500000,,,
1.6839999971,13,179860.6718750000,164754.2812500000,193797.7031250000,180107.4375000000,168324.1406250000,140238.7031250000,163720.4843750000,155983.7187500000,,,
1.6879999973,13,179931.1562500000,164828.0625000000,193932.0000000000,180142.2031250000,168457.9531250000,140293.1562500000,163882.1875000000,156372.8906250000,,,
1.6919999972,13,179958.7343750000,164860.5468750000,193912.0937500000,180199.7031250000,168437.0156250000,140292.9843750000,163619.8125000000,155993.6250000000,,,
1.6959999972,13,179855.3281250000,164720.0625000000,193746.3906250000,180156.5781250000,168256.5781250000,140312.8437500000,163549.4843750000,155365.2343750000,,,
1.6999999972,13,179840.2812500000,164734.8125000000,193706.7968750000,180129.8906250000,168235.7031250000,140271.0781250000,163630.3906250000,155377.5156250000,,,
1.7039999971,13,179889.2968750000,164813.8281250000,193802.4531250000,180143.5937500000,168342.3281250000,140278.3437500000,163778.6250000000,155978.7656250000,,,
1.7079999973,13,179912.3125000000,164824.4687500000,193834.5312500000,180172.9375000000,168366.6093750000,140312.4843750000,163772.1093750000,156371.2031250000,,,
1.7119999973,13,179908.2031250000,164781.2187500000,193849.6562500000,180178.9687500000,168375.8593750000,140285.5000000000,163776.5312500000,156047.8281250000,,,
1.7159999972,13,179898.3906250000,164779.3281250000,193817.6250000000,180175.5625000000,168343.7187500000,140242.8906250000,163633.5781250000,155479.4375000000,,,
1.7199999972,13,179889.1562500000,164790.6250000000,193832.8906250000,180129.2968750000,168365.6406250000,140220.5468750000,163685.1250000000,155501.5781250000,,,
1.7239999971,13,179863.3593750000,164754.1406250000,193805.6718750000,180131.8125000000,168329.1562500000,140339.2031250000,163703.7187500000,156137.0937500000,,,
1.7279999971,13,179894.6250000000,164766.8906250000,193846.6250000000,180183.4531250000,168371.7187500000,140311.2500000000,163815.0312500000,156560.9843750000,,,
1.7319999973,13,179933.9843750000,164818.7031250000,193858.0000000000,180213.6718750000,168384.6250000000,140342.2812500000,163669.0625000000,156274.3125000000,,,
1.7359999972,13,179921.5625000000,164800.7968750000,193843.6406250000,180179.7187500000,168374.4375000000,140367.6875000000,163702.1875000000,155719.1250000000,,,
1.7399999972,13,179862.4375000000,164753.7968750000,193770.6093750000,180118.4062500000,168307.4062500000,140286.2343750000,163719.1718750000,155775.6406250000,,,
1.7439999972,13,179874.8593750000,164759.1093750000,193833.7812500000,180104.8125000000,168378.0781250000,140257.2656250000,163774.6093750000,156436.7500000000,,,
1.7479999971,13,179929.5312500000,164823.3437500000,193882.7812500000,180156.7031250000,168404.1562500000,140274.3750000000,163745.6875000000,156838.4687500000,,,
1.7519999973,13,179917.6093750000,164801.7343750000,193835.4687500000,180176.5625000000,168363.7031250000,140335.5000000000,163765.1718750000,156507.4062500000,,,
1.7559999973,13,179924.1093750000,164799.4843750000,193867.7343750000,180191.8750000000,168395.1093750000,140344.7343750000,163695.1562500000,155919.8906250000,,,
1.7599999972,13,179915.0625000000,164801.9531250000,193852.6875000000,180165.9375000000,168380.8750000000,140292.1093750000,163709.7968750000,155941.9062500000,,,
1.7639999972,13,179829.8593750000,164728.8750000000,193714.7343750000,180114.4062500000,168245.4687500000,140205.7343750000,163656.7812500000,156566.3750000000,,,
1.7679999971,13,179854.4218750000,164731.2187500000,193782.3281250000,180145.4687500000,168308.1875000000,140269.5781250000,163694.1093750000,156974.0781250000,,,
1.7719999971,13,179915.7187500000,164794.5156250000,193866.0468750000,180169.4531250000,168387.5781250000,140310.3750000000,163716.9687500000,156665.0937500000,,,
1.7759999973,13,179898.0625000000,164771.7968750000,193825.1406250000,180164.0000000000,168352.8437500000,140323.2656250000,163668.2812500000,156089.1406250000,,,
1.7799999972,13,179902.1093750000,164787.4687500000,193852.0937500000,180152.4218750000,168379.0781250000,140312.7500000000,163695.7500000000,156029.9062500000,,,
1.7839999972,13,179887.8750000000,164779.2031250000,193830.4218750000,180149.7343750000,168349.3750000000,140296.3750000000,163714.0937500000,156563.1875000000,,,
1.7879999971,13,179886.7656250000,164795.0468750000,193797.3281250000,180159.7968750000,168320.8125000000,140292.6875000000,163711.2812500000,156937.3906250000,,,
1.7919999971,14,179898.3593750000,164777.5156250000,193814.1406250000,180158.7968750000,168344.3437500000,140305.9687500000,163795.9218750000,156622.9531250000,,,
1.7959999971,14,179910.2187500000,164795.1093750000,193845.5781250000,180142.2812500000,168372.6093750000,140334.0312500000,163797.7812500000,156040.0312500000,,,
1.7999999970,14,179892.7031250000,164777.3281250000,193831.8437500000,180135.2187500000,168355.8125000000,140305.6718750000,163700.8437500000,155956.9062500000,,,
1.8039999970,14,179884.4062500000,164775.6093750000,193811.5468750000,180148.0781250000,168343.1875000000,140295.2187500000,163715.3593750000,156511.1562500000,,,
1.8079999969,14,179902.5625000000,164793.2031250000,193818.8906250000,180185.0312500000,168349.0000000000,140303.3750000000,163650.3125000000,156885.6718750000,,,
1.8119999969,14,179929.5000000000,164823.2968750000,193854.8906250000,180201.6562500000,168384.1718750000,140301.5781250000,163746.8437500000,156583.6562500000,,,
1.8159999971,14,179905.4375000000,164782.1250000000,193842.3125000000,180162.9062500000,168369.2031250000,140332.3437500000,163743.2968750000,155991.1875000000,,,
1.8199999970,14,179874.0781250000,164749.3437500000,193825.7500000000,180124.1406250000,168352.7812500000,140289.8437500000,163735.0156250000,155933.2812500000,,,
1.8239999970,14,179856.0312500000,164737.8437500000,193803.0937500000,180124.3906250000,168337.2812500000,140257.4218750000,163665.7031250000,156518.3125000000,,,
1.8279999970,14,179855.7656250000,164735.9375000000,193780.1093750000,180142.2500000000,168309.1562500000,140255.5781250000,163618.6562500000,156935.2968750000,,,
1.8319999969,14,179885.9687500000,164762.0312500000,193808.5625000000,180170.5156250000,168336.5937500000,140284.6250000000,163706.3125000000,156660.4531250000,,,
1.8359999971,14,179896.3437500000,164774.0000000000,193827.6875000000,180164.2656250000,168362.0468750000,140294.4687500000,163764.7812500000,156073.9218750000,,,
1.8399999971,14,179884.5468750000,164770.5312500000,193814.8125000000,180139.9218750000,168343.5937500000,140285.1250000000,163725.5000000000,156008.5312500000,,,
1.8439999970,14,179863.5625000000,164751.5937500000,193795.7500000000,180115.2968750000,168325.1562500000,140269.3593750000,163737.3281250000,156544.2343750000,,,
1.8479999970,14,179880.1406250000,164768.9843750000,193797.0312500000,180135.5468750000,168325.4062500000,140273.9687500000,163669.9218750000,156942.4531250000,,,
1.8519999969,14,179922.3437500000,164800.2031250000,193849.2812500000,180178.7343750000,168370.3906250000,140295.3750000000,163681.1093750000,156634.1562500000,,,
1.8559999969,14,179952.3281250000,164838.5625000000,193889.9687500000,180193.5937500000,168415.3125000000,140333.5468750000,163750.7812500000,155994.5625000000,,,
1.8599999971,14,179921.8750000000,164822.5468750000,193859.2812500000,180166.8281250000,168386.3437500000,140306.5000000000,163758.5156250000,155873.3281250000,,,
1.8639999970,14,179888.7500000000,164772.5000000000,193813.4687500000,180159.5781250000,168346.3437500000,140303.2031250000,163722.1093750000,156372.7343750000,,,
1.8679999970,14,179891.7031250000,164773.8281250000,193818.3281250000,180181.4062500000,168348.0625000000,140276.7656250000,163729.8125000000,156753.2187500000,,,
1.8719999969,14,179906.9375000000,164791.5937500000,193830.4218750000,180183.5000000000,168354.9062500000,140296.3437500000,163726.5156250000,156486.7812500000,,,
1.8759999969,14,179911.4218750000,164794.5156250000,193850.4062500000,180165.4218750000,168377.0937500000,140302.7812500000,163746.5781250000,155900.1718750000,,,
1.8799999971,14,179881.5625000000,164767.5937500000,193823.2656250000,180134.7187500000,168350.4062500000,140279.9218750000,163715.3750000000,155805.0156250000,,,
1.8839999971,14,179859.2031250000,164748.7500000000,193795.2656250000,180124.2500000000,168322.0156250000,140257.3906250000,163710.5000000000,156314.8906250000,,,
1.8879999970,14,179893.2968750000,164785.1562500000,193818.7812500000,180161.8281250000,168343.7968750000,140284.0000000000,163722.8437500000,156682.4375000000,,,
1.8919999970,14,179927.2656250000,164801.0937500000,193866.4218750000,180195.7656250000,168389.6093750000,140302.7031250000,163756.9062500000,156382.7656250000,,,
1.8959999969,14,179928.3125000000,164794.0000000000,193874.9531250000,180197.9062500000,168396.5937500000,140295.4843750000,163762.1093750000,155779.2031250000,,,
1.8999999969,14,179904.8437500000,164777.6718750000,193855.6406250000,180186.3437500000,168371.1562500000,140268.1718750000,163706.2031250000,155668.0781250000,,,
1.9039999971,14,179878.1875000000,164762.8593750000,193801.3281250000,180174.5937500000,168324.6250000000,140256.4843750000,163678.4218750000,156204.7656250000,,,
1.9079999970,14,179892.6406250000,164775.3906250000,193814.5468750000,180164.4062500000,168341.2500000000,140272.6250000000,163710.0781250000,156600.1562500000,,,
1.9119999970,14,179924.9062500000,164800.6093750000,193857.7500000000,180180.7968750000,168384.7656250000,140296.0468750000,163748.6093750000,156304.5156250000,,,
1.9159999969,14,179950.2031250000,164826.5468750000,193889.8125000000,180201.4687500000,168417.3750000000,140318.6562500000,163772.0625000000,155668.2968750000,,,
1.9199999969,15,179925.3750000000,164808.0625000000,193865.2968750000,180175.7187500000,168395.1718750000,140295.5937500000,163741.9062500000,155521.6093750000,,,
1.9239999969,15,179901.3125000000,164790.0625000000,193836.5156250000,180164.7343750000,168367.0000000000,140268.0781250000,163723.7500000000,156022.7187500000,,,
1.9279999968,15,179904.6093750000,164792.1250000000,193830.5000000000,180185.1093750000,168359.8437500000,140260.4531250000,163751.7187500000,156459.1250000000,,,
1.9319999968,15,179943.8281250000,164829.1406250000,193872.4843750000,180215.5781250000,168399.2656250000,140273.9218750000,163788.7187500000,156215.8750000000,,,
1.9359999967,15,179943.0468750000,164816.9375000000,193887.4687500000,180211.5625000000,168410.1093750000,140279.8437500000,163745.6875000000,155618.4375000000,,,
1.9399999967,15,179902.7812500000,164781.7187500000,193842.6562500000,180158.7500000000,168374.1875000000,140264.4218750000,163722.4062500000,155513.0468750000,,,
1.9439999969,15,179900.5781250000,164782.5468750000,193831.8750000000,180186.9687500000,168364.5312500000,140257.4531250000,163718.5000000000,156029.5156250000,,,
1.9479999968,15,179927.0625000000,164801.5468750000,193861.7500000000,180217.7500000000,168389.9375000000,140258.0625000000,163725.5000000000,156438.0156250000,,,
1.9519999968,15,179928.3437500000,164807.5000000000,193854.3437500000,180172.5312500000,168381.6562500000,140267.2656250000,163755.3750000000,156175.5781250000,,,
1.9559999967,15,179919.2500000000,164799.0781250000,193861.4843750000,180165.0000000000,168384.9687500000,140263.6250000000,163746.7656250000,155619.8593750000,,,
1.9599999967,15,179891.8437500000,164774.5000000000,193824.7187500000,180147.1406250000,168350.6718750000,140241.0937500000,163731.3906250000,155532.1718750000,,,
1.9639999969,15,179886.6406250000,164769.5781250000,193816.1562500000,180170.2812500000,168344.1562500000,140228.9843750000,163719.8906250000,156044.4531250000,,,
1.9679999969,15,179897.4687500000,164780.7031250000,193825.8593750000,180201.7187500000,168355.0156250000,140217.2187500000,163741.4218750000,156467.8593750000,,,
1.9719999968,15,179933.2031250000,164815.0937500000,193872.6093750000,180217.6718750000,168399.2187500000,140241.1406250000,163773.1093750000,156196.1250000000,,,
1.9759999968,15,179930.9531250000,164802.6718750000,193894.4531250000,180182.5625000000,168419.1406250000,140280.5625000000,163728.8750000000,155556.2656250000,,,
1.9799999967,15,179898.7812500000,164777.0312500000,193844.6875000000,180158.0468750000,168376.7187500000,140249.9375000000,163757.6875000000,155395.2187500000,,,
1.9839999967,15,179878.9375000000,164760.1093750000,193813.7343750000,180151.7812500000,168344.3125000000,140219.9062500000,163749.9218750000,155899.2343750000,,,
1.9879999969,15,179895.3750000000,164768.4375000000,193828.5937500000,180173.8281250000,168357.9375000000,140227.6718750000,163754.6718750000,156331.4531250000,,,
1.9919999968,15,179942.5312500000,164812.6406250000,193876.5625000000,180221.2968750000,168405.0312500000,140268.9531250000,163790.7500000000,156054.4062500000,,,
1.9959999968,15,179955.3593750000,164825.3281250000,193899.3593750000,180229.3750000000,168425.5781250000,140285.2031250000,163798.4843750000,155432.3125000000,,,
1.9999999967,15,179926.5000000000,164803.1562500000,193870.1718750000,180209.1718750000,168398.4375000000,140243.5625000000,163739.1406250000,155311.0000000000,,,
2.0039999967,15,179901.1250000000,164789.1250000000,193831.1562500000,180164.6406250000,168367.8593750000,140223.0312500000,163712.4062500000,155850.2656250000,,,
2.0079999969,15,179921.9375000000,164812.5156250000,193849.6093750000,180177.3593750000,168386.0000000000,140235.9687500000,163729.8593750000,156308.6718750000,,,
2.0119999968,15,179946.2968750000,164839.5781250000,193870.9218750000,180198.2812500000,168404.4687500000,140223.5937500000,163743.6718750000,156068.6406250000,,,
2.0159999968,15,179930.4843750000,164807.6250000000,193864.4062500000,180196.2656250000,168396.1250000000,140258.7343750000,163762.6406250000,155496.9375000000,,,
2.0199999968,15,179924.3750000000,164799.1562500000,193860.0625000000,180190.6875000000,168390.9062500000,140268.8281250000,163749.3906250000,155333.9843750000,,,
2.0239999967,15,179913.7500000000,164803.8750000000,193841.2343750000,180163.2812500000,168374.5937500000,140258.4375000000,163722.5781250000,155828.1562500000,,,
2.0279999967,15,179928.4531250000,164812.2656250000,193855.1562500000,180184.5468750000,168389.4062500000,140237.9218750000,163742.5468750000,156254.0156250000,,,
2.0319999969,15,179949.6406250000,164814.0156250000,193886.7968750000,180231.4843750000,168418.6562500000,140244.8437500000,163773.4062500000,156014.9687500000,,,
2.0359999968,15,179966.5156250000,164829.5156250000,193912.7656250000,180223.7968750000,168441.5625000000,140260.9375000000,163783.2500000000,155384.9218750000,,,
2.0399999968,15,179939.0468750000,164814.5000000000,193880.3906250000,180201.3750000000,168411.2031250000,140246.3750000000,163716.1093750000,155223.0468750000,,,
2.0439999967,15,179905.1250000000,164780.6718750000,193841.0781250000,180183.6093750000,168372.1562500000,140211.0000000000,163644.5468750000,155756.9375000000,,,
2.0479999967,16,179902.0312500000,164780.3750000000,193825.0312500000,180195.0312500000,168357.0781250000,140207.5625000000,163707.2500000000,156224.9843750000,,,
2.0519999966,16,179929.3437500000,164806.5000000000,193857.1875000000,180189.1406250000,168384.5781250000,140236.4531250000,163771.7031250000,156007.2031250000,,,
2.0559999966,16,179951.7343750000,164828.5000000000,193894.6562500000,180186.0000000000,168420.7031250000,140265.9531250000,163795.0937500000,155390.2656250000,,,
2.0599999966,16,179919.8906250000,164795.7031250000,193871.6250000000,180170.8906250000,168400.2343750000,140236.3125000000,163751.3750000000,155196.1250000000,,,
2.0639999965,16,179900.1562500000,164782.2656250000,193843.0625000000,180167.6562500000,168375.2968750000,140218.7187500000,163725.2187500000,155680.1562500000,,,
2.0679999965,16,179895.9687500000,164778.7187500000,193834.9375000000,180172.6093750000,168366.2812500000,140208.0156250000,163727.6875000000,156181.9218750000,,,
2.0719999967,16,179930.2968750000,164805.8906250000,193875.5625000000,180200.1875000000,168403.9375000000,140218.8593750000,163765.2187500000,155957.2031250000,,,
2.0759999966,16,179937.2031250000,164816.4062500000,193881.3281250000,180196.8125000000,168410.8593750000,140233.3125000000,163774.3437500000,155342.5156250000,,,
2.0799999966,16,179919.2812500000,164809.9843750000,193862.7656250000,180174.8125000000,168394.7187500000,140256.0312500000,163730.1406250000,155181.2343750000,,,
2.0839999965,16,179912.8906250000,164817.0937500000,193847.5625000000,180158.5312500000,168379.2812500000,140240.6562500000,163715.0312500000,155679.6093750000,,,
2.0879999965,16,179907.4218750000,164793.2500000000,193851.8593750000,180179.8593750000,168379.4687500000,140216.8750000000,163722.4062500000,156159.8125000000,,,
2.0919999967,16,179959.7812500000,164838.5625000000,193908.3906250000,180222.8593750000,168433.9531250000,140263.3437500000,163750.0312500000,155932.4218750000,,,
2.0959999966,16,179959.0625000000,164847.2187500000,193897.9687500000,180238.6562500000,168427.6250000000,140270.9375000000,163760.2343750000,155325.4843750000,,,
2.0999999966,16,179949.3750000000,164830.1875000000,193897.1875000000,180217.6250000000,168421.7812500000,140240.6875000000,163769.8906250000,155115.7343750000,,,
2.1039999966,16,179924.7187500000,164819.5468750000,193858.2656250000,180197.8750000000,168391.3906250000,140239.2968750000,163699.0468750000,155625.4843750000,,,
2.1079999965,16,179938.6718750000,164830.8125000000,193870.1718750000,180193.7968750000,168406.8125000000,140253.5000000000,163721.6093750000,156109.6562500000,,,
2.1119999965,16,179940.4687500000,164811.7812500000,193874.2500000000,180207.4218750000,168408.0937500000,140245.7812500000,163779.8906250000,155903.3125000000,,,
2.1159999967,16,179946.1875000000,164813.9687500000,193887.9531250000,180205.2500000000,168420.0312500000,140251.8906250000,163790.1093750000,155298.2656250000,,,
2.1199999966,16,179960.4531250000,164841.6093750000,193902.7031250000,180190.6718750000,168436.4218750000,140277.1406250000,163793.1718750000,155111.9843750000,,,
2.1239999966,16,179933.1406250000,164815.2031250000,193872.8906250000,180167.1718750000,168406.5468750000,140247.3906250000,163761.2187500000,155600.5468750000,,,
2.1279999965,16,179904.6562500000,164779.8906250000,193839.8437500000,180176.6718750000,168376.3437500000,140216.7656250000,163731.1562500000,156069.7656250000,,,
2.1319999965,16,179941.1406250000,164807.6875000000,193881.4375000000,180199.5156250000,168417.2968750000,140248.0312500000,163769.1406250000,155860.5312500000,,,
2.1359999967,16,179962.0312500000,164830.4375000000,193910.0937500000,180217.3593750000,168443.1250000000,140268.5468750000,163791.7187500000,155257.4843750000,,,
2.1399999966,16,179949.6718750000,164821.0937500000,193899.1406250000,180208.1875000000,168428.5937500000,140244.5156250000,163778.2500000000,155083.7031250000,,,
2.1439999966,16,179938.3750000000,164819.0312500000,193882.6406250000,180184.3593750000,168409.8125000000,140234.1718750000,163760.4218750000,155577.0156250000,,,
2.1479999966,16,179947.2500000000,164830.3281250000,193892.5937500000,180179.7812500000,168415.5000000000,140250.0156250000,163754.8125000000,156053.5156250000,,,
2.1519999965,16,180001.1406250000,164885.9218750000,193948.4375000000,180230.6875000000,168472.2343750000,140307.9531250000,163777.4531250000,155839.6718750000,,,
2.1559999965,16,179971.7187500000,164849.5000000000,193917.9375000000,180248.2031250000,168446.9843750000,140280.5156250000,163805.9062500000,155205.4062500000,,,
2.1599999967,16,179947.6093750000,164827.2187500000,193895.9531250000,180216.9531250000,168429.0468750000,140259.9218750000,163798.2343750000,154975.5937500000,,,
2.1639999966,16,179966.1093750000,164858.5468750000,193910.5625000000,180208.0781250000,168443.9062500000,140280.1718750000,163800.5468750000,155441.9218750000,,,
2.1679999966,16,180000.9531250000,164891.8593750000,193949.4375000000,180230.9531250000,168478.4531250000,140301.8593750000,163826.1093750000,155910.0468750000,,,
2.1719999965,16,180012.0781250000,164880.1562500000,193971.0468750000,180271.1093750000,168503.1875000000,140299.1093750000,163840.1875000000,155680.6093750000,,,
2.1759999965,17,179977.9375000000,164847.3750000000,193930.9531250000,180253.9375000000,168471.2656250000,140277.5468750000,163831.6093750000,155079.0937500000,,,
2.1799999964,17,179982.3906250000,164873.8593750000,193931.6718750000,180217.3593750000,168469.7656250000,140292.5937500000,163844.9375000000,154903.4687500000,,,
2.1839999964,17,179954.2031250000,164849.9062500000,193900.5156250000,180216.7343750000,168438.1406250000,140264.9531250000,163814.8906250000,155425.7187500000,,,
2.1879999964,17,179963.5937500000,164849.2031250000,193906.5937500000,180269.1406250000,168440.3125000000,140253.9687500000,163810.7656250000,155920.5625000000,,,
2.1919999963,17,180013.0156250000,164895.2812500000,193961.6718750000,180260.1562500000,168491.8125000000,140296.2343750000,163857.3593750000,155728.0781250000,,,
2.1959999963,17,179993.1250000000,164870.3750000000,193955.2500000000,180211.4843750000,168487.0625000000,140287.1406250000,163849.2031250000,155174.9062500000,,,
2.1999999965,17,179963.7500000000,164849.9062500000,193919.6875000000,180176.5781250000,168458.2812500000,140274.2968750000,163817.3906250000,154994.7656250000,,,
2.2039999964,17,179941.4687500000,164830.2500000000,193884.2031250000,180171.9375000000,168426.2500000000,140248.9531250000,163793.2500000000,155473.6250000000,,,
2.2079999964,17,179968.5781250000,164855.1093750000,193907.3437500000,180203.2968750000,168449.3750000000,140265.7656250000,163810.1718750000,155948.2968750000,,,
2.2119999963,17,180013.3750000000,164894.6093750000,193958.7343750000,180231.3593750000,168502.4218750000,140306.6718750000,163854.5156250000,155740.5000000000,,,
2.2159999963,17,180047.4375000000,164934.3593750000,194003.2968750000,180234.1250000000,168545.7187500000,140343.7343750000,163890.4531250000,155158.5937500000,,,
2.2199999965,17,180010.8281250000,164896.5937500000,193968.1562500000,180238.2812500000,168511.8906250000,140315.8437500000,163879.5937500000,154996.3281250000,,,
2.2239999964,17,179975.0625000000,164873.9062500000,193915.7656250000,180219.5468750000,168461.4375000000,140281.8281250000,163832.1718750000,155500.0937500000,,,
2.2279999964,17,179980.6562500000,164869.8593750000,193921.9687500000,180213.1406250000,168462.5937500000,140278.0468750000,163836.3437500000,155975.9531250000,,,
2.2319999964,17,180021.1718750000,164901.9062500000,193965.7343750000,180254.9531250000,168501.2968750000,140310.1250000000,163875.5937500000,155771.4843750000,,,
2.2359999963,17,180056.5312500000,164936.2656250000,194008.0468750000,180268.3750000000,168541.4218750000,140334.3437500000,163906.8125000000,155149.5312500000,,,
2.2399999963,17,179988.8281250000,164864.7656250000,193943.9843750000,180220.2187500000,168482.4218750000,140282.6562500000,163847.7968750000,154918.3750000000,,,
2.2439999965,17,179959.0312500000,164834.0781250000,193909.5468750000,180201.5625000000,168447.4375000000,140252.1406250000,163800.5468750000,155379.3437500000,,,
2.2479999964,17,179984.4531250000,164855.9375000000,193935.7812500000,180219.6562500000,168469.3593750000,140263.8281250000,163795.7187500000,155867.5312500000,,,
2.2519999964,17,180016.0312500000,164882.6250000000,193971.7500000000,180276.2500000000,168505.1875000000,140289.9531250000,163851.7656250000,155679.1875000000,,,
2.2559999963,17,180018.7031250000,164891.7187500000,193972.9531250000,180279.8281250000,168511.5000000000,140305.0000000000,163888.2968750000,155069.3281250000,,,
2.2599999963,17,179986.7968750000,164867.5312500000,193941.0625000000,180205.8437500000,168481.4531250000,140275.4218750000,163849.5937500000,154865.5625000000,,,
2.2639999965,17,179961.3906250000,164852.7500000000,193914.1093750000,180163.6250000000,168453.4531250000,140257.9843750000,163828.0312500000,155333.3437500000,,,
2.2679999964,17,179972.7031250000,164864.9218750000,193917.6718750000,180201.2656250000,168456.9062500000,140264.7500000000,163823.0781250000,155810.1406250000,,,
2.2719999964,17,180000.1406250000,164887.4531250000,193950.0468750000,180219.1562500000,168485.9843750000,140288.6718750000,163850.1093750000,155658.3437500000,,,
2.2759999963,17,180009.4531250000,164892.6093750000,193965.1562500000,180222.7656250000,168499.4218750000,140296.7187500000,163872.5000000000,155137.1406250000,,,
2.2799999963,17,179966.5937500000,164846.7343750000,193922.6718750000,180181.0312500000,168460.5000000000,140262.1406250000,163852.6562500000,154941.6562500000,,,
2.2839999963,17,179960.2031250000,164845.2656250000,193910.2812500000,180180.8750000000,168449.7500000000,140255.9218750000,163816.5625000000,155381.4687500000,,,
2.2879999964,17,179967.3750000000,164848.7968750000,193916.9843750000,180198.6562500000,168456.5156250000,140254.5000000000,163772.4843750000,155838.7187500000,,,
2.2919999964,17,180007.8750000000,164879.7343750000,193961.8750000000,180250.6718750000,168496.7500000000,140284.8593750000,163858.7187500000,155654.5156250000,,,
2.2959999964,17,180030.8125000000,164908.9687500000,193984.7812500000,180258.6875000000,168520.4531250000,140316.0000000000,163900.3750000000,155039.3125000000,,,
2.2999999963,17,180007.3906250000,164893.2968750000,193959.5781250000,180242.6250000000,168498.8906250000,140301.9218750000,163884.6875000000,154808.6250000000,,,
2.3039999963,18,179973.2656250000,164857.8125000000,193918.0468750000,180225.0781250000,168460.3125000000,140260.0468750000,163853.2968750000,155249.3437500000,,,
2.3079999962,18,179975.9531250000,164854.6250000000,193920.0312500000,180212.3593750000,168458.8437500000,140253.6093750000,163848.4218750000,155725.6718750000,,,
2.3119999962,18,179999.0000000000,164868.4687500000,193948.8125000000,180231.3281250000,168486.2812500000,140271.6718750000,163871.7500000000,155560.9843750000,,,
2.3159999961,18,179997.9218750000,164860.9531250000,193954.1250000000,180228.5156250000,168493.4218750000,140270.6718750000,163870.7343750000,154954.8593750000,,,
2.3199999961,18,179977.2656250000,164847.4843750000,193928.6718750000,180193.2656250000,168471.5625000000,140260.2343750000,163842.4687500000,154733.3906250000,,,
2.3239999961,18,179965.0625000000,164842.9843750000,193906.9531250000,180194.1250000000,168448.5156250000,140248.6562500000,163829.0312500000,155183.5937500000,,,
2.3279999963,18,179983.5937500000,164858.5468750000,193926.3125000000,180216.5156250000,168462.2500000000,140262.2500000000,163847.7968750000,155683.4218750000,,,
2.3319999962,18,180025.1406250000,164894.7968750000,193977.0312500000,180263.2656250000,168508.1406250000,140298.2968750000,163888.7656250000,155513.4062500000,,,
2.3359999962,18,180017.6093750000,164873.2968750000,193983.4218750000,180271.9843750000,168514.7968750000,140290.8437500000,163890.9375000000,154891.0000000000,,,
2.3399999961,18,179995.2343750000,164854.5156250000,193964.5312500000,180244.5781250000,168497.3125000000,140273.1875000000,163829.5937500000,154616.3906250000,,,
2.3439999961,18,179991.8281250000,164861.2812500000,193954.6093750000,180229.0156250000,168488.1250000000,140261.3437500000,163805.0000000000,155049.6718750000,,,
2.3479999963,18,180000.5781250000,164872.7500000000,193953.3281250000,180243.5625000000,168483.4687500000,140264.7968750000,163871.4375000000,155529.7031250000,,,
2.3519999962,18,180002.8906250000,164867.6562500000,193960.5156250000,180255.1406250000,168490.5156250000,140272.5781250000,163889.5312500000,155347.9375000000,,,
2.3559999962,18,179989.5468750000,164851.7343750000,193956.8437500000,180227.4687500000,168489.3125000000,140261.4531250000,163890.3437500000,154741.3593750000,,,
2.3599999961,18,179976.8593750000,164850.7343750000,193938.5468750000,180199.0937500000,168474.5625000000,140262.4062500000,163866.7187500000,154489.2031250000,,,
2.3639999961,18,179947.6093750000,164831.2656250000,193898.7656250000,180183.6406250000,168436.9218750000,140237.8750000000,163825.2500000000,154914.1875000000,,,
2.3679999961,18,179981.7812500000,164869.0468750000,193931.2187500000,180213.5156250000,168465.3281250000,140265.8125000000,163853.4062500000,155415.0937500000,,,
2.3719999962,18,180021.8437500000,164902.0468750000,193972.1718750000,180269.0468750000,168504.1250000000,140291.5468750000,163891.7656250000,155272.3750000000,,,
2.3759999962,18,180015.0625000000,164881.7656250000,193974.5156250000,180270.6718750000,168508.0000000000,140280.7031250000,163893.7812500000,154658.9062500000,,,
2.3799999962,18,180000.7187500000,164880.7968750000,193959.3281250000,180228.0000000000,168494.8125000000,140273.4062500000,163869.0781250000,154402.4843750000,,,
2.3839999961,18,179982.6562500000,164862.8281250000,193940.7968750000,180207.2187500000,168477.9687500000,140248.8906250000,163831.5000000000,154838.9062500000,,,
2.3879999961,18,179982.3906250000,164850.9687500000,193941.7968750000,180220.2968750000,168479.1250000000,140231.4531250000,163802.9531250000,155330.6875000000,,,
2.3919999963,18,180019.1093750000,164886.4843750000,193977.2812500000,180281.3281250000,168513.8281250000,140263.6406250000,163858.7656250000,155184.2968750000,,,
2.3959999962,18,180024.8750000000,164901.0000000000,193982.6875000000,180273.9687500000,168520.9687500000,140279.0937500000,163884.3906250000,154597.9062500000,,,
2.3999999962,18,179998.8906250000,164881.6562500000,193957.8906250000,180223.3906250000,168498.5937500000,140262.0625000000,163873.1562500000,154354.4218750000,,,
2.4039999961,18,179973.2656250000,164857.8437500000,193925.9062500000,180204.7812500000,168469.0625000000,140238.8125000000,163852.1718750000,154787.2656250000,,,
2.4079999961,18,179974.0000000000,164850.8906250000,193923.6250000000,180216.9218750000,168467.1093750000,140233.6093750000,163858.4218750000,155284.6562500000,,,
2.4119999961,18,180017.5625000000,164897.7031250000,193969.6875000000,180231.3750000000,168510.7187500000,140275.4687500000,163894.0781250000,155149.1250000000,,,
2.4159999962,18,180026.5625000000,164897.4843750000,193990.1562500000,180245.5781250000,168531.2031250000,140280.0312500000,163913.5937500000,154555.4687500000,,,
2.4199999962,18,180004.4062500000,164886.1093750000,193963.2187500000,180200.4531250000,168508.0000000000,140273.5937500000,163888.0625000000,154264.8906250000,,,
2.4239999962,18,179967.0781250000,164859.7187500000,193915.3906250000,180159.0625000000,168459.0000000000,140237.9218750000,163829.3750000000,154688.2500000000,,,
2.4279999961,18,179951.5000000000,164823.8593750000,193896.4062500000,180192.5468750000,168435.3125000000,140203.0781250000,163802.2031250000,155197.1718750000,,,
2.4319999961,19,179999.0781250000,164865.2500000000,193947.5312500000,180238.1406250000,168479.6562500000,140240.5781250000,163840.0468750000,155076.9218750000,,,
2.4359999960,19,180028.5781250000,164892.0156250000,193991.8906250000,180247.5000000000,168520.3125000000,140272.3281250000,163874.7343750000,154499.4375000000,,,
2.4399999960,19,180012.7031250000,164883.4062500000,193978.2968750000,180233.2343750000,168508.7656250000,140267.0312500000,163848.5468750000,154225.7187500000,,,
2.4439999959,19,179977.2187500000,164858.0625000000,193932.1406250000,180211.5625000000,168467.2343750000,140242.5156250000,163839.5156250000,154628.7343750000,,,
2.4479999959,19,179980.4843750000,164866.9687500000,193928.5468750000,180227.2812500000,168465.5000000000,140244.9843750000,163855.1250000000,155123.9375000000,,,
2.4519999959,19,180019.1718750000,164899.5000000000,193977.4687500000,180262.1718750000,168513.0000000000,140273.1406250000,163896.8906250000,155005.1250000000,,,
2.4559999960,19,180030.3281250000,164911.7500000000,194001.2812500000,180244.2812500000,168536.3125000000,140286.5312500000,163909.5937500000,154428.5000000000,,,
2.4599999960,19,180010.2812500000,164887.1562500000,193985.3281250000,180236.1562500000,168522.6250000000,140268.9218750000,163892.5156250000,154123.4531250000,,,
2.4639999960,19,179964.8750000000,164845.0468750000,193932.7500000000,180201.3125000000,168470.7031250000,140226.0156250000,163836.6250000000,154548.3437500000,,,
2.4679999959,19,179968.7343750000,164851.4531250000,193932.2968750000,180216.2500000000,168467.2656250000,140228.6718750000,163827.2500000000,155073.1406250000,,,
2.4719999959,19,179984.1093750000,164866.4531250000,193941.9218750000,180241.7812500000,168477.8906250000,140245.1093750000,163845.4218750000,154971.6406250000,,,
2.4759999961,19,180015.4062500000,164897.3437500000,193977.9531250000,180276.8437500000,168512.2968750000,140270.6718750000,163884.0156250000,154331.2656250000,,,
2.4799999960,19,179999.6718750000,164886.9218750000,193963.8125000000,180258.6406250000,168500.1250000000,140256.7187500000,163872.3125000000,154006.5937500000,,,
2.4839999960,19,179969.5156250000,164862.7968750000,193932.4218750000,180207.8281250000,168473.1718750000,140229.0781250000,163821.5937500000,154425.6250000000,,,
2.4879999959,19,179967.7500000000,164854.5625000000,193926.4531250000,180220.5781250000,168470.1562500000,140219.5468750000,163799.6093750000,154967.3281250000,,,
2.4919999959,19,179991.9687500000,164865.4062500000,193956.8906250000,180233.0156250000,168500.1718750000,140243.2343750000,163872.8593750000,154850.1093750000,,,
2.4959999959,19,180026.4062500000,164900.8125000000,193999.4843750000,180249.6250000000,168539.7343750000,140282.3125000000,163929.6875000000,154240.9375000000,,,
2.4999999960,19,180012.2187500000,164896.2187500000,193977.0937500000,180236.6875000000,168523.6718750000,140276.9687500000,163903.6718750000,153917.5468750000,,,
2.5039999960,19,179966.7500000000,164851.2968750000,193924.0937500000,180210.5156250000,168470.8125000000,140228.8906250000,163855.5312500000,154344.0625000000,,,
2.5079999960,19,179971.6562500000,164854.1406250000,193932.1875000000,180221.7812500000,168472.0937500000,140223.9218750000,163842.8125000000,154886.9687500000,,,
2.5119999959,19,180014.8437500000,164890.2656250000,193979.9375000000,180273.5937500000,168516.0000000000,140252.5468750000,163868.5312500000,154776.8437500000,,,
2.5159999959,19,180026.7500000000,164900.8593750000,193991.7031250000,180276.3281250000,168528.4218750000,140266.4843750000,163872.2343750000,154151.6406250000,,,
2.5199999961,19,179983.8437500000,164862.4062500000,193945.4843750000,180201.6406250000,168484.0781250000,140230.0937500000,163849.0937500000,153843.7031250000,,,
2.5239999960,19,179960.9843750000,164851.3593750000,193916.7968750000,180173.1718750000,168449.7031250000,140207.0781250000,163834.0156250000,154271.4531250000,,,
2.5279999960,19,179999.0156250000,164895.6093750000,193952.7656250000,180209.7656250000,168483.0625000000,140238.7343750000,163847.2187500000,154791.8593750000,,,
2.5319999959,19,180014.5000000000,164900.6562500000,193977.4843750000,180249.2500000000,168504.5156250000,140245.5937500000,163846.4375000000,154691.7343750000,,,
2.5359999959,19,180012.7812500000,164890.2656250000,193983.0625000000,180260.8593750000,168507.9062500000,140241.0000000000,163868.8281250000,154102.2656250000,,,
2.5399999958,19,180011.5468750000,164894.2656250000,193982.5312500000,180256.0312500000,168507.9531250000,140250.5312500000,163890.3906250000,153777.4687500000,,,
2.5439999960,19,179985.8593750000,164872.8125000000,193953.8593750000,180230.0156250000,168479.6562500000,140226.3593750000,163848.7187500000,154220.0937500000,,,
2.5479999960,19,179976.2968750000,164859.0000000000,193941.5156250000,180230.2500000000,168469.2968750000,140205.2031250000,163800.9375000000,154806.3437500000,,,
2.5519999960,19,180009.0468750000,164889.3125000000,193975.6093750000,180259.8906250000,168505.4375000000,140237.1250000000,163849.0625000000,154715.9062500000,,,
2.5559999959,19,180029.6250000000,164913.7187500000,193998.0156250000,180281.3750000000,168527.2656250000,140262.1093750000,163912.4687500000,154123.1875000000,,,
2.5599999959,20,180015.6250000000,164907.7656250000,193985.0312500000,180259.7343750000,168514.7187500000,140252.5625000000,163908.9062500000,153816.7500000000,,,
2.5639999958,20,180003.9375000000,164898.3750000000,193971.2656250000,180232.2968750000,168501.7343750000,140235.8593750000,163883.1875000000,154193.0000000000,,,
2.5679999958,20,179989.0156250000,164884.5625000000,193944.7968750000,180231.1406250000,168478.7187500000,140222.1718750000,163855.2031250000,154716.9687500000,,,
2.5719999957,20,180010.1562500000,164897.9218750000,193965.6406250000,180269.2343750000,168499.8281250000,140238.4531250000,163879.4843750000,154646.7500000000,,,
2.5759999957,20,180014.5781250000,164897.9687500000,193973.8125000000,180274.0781250000,168510.4218750000,140248.3906250000,163891.2031250000,154060.5000000000,,,
2.5799999957,20,179994.7343750000,164887.7031250000,193956.3750000000,180235.2187500000,168493.7343750000,140236.9375000000,163875.2968750000,153732.2031250000,,,
2.5839999958,20,179970.0781250000,164866.9843750000,193925.7812500000,180215.2656250000,168463.8281250000,140214.7812500000,163842.7031250000,154140.5156250000,,,
2.5879999958,20,179981.5312500000,164868.9218750000,193938.3906250000,180228.2500000000,168473.2968750000,140212.8750000000,163840.8281250000,154705.9687500000,,,
2.5919999958,20,180029.5781250000,164904.0625000000,193995.1875000000,180261.5312500000,168526.3750000000,140248.1406250000,163879.7968750000,154611.9062500000,,,
2.5959999957,20,180043.5000000000,164913.4375000000,194016.5468750000,180267.4531250000,168547.3750000000,140263.6718750000,163905.7343750000,154016.0781250000,,,
2.5999999957,20,180026.2968750000,164909.1562500000,193996.1875000000,180258.9062500000,168530.7812500000,140258.3906250000,163893.4062500000,153680.4062500000,,,
2.6039999959,20,180006.0156250000,164888.9062500000,193967.2187500000,180262.8125000000,168504.5156250000,140235.3750000000,163868.7500000000,154047.0156250000,,,
2.6079999958,20,180011.3125000000,164891.6875000000,193963.5468750000,180261.0468750000,168496.6562500000,140231.0625000000,163874.2812500000,154590.1562500000,,,
2.6119999958,20,180053.9843750000,164938.4375000000,194007.2968750000,180271.3750000000,168533.2500000000,140267.0312500000,163881.4687500000,154559.8437500000,,,
2.6159999957,20,180060.4218750000,164938.9531250000,194018.9375000000,180283.9062500000,168543.9218750000,140276.8437500000,163896.7812500000,153962.4375000000,,,
2.6199999957,20,180017.6562500000,164905.0156250000,193975.5312500000,180244.2500000000,168503.3906250000,140249.4531250000,163876.6406250000,153631.4843750000,,,
2.6239999956,20,179980.7031250000,164877.1250000000,193930.0156250000,180204.4843750000,168459.2500000000,140217.0781250000,163837.9531250000,154050.9218750000,,,
2.6279999958,20,179991.8281250000,164889.2500000000,193939.6718750000,180231.8125000000,168466.4375000000,140221.4531250000,163847.9375000000,154626.2343750000,,,
2.6319999958,20,180030.1093750000,164920.2812500000,193989.6875000000,180266.2968750000,168511.8906250000,140248.4843750000,163881.7343750000,154589.8593750000,,,
2.6359999957,20,180039.6875000000,164927.1250000000,194007.7656250000,180268.0781250000,168529.7031250000,140259.6250000000,163893.5937500000,154034.7812500000,,,
2.6399999957,20,180041.7968750000,164937.6875000000,194007.9375000000,180273.5937500000,168534.7187500000,140272.2500000000,163900.0000000000,153704.3593750000,,,
2.6439999957,20,180010.2343750000,164908.1875000000,193971.7031250000,180256.4375000000,168504.4687500000,140245.7343750000,163868.2343750000,154102.7656250000,,,
2.6479999959,20,180001.8125000000,164893.1875000000,193957.9375000000,180252.4062500000,168492.4843750000,140232.5625000000,163867.0000000000,154663.5625000000,,,
2.6519999958,20,180022.1406250000,164897.5937500000,193982.8750000000,180274.0625000000,168514.3906250000,140240.5000000000,163893.9687500000,154636.0781250000,,,
2.6559999958,20,180035.2031250000,164907.2812500000,194008.0937500000,180266.7656250000,168535.9218750000,140262.1093750000,163914.3437500000,154086.4375000000,,,
2.6599999957,20,180026.3750000000,164903.5156250000,193996.7968750000,180288.3750000000,168526.0781250000,140263.6718750000,163892.5625000000,153750.3906250000,,,
2.6639999957,20,180016.9687500000,164899.9843750000,193982.9062500000,180277.8437500000,168511.7343750000,140250.1562500000,163854.4843750000,154112.5312500000,,,
2.6679999956,20,180012.6718750000,164904.5468750000,193973.7031250000,180215.7656250000,168504.9531250000,140246.7968750000,163826.7187500000,154668.9843750000,,,
2.6719999958,20,180033.7343750000,164911.7343750000,194004.2343750000,180238.4062500000,168533.7031250000,140252.2656250000,163898.9218750000,154604.0312500000,,,
2.6759999958,20,180047.2187500000,164914.0312500000,194026.0156250000,180277.0000000000,168553.1718750000,140255.8906250000,163947.0156250000,154016.4531250000,,,
2.6799999957,20,180029.9531250000,164910.0312500000,194000.9531250000,180267.4375000000,168530.9375000000,140251.4687500000,163908.1718750000,153701.6718750000,,,
2.6839999957,20,180005.8593750000,164897.5156250000,193970.9687500000,180217.7343750000,168506.0468750000,140239.1250000000,163887.6093750000,154068.3906250000,,,
2.6879999957,21,180003.1718750000,164893.0000000000,193964.8593750000,180216.4218750000,168500.7656250000,140232.5781250000,163892.9687500000,154600.2187500000,,,
2.6919999956,21,180041.5312500000,164921.6250000000,194009.9375000000,180263.8125000000,168542.4687500000,140258.7968750000,163929.8750000000,154555.1562500000,,,
2.6959999956,21,180058.9687500000,164932.9375000000,194033.2812500000,180282.2656250000,168566.2187500000,140276.7656250000,163948.3281250000,153954.0937500000,,,
2.6999999955,21,180034.6718750000,164912.5937500000,194010.9375000000,180257.4843750000,168547.5156250000,140264.4218750000,163899.8593750000,153602.7031250000,,,
2.7039999955,21,180010.5312500000,164896.1718750000,193974.8125000000,180244.7343750000,168512.4062500000,140241.9687500000,163868.2968750000,153977.5468750000,,,
2.7079999954,21,180002.7500000000,164886.4843750000,193955.5000000000,180259.9687500000,168489.3593750000,140223.2031250000,163867.9531250000,154541.5625000000,,,
2.7119999956,21,180042.8750000000,164917.3906250000,193998.5937500000,180295.3281250000,168524.7187500000,140251.1406250000,163904.2031250000,154491.4531250000,,,
2.7159999956,21,180068.5937500000,164947.5312500000,194031.2187500000,180314.6718750000,168552.0468750000,140275.2031250000,163930.9843750000,153911.8593750000,,,
2.7199999955,21,180038.5000000000,164926.2187500000,194003.9375000000,180281.9375000000,168524.7656250000,140257.1562500000,163906.5156250000,153585.7187500000,,,
2.7239999955,21,180005.2187500000,164899.1718750000,193963.3281250000,180250.1250000000,168487.3593750000,140232.7968750000,163866.4375000000,153956.7500000000,,,
2.7279999955,21,180005.8281250000,164896.3281250000,193964.5625000000,180253.5312500000,168488.9687500000,140226.9218750000,163862.5000000000,154520.3125000000,,,
2.7319999957,21,180030.2968750000,164917.0625000000,194000.3125000000,180260.7812500000,168524.5000000000,140249.7812500000,163881.5468750000,154537.2343750000,,,
2.7359999956,21,180035.5000000000,164913.8750000000,194016.4062500000,180275.3437500000,168544.1093750000,140260.4843750000,163890.1875000000,154006.6718750000,,,
2.7399999956,21,180021.3906250000,164900.6562500000,193999.4531250000,180264.5937500000,168530.8125000000,140253.8281250000,163898.0468750000,153640.5000000000,,,
2.7439999955,21,180016.0312500000,164903.5781250000,193985.4062500000,180248.1718750000,168516.6718750000,140249.4531250000,163899.9218750000,153963.3593750000,,,
2.7479999955,21,180012.8281250000,164893.9375000000,193982.2031250000,180262.7343750000,168510.6875000000,140240.9218750000,163887.6562500000,154498.8281250000,,,
2.7519999954,21,180038.6718750000,164906.5781250000,194018.3906250000,180287.6875000000,168544.8593750000,140253.7500000000,163875.5312500000,154441.2968750000,,,
2.7559999956,21,180080.6718750000,164944.3125000000,194069.8906250000,180335.1093750000,168592.7343750000,140289.9531250000,163912.6562500000,153862.5468750000,,,
2.7599999956,21,180068.4843750000,164940.9687500000,194050.2812500000,180365.4062500000,168571.8750000000,140282.0781250000,163971.0000000000,153510.5625000000,,,
2.7639999955,21,180023.7500000000,164913.2500000000,193988.1406250000,180283.9843750000,168515.0156250000,140254.8281250000,163926.5468750000,153868.7031250000,,,
2.7679999955,21,180015.8437500000,164909.9531250000,193973.6875000000,180229.2343750000,168503.3437500000,140251.4687500000,163901.1718750000,154411.5156250000,,,
2.7719999955,21,180048.5156250000,164930.6718750000,194015.6875000000,180256.0312500000,168543.7656250000,140270.9218750000,163933.4218750000,154385.2031250000,,,
2.7759999956,21,180066.8593750000,164944.3437500000,194038.6250000000,180282.8593750000,168569.1562500000,140285.0468750000,163951.6093750000,153804.2187500000,,,
2.7799999956,21,180046.0468750000,164929.3281250000,194019.2031250000,180254.0468750000,168552.1562500000,140269.7343750000,163928.2187500000,153445.5468750000,,,
2.7839999956,21,180036.4375000000,164926.3437500000,194004.5468750000,180251.3125000000,168539.7968750000,140260.8281250000,163907.0312500000,153789.2812500000,,,
2.7879999955,21,180039.0156250000,164924.4375000000,194002.9687500000,180269.6562500000,168536.5468750000,140253.7500000000,163906.4843750000,154326.6250000000,,,
2.7919999955,21,180069.1406250000,164943.3750000000,194038.1562500000,180307.7656250000,168566.8593750000,140267.8593750000,163940.9531250000,154325.0156250000,,,
2.7959999954,21,180089.7343750000,164963.0625000000,194066.7500000000,180315.7968750000,168590.2187500000,140289.4531250000,163963.3281250000,153807.2187500000,,,
2.7999999956,21,180064.0937500000,164950.1875000000,194040.3906250000,180267.8906250000,168565.1875000000,140281.5937500000,163935.1406250000,153465.6406250000,,,
2.8039999956,21,180034.9375000000,164926.7812500000,194002.9687500000,180243.0156250000,168530.7187500000,140259.0625000000,163899.4062500000,153795.2812500000,,,
2.8079999955,21,180020.2187500000,164908.9687500000,193982.3750000000,180254.5781250000,168509.0781250000,140236.0156250000,163872.1562500000,154362.1406250000,,,
2.8119999955,21,180046.1406250000,164925.2500000000,194011.9531250000,180288.0781250000,168536.0312500000,140251.6875000000,163905.3437500000,154375.2031250000,,,
2.8159999955,22,180067.7968750000,164942.8125000000,194042.0312500000,180295.0000000000,168565.2656250000,140272.3125000000,163944.4375000000,153812.3750000000,,,
2.8199999954,22,180065.7500000000,164944.0156250000,194046.4218750000,180278.8906250000,168570.9531250000,140270.6406250000,163932.9843750000,153429.1562500000,,,
2.8239999954,22,180034.7187500000,164922.7031250000,194007.9531250000,180262.0625000000,168538.3750000000,140243.6875000000,163889.0625000000,153780.8750000000,,,
2.8279999953,22,180035.2812500000,164922.0781250000,194000.6718750000,180286.6562500000,168530.5625000000,140238.7343750000,163896.1875000000,154363.8593750000,,,
2.8319999953,22,180079.7031250000,164959.9531250000,194044.1093750000,180334.0000000000,168571.7968750000,140282.7187500000,163960.7500000000,154378.5000000000,,,
2.8359999952,22,180106.8437500000,164988.6875000000,194077.0468750000,180325.0937500000,168603.5781250000,140315.4687500000,163994.1406250000,153830.2656250000,,,
2.8399999954,22,180084.0468750000,164969.8593750000,194056.2656250000,180296.1562500000,168583.5156250000,140301.4375000000,163965.2343750000,153476.1093750000,,,
2.8439999954,22,180033.3750000000,164922.1406250000,193998.7656250000,180247.0781250000,168529.2187500000,140261.2031250000,163908.1250000000,153826.0000000000,,,
2.8479999953,22,180018.2500000000,164904.1875000000,193980.4375000000,180244.1718750000,168509.5937500000,140243.2343750000,163892.7031250000,154382.6875000000,,,
2.8519999953,22,180051.8281250000,164932.6718750000,194012.2031250000,180292.9843750000,168539.6093750000,140267.5156250000,163922.1875000000,154378.4218750000,,,
2.8559999953,22,180059.4218750000,164937.8281250000,194025.8750000000,180291.9687500000,168553.3593750000,140274.2656250000,163926.0156250000,153847.9375000000,,,
2.8599999954,22,180060.0625000000,164944.9375000000,194032.3906250000,180272.6406250000,168563.2031250000,140280.1406250000,163930.6875000000,153463.6093750000,,,
2.8639999954,22,180034.2968750000,164923.7187500000,194005.6562500000,180251.5781250000,168538.8750000000,140250.7187500000,163887.3437500000,153797.9062500000,,,
2.8679999954,22,180048.9062500000,164941.3437500000,194012.1406250000,180302.3593750000,168544.2187500000,140256.5156250000,163900.3281250000,154367.4062500000,,,
2.8719999953,22,180086.4375000000,164975.1562500000,194045.3437500000,180333.0156250000,168577.7656250000,140290.5468750000,163956.6250000000,154364.9375000000,,,
2.8759999953,22,180092.3593750000,164982.5937500000,194055.3593750000,180287.6250000000,168589.1718750000,140303.6875000000,163975.1875000000,153820.5781250000,,,
2.8799999952,22,180081.0156250000,164973.5781250000,194051.2968750000,180274.9375000000,168583.1093750000,140300.7656250000,163970.3281250000,153410.5781250000,,,
2.8839999954,22,180039.1406250000,164929.3437500000,194006.1562500000,180265.0468750000,168541.3281250000,140265.0156250000,163924.5937500000,153698.0000000000,,,
2.8879999954,22,180022.4843750000,164911.9218750000,193981.4375000000,180270.6562500000,168516.3281250000,140244.2187500000,163887.2656250000,154262.3125000000,,,
2.8919999953,22,180052.1562500000,164937.4531250000,194014.9062500000,180306.5156250000,168544.7343750000,140271.9375000000,163918.5000000000,154313.2656250000,,,
2.8959999953,22,180069.9687500000,164949.9218750000,194038.2500000000,180310.7500000000,168562.6250000000,140287.8593750000,163947.8437500000,153747.0312500000,,,
2.8999999953,22,180059.2968750000,164942.9687500000,194028.8593750000,180280.4687500000,168551.9687500000,140280.8437500000,163945.9218750000,153325.5781250000,,,
2.9039999954,22,180052.8593750000,164949.0625000000,194015.4687500000,180275.1875000000,168539.1406250000,140275.2812500000,163927.2031250000,153642.3750000000,,,
2.9079999954,22,180066.2187500000,164966.0156250000,194025.3750000000,180279.5000000000,168547.5156250000,140282.6093750000,163930.6875000000,154216.0625000000,,,
2.9119999954,22,180087.9375000000,164976.0468750000,194053.7968750000,180300.6406250000,168574.6875000000,140295.7187500000,163958.4375000000,154273.2031250000,,,
2.9159999953,22,180091.5625000000,164973.4687500000,194065.0625000000,180308.7343750000,168587.2968750000,140298.5156250000,163954.1562500000,153721.2031250000,,,
2.9199999953,22,180069.8125000000,164954.5312500000,194044.5468750000,180294.2031250000,168568.8437500000,140282.0468750000,163941.8906250000,153298.4531250000,,,
2.9239999952,22,180043.2812500000,164937.8750000000,194013.7031250000,180266.8750000000,168536.6562500000,140259.8125000000,163915.9531250000,153634.7500000000,,,
2.9279999954,22,180046.9531250000,164944.9531250000,194010.5625000000,180273.8906250000,168533.8906250000,140267.7500000000,163895.8750000000,154214.4062500000,,,
2.9319999954,22,180066.7187500000,164954.8281250000,194035.2968750000,180289.6093750000,168556.6875000000,140281.5312500000,163909.7812500000,154250.6406250000,,,
2.9359999953,22,180081.0156250000,164962.1562500000,194057.2812500000,180306.2343750000,168576.2968750000,140289.5000000000,163942.9218750000,153694.9687500000,,,
2.9399999953,22,180072.2500000000,164964.0781250000,194043.6406250000,180290.9531250000,168565.7812500000,140291.3593750000,163939.8281250000,153301.3750000000,,,
2.9439999952,23,180042.6562500000,164939.4843750000,194008.3593750000,180282.5781250000,168536.4687500000,140268.8281250000,163918.4843750000,153628.2968750000,,,
