Time:250Hz,Epoch,Channel 1,Channel 2,Channel 3,Channel 4,Channel 5,Channel 6,Channel 7,Channel 8,Event Id,Event Date,Event Duration
0.0000000000,0,145977.0937500000,193832.9218750000,183605.8906250000,150482.8125000000,119522.6796875000,151315.2656250000,134113.2656250000,144140.0000000000,,,
0.0040000000,0,145870.0312500000,196294.3750000000,182554.5000000000,150323.1718750000,119417.8906250000,151204.4062500000,134007.0625000000,144024.2656250000,,,
0.0079999999,0,146233.0312500000,195850.4218750000,183188.4843750000,150776.9687500000,119765.3125000000,151533.4531250000,134327.6718750000,144255.8437500000,,,
0.0119999999,0,146581.5625000000,193043.4062500000,184602.6093750000,151233.4062500000,120098.3359375000,151856.0000000000,134645.2500000000,144529.1406250000,,,
0.0159999998,0,146436.6093750000,191793.5625000000,184975.0312500000,151056.5312500000,119958.3046875000,151726.9843750000,134520.7187500000,144471.8906250000,,,
0.0199999998,0,145994.5937500000,193794.0312500000,183639.9843750000,150477.0625000000,119539.7421875000,151320.0937500000,134122.9687500000,144155.9375000000,,,
0.0240000000,0,145882.1718750000,196278.4218750000,182582.2500000000,150309.0312500000,119432.8046875000,151211.9375000000,134014.4218750000,144035.6875000000,,,
0.0279999999,0,146243.7187500000,195811.2031250000,183199.5625000000,150761.0312500000,119778.8359375000,151545.9062500000,134333.6562500000,144265.5625000000,,,
0.0319999999,0,146584.3281250000,192992.7656250000,184614.5468750000,151213.0468750000,120105.1484375000,151868.1406250000,134645.4687500000,144534.4218750000,,,
0.0359999998,0,146431.3125000000,191753.7187500000,185001.5781250000,151053.2343750000,119957.8984375000,151733.3437500000,134515.8281250000,144471.5156250000,,,
0.0399999998,0,145990.2656250000,193756.7500000000,183674.3437500000,150484.2656250000,119538.7734375000,151332.1093750000,134121.6250000000,144157.9687500000,,,
0.0440000000,0,145878.9062500000,196231.0625000000,182599.4218750000,150323.3281250000,119431.2187500000,151224.8437500000,134012.5468750000,144037.9218750000,,,
0.0480000000,0,146234.0000000000,195765.7968750000,183194.7187500000,150771.2500000000,119768.0234375000,151547.4531250000,134324.7187500000,144260.3750000000,,,
0.0519999999,0,146577.8593750000,192966.5312500000,184603.5781250000,151233.5000000000,120092.2812500000,151864.5000000000,134634.7812500000,144530.7500000000,,,
0.0559999999,0,146426.5625000000,191747.2656250000,185000.2656250000,151070.8281250000,119942.6875000000,151726.2500000000,134501.0312500000,144466.8750000000,,,
0.0599999998,0,145990.2187500000,193741.9062500000,183672.7031250000,150497.7500000000,119525.6875000000,151325.9843750000,134105.2187500000,144153.8750000000,,,
0.0639999998,0,145880.3593750000,196197.8281250000,182585.7500000000,150333.4687500000,119420.3046875000,151221.1406250000,133995.6406250000,144033.2500000000,,,
0.0680000000,0,146239.5781250000,195750.0781250000,183178.4843750000,150783.3281250000,119761.0781250000,151552.7656250000,134308.2343750000,144262.2031250000,,,
0.0719999999,0,146583.6250000000,193019.0625000000,184606.1250000000,151250.4062500000,120087.0468750000,151877.8593750000,134622.1875000000,144537.4843750000,,,
0.0759999999,0,146432.9218750000,191840.8437500000,185023.6093750000,151087.3593750000,119944.5390625000,151746.0000000000,134499.9531250000,144476.7812500000,,,
0.0799999998,0,145998.0000000000,193780.5937500000,183688.8593750000,150510.6562500000,119534.8046875000,151349.1406250000,134112.9375000000,144162.0156250000,,,
0.0839999998,0,145882.2343750000,196160.1406250000,182576.7656250000,150333.5781250000,119427.2734375000,151238.7656250000,134006.3437500000,144037.8593750000,,,
0.0880000000,0,146231.1250000000,195759.4687500000,183178.0312500000,150771.0468750000,119761.1328125000,151556.9843750000,134318.0156250000,144263.0625000000,,,
0.0919999999,0,146569.8906250000,193157.3750000000,184639.2968750000,151222.8281250000,120082.5937500000,151873.7812500000,134628.9687500000,144536.9218750000,,,
0.0959999999,0,146434.4218750000,192021.2187500000,185069.2812500000,151064.7656250000,119952.1328125000,151749.8125000000,134515.6406250000,144485.9062500000,,,
0.0999999999,0,146014.6250000000,193843.2968750000,183706.6718750000,150500.6406250000,119556.7734375000,151364.3437500000,134141.6562500000,144179.2343750000,,,
0.1039999998,0,145905.1093750000,196110.7031250000,182567.6406250000,150335.7656250000,119454.1015625000,151260.4375000000,134036.8125000000,144061.0312500000,,,
0.1079999998,0,146247.5781250000,195769.0781250000,183186.0468750000,150771.9531250000,119778.7578125000,151571.7343750000,134337.6718750000,144286.5312500000,,,
0.1120000000,0,146575.4687500000,193327.2968750000,184684.1406250000,151216.2031250000,120088.9765625000,151877.9843750000,134633.5468750000,144553.3281250000,,,
0.1159999999,0,146443.5625000000,192217.7968750000,185119.0937500000,151058.8906250000,119962.3515625000,151761.6562500000,134519.2187500000,144499.6250000000,,,
0.1199999999,0,146037.9531250000,193879.0781250000,183720.4062500000,150503.8906250000,119581.6953125000,151394.0312500000,134156.1250000000,144201.8281250000,,,
0.1239999998,0,145919.3593750000,196015.9218750000,182550.3437500000,150331.7500000000,119469.2578125000,151286.0468750000,134045.0312500000,144079.7812500000,,,
0.1279999998,1,146234.8593750000,195733.1250000000,183184.0312500000,150754.0937500000,119767.5703125000,151569.4062500000,134323.9687500000,144286.4218750000,,,
0.1319999998,1,146559.0781250000,193422.7031250000,184712.5000000000,151208.1875000000,120075.7031250000,151864.6562500000,134620.1406250000,144548.2343750000,,,
0.1359999997,1,146442.8437500000,192318.3281250000,185152.1562500000,151076.7343750000,119964.9765625000,151755.5468750000,134521.4687500000,144498.6875000000,,,
0.1399999997,1,146044.7968750000,193858.8906250000,183724.7968750000,150532.5312500000,119590.8906250000,151392.1093750000,134166.5468750000,144198.4218750000,,,
0.1439999996,1,145920.5312500000,195917.5312500000,182535.2968750000,150352.4843750000,119471.8593750000,151274.5468750000,134048.7031250000,144068.2031250000,,,
0.1479999996,1,146231.9375000000,195664.8125000000,183168.8281250000,150770.0156250000,119762.3125000000,151556.0156250000,134318.8281250000,144275.0781250000,,,
0.1519999998,1,146551.4687500000,193422.0625000000,184707.6718750000,151220.5000000000,120060.9218750000,151853.0625000000,134605.3125000000,144536.2500000000,,,
0.1559999997,1,146440.6093750000,192326.5937500000,185151.8125000000,151087.8593750000,119954.6015625000,151753.9375000000,134508.3437500000,144492.2500000000,,,
0.1599999997,1,146048.5312500000,193853.0156250000,183729.7656250000,150545.0937500000,119586.4921875000,151397.9531250000,134157.9375000000,144199.8750000000,,,
0.1639999996,1,145930.0312500000,195911.7656250000,182530.6718750000,150366.1875000000,119472.2031250000,151285.5625000000,134044.3750000000,144078.4687500000,,,
0.1679999996,1,146239.5312500000,195660.4687500000,183151.8281250000,150776.7812500000,119762.5546875000,151567.7968750000,134316.2500000000,144285.4062500000,,,
0.1719999998,1,146557.4218750000,193387.1406250000,184683.9843750000,151218.9218750000,120062.1796875000,151860.4218750000,134605.3906250000,144542.2812500000,,,
0.1759999997,1,146443.8906250000,192282.2500000000,185145.1406250000,151089.2343750000,119955.0000000000,151758.1406250000,134511.0312500000,144494.8281250000,,,
0.1799999997,1,146042.2187500000,193851.8281250000,183738.8750000000,150540.3437500000,119577.5312500000,151393.2343750000,134150.4062500000,144195.2812500000,,,
0.1839999997,1,145917.5000000000,195970.2656250000,182537.8437500000,150354.9218750000,119458.7656250000,151270.9218750000,134029.1718750000,144066.9843750000,,,
0.1879999996,1,146240.3593750000,195696.0156250000,183137.5625000000,150772.0625000000,119764.9140625000,151562.9687500000,134314.7500000000,144282.3125000000,,,
0.1919999996,1,146578.5312500000,193332.1562500000,184652.4375000000,151229.7500000000,120086.9140625000,151875.5156250000,134624.3750000000,144559.5468750000,,,
0.1959999998,1,146457.4843750000,192192.5625000000,185128.7187500000,151090.6250000000,119972.4921875000,151766.6250000000,134526.2343750000,144513.3125000000,,,
0.1999999997,1,146045.3125000000,193858.7187500000,183765.2500000000,150528.6250000000,119584.0234375000,151392.0468750000,134160.3281250000,144209.5468750000,,,
0.2039999997,1,145922.8593750000,196063.9531250000,182577.0781250000,150343.1718750000,119469.2578125000,151278.0781250000,134045.3125000000,144081.3906250000,,,
0.2079999996,1,146241.7812500000,195760.8906250000,183148.1718750000,150756.2812500000,119772.1562500000,151568.9687500000,134328.6406250000,144286.4531250000,,,
0.2119999996,1,146578.7968750000,193304.6562500000,184638.8906250000,151212.6718750000,120091.6640625000,151887.6406250000,134636.3125000000,144559.5312500000,,,
0.2159999998,1,146467.9218750000,192140.7343750000,185131.8281250000,151087.7031250000,119984.4531250000,151791.3593750000,134544.6875000000,144527.0468750000,,,
0.2199999997,1,146047.2656250000,193859.7968750000,183789.3593750000,150523.1250000000,119587.5937500000,151405.4375000000,134168.5937500000,144219.5625000000,,,
0.2239999997,1,145917.8437500000,196110.5468750000,182593.7968750000,150332.1250000000,119465.1250000000,151284.8125000000,134047.8125000000,144085.6093750000,,,
0.2279999997,1,146246.8281250000,195799.6562500000,183147.7968750000,150761.0156250000,119778.9921875000,151588.6562500000,134343.7343750000,144298.2031250000,,,
0.2319999996,1,146591.4843750000,193296.7968750000,184637.3437500000,151236.3437500000,120110.5703125000,151912.5312500000,134663.9687500000,144572.5937500000,,,
0.2359999996,1,146471.6406250000,192105.2031250000,185141.0781250000,151110.0468750000,119996.9765625000,151808.1718750000,134564.8125000000,144531.1406250000,,,
0.2399999998,1,146048.5312500000,193838.7187500000,183810.0156250000,150545.8750000000,119595.3984375000,151422.0625000000,134180.8437500000,144222.3437500000,,,
0.2439999997,1,145910.7187500000,196127.2500000000,182610.2031250000,150351.1406250000,119463.3515625000,151290.3906250000,134050.9531250000,144079.4843750000,,,
0.2479999997,1,146237.7343750000,195830.0156250000,183152.3906250000,150769.2500000000,119781.4062500000,151601.5000000000,134365.9843750000,144293.7656250000,,,
0.2519999996,1,146588.8593750000,193332.9531250000,184643.4218750000,151243.5156250000,120118.2968750000,151930.1093750000,134696.6406250000,144579.9687500000,,,
0.2559999996,2,146478.7500000000,192145.7343750000,185160.0156250000,151116.7187500000,120009.7968750000,151825.5000000000,134596.8125000000,144546.5781250000,,,
0.2599999995,2,146061.5937500000,193860.7656250000,183828.6250000000,150549.4062500000,119616.7500000000,151448.4062500000,134227.5937500000,144243.2187500000,,,
0.2639999995,2,145931.5781250000,196124.9687500000,182618.6562500000,150350.3281250000,119496.8281250000,151329.1250000000,134109.1250000000,144110.6250000000,,,
0.2679999995,2,146251.5156250000,195872.0156250000,183166.9843750000,150758.8906250000,119804.7187500000,151621.2968750000,134395.8281250000,144318.3437500000,,,
0.2719999994,2,146599.1875000000,193472.0000000000,184681.4687500000,151233.5312500000,120138.0859375000,151950.5156250000,134720.2187500000,144602.1406250000,,,
0.2759999994,2,146492.6406250000,192306.7187500000,185206.8750000000,151116.1406250000,120035.3906250000,151860.0781250000,134631.1406250000,144569.5000000000,,,
0.2799999996,2,146073.7343750000,193883.3906250000,183838.3437500000,150547.0468750000,119641.6406250000,151485.3906250000,134264.5156250000,144257.4218750000,,,
0.2839999995,2,145930.3750000000,196003.8125000000,182585.5781250000,150340.9531250000,119509.3515625000,151352.5625000000,134139.9218750000,144113.0937500000,,,
0.2879999995,2,146240.1718750000,195826.2031250000,183158.4531250000,150748.3750000000,119802.6015625000,151630.3125000000,134417.6562500000,144318.8750000000,,,
0.2919999994,2,146573.9218750000,193681.9687500000,184733.7187500000,151208.4531250000,120115.3203125000,151935.9218750000,134723.2187500000,144593.1406250000,,,
0.2959999994,2,146487.2343750000,192591.2500000000,185267.3906250000,151103.6406250000,120030.7187500000,151854.8125000000,134651.5468750000,144567.8750000000,,,
0.2999999996,2,146107.9375000000,193901.9531250000,183832.2500000000,150564.6406250000,119676.2421875000,151510.4687500000,134315.6562500000,144275.9375000000,,,
0.3039999995,2,145972.8906250000,195744.4531250000,182526.9843750000,150366.5937500000,119548.6484375000,151377.3593750000,134188.9531250000,144137.1093750000,,,
0.3079999995,2,146248.0312500000,195680.0000000000,183143.7812500000,150760.2812500000,119805.6015625000,151624.2500000000,134432.3281250000,144326.7656250000,,,
0.3119999995,2,146561.3437500000,193907.7187500000,184807.6093750000,151219.0781250000,120098.9062500000,151912.9062500000,134716.0781250000,144591.2812500000,,,
0.3159999994,2,146490.6406250000,192952.0625000000,185354.1562500000,151130.5312500000,120033.0000000000,151846.4687500000,134657.0781250000,144569.3750000000,,,
0.3199999994,2,146144.9531250000,193933.4218750000,183826.7187500000,150611.9375000000,119716.0156250000,151535.2031250000,134352.8906250000,144291.7656250000,,,
0.3239999996,2,146009.2656250000,195415.9375000000,182445.1093750000,150411.8437500000,119589.3593750000,151407.6875000000,134226.9531250000,144154.4062500000,,,
0.3279999995,2,146247.2187500000,195460.4843750000,183114.3750000000,150780.4062500000,119805.6796875000,151613.6093750000,134436.1093750000,144330.7343750000,,,
0.3319999995,2,146539.4531250000,194101.2968750000,184883.7343750000,151224.0937500000,120076.9609375000,151878.1250000000,134703.5937500000,144587.9375000000,,,
0.3359999994,2,146481.8437500000,193270.7500000000,185439.6093750000,151132.4375000000,120027.0468750000,151836.6562500000,134661.3750000000,144568.9062500000,,,
0.3399999994,2,146158.4218750000,193927.5781250000,183817.0156250000,150623.6562500000,119733.9609375000,151548.7500000000,134376.4687500000,144292.6406250000,,,
0.3439999996,2,146026.6406250000,195127.6406250000,182382.0781250000,150424.5000000000,119607.9531250000,151414.4687500000,134249.8593750000,144158.9062500000,,,
0.3479999995,2,146238.3281250000,195269.2187500000,183092.5156250000,150774.7343750000,119795.0625000000,151594.0468750000,134430.2187500000,144325.6875000000,,,
0.3519999995,2,146503.9375000000,194216.7187500000,184931.5781250000,151194.2968750000,120040.0312500000,151839.3593750000,134671.5625000000,144565.6718750000,,,
0.3559999994,2,146454.1093750000,193484.6406250000,185487.7031250000,151106.7187500000,119998.6406250000,151803.0468750000,134631.7812500000,144541.4218750000,,,
0.3599999994,2,146159.5468750000,193929.3906250000,183796.8906250000,150619.6562500000,119730.7656250000,151540.5156250000,134363.2968750000,144281.1093750000,,,
0.3639999994,2,146021.5156250000,194923.5312500000,182308.0781250000,150416.7968750000,119597.9218750000,151406.7812500000,134229.2031250000,144147.5937500000,,,
0.3679999996,2,146217.2656250000,195133.1406250000,183048.2656250000,150755.1875000000,119771.4062500000,151572.2968750000,134398.4062500000,144311.7187500000,,,
0.3719999995,2,146473.3593750000,194256.8906250000,184934.6093750000,151170.6406250000,120006.8515625000,151806.6718750000,134629.6875000000,144548.2343750000,,,
0.3759999995,2,146438.5937500000,193572.9843750000,185505.6562500000,151096.3437500000,119981.8203125000,151787.9531250000,134604.6875000000,144533.3750000000,,,
0.3799999994,2,146157.4218750000,193909.4218750000,183792.8750000000,150619.8750000000,119730.2343750000,151544.2187500000,134352.1875000000,144278.7812500000,,,
0.3839999994,3,146020.9531250000,194799.0781250000,182276.7343750000,150414.5156250000,119598.0546875000,151408.8125000000,134217.9687500000,144144.1093750000,,,
0.3879999993,3,146208.2812500000,195042.4375000000,183022.2500000000,150742.4218750000,119761.8593750000,151561.1718750000,134378.7656250000,144303.5625000000,,,
0.3919999993,3,146467.5468750000,194283.6875000000,184941.0000000000,151161.0625000000,119999.3125000000,151790.0625000000,134612.2031250000,144538.9843750000,,,
0.3959999993,3,146446.6406250000,193642.2187500000,185532.2031250000,151106.6093750000,119986.6250000000,151773.5625000000,134597.9062500000,144529.3437500000,,,
0.3999999992,3,146173.7656250000,193930.6875000000,183815.9375000000,150643.8437500000,119742.6250000000,151531.1250000000,134351.7343750000,144278.5312500000,,,
0.4039999992,3,146033.6718750000,194779.2500000000,182289.2031250000,150437.0781250000,119610.6093750000,151396.9531250000,134221.9375000000,144144.1875000000,,,
0.4079999994,3,146206.7031250000,195051.2343750000,183030.6406250000,150756.4531250000,119760.7031250000,151539.5156250000,134369.3281250000,144293.3125000000,,,
0.4119999993,3,146462.6093750000,194323.8125000000,184946.2187500000,151179.1875000000,119994.6484375000,151764.9375000000,134598.2343750000,144525.5937500000,,,
0.4159999993,3,146437.3750000000,193663.6406250000,185531.0312500000,151117.1562500000,119978.0390625000,151748.1406250000,134579.6875000000,144512.7500000000,,,
0.4199999992,3,146160.7031250000,193901.0468750000,183808.7812500000,150643.8437500000,119731.2500000000,151506.3125000000,134329.3437500000,144258.2343750000,,,
0.4239999992,3,146015.7812500000,194758.3281250000,182282.3906250000,150433.6718750000,119591.7734375000,151367.4843750000,134191.2812500000,144118.2968750000,,,
0.4279999994,3,146190.3281250000,195053.5156250000,183019.7031250000,150753.6093750000,119741.5000000000,151510.2343750000,134339.8281250000,144267.1875000000,,,
0.4319999993,3,146451.5000000000,194309.8750000000,184925.7812500000,151173.1562500000,119980.4062500000,151742.6718750000,134575.9375000000,144503.3906250000,,,
0.4359999993,3,146434.8437500000,193604.3906250000,185515.5781250000,151117.5000000000,119972.4062500000,151736.1718750000,134569.8281250000,144498.5625000000,,,
0.4399999992,3,146162.0625000000,193844.5312500000,183813.2500000000,150645.7812500000,119728.8359375000,151499.5312500000,134327.7031250000,144252.2812500000,,,
0.4439999992,3,146019.1250000000,194740.1250000000,182290.7500000000,150430.6718750000,119591.5859375000,151360.2656250000,134193.7500000000,144117.1562500000,,,
0.4479999992,3,146196.7968750000,195044.9062500000,183010.7343750000,150741.5312500000,119745.9218750000,151509.0468750000,134345.1875000000,144270.8125000000,,,
0.4519999993,3,146463.2812500000,194223.6406250000,184890.6250000000,151160.0156250000,119989.6562500000,151751.1406250000,134582.7187500000,144512.6406250000,,,
0.4559999993,3,146443.9062500000,193458.0312500000,185485.1093750000,151104.9218750000,119978.8750000000,151743.8281250000,134571.7031250000,144510.0156250000,,,
0.4599999993,3,146163.6718750000,193755.0468750000,183817.8750000000,150623.0937500000,119728.7031250000,151500.8750000000,134321.5312500000,144264.2656250000,,,
0.4639999992,3,146015.3750000000,194773.7500000000,182318.0625000000,150405.0468750000,119587.0546875000,151358.3593750000,134181.6875000000,144126.6093750000,,,
0.4679999992,3,146200.0781250000,195092.1875000000,183019.8906250000,150723.5625000000,119753.2968750000,151514.8437500000,134344.9531250000,144278.6718750000,,,
0.4719999994,3,146470.9687500000,194162.8906250000,184873.1562500000,151146.8750000000,120006.1015625000,151759.1718750000,134592.1718750000,144519.2656250000,,,
0.4759999993,3,146449.2968750000,193316.3750000000,185464.9687500000,151098.4531250000,119991.8046875000,151747.0156250000,134580.1250000000,144515.1562500000,,,
0.4799999993,3,146156.3593750000,193683.9218750000,183821.2812500000,150625.2343750000,119725.3750000000,151493.5781250000,134319.8906250000,144261.2968750000,,,
0.4839999992,3,145995.0937500000,194831.4843750000,182336.8906250000,150404.9687500000,119569.8359375000,151341.0312500000,134166.4687500000,144112.4062500000,,,
0.4879999992,3,146188.2500000000,195150.0781250000,183012.7500000000,150735.5468750000,119741.1250000000,151503.7187500000,134333.9531250000,144265.2343750000,,,
0.4919999992,3,146468.7187500000,194096.5468750000,184823.9218750000,151177.5781250000,120000.4140625000,151761.5781250000,134590.2343750000,144510.4375000000,,,
0.4959999993,3,146434.3125000000,193186.7968750000,185415.5312500000,151120.4531250000,119971.4140625000,151740.2500000000,134564.5937500000,144499.2031250000,,,
0.4999999993,3,146127.8593750000,193642.7187500000,183811.7500000000,150641.1718750000,119692.3593750000,151473.5156250000,134292.4843750000,144240.2031250000,,,
0.5039999993,3,145956.9062500000,194896.3125000000,182337.8750000000,150409.9375000000,119526.5703125000,151310.4375000000,134130.5312500000,144083.1875000000,,,
0.5079999992,3,146151.9218750000,195220.7812500000,182987.6406250000,150731.7968750000,119699.0390625000,151471.2500000000,134295.8437500000,144230.7656250000,,,
0.5119999992,4,146442.5781250000,194075.9062500000,184773.7500000000,151175.1875000000,119969.4296875000,151732.9375000000,134562.1250000000,144479.7500000000,,,
0.5159999991,4,146429.2187500000,193122.0312500000,185390.3906250000,151133.7031250000,119963.8828125000,151726.6875000000,134560.2968750000,144489.2500000000,,,
0.5199999991,4,146126.4687500000,193651.2187500000,183831.6093750000,150654.7343750000,119689.1406250000,151457.5000000000,134290.6562500000,144235.5937500000,,,
0.5239999990,4,145968.2187500000,194997.0468750000,182371.1093750000,150431.6562500000,119537.0625000000,151307.8593750000,134138.6093750000,144091.2187500000,,,
0.5279999990,4,146171.2343750000,195316.2031250000,183004.1406250000,150755.7031250000,119719.1015625000,151481.0937500000,134313.4062500000,144246.3281250000,,,
0.5319999990,4,146472.7656250000,194082.8750000000,184769.9687500000,151197.7500000000,120002.2109375000,151758.5781250000,134590.3437500000,144503.2031250000,,,
0.5359999991,4,146451.3906250000,193070.2812500000,185385.6250000000,151137.1406250000,119987.5390625000,151748.7031250000,134580.0156250000,144507.4843750000,,,
0.5399999991,4,146126.7968750000,193654.2031250000,183849.6562500000,150632.4843750000,119690.8593750000,151463.8593750000,134293.1562500000,144241.0937500000,,,
0.5439999991,4,145962.9687500000,195083.3125000000,182399.4375000000,150398.0312500000,119536.9765625000,151311.7968750000,134145.5000000000,144094.3437500000,,,
0.5479999990,4,146179.9218750000,195387.9843750000,183007.9218750000,150732.9531250000,119732.2734375000,151498.7812500000,134333.5156250000,144260.5937500000,,,
0.5519999990,4,146490.5000000000,194052.4531250000,184747.0625000000,151190.2968750000,120021.3906250000,151782.5781250000,134615.0000000000,144522.0000000000,,,
0.5559999992,4,146462.1718750000,192990.2031250000,185372.4062500000,151144.3281250000,119999.3359375000,151761.6406250000,134594.8281250000,144519.8593750000,,,
0.5599999991,4,146138.3750000000,193643.9375000000,183873.6093750000,150653.6875000000,119702.2578125000,151470.4531250000,134304.1250000000,144256.1093750000,,,
0.5639999991,4,145971.4375000000,195165.4687500000,182430.6250000000,150406.4218750000,119542.5078125000,151312.7968750000,134144.3750000000,144104.2812500000,,,
0.5679999990,4,146185.9843750000,195460.3437500000,183007.5000000000,150729.0312500000,119736.7265625000,151499.7968750000,134329.0156250000,144260.7031250000,,,
0.5719999990,4,146492.4375000000,194028.0468750000,184716.6250000000,151180.0781250000,120026.3515625000,151786.2031250000,134615.0468750000,144516.2031250000,,,
0.5759999990,4,146466.1718750000,192910.5625000000,185344.6406250000,151140.4375000000,120006.7656250000,151769.9531250000,134603.3593750000,144521.4062500000,,,
0.5799999991,4,146136.4531250000,193634.5937500000,183875.0781250000,150646.3750000000,119701.2656250000,151473.5937500000,134307.5312500000,144260.6718750000,,,
0.5839999991,4,145967.1250000000,195257.6875000000,182442.9687500000,150406.5000000000,119537.4609375000,151313.8593750000,134146.3906250000,144108.3437500000,,,
0.5879999991,4,146188.7812500000,195558.2812500000,183005.4843750000,150744.2187500000,119737.8750000000,151505.6093750000,134334.7812500000,144266.8750000000,,,
0.5919999990,4,146506.8906250000,194016.7500000000,184693.9375000000,151209.0156250000,120036.0546875000,151797.7656250000,134622.3906250000,144528.8125000000,,,
0.5959999990,4,146475.8906250000,192811.7812500000,185324.6562500000,151164.8125000000,120009.7187500000,151775.7343750000,134600.1093750000,144528.3125000000,,,
0.5999999992,4,146128.8906250000,193581.7343750000,183883.4531250000,150651.6250000000,119692.6562500000,151465.5468750000,134295.0781250000,144255.1562500000,,,
0.6039999991,4,145948.3125000000,195311.4531250000,182464.4843750000,150406.1562500000,119524.5859375000,151296.5625000000,134130.5937500000,144093.1406250000,,,
0.6079999991,4,146169.2500000000,195628.9218750000,183009.2343750000,150734.0468750000,119729.0234375000,151493.7812500000,134326.5468750000,144250.7031250000,,,
0.6119999990,4,146496.9687500000,193999.4531250000,184666.1250000000,151199.3906250000,120036.0859375000,151795.9062500000,134623.5000000000,144518.0625000000,,,
0.6159999990,4,146469.3437500000,192731.5312500000,185301.8593750000,151155.3437500000,120011.6250000000,151775.6406250000,134601.4218750000,144524.2343750000,,,
0.6199999989,4,146121.0312500000,193557.3750000000,183890.3437500000,150640.9531250000,119689.1953125000,151458.7656250000,134289.0000000000,144250.9687500000,,,
0.6239999991,4,145949.2656250000,195387.3437500000,182485.4375000000,150399.4218750000,119526.2812500000,151292.8593750000,134128.5000000000,144095.5625000000,,,
0.6279999991,4,146179.5312500000,195714.5468750000,183012.1562500000,150742.9531250000,119737.6640625000,151497.0312500000,134330.7656250000,144256.4062500000,,,
0.6319999991,4,146507.5937500000,193978.7500000000,184641.5781250000,151206.0937500000,120046.5156250000,151801.4062500000,134631.4843750000,144520.1562500000,,,
0.6359999990,4,146479.4218750000,192628.8437500000,185277.7968750000,151165.8125000000,120022.9140625000,151784.8281250000,134615.3125000000,144528.5156250000,,,
0.6399999990,5,146113.0937500000,193517.2187500000,183897.4062500000,150649.5625000000,119683.2421875000,151458.2500000000,134289.9687500000,144248.7187500000,,,
0.6439999989,5,145921.6875000000,195467.1093750000,182504.9218750000,150386.8906250000,119502.5390625000,151279.2656250000,134114.0312500000,144079.8437500000,,,
0.6479999989,5,146156.6250000000,195814.8281250000,183006.8437500000,150721.8750000000,119719.7734375000,151486.2031250000,134319.8437500000,144240.0468750000,,,
0.6519999988,5,146500.4843750000,193996.5312500000,184612.5625000000,151202.4687500000,120042.3906250000,151801.7812500000,134630.2031250000,144513.7187500000,,,
0.6559999988,5,146468.7500000000,192581.1093750000,185255.4531250000,151161.7812500000,120013.4453125000,151777.6250000000,134607.1875000000,144517.9531250000,,,
0.6599999988,5,146099.0625000000,193497.9843750000,183899.5156250000,150639.2031250000,119669.6171875000,151441.9062500000,134274.8906250000,144238.1406250000,,,
0.6639999989,5,145905.6718750000,195525.0937500000,182516.7343750000,150378.5000000000,119484.3828125000,151258.5625000000,134095.3125000000,144065.8125000000,,,
0.6679999989,5,146146.7968750000,195886.5312500000,183008.4375000000,150721.7343750000,119706.6562500000,151473.0312500000,134308.9531250000,144224.3593750000,,,
0.6719999989,5,146494.7187500000,193982.7812500000,184591.2343750000,151204.5625000000,120035.1171875000,151794.1093750000,134626.3125000000,144497.3750000000,,,
0.6759999988,5,146460.7812500000,192490.3125000000,185235.1562500000,151166.2343750000,120006.0156250000,151768.2343750000,134604.7187500000,144502.3750000000,,,
0.6799999988,5,146089.0625000000,193427.7187500000,183901.5000000000,150639.2031250000,119662.1562500000,151432.4687500000,134273.8437500000,144226.9531250000,,,
0.6839999990,5,145891.8125000000,195539.7500000000,182527.7500000000,150369.5625000000,119476.3046875000,151248.3906250000,134090.6406250000,144057.4687500000,,,
0.6879999989,5,146133.0156250000,195945.5312500000,183002.7187500000,150707.0468750000,119700.4296875000,151461.7968750000,134300.0000000000,144219.1250000000,,,
0.6919999989,5,146488.8125000000,193991.2187500000,184567.6250000000,151191.0781250000,120037.1328125000,151791.1406250000,134620.5937500000,144498.6718750000,,,
0.6959999988,5,146470.0156250000,192423.3437500000,185213.6093750000,151162.1250000000,120018.1953125000,151780.9687500000,134609.8750000000,144514.3281250000,,,
0.6999999988,5,146090.8593750000,193378.1562500000,183900.9687500000,150632.5781250000,119660.0390625000,151437.3593750000,134270.4843750000,144230.6406250000,,,
0.7039999987,5,145882.1250000000,195582.2343750000,182537.5937500000,150353.6093750000,119458.5546875000,151239.4843750000,134076.2968750000,144048.8125000000,,,
0.7079999989,5,146127.4843750000,196031.9843750000,183006.3750000000,150693.0468750000,119687.5078125000,151455.5468750000,134292.2656250000,144211.2968750000,,,
0.7119999989,5,146499.9375000000,194025.2343750000,184561.3281250000,151190.8593750000,120042.0390625000,151795.7031250000,134630.2812500000,144499.6250000000,,,
0.7159999989,5,146491.3125000000,192397.3125000000,185215.7031250000,151165.4062500000,120038.2343750000,151788.9843750000,134630.0468750000,144525.5156250000,,,
0.7199999988,5,146114.2343750000,193355.3750000000,183922.6093750000,150630.9218750000,119686.5156250000,151444.5468750000,134294.2812500000,144251.2656250000,,,
0.7239999988,5,145899.1250000000,195625.3281250000,182573.1406250000,150349.6718750000,119480.3046875000,151242.0312500000,134092.9218750000,144070.2656250000,,,
0.7279999990,5,146145.3750000000,196112.9375000000,183040.2187500000,150699.0156250000,119707.4375000000,151466.8593750000,134303.8906250000,144236.1250000000,,,
0.7319999989,5,146511.0781250000,194082.0625000000,184583.1093750000,151192.4375000000,120052.7968750000,151811.0468750000,134634.2031250000,144519.5000000000,,,
0.7359999989,5,146491.1250000000,192395.7968750000,185233.8437500000,151166.0156250000,120033.6406250000,151800.6093750000,134622.7656250000,144534.9531250000,,,
0.7399999988,5,146098.6250000000,193337.5625000000,183940.9531250000,150627.8593750000,119663.5781250000,151442.9062500000,134272.4218750000,144243.2343750000,,,
0.7439999988,5,145886.9218750000,195636.8125000000,182584.7812500000,150347.6562500000,119460.2187500000,151241.4531250000,134076.1093750000,144060.2656250000,,,
0.7479999987,5,146126.7187500000,196161.4062500000,183044.0781250000,150681.1250000000,119685.6562500000,151455.6718750000,134286.7656250000,144216.7656250000,,,
0.7519999989,5,146507.4531250000,194126.7500000000,184590.1875000000,151191.7656250000,120051.3437500000,151807.8437500000,134634.5781250000,144512.2968750000,,,
0.7559999989,5,146503.8281250000,192401.5312500000,185250.1718750000,151182.3593750000,120054.3281250000,151809.0312500000,134640.9375000000,144543.9375000000,,,
0.7599999988,5,146112.7656250000,193320.5937500000,183966.8125000000,150643.6406250000,119687.9609375000,151455.7343750000,134291.6250000000,144258.5000000000,,,
0.7639999988,5,145892.1875000000,195638.5781250000,182607.2500000000,150361.2031250000,119473.6015625000,151248.0156250000,134084.0468750000,144070.0156250000,,,
0.7679999988,6,146127.3593750000,196192.2968750000,183055.2187500000,150699.3125000000,119688.7421875000,151460.6093750000,134289.5000000000,144220.0156250000,,,
0.7719999987,6,146496.3281250000,194158.3281250000,184590.6718750000,151200.0000000000,120038.7109375000,151806.0312500000,134625.6093750000,144502.7500000000,,,
0.7759999987,6,146489.4218750000,192408.4531250000,185251.4531250000,151191.5625000000,120032.0078125000,151803.7656250000,134624.4687500000,144527.5312500000,,,
0.7799999986,6,146108.9531250000,193293.7656250000,183968.5312500000,150662.6718750000,119673.1562500000,151456.1562500000,134285.6250000000,144245.3593750000,,,
0.7839999986,6,145888.1093750000,195609.8906250000,182601.2812500000,150361.9687500000,119462.0156250000,151246.2500000000,134082.0156250000,144057.7656250000,,,
0.7879999985,6,146129.0000000000,196195.4687500000,183049.7656250000,150691.1562500000,119687.1796875000,151457.4375000000,134288.5156250000,144216.7187500000,,,
0.7919999987,6,146507.8750000000,194196.7031250000,184599.2031250000,151193.5625000000,120048.5312500000,151803.0937500000,134629.3125000000,144510.7656250000,,,
0.7959999987,6,146508.8750000000,192441.1718750000,185271.9531250000,151187.2343750000,120054.9687500000,151806.2656250000,134637.9218750000,144544.4218750000,,,
0.7999999986,6,146131.0312500000,193297.7343750000,183992.7031250000,150662.6250000000,119704.3203125000,151464.9218750000,134304.3593750000,144268.2656250000,,,
0.8039999986,6,145909.7968750000,195601.2968750000,182623.0000000000,150371.1718750000,119492.2656250000,151258.3125000000,134100.8906250000,144082.6093750000,,,
0.8079999986,6,146138.0625000000,196208.7343750000,183067.5156250000,150695.9375000000,119699.6015625000,151461.7656250000,134295.8437500000,144229.8593750000,,,
0.8119999988,6,146513.0000000000,194221.1718750000,184607.9218750000,151204.6718750000,120054.0312500000,151811.9218750000,134638.7031250000,144516.6875000000,,,
0.8159999987,6,146510.8906250000,192451.3593750000,185282.4062500000,151205.4843750000,120055.1015625000,151818.7656250000,134651.3125000000,144542.6250000000,,,
0.8199999987,6,146136.9062500000,193283.4687500000,184010.1093750000,150681.9062500000,119705.3671875000,151478.5468750000,134320.8281250000,144266.2187500000,,,
0.8239999986,6,145914.4687500000,195575.7968750000,182627.2968750000,150379.6718750000,119489.9062500000,151267.2500000000,134110.7656250000,144079.5937500000,,,
0.8279999986,6,146148.3593750000,196187.8750000000,183055.7187500000,150699.2968750000,119703.3281250000,151473.0000000000,134303.7500000000,144236.9062500000,,,
0.8319999985,6,146522.7656250000,194224.5000000000,184605.2656250000,151192.2343750000,120056.5781250000,151814.4531250000,134638.1875000000,144527.1718750000,,,
0.8359999987,6,146525.4531250000,192464.7812500000,185296.4375000000,151194.2968750000,120062.8828125000,151821.8750000000,134654.6875000000,144559.9062500000,,,
0.8399999987,6,146146.7031250000,193284.3750000000,184026.5937500000,150667.5625000000,119708.0781250000,151472.7031250000,134317.1406250000,144276.0937500000,,,
0.8439999986,6,145921.1562500000,195560.8750000000,182630.9062500000,150368.8437500000,119489.1796875000,151255.0937500000,134099.7187500000,144082.5156250000,,,
0.8479999986,6,146144.5781250000,196178.2968750000,183045.3437500000,150695.6718750000,119694.2890625000,151457.6093750000,134290.7343750000,144224.8437500000,,,
0.8519999986,6,146508.9062500000,194237.6718750000,184597.1406250000,151201.0468750000,120042.3046875000,151804.0468750000,134623.4687500000,144502.9531250000,,,
0.8559999987,6,146507.9062500000,192471.0781250000,185295.1562500000,151198.6406250000,120049.4453125000,151813.9375000000,134636.7656250000,144529.9218750000,,,
0.8599999987,6,146133.8281250000,193278.1875000000,184037.0312500000,150671.6875000000,119705.5000000000,151476.1875000000,134312.2812500000,144255.3437500000,,,
0.8639999987,6,145910.2656250000,195561.2031250000,182642.3125000000,150372.6250000000,119494.9218750000,151263.3125000000,134111.0312500000,144070.5781250000,,,
0.8679999986,6,146142.2187500000,196193.5781250000,183051.8906250000,150694.2812500000,119712.2109375000,151467.2656250000,134314.5000000000,144225.7187500000,,,
0.8719999986,6,146519.4218750000,194246.8125000000,184601.5000000000,151200.2500000000,120070.6015625000,151814.4218750000,134655.8750000000,144519.9687500000,,,
0.8759999985,6,146525.0156250000,192472.6875000000,185312.4531250000,151208.2343750000,120074.6562500000,151825.6093750000,134665.3906250000,144557.7343750000,,,
0.8799999987,6,146150.7656250000,193270.2187500000,184058.4843750000,150693.8750000000,119719.1796875000,151488.7656250000,134326.8437500000,144285.1093750000,,,
0.8839999987,6,145919.7812500000,195552.6250000000,182647.4062500000,150391.4218750000,119494.0390625000,151273.9062500000,134110.7343750000,144093.5468750000,,,
0.8879999986,6,146132.6718750000,196195.2500000000,183034.2343750000,150680.0000000000,119689.6484375000,151464.0468750000,134293.7968750000,144228.1718750000,,,
0.8919999986,6,146507.0468750000,194243.2500000000,184571.6562500000,151176.5156250000,120045.0703125000,151807.3906250000,134630.0625000000,144511.1093750000,,,
0.8959999986,7,146517.8593750000,192450.7500000000,185292.0937500000,151187.6093750000,120061.4062500000,151819.2968750000,134649.8281250000,144548.5000000000,,,
0.8999999985,7,146141.2812500000,193245.4062500000,184052.4843750000,150667.4843750000,119713.0937500000,151477.4218750000,134317.6406250000,144274.5468750000,,,
0.9039999985,7,145914.8437500000,195556.1093750000,182648.4843750000,150366.5937500000,119498.6250000000,151265.3125000000,134112.7968750000,144089.6875000000,,,
0.9079999984,7,146134.5937500000,196231.0000000000,183037.0781250000,150674.0312500000,119702.4218750000,151458.1406250000,134303.7968750000,144231.0156250000,,,
0.9119999984,7,146514.7500000000,194264.4062500000,184569.4843750000,151182.7812500000,120062.0234375000,151812.0625000000,134649.1875000000,144520.6406250000,,,
0.9159999983,7,146531.7500000000,192449.0312500000,185298.3906250000,151207.2812500000,120077.7968750000,151832.2500000000,134669.4687500000,144564.0000000000,,,
0.9199999985,7,146157.1093750000,193242.7031250000,184070.3281250000,150692.9531250000,119725.5937500000,151489.0625000000,134334.1875000000,144288.9218750000,,,
0.9239999985,7,145916.0468750000,195567.7187500000,182654.3281250000,150375.4687500000,119493.4218750000,151259.4218750000,134113.0937500000,144086.1718750000,,,
0.9279999984,7,146137.8750000000,196258.2187500000,183029.5156250000,150685.2656250000,119695.6328125000,151455.1093750000,134304.5000000000,144228.7812500000,,,
0.9319999984,7,146525.5000000000,194281.2500000000,184559.6562500000,151198.7187500000,120058.9375000000,151814.4531250000,134651.8750000000,144525.0000000000,,,
0.9359999984,7,146543.1875000000,192424.3593750000,185291.7968750000,151224.5156250000,120075.0859375000,151836.0937500000,134671.5312500000,144570.5000000000,,,
0.9399999985,7,146170.0312500000,193219.5000000000,184079.5156250000,150705.8125000000,119726.3671875000,151497.7343750000,134340.3281250000,144301.9843750000,,,
0.9439999985,7,145923.8281250000,195582.9843750000,182663.9375000000,150380.1562500000,119496.0468750000,151267.4843750000,134115.5937500000,144098.7187500000,,,
0.9479999985,7,146132.5312500000,196299.9843750000,183031.4687500000,150676.8125000000,119693.8046875000,151453.3125000000,134296.5625000000,144230.5781250000,,,
0.9519999984,7,146519.6875000000,194298.3437500000,184551.7187500000,151193.8906250000,120063.4453125000,151812.2812500000,134645.5468750000,144525.1093750000,,,
0.9559999984,7,146539.7968750000,192393.1562500000,185282.2812500000,151221.8437500000,120084.1796875000,151833.4687500000,134669.0468750000,144569.5781250000,,,
0.9599999983,7,146158.8125000000,193167.3750000000,184077.9687500000,150692.9843750000,119726.7968750000,151488.9531250000,134332.4531250000,144293.5781250000,,,
0.9639999985,7,145903.3906250000,195567.2343750000,182664.7031250000,150356.9531250000,119482.8515625000,151251.0000000000,134100.0937500000,144081.3906250000,,,
0.9679999985,7,146119.3437500000,196319.2968750000,183023.5937500000,150658.0312500000,119683.1875000000,151441.3437500000,134289.6718750000,144215.5000000000,,,
0.9719999984,7,146508.0156250000,194304.3750000000,184535.2812500000,151180.2031250000,120053.4921875000,151801.2500000000,134645.2500000000,144506.9218750000,,,
0.9759999984,7,146530.2031250000,192362.0781250000,185273.6718750000,151213.7343750000,120075.7031250000,151829.1718750000,134674.8906250000,144552.3125000000,,,
0.9799999984,7,146142.2968750000,193130.6875000000,184078.2343750000,150695.0000000000,119710.8671875000,151481.1875000000,134331.2343750000,144270.3906250000,,,
0.9839999985,7,145891.8906250000,195569.8906250000,182667.4218750000,150368.7812500000,119471.7734375000,151250.2968750000,134103.3281250000,144068.7656250000,,,
0.9879999985,7,146108.3750000000,196357.7343750000,183017.3906250000,150666.4531250000,119670.5546875000,151440.9218750000,134287.0625000000,144208.8281250000,,,
0.9919999985,7,146508.7343750000,194328.9687500000,184522.4062500000,151187.0000000000,120050.0078125000,151809.4531250000,134641.6250000000,144513.6875000000,,,
0.9959999984,7,146533.9062500000,192359.3125000000,185269.0312500000,151211.2500000000,120074.2031250000,151832.1718750000,134664.4062500000,144563.0937500000,,,
0.9999999984,7,146153.9062500000,193126.1250000000,184092.6093750000,150690.4687500000,119717.4921875000,151484.0781250000,134325.0156250000,144290.0156250000,,,
1.0039999983,7,145898.1875000000,195601.9218750000,182690.0781250000,150364.3437500000,119473.0390625000,151243.3281250000,134090.7500000000,144080.9062500000,,,
1.0079999985,7,146109.8437500000,196421.2500000000,183031.7656250000,150666.0000000000,119671.2500000000,151431.5312500000,134274.3593750000,144210.5937500000,,,
1.0119999985,7,146509.7656250000,194368.3437500000,184526.1875000000,151192.8906250000,120054.5156250000,151804.9531250000,134639.3281250000,144509.4218750000,,,
1.0159999984,7,146536.5781250000,192338.1718750000,185268.8125000000,151231.3906250000,120083.3984375000,151836.4062500000,134675.3750000000,144557.6718750000,,,
1.0199999984,7,146141.8125000000,193083.8593750000,184094.5468750000,150707.0625000000,119710.3828125000,151477.0312500000,134326.0625000000,144270.8906250000,,,
1.0239999983,8,145884.5156250000,195588.4531250000,182689.2031250000,150373.3281250000,119461.8203125000,151233.1250000000,134088.6875000000,144062.7343750000,,,
1.0279999983,8,146096.5625000000,196438.4218750000,183023.5156250000,150661.0156250000,119658.9140625000,151421.0000000000,134268.0468750000,144198.2343750000,,,
1.0319999983,8,146497.2656250000,194379.0156250000,184510.1718750000,151183.1875000000,120039.5468750000,151792.1093750000,134624.3281250000,144499.9218750000,,,
1.0359999982,8,146532.2968750000,192309.1093750000,185259.8281250000,151220.3593750000,120072.1875000000,151832.1718750000,134658.7968750000,144559.3125000000,,,
1.0399999982,8,146143.5625000000,193045.3437500000,184094.5937500000,150694.8593750000,119704.0000000000,151482.7968750000,134313.7031250000,144285.9375000000,,,
1.0439999981,8,145881.3125000000,195599.4687500000,182691.4843750000,150354.9687500000,119454.1015625000,151237.7500000000,134078.9843750000,144078.0625000000,,,
1.0479999983,8,146097.9062500000,196497.4843750000,183028.5781250000,150649.7031250000,119659.5546875000,151429.4687500000,134270.7656250000,144213.7031250000,,,
1.0519999983,8,146507.0781250000,194412.1093750000,184505.9062500000,151178.2812500000,120050.9140625000,151805.8437500000,134639.9062500000,144511.2968750000,,,
1.0559999982,8,146548.0625000000,192288.5781250000,185254.5468750000,151221.9687500000,120092.6015625000,151849.6875000000,134685.2343750000,144568.7500000000,,,
1.0599999982,8,146154.8281250000,193020.7187500000,184107.1250000000,150692.1093750000,119723.5546875000,151492.2812500000,134338.4062500000,144288.1093750000,,,
1.0639999982,8,145890.7656250000,195611.2187500000,182711.0781250000,150351.5468750000,119470.6484375000,151240.0312500000,134094.1406250000,144077.8281250000,,,
1.0679999983,8,146109.6875000000,196526.0937500000,183034.4218750000,150648.7343750000,119674.4687500000,151433.3281250000,134280.6093750000,144216.7343750000,,,
1.0719999983,8,146517.5937500000,194426.0156250000,184501.9218750000,151176.5312500000,120062.6406250000,151814.2343750000,134646.1093750000,144521.9687500000,,,
1.0759999983,8,146558.9843750000,192270.0468750000,185259.4843750000,151230.0000000000,120100.1875000000,151855.6406250000,134687.0312500000,144582.9218750000,,,
1.0799999982,8,146168.6562500000,192994.1093750000,184127.3125000000,150713.0312500000,119726.8281250000,151497.8125000000,134337.2500000000,144303.6093750000,,,
1.0839999982,8,145891.3437500000,195612.9375000000,182729.3437500000,150359.8593750000,119457.1015625000,151239.0781250000,134082.7656250000,144079.0625000000,,,
1.0879999981,8,146103.2500000000,196554.3437500000,183037.9062500000,150647.3125000000,119654.5390625000,151430.9375000000,134270.4375000000,144210.6718750000,,,
1.0919999983,8,146512.4218750000,194448.0625000000,184498.9687500000,151182.3906250000,120045.9843750000,151812.0625000000,134642.5937500000,144512.3125000000,,,
1.0959999983,8,146549.1093750000,192265.8125000000,185258.0625000000,151233.9375000000,120083.8281250000,151852.3750000000,134683.3281250000,144566.5000000000,,,
1.0999999982,8,146155.6250000000,192970.0781250000,184128.2812500000,150707.7968750000,119715.0546875000,151496.3593750000,134336.1250000000,144284.7812500000,,,
1.1039999982,8,145888.6406250000,195600.6093750000,182731.5000000000,150359.7500000000,119460.7500000000,151246.4687500000,134093.2500000000,144069.2500000000,,,
1.1079999981,8,146098.5312500000,196555.3281250000,183030.9843750000,150648.2500000000,119658.8593750000,151432.2031250000,134274.6406250000,144197.4218750000,,,
1.1119999983,8,146505.6250000000,194454.3125000000,184489.1718750000,151181.2500000000,120051.3437500000,151811.1718750000,134644.0468750000,144498.7500000000,,,
1.1159999983,8,146554.5468750000,192267.6562500000,185260.5312500000,151246.4062500000,120102.0156250000,151861.1718750000,134697.1562500000,144568.2187500000,,,
1.1199999982,8,146169.0156250000,192963.9062500000,184149.1718750000,150728.3593750000,119740.5312500000,151516.5312500000,134357.5781250000,144301.8750000000,,,
1.1239999982,8,145890.7656250000,195589.6875000000,182746.6718750000,150361.2500000000,119472.0156250000,151260.4062500000,134105.4531250000,144085.1718750000,,,
1.1279999982,8,146096.0781250000,196562.2500000000,183036.5937500000,150640.7968750000,119660.4453125000,151441.8593750000,134284.4062500000,144211.1406250000,,,
1.1319999981,8,146510.4062500000,194474.4531250000,184491.5625000000,151176.8281250000,120054.2968750000,151824.2031250000,134657.8281250000,144514.0625000000,,,
1.1359999983,8,146564.8593750000,192275.7656250000,185269.2968750000,151244.9531250000,120105.6875000000,151871.2031250000,134707.5000000000,144582.3281250000,,,
1.1399999983,8,146189.0156250000,192953.7968750000,184165.0000000000,150736.6250000000,119747.8515625000,151522.0781250000,134366.5156250000,144316.2031250000,33029,1.1429320932,0.0000000000
1.1439999982,8,145918.8437500000,195572.3125000000,182757.4531250000,150378.2812500000,119486.5000000000,151263.0156250000,134118.4062500000,144100.2812500000,,,
1.1479999982,8,146125.1093750000,196555.5468750000,183035.2812500000,150662.2031250000,119678.6796875000,151445.5625000000,134295.7031250000,144228.8437500000,,,
1.1519999981,9,146532.0468750000,194487.9218750000,184487.4375000000,151193.8437500000,120068.8906250000,151827.9375000000,134659.7031250000,144531.0937500000,,,
1.1559999981,9,146581.0312500000,192293.9218750000,185275.0312500000,151260.1875000000,120118.0781250000,151886.9531250000,134709.5937500000,144601.0156250000,,,
1.1599999981,9,146190.5781250000,192953.8750000000,184173.9375000000,150741.4843750000,119753.9453125000,151536.5156250000,134367.6406250000,144328.2343750000,,,
1.1639999980,9,145907.8437500000,195555.5625000000,182755.3906250000,150371.0625000000,119488.8906250000,151270.2031250000,134119.0312500000,144104.4062500000,,,
1.1679999980,9,146108.2343750000,196548.8906250000,183023.0468750000,150643.4531250000,119679.3515625000,151449.3906250000,134299.1875000000,144226.5000000000,,,
1.1719999979,9,146516.3125000000,194499.9062500000,184475.4375000000,151178.7968750000,120069.7968750000,151828.8281250000,134670.4062500000,144527.0468750000,,,
1.1759999981,9,146567.9843750000,192301.4375000000,185269.2656250000,151247.7500000000,120117.1406250000,151882.5468750000,134719.6718750000,144595.2031250000,,,
1.1799999981,9,146179.6406250000,192947.9218750000,184178.2187500000,150732.5000000000,119744.9062500000,151530.2968750000,134371.2656250000,144319.4218750000,,,
1.1839999980,9,145893.7968750000,195546.9375000000,182752.3437500000,150367.2812500000,119465.7421875000,151260.4062500000,134103.1250000000,144087.9062500000,,,
1.1879999980,9,146087.8437500000,196552.8593750000,183002.6718750000,150639.8281250000,119643.6484375000,151432.6093750000,134261.5312500000,144202.2500000000,,,
1.1919999979,9,146493.5312500000,194509.9687500000,184445.3750000000,151173.8593750000,120032.0312500000,151811.4375000000,134625.0312500000,144499.8437500000,,,
1.1959999981,9,146549.0468750000,192300.0625000000,185245.2968750000,151242.2968750000,120089.8671875000,151868.5156250000,134683.5468750000,144571.2187500000,,,
1.1999999981,9,146177.2187500000,192926.9687500000,184170.7187500000,150738.5000000000,119742.5703125000,151527.5000000000,134355.5937500000,144310.6406250000,,,
1.2039999980,9,145902.2343750000,195522.9843750000,182748.2656250000,150383.9218750000,119482.4531250000,151268.0000000000,134108.1562500000,144093.5937500000,,,
1.2079999980,9,146097.6875000000,196539.9062500000,182997.1093750000,150655.2968750000,119667.6562500000,151442.5312500000,134282.2968750000,144212.7500000000,,,
1.2119999980,9,146505.5781250000,194518.9531250000,184455.9687500000,151189.0156250000,120058.8828125000,151821.3125000000,134655.9531250000,144514.9687500000,,,
1.2159999979,9,146567.5625000000,192310.7343750000,185280.9843750000,151267.8906250000,120120.2265625000,151882.2500000000,134722.2343750000,144593.7812500000,,,
1.2199999981,9,146182.9531250000,192931.0468750000,184211.2656250000,150747.8593750000,119757.8593750000,151530.4062500000,134382.3593750000,144322.6875000000,,,
1.2239999981,9,145899.7187500000,195530.7812500000,182774.4062500000,150374.2656250000,119484.8906250000,151265.7968750000,134121.6562500000,144097.6562500000,,,
1.2279999980,9,146102.0312500000,196575.1250000000,183009.3750000000,150644.5468750000,119669.7500000000,151447.1406250000,134292.5625000000,144221.9375000000,,,
1.2319999980,9,146513.9218750000,194554.0000000000,184454.9218750000,151175.5937500000,120061.6171875000,151829.9531250000,134661.9062500000,144525.9687500000,,,
1.2359999979,9,146578.7500000000,192312.2343750000,185271.0312500000,151256.3593750000,120122.3984375000,151892.5468750000,134723.1093750000,144604.5937500000,,,
1.2399999981,9,146204.7656250000,192905.7343750000,184209.4687500000,150751.9375000000,119769.6328125000,151550.4375000000,134387.1718750000,144342.5156250000,,,
1.2439999981,9,145923.0312500000,195511.8281250000,182774.8593750000,150390.2656250000,119500.0156250000,151284.3281250000,134127.4687500000,144118.8593750000,,,
1.2479999980,9,146121.4375000000,196577.7656250000,183006.8281250000,150662.1406250000,119684.6328125000,151455.5156250000,134296.5625000000,144237.5781250000,,,
1.2519999980,9,146523.4062500000,194566.2812500000,184452.7812500000,151182.4375000000,120068.7265625000,151827.7968750000,134658.1250000000,144529.9218750000,,,
1.2559999980,9,146581.5625000000,192316.3750000000,185275.8437500000,151257.7031250000,120126.2343750000,151884.9062500000,134716.8906250000,144600.5625000000,,,
1.2599999979,9,146201.1406250000,192893.1875000000,184214.9218750000,150749.1250000000,119765.3437500000,151536.2812500000,134377.9062500000,144329.5781250000,,,
1.2639999981,9,145907.4218750000,195494.5156250000,182764.5625000000,150372.2812500000,119482.8828125000,151259.8125000000,134112.2187500000,144094.4062500000,,,
1.2679999981,9,146090.9843750000,196579.7500000000,182984.4218750000,150634.0000000000,119653.4687500000,151424.3750000000,134269.7343750000,144203.6250000000,,,
1.2719999980,9,146497.0781250000,194572.7187500000,184425.1562500000,151171.6562500000,120040.5625000000,151808.7656250000,134637.8750000000,144503.0625000000,,,
1.2759999980,9,146561.0781250000,192302.9062500000,185252.0468750000,151259.9531250000,120102.9765625000,151881.2031250000,134707.4218750000,144581.2500000000,,,
1.2799999979,10,146172.9531250000,192861.5312500000,184193.8125000000,150747.3593750000,119735.8125000000,151534.9843750000,134367.6718750000,144308.7656250000,,,
1.2839999979,10,145868.4687500000,195474.1875000000,182737.3906250000,150358.7812500000,119442.5937500000,151256.5156250000,134092.1250000000,144066.5156250000,,,
1.2879999978,10,146057.1406250000,196587.2031250000,182946.0781250000,150615.2812500000,119615.9140625000,151426.8593750000,134254.1250000000,144181.0468750000,,,
1.2919999978,10,146477.8750000000,194591.6406250000,184385.6093750000,151155.1093750000,120018.0859375000,151817.0468750000,134635.3281250000,144495.6875000000,,,
1.2959999978,10,146544.0625000000,192305.0000000000,185227.4218750000,151240.5000000000,120084.3359375000,151880.9843750000,134701.2187500000,144578.1875000000,,,
1.2999999977,10,146162.2500000000,192853.9062500000,184189.2812500000,150731.6875000000,119727.5234375000,151529.8125000000,134361.2812500000,144309.6562500000,,,
1.3039999979,10,145869.6250000000,195478.4531250000,182736.2187500000,150347.8125000000,119450.9843750000,151248.6875000000,134095.2031250000,144073.2343750000,,,
1.3079999979,10,146059.5312500000,196615.7656250000,182942.9375000000,150603.0468750000,119631.3671875000,151410.7812500000,134260.6250000000,144183.7187500000,,,
1.3119999978,10,146477.4687500000,194610.4062500000,184379.8281250000,151145.3437500000,120033.2421875000,151793.8125000000,134638.8906250000,144487.0312500000,,,
1.3159999978,10,146555.8750000000,192282.1406250000,185229.6562500000,151246.1875000000,120109.8203125000,151866.6718750000,134716.9375000000,144572.1875000000,,,
1.3199999977,10,146185.0781250000,192807.8125000000,184211.4062500000,150747.7812500000,119757.5937500000,151523.7812500000,134384.4843750000,144309.1875000000,,,
1.3239999979,10,145895.4218750000,195460.5156250000,182768.7812500000,150360.1250000000,119479.2890625000,151249.3281250000,134118.3281250000,144078.2500000000,,,
1.3279999979,10,146087.3437500000,196635.7968750000,182968.0625000000,150612.3125000000,119656.6875000000,151415.3281250000,134283.1718750000,144196.1875000000,,,
1.3319999978,10,146507.1250000000,194631.0625000000,184395.2187500000,151158.8281250000,120056.7109375000,151804.0937500000,134660.2656250000,144506.6875000000,,,
1.3359999978,10,146584.3750000000,192280.2187500000,185250.6250000000,151257.4531250000,120132.5078125000,151885.5000000000,134738.6718750000,144599.1406250000,,,
1.3399999978,10,146197.9218750000,192791.9218750000,184232.2656250000,150742.5312500000,119767.2500000000,151536.7500000000,134396.8281250000,144331.5312500000,,,
1.3439999977,10,145891.2968750000,195467.8125000000,182778.4375000000,150354.0156250000,119473.2734375000,151249.9531250000,134117.0156250000,144089.2812500000,,,
1.3479999979,10,146063.9531250000,196685.7656250000,182965.9687500000,150605.3281250000,119633.6718750000,151400.5468750000,134262.3437500000,144187.2812500000,,,
1.3519999979,10,146486.3437500000,194676.3125000000,184383.8125000000,151155.2187500000,120042.2812500000,151790.9531250000,134642.6250000000,144494.3437500000,,,
1.3559999978,10,146572.3906250000,192276.7343750000,185243.0312500000,151258.2656250000,120130.9531250000,151871.5312500000,134731.4843750000,144587.4218750000,,,
1.3599999978,10,146192.7187500000,192763.5781250000,184239.8125000000,150747.8125000000,119773.4687500000,151527.6406250000,134396.2812500000,144324.0468750000,,,
1.3639999977,10,145883.9687500000,195462.0625000000,182788.0625000000,150351.3593750000,119476.1484375000,151252.4687500000,134113.6875000000,144084.2968750000,,,
1.3679999979,10,146057.3750000000,196698.2968750000,182966.1093750000,150596.6093750000,119635.1484375000,151411.8437500000,134259.0156250000,144185.6250000000,,,
1.3719999979,10,146483.3125000000,194687.9218750000,184382.8750000000,151147.0312500000,120040.5625000000,151803.3437500000,134638.8125000000,144492.7187500000,,,
1.3759999978,10,146567.5937500000,192264.5000000000,185240.5937500000,151254.0468750000,120119.9296875000,151884.8593750000,134720.0312500000,144583.6718750000,,,
1.3799999978,10,146189.2968750000,192739.3281250000,184243.2187500000,150751.3281250000,119757.3203125000,151539.1718750000,134381.9375000000,144320.0000000000,,,
1.3839999977,10,145874.8750000000,195474.0000000000,182793.8281250000,150346.0781250000,119450.8281250000,151242.0625000000,134092.7968750000,144072.9531250000,,,
1.3879999977,10,146045.6562500000,196748.9687500000,182959.2656250000,150580.0625000000,119605.0312500000,151391.2187500000,134235.2656250000,144169.6718750000,,,
1.3919999979,10,146476.5781250000,194707.1562500000,184354.5781250000,151127.9062500000,120013.7187500000,151789.1250000000,134617.2187500000,144482.9531250000,,,
1.3959999979,10,146569.9218750000,192231.2187500000,185214.6875000000,151244.2812500000,120104.2656250000,151880.1562500000,134705.1718750000,144582.8281250000,,,
1.3999999978,10,146190.0468750000,192690.6718750000,184237.7187500000,150749.1875000000,119747.3203125000,151534.6875000000,134368.4375000000,144319.3906250000,,,
1.4039999978,10,145869.4843750000,195464.8593750000,182803.3750000000,150344.4843750000,119443.7187500000,151231.7031250000,134076.7812500000,144066.2187500000,,,
1.4079999977,11,146048.7187500000,196789.7031250000,182978.0156250000,150591.5156250000,119613.7421875000,151386.8281250000,134230.9531250000,144171.1093750000,,,
1.4119999977,11,146480.8750000000,194749.9687500000,184375.4218750000,151146.8125000000,120030.4218750000,151789.9375000000,134623.2031250000,144483.2187500000,,,
1.4159999976,11,146567.9062500000,192217.0000000000,185233.2656250000,151259.6875000000,120114.7265625000,151876.1562500000,134706.5312500000,144576.1562500000,,,
1.4199999976,11,146185.3750000000,192655.6718750000,184259.8750000000,150759.7187500000,119748.9531250000,151519.1093750000,134360.8750000000,144308.0468750000,,,
1.4239999976,11,145865.9531250000,195472.2656250000,182829.5781250000,150343.7656250000,119442.6718750000,151216.0156250000,134070.3906250000,144057.2812500000,,,
1.4279999975,11,146038.5468750000,196828.6718750000,182990.5156250000,150576.1718750000,119605.1093750000,151370.5156250000,134220.8437500000,144156.3906250000,,,
1.4319999977,11,146468.5000000000,194769.5468750000,184370.3281250000,151124.5625000000,120017.4140625000,151775.6093750000,134610.3281250000,144466.2968750000,,,
1.4359999977,11,146561.0937500000,192194.8906250000,185228.3593750000,151248.2031250000,120107.6718750000,151874.1250000000,134703.6093750000,144566.5468750000,,,
1.4399999976,11,146176.0937500000,192605.9375000000,184259.9218750000,150754.4687500000,119742.3828125000,151528.7656250000,134364.9062500000,144302.8906250000,,,
1.4439999976,11,145852.6250000000,195445.1093750000,182824.8593750000,150348.1875000000,119430.3046875000,151227.0156250000,134071.2812500000,144054.7656250000,,,
1.4479999975,11,146026.7968750000,196837.9375000000,182976.5937500000,150585.3437500000,119590.7812500000,151380.1093750000,134218.1406250000,144156.9843750000,,,
1.4519999977,11,146464.5937500000,194773.2968750000,184349.0312500000,151129.3281250000,120011.6484375000,151788.9375000000,134612.6093750000,144470.0937500000,,,
1.4559999977,11,146562.5781250000,192152.2187500000,185210.7500000000,151242.5781250000,120109.3593750000,151885.1562500000,134709.0625000000,144571.3750000000,,,
1.4599999976,11,146182.9531250000,192548.6562500000,184263.3906250000,150740.5156250000,119750.7500000000,151537.9375000000,134373.2187500000,144312.3906250000,,,
1.4639999976,11,145860.5625000000,195424.4843750000,182837.7343750000,150330.3593750000,119439.5625000000,151232.3281250000,134077.8750000000,144062.8125000000,,,
1.4679999975,11,146038.0625000000,196857.4531250000,182984.1406250000,150576.4218750000,119603.2812500000,151384.3593750000,134228.5156250000,144165.5156250000,,,
1.4719999975,11,146480.9218750000,194794.5937500000,184355.2031250000,151140.8593750000,120025.3593750000,151796.8437500000,134624.1875000000,144482.6250000000,,,
1.4759999977,11,146589.0156250000,192135.8281250000,185223.5312500000,151272.6718750000,120126.8750000000,151899.5781250000,134725.0468750000,144589.9218750000,,,
1.4799999977,11,146212.9531250000,192503.0000000000,184282.4843750000,150774.0468750000,119765.1015625000,151552.7656250000,134386.7968750000,144331.8593750000,,,
1.4839999976,11,145874.4531250000,195402.6093750000,182855.5000000000,150351.2812500000,119436.4765625000,151234.6562500000,134075.5156250000,144070.5625000000,,,
1.4879999976,11,146033.7187500000,196882.9687500000,182993.3125000000,150577.2968750000,119586.5234375000,151377.8437500000,134212.7187500000,144161.2500000000,,,
1.4919999975,11,146475.9687500000,194831.3437500000,184356.3750000000,151135.6875000000,120014.4140625000,151791.5937500000,134612.8437500000,144479.5937500000,,,
1.4959999977,11,146589.8281250000,192142.0312500000,185226.1093750000,151278.6406250000,120127.4687500000,151904.2656250000,134722.8750000000,144593.1093750000,,,
1.4999999977,11,146201.3593750000,192492.2187500000,184292.4375000000,150775.2031250000,119759.2031250000,151549.6875000000,134377.7187500000,144323.9687500000,,,
1.5039999976,11,145853.1093750000,195390.9062500000,182862.0625000000,150342.8281250000,119425.5859375000,151221.6718750000,134061.7343750000,144052.3125000000,,,
1.5079999976,11,146009.6406250000,196887.7968750000,182991.6718750000,150566.9218750000,119574.8515625000,151361.9375000000,134197.4062500000,144138.8281250000,,,
1.5119999975,11,146455.0937500000,194843.1250000000,184351.2343750000,151131.1562500000,120005.9609375000,151781.9062500000,134604.0781250000,144459.9687500000,,,
1.5159999975,11,146563.1875000000,192136.2656250000,185225.4375000000,151267.1093750000,120111.1875000000,151893.6562500000,134712.6562500000,144570.6875000000,,,
1.5199999977,11,146176.6093750000,192470.8906250000,184305.0468750000,150764.6093750000,119742.9765625000,151544.5937500000,134372.7656250000,144304.5781250000,,,
1.5239999976,11,145837.1093750000,195375.5937500000,182871.0468750000,150334.1406250000,119414.8828125000,151223.4531250000,134063.1562500000,144041.1406250000,,,
1.5279999976,11,146007.5625000000,196896.6718750000,182989.2031250000,150558.1562500000,119572.1953125000,151369.8906250000,134207.2500000000,144138.9843750000,,,
1.5319999976,11,146456.4375000000,194865.3593750000,184344.4687500000,151118.3125000000,120000.8125000000,151786.4687500000,134609.3281250000,144460.4687500000,,,
1.5359999975,12,146574.9062500000,192135.1875000000,185218.1250000000,151265.7187500000,120112.6328125000,151899.6093750000,134721.0781250000,144574.5937500000,,,
1.5399999975,12,146199.6406250000,192434.0937500000,184296.4531250000,150772.3281250000,119754.2421875000,151556.3906250000,134384.9062500000,144318.4218750000,,,
1.5439999974,12,145853.7500000000,195347.8593750000,182860.3281250000,150336.6250000000,119419.2812500000,151230.5000000000,134066.3125000000,144053.3593750000,,,
1.5479999974,12,146017.1718750000,196899.7500000000,182976.0625000000,150561.5625000000,119571.5000000000,151371.9687500000,134202.3125000000,144144.9843750000,,,
1.5519999973,12,146474.3593750000,194877.0156250000,184333.7187500000,151132.5156250000,120014.4140625000,151799.1250000000,134616.4687500000,144472.5937500000,,,
1.5559999973,12,146592.3437500000,192120.4375000000,185219.8906250000,151275.8906250000,120132.5625000000,151912.5312500000,134729.6093750000,144589.4375000000,,,
1.5599999975,12,146200.8281250000,192416.8750000000,184322.0781250000,150769.9687500000,119761.7500000000,151555.9062500000,134382.3906250000,144322.7968750000,,,
1.5639999975,12,145855.5937500000,195355.4687500000,182894.1250000000,150343.2343750000,119432.1328125000,151234.3593750000,134071.6875000000,144060.3437500000,,,
1.5679999974,12,146016.0468750000,196943.8750000000,183002.1250000000,150566.0156250000,119582.3906250000,151373.2031250000,134209.9062500000,144146.9687500000,,,
1.5719999974,12,146468.4531250000,194912.7812500000,184344.0625000000,151134.5625000000,120016.0468750000,151793.0156250000,134616.5781250000,144465.0781250000,,,
1.5759999973,12,146593.1718750000,192113.1875000000,185225.8125000000,151286.8281250000,120137.6093750000,151915.5625000000,134736.2031250000,144584.0625000000,,,
1.5799999975,12,146216.0312500000,192376.6718750000,184335.1093750000,150796.2812500000,119781.2734375000,151569.7812500000,134403.3906250000,144331.1875000000,,,
1.5839999975,12,145865.0312500000,195327.2812500000,182904.5468750000,150348.5156250000,119443.9375000000,151238.8906250000,134083.1406250000,144066.9062500000,,,
1.5879999974,12,146016.0937500000,196948.6875000000,183003.1250000000,150551.1718750000,119583.0859375000,151371.8750000000,134210.7031250000,144152.0937500000,,,
1.5919999974,12,146479.6875000000,194935.3125000000,184349.9687500000,151127.4218750000,120028.7109375000,151806.2187500000,134631.0625000000,144487.0781250000,,,
1.5959999973,12,146610.6406250000,192123.6250000000,185242.1250000000,151287.8281250000,120155.4140625000,151933.9375000000,134757.1250000000,144614.4375000000,,,
1.5999999973,12,146230.2187500000,192373.9062500000,184356.7343750000,150800.8593750000,119794.4218750000,151584.5312500000,134419.2500000000,144357.9843750000,,,
1.6039999975,12,145871.1875000000,195341.2656250000,182920.9687500000,150356.7656250000,119451.2031250000,151248.3437500000,134094.7187500000,144082.6562500000,,,
1.6079999974,12,146015.8281250000,196989.0156250000,183002.7812500000,150558.2812500000,119587.1093750000,151375.1875000000,134219.6093750000,144157.6718750000,,,
1.6119999974,12,146467.5156250000,194973.3906250000,184331.5937500000,151127.1250000000,120021.7343750000,151798.6250000000,134626.3125000000,144478.8437500000,,,
1.6159999974,12,146597.1718750000,192126.2812500000,185222.0312500000,151295.8906250000,120147.5078125000,151927.8437500000,134749.3125000000,144602.3125000000,,,
1.6199999973,12,146215.0312500000,192326.3750000000,184335.8281250000,150804.0625000000,119782.7500000000,151578.3281250000,134408.6250000000,144340.4375000000,,,
1.6239999975,12,145862.1875000000,195243.5937500000,182878.9687500000,150357.3125000000,119440.6875000000,151245.6562500000,134083.6718750000,144068.6875000000,,,
1.6279999975,12,146007.2187500000,196889.4375000000,182952.3281250000,150559.3125000000,119574.6640625000,151372.0625000000,134203.7031250000,144148.1250000000,,,
1.6319999974,12,146462.3593750000,194947.9375000000,184309.0625000000,151127.6875000000,120011.6796875000,151793.0937500000,134611.6718750000,144473.4062500000,,,
1.6359999974,12,146609.4062500000,192141.0312500000,185230.0468750000,151301.1718750000,120153.9687500000,151930.4843750000,134751.5468750000,144605.7656250000,,,
1.6399999973,12,146239.1718750000,192329.1875000000,184357.9843750000,150811.2656250000,119800.1875000000,151587.3125000000,134423.2187500000,144349.7968750000,,,
1.6439999973,12,145879.9218750000,195264.2031250000,182904.9843750000,150354.3593750000,119452.8906250000,151245.0468750000,134096.5468750000,144070.2968750000,,,
1.6479999975,12,146026.6718750000,196935.2187500000,182969.9375000000,150556.6562500000,119589.3359375000,151371.1093750000,134223.1718750000,144151.8906250000,,,
1.6519999974,12,146481.2187500000,194994.4218750000,184322.0000000000,151130.3281250000,120027.0156250000,151793.7968750000,134633.0781250000,144479.8437500000,,,
1.6559999974,12,146623.4843750000,192148.9531250000,185240.8906250000,151304.8750000000,120165.2890625000,151930.3437500000,134768.4375000000,144614.8906250000,,,
1.6599999974,12,146252.4218750000,192312.4843750000,184378.6718750000,150819.0468750000,119814.2656250000,151592.5156250000,134439.3125000000,144368.6562500000,,,
1.6639999973,13,145890.8906250000,195264.7343750000,182929.4218750000,150363.7187500000,119467.4062500000,151254.1875000000,134109.3906250000,144094.7187500000,,,
1.6679999973,13,146031.3125000000,196967.2656250000,182985.6562500000,150553.7343750000,119601.2968750000,151379.9062500000,134232.7500000000,144171.4062500000,,,
1.6719999972,13,146489.2656250000,195027.6875000000,184334.8593750000,151135.1562500000,120046.1171875000,151811.2812500000,134650.5312500000,144501.0468750000,,,
1.6759999972,13,146628.9062500000,192161.3593750000,185262.5937500000,151314.6093750000,120184.5468750000,151949.0156250000,134783.6250000000,144629.5312500000,,,
1.6799999971,13,146250.5000000000,192308.9375000000,184405.9218750000,150828.3125000000,119825.6953125000,151602.6562500000,134446.8437500000,144370.4062500000,,,
1.6839999971,13,145887.3281250000,195264.4375000000,182948.4843750000,150367.9375000000,119472.2578125000,151259.4687500000,134112.4218750000,144089.2031250000,,,
1.6879999973,13,146030.9531250000,196986.0781250000,182997.9531250000,150562.4375000000,119602.2109375000,151379.5468750000,134230.2031250000,144162.4531250000,,,
1.6919999972,13,146486.2031250000,195050.2343750000,184333.7343750000,151131.3750000000,120037.8046875000,151800.5000000000,134640.5000000000,144484.7968750000,,,
1.6959999972,13,146635.8437500000,192161.8281250000,185258.4843750000,151315.6093750000,120179.1250000000,151945.3125000000,134780.2656250000,144622.2656250000,,,
1.6999999972,13,146265.8125000000,192284.6718750000,184412.7343750000,150836.0000000000,119823.0937500000,151605.3125000000,134447.3281250000,144371.2656250000,,,
1.7039999971,13,145891.5156250000,195242.9531250000,182950.9531250000,150365.6562500000,119461.3437500000,151255.4531250000,134105.0312500000,144086.3906250000,,,
1.7079999973,13,146021.8125000000,196986.3593750000,182983.6562500000,150550.7500000000,119582.8984375000,151372.6093750000,134216.7968750000,144155.3437500000,,,
1.7119999973,13,146477.4687500000,195033.6875000000,184310.7812500000,151127.2656250000,120024.3125000000,151801.3593750000,134630.3906250000,144481.9843750000,,,
1.7159999972,13,146629.2500000000,192114.8281250000,185241.7812500000,151324.0312500000,120175.9609375000,151953.8125000000,134778.6875000000,144621.8125000000,,,
1.7199999972,13,146248.0000000000,192215.3125000000,184403.1250000000,150833.3281250000,119815.7421875000,151607.6718750000,134442.8281250000,144364.4531250000,,,
1.7239999971,13,145869.0937500000,195187.1718750000,182939.8281250000,150354.9218750000,119451.4687500000,151253.7031250000,134098.8281250000,144076.4531250000,,,
1.7279999971,13,146007.2187500000,196967.7031250000,182968.9531250000,150544.1250000000,119578.9062500000,151375.4687500000,134213.7656250000,144152.0156250000,,,
1.7319999973,13,146468.9687500000,195070.5937500000,184301.6562500000,151122.8125000000,120020.2578125000,151807.8750000000,134627.8437500000,144482.1093750000,,,
1.7359999972,13,146622.4687500000,192149.4062500000,185240.1875000000,151312.2812500000,120166.5234375000,151959.3125000000,134774.0156250000,144621.5312500000,,,
1.7399999972,13,146245.4843750000,192225.2500000000,184410.1562500000,150827.8281250000,119807.7187500000,151618.0000000000,134443.0625000000,144365.8437500000,,,
1.7439999972,13,145869.1093750000,195179.4687500000,182944.2187500000,150354.6562500000,119448.8437500000,151267.0312500000,134105.5625000000,144077.8593750000,,,
1.7479999971,13,146004.7031250000,196973.2500000000,182968.0625000000,150541.9218750000,119578.3671875000,151378.9843750000,134222.8281250000,144146.7656250000,,,
1.7519999973,13,146469.0468750000,195094.0937500000,184302.8125000000,151125.3125000000,120030.1328125000,151812.4062500000,134646.4062500000,144476.7812500000,,,
1.7559999973,13,146628.9531250000,192167.3281250000,185253.5781250000,151315.1562500000,120189.5078125000,151970.8437500000,134802.5000000000,144623.1406250000,,,
1.7599999972,13,146257.6250000000,192219.8437500000,184438.8906250000,150832.4375000000,119836.4218750000,151630.1718750000,134475.2812500000,144373.2187500000,,,
1.7639999972,13,145884.5937500000,195164.3437500000,182973.2500000000,150361.8125000000,119478.9062500000,151280.8750000000,134139.1718750000,144094.1093750000,,,
1.7679999971,13,146019.0468750000,196973.0156250000,182987.0000000000,150547.7968750000,119601.8359375000,151401.3906250000,134252.6562500000,144168.1718750000,,,
1.7719999971,13,146484.0156250000,195120.3593750000,184319.0937500000,151123.4218750000,120045.7968750000,151836.1718750000,134668.0781250000,144500.0312500000,,,
1.7759999973,13,146647.2031250000,192211.0156250000,185279.7343750000,151318.5625000000,120200.4218750000,151996.4843750000,134818.2500000000,144650.0468750000,,,
1.7799999972,13,146277.2187500000,192246.6406250000,184464.9531250000,150840.3281250000,119844.7109375000,151668.6875000000,134493.2500000000,144406.1093750000,,,
1.7839999972,13,145901.7031250000,195160.1093750000,182984.4843750000,150371.5781250000,119478.6171875000,151321.9687500000,134156.9843750000,144122.5156250000,,,
1.7879999971,13,146035.9218750000,196978.1875000000,182988.0156250000,150555.2500000000,119598.8046875000,151432.9062500000,134267.3281250000,144190.6406250000,,,
1.7919999971,14,146500.0312500000,195157.7187500000,184319.8437500000,151128.7968750000,120044.2656250000,151863.6093750000,134683.3593750000,144518.4843750000,,,
1.7959999971,14,146658.5156250000,192264.1562500000,185287.1250000000,151319.7656250000,120201.9765625000,152019.4687500000,134835.9218750000,144656.9375000000,,,
1.7999999970,14,146291.8906250000,192272.8437500000,184480.5937500000,150842.5468750000,119859.5703125000,151686.1250000000,134518.5937500000,144405.4375000000,,,
1.8039999970,14,145910.1250000000,195144.7812500000,182990.7656250000,150368.7812500000,119497.6015625000,151333.5781250000,134179.8281250000,144116.5625000000,,,
1.8079999969,14,146039.5937500000,196951.2500000000,182983.7500000000,150561.8281250000,119618.8671875000,151450.0625000000,134290.7968750000,144191.1562500000,,,
1.8119999969,14,146500.5625000000,195172.3906250000,184322.6875000000,151138.5625000000,120062.2343750000,151885.4218750000,134708.5781250000,144527.0156250000,,,
1.8159999971,14,146665.3593750000,192314.4062500000,185306.7187500000,151327.9531250000,120222.9531250000,152050.9375000000,134870.1562500000,144677.7812500000,,,
1.8199999970,14,146299.1875000000,192304.1718750000,184506.8750000000,150864.2500000000,119877.4296875000,151712.7656250000,134553.4687500000,144426.1875000000,,,
1.8239999970,14,145919.9687500000,195155.5468750000,183015.6250000000,150384.4531250000,119513.0546875000,151354.7968750000,134212.3593750000,144135.8437500000,,,
1.8279999970,14,146022.0000000000,196968.3437500000,182986.7812500000,150543.7031250000,119607.8671875000,151447.6562500000,134296.5312500000,144183.0468750000,,,
1.8319999969,14,146471.1875000000,195197.4375000000,184307.3750000000,151106.2656250000,120044.1328125000,151872.2968750000,134707.0156250000,144505.9375000000,,,
1.8359999971,14,146650.5468750000,192339.5781250000,185296.0312500000,151314.7187500000,120219.2031250000,152043.3437500000,134878.1406250000,144666.9531250000,,,
1.8399999971,14,146299.8437500000,192309.3125000000,184506.0781250000,150848.9375000000,119885.9921875000,151720.6250000000,134568.7812500000,144430.6406250000,,,
1.8439999970,14,145922.2500000000,195116.6562500000,183003.9062500000,150372.8125000000,119521.2890625000,151369.6562500000,134224.4062500000,144143.2500000000,,,
1.8479999970,14,146018.7812500000,196915.3125000000,182961.0937500000,150522.5312500000,119608.7812500000,151451.6562500000,134301.9062500000,144185.3593750000,,,
1.8519999969,14,146464.1406250000,195196.1250000000,184292.1718750000,151086.6093750000,120035.6015625000,151861.5468750000,134699.3750000000,144502.4531250000,,,
1.8559999969,14,146642.5781250000,192384.9531250000,185301.2187500000,151309.0312500000,120205.1484375000,152025.8281250000,134858.3437500000,144659.4062500000,,,
1.8599999971,14,146289.6875000000,192348.4218750000,184522.0000000000,150842.6562500000,119869.4140625000,151700.6875000000,134540.2656250000,144416.7031250000,,,
1.8639999970,14,145921.5312500000,195106.9375000000,183009.0312500000,150367.9843750000,119518.8984375000,151353.4062500000,134208.2656250000,144133.9062500000,,,
1.8679999970,14,146033.1093750000,196898.5312500000,182969.7500000000,150530.2343750000,119622.5390625000,151450.4375000000,134302.4843750000,144189.9687500000,,,
1.8719999969,14,146475.9843750000,195216.7187500000,184301.1250000000,151107.3125000000,120044.6718750000,151863.6718750000,134694.1406250000,144506.4375000000,,,
1.8759999969,14,146648.1562500000,192438.9218750000,185314.5937500000,151331.7031250000,120210.1875000000,152019.9531250000,134850.0156250000,144658.1562500000,,,
1.8799999971,14,146304.7812500000,192366.7500000000,184533.1562500000,150872.5937500000,119885.6171875000,151705.6250000000,134547.4843750000,144424.2812500000,,,
1.8839999971,14,145936.1093750000,195053.6718750000,183000.4218750000,150400.6562500000,119530.5390625000,151361.1718750000,134214.6250000000,144142.2343750000,,,
1.8879999970,14,146044.0000000000,196823.9843750000,182941.6406250000,150557.5937500000,119626.2421875000,151451.9531250000,134302.5937500000,144197.3437500000,,,
1.8919999970,14,146479.7187500000,195212.8906250000,184292.9218750000,151121.7656250000,120039.8125000000,151858.6718750000,134691.6250000000,144512.6093750000,,,
1.8959999969,14,146647.0312500000,192513.1875000000,185333.7187500000,151331.1406250000,120199.4062500000,152021.3281250000,134844.6093750000,144664.3125000000,,,
1.8999999969,14,146302.2968750000,192423.7968750000,184553.8750000000,150876.1250000000,119871.3984375000,151705.8437500000,134535.5468750000,144424.0468750000,,,
1.9039999971,14,145938.2656250000,195018.9843750000,182996.0468750000,150401.8906250000,119520.1328125000,151360.1093750000,134199.4843750000,144139.8593750000,,,
1.9079999970,14,146042.5468750000,196742.6562500000,182919.9531250000,150562.0625000000,119612.7265625000,151439.3437500000,134280.6250000000,144187.4218750000,,,
1.9119999970,14,146474.1406250000,195188.8906250000,184282.3750000000,151113.0468750000,120026.5625000000,151830.9218750000,134668.4531250000,144495.3906250000,,,
1.9159999969,14,146644.3593750000,192556.6406250000,185346.4375000000,151313.7812500000,120194.1171875000,151988.9843750000,134827.1875000000,144647.6875000000,,,
1.9199999969,15,146307.5781250000,192453.9687500000,184575.7031250000,150864.9687500000,119879.5000000000,151680.7187500000,134530.8281250000,144415.3593750000,,,
1.9239999969,15,145938.1562500000,194965.0781250000,182993.5781250000,150389.8906250000,119529.1484375000,151332.6718750000,134196.0625000000,144125.0625000000,,,
1.9279999968,15,146038.6250000000,196650.7187500000,182901.4375000000,150542.9375000000,119620.5000000000,151418.2500000000,134276.5781250000,144177.0156250000,,,
1.9319999968,15,146460.7343750000,195157.7968750000,184271.5937500000,151098.0312500000,120023.6953125000,151812.7031250000,134658.4375000000,144486.9375000000,,,
1.9359999967,15,146622.4062500000,192598.2968750000,185352.3125000000,151308.1250000000,120179.5312500000,151971.8593750000,134812.0781250000,144633.5468750000,,,
1.9399999967,15,146289.0156250000,192486.6406250000,184583.3750000000,150859.3593750000,119862.7109375000,151669.8750000000,134513.5312500000,144400.1250000000,,,
1.9439999969,15,145926.7031250000,194917.6875000000,182977.4062500000,150387.0781250000,119513.2968750000,151331.0781250000,134184.2500000000,144117.1250000000,,,
1.9479999968,15,146024.2812500000,196560.2656250000,182864.3125000000,150535.3281250000,119598.8828125000,151411.9531250000,134263.1718750000,144167.2812500000,,,
1.9519999968,15,146451.1562500000,195127.4062500000,184248.1562500000,151086.7343750000,120005.5625000000,151802.2187500000,134644.4687500000,144481.8437500000,,,
1.9559999967,15,146619.3281250000,192646.5000000000,185353.6718750000,151299.7343750000,120169.0156250000,151958.5937500000,134800.1250000000,144633.0937500000,,,
1.9599999967,15,146296.8750000000,192521.0312500000,184587.9375000000,150863.6875000000,119867.0546875000,151666.6875000000,134514.5156250000,144409.4531250000,,,
1.9639999969,15,145936.8906250000,194867.2343750000,182961.3906250000,150392.6093750000,119523.2968750000,151331.3593750000,134186.5937500000,144128.5000000000,,,
1.9679999969,15,146025.7500000000,196481.7656250000,182834.5781250000,150535.5625000000,119601.5937500000,151402.9375000000,134256.2187500000,144172.0312500000,,,
1.9719999968,15,146435.4843750000,195105.3593750000,184225.5156250000,151084.4218750000,119991.6171875000,151784.2187500000,134625.2187500000,144472.5468750000,,,
1.9759999968,15,146606.6406250000,192690.3281250000,185353.5937500000,151306.9375000000,120158.1796875000,151947.2656250000,134788.0000000000,144625.2656250000,,,
1.9799999967,15,146288.6093750000,192554.1250000000,184600.4843750000,150864.9218750000,119862.3281250000,151658.9843750000,134508.6406250000,144401.2968750000,,,
1.9839999967,15,145936.1093750000,194831.0156250000,182960.8593750000,150397.7500000000,119526.9218750000,151331.0781250000,134189.1718750000,144122.5156250000,,,
1.9879999969,15,146031.6562500000,196414.7656250000,182823.5781250000,150536.8593750000,119610.1484375000,151406.6406250000,134266.0156250000,144172.7812500000,,,
1.9919999968,15,146443.0000000000,195084.7031250000,184222.0468750000,151085.5781250000,119998.0781250000,151778.8281250000,134631.0937500000,144475.5937500000,,,
1.9959999968,15,146620.7968750000,192737.1250000000,185372.6718750000,151306.4843750000,120167.8906250000,151942.6250000000,134794.2656250000,144635.0781250000,,,
1.9999999967,15,146308.9218750000,192596.0468750000,184625.8125000000,150871.6562500000,119877.0312500000,151657.7812500000,134516.3125000000,144415.0156250000,,,
2.0039999967,15,145956.3906250000,194814.9531250000,182968.8906250000,150401.5312500000,119544.3046875000,151331.2656250000,134194.6406250000,144136.7812500000,,,
2.0079999969,15,146039.9375000000,196373.4062500000,182812.5781250000,150531.7656250000,119618.3046875000,151400.6093750000,134261.0468750000,144176.3750000000,,,
2.0119999968,15,146447.1562500000,195081.8437500000,184213.7656250000,151077.9843750000,120004.3046875000,151775.5000000000,134626.2031250000,144479.5156250000,,,
2.0159999968,15,146621.8750000000,192782.4062500000,185380.5468750000,151315.0781250000,120170.8671875000,151943.1718750000,134787.0781250000,144635.4531250000,,,
2.0199999968,15,146307.5000000000,192630.3750000000,184641.0625000000,150882.9687500000,119877.0000000000,151660.7500000000,134509.9531250000,144412.3281250000,,,
2.0239999967,15,145949.0468750000,194794.7343750000,182970.9687500000,150403.5000000000,119539.6640625000,151331.3281250000,134190.0000000000,144127.4687500000,,,
2.0279999967,15,146021.4687500000,196326.5468750000,182791.9531250000,150531.3281250000,119604.8906250000,151393.2031250000,134251.4218750000,144160.0312500000,,,
2.0319999969,15,146414.0312500000,195067.5468750000,184186.0781250000,151069.2187500000,119977.0468750000,151760.1093750000,134607.2343750000,144455.5625000000,,,
2.0359999968,15,146583.5000000000,192806.3593750000,185363.3593750000,151289.0000000000,120139.2187500000,151924.6250000000,134769.3750000000,144611.5937500000,,,
2.0399999968,15,146277.9843750000,192643.8125000000,184633.4218750000,150865.2656250000,119851.4453125000,151645.4375000000,134495.3906250000,144391.9375000000,,,
2.0439999967,15,145928.2343750000,194759.6718750000,182950.3593750000,150395.9531250000,119516.4062500000,151318.3125000000,134171.4375000000,144109.9531250000,,,
2.0479999967,16,146006.7343750000,196276.2031250000,182759.7343750000,150519.5781250000,119583.4921875000,151381.2968750000,134230.1718750000,144147.3750000000,,,
2.0519999966,16,146410.9687500000,195057.7500000000,184168.7031250000,151066.9375000000,119965.2734375000,151749.5937500000,134588.4687500000,144449.6562500000,,,
2.0559999966,16,146586.8750000000,192842.2500000000,185372.1562500000,151296.2968750000,120134.4687500000,151914.3906250000,134752.7500000000,144607.2968750000,,,
2.0599999966,16,146294.4843750000,192675.3593750000,184661.1562500000,150886.9843750000,119862.9218750000,151647.9687500000,134496.5468750000,144397.0937500000,,,
2.0639999965,16,145940.6250000000,194743.3750000000,182968.8437500000,150403.0156250000,119527.4609375000,151318.5000000000,134175.2500000000,144109.0468750000,,,
2.0679999965,16,146018.4375000000,196243.5625000000,182766.8281250000,150526.9062500000,119593.5234375000,151379.9843750000,134236.8593750000,144144.4062500000,,,
2.0719999967,16,146408.2187500000,195060.8281250000,184174.6250000000,151060.3750000000,119959.0234375000,151736.5625000000,134584.4218750000,144436.3906250000,,,
2.0759999966,16,146579.9531250000,192882.0468750000,185389.6250000000,151289.7187500000,120123.7109375000,151901.3750000000,134746.5781250000,144595.5000000000,,,
2.0799999966,16,146289.9218750000,192701.7812500000,184682.6093750000,150881.6250000000,119853.0234375000,151640.0156250000,134489.0312500000,144387.9375000000,,,
2.0839999965,16,145948.1562500000,194720.6562500000,182977.5937500000,150409.5781250000,119528.0781250000,151320.0937500000,134176.9687500000,144109.9531250000,,,
2.0879999965,16,146021.8125000000,196197.4218750000,182762.9062500000,150524.7656250000,119591.5625000000,151376.9843750000,134236.0781250000,144144.0312500000,,,
2.0919999967,16,146407.5156250000,195065.6406250000,184183.8281250000,151053.6718750000,119955.8906250000,151732.7187500000,134582.9687500000,144437.3750000000,,,
2.0959999966,16,146583.7656250000,192942.7812500000,185415.7968750000,151289.4843750000,120125.5390625000,151904.2500000000,134748.0625000000,144599.8125000000,,,
2.0999999966,16,146295.7812500000,192751.1093750000,184708.7968750000,150876.3906250000,119857.0468750000,151647.2343750000,134494.0468750000,144392.9531250000,,,
2.1039999966,16,145956.2031250000,194711.3125000000,182984.8906250000,150408.8593750000,119537.8359375000,151332.5625000000,134190.0312500000,144119.3437500000,,,
2.1079999965,16,146025.2968750000,196167.7812500000,182755.4531250000,150521.7031250000,119599.3437500000,151387.6875000000,134248.3125000000,144153.9531250000,,,
2.1119999965,16,146405.2656250000,195079.3437500000,184179.5156250000,151047.7968750000,119959.8281250000,151737.8750000000,134590.0156250000,144444.7500000000,,,
2.1159999967,16,146581.7500000000,193001.5468750000,185429.1250000000,151278.2968750000,120130.8984375000,151906.2031250000,134756.1562500000,144604.2968750000,,,
2.1199999966,16,146301.6718750000,192785.4375000000,184733.6562500000,150878.1875000000,119872.4687500000,151654.1875000000,134509.3906250000,144399.9687500000,,,
2.1239999966,16,145962.5625000000,194675.0468750000,182999.4531250000,150416.0468750000,119554.6796875000,151338.2187500000,134202.5468750000,144121.2500000000,,,
2.1279999965,16,146032.9375000000,196106.8906250000,182757.5937500000,150532.2968750000,119615.2500000000,151389.6875000000,134257.5937500000,144153.6875000000,,,
2.1319999965,16,146406.0625000000,195072.3750000000,184186.8125000000,151048.9218750000,119966.0781250000,151731.5312500000,134591.6093750000,144439.5000000000,,,
2.1359999967,16,146575.1250000000,193050.0312500000,185450.7187500000,151277.7656250000,120128.2734375000,151896.9843750000,134752.7031250000,144596.8125000000,,,
2.1399999966,16,146299.7656250000,192824.1875000000,184757.7968750000,150880.6406250000,119870.9921875000,151654.1093750000,134508.6406250000,144397.4375000000,,,
2.1439999966,16,145962.8593750000,194655.1250000000,183004.6250000000,150408.8593750000,119551.9218750000,151346.1562500000,134200.8593750000,144124.6875000000,,,
2.1479999966,16,146029.2968750000,196054.5156250000,182743.2656250000,150528.7031250000,119609.6406250000,151397.7656250000,134255.2500000000,144159.7656250000,,,
2.1519999965,16,146398.3750000000,195064.7187500000,184177.3750000000,151044.0625000000,119956.4765625000,151736.8750000000,134588.5468750000,144444.2500000000,,,
2.1559999965,16,146570.1093750000,193099.4687500000,185462.2812500000,151273.9218750000,120120.1171875000,151898.4218750000,134750.2812500000,144599.0000000000,,,
2.1599999967,16,146308.5625000000,192863.1406250000,184781.1406250000,150890.1093750000,119876.6015625000,151659.4375000000,134519.3437500000,144402.6718750000,,,
2.1639999966,16,145981.5468750000,194627.9062500000,183015.3281250000,150433.1562500000,119565.5703125000,151355.1250000000,134219.5781250000,144131.3593750000,,,
2.1679999966,16,146038.6875000000,195999.8750000000,182736.6718750000,150537.9062500000,119611.6250000000,151398.9687500000,134261.2656250000,144158.5312500000,,,
2.1719999965,16,146401.7187500000,195048.2343750000,184175.1875000000,151048.6250000000,119951.5390625000,151732.4531250000,134585.8125000000,144441.7812500000,,,
2.1759999965,17,146578.0000000000,193139.9218750000,185479.5000000000,151289.5312500000,120118.7265625000,151896.2500000000,134748.8281250000,144604.4531250000,,,
2.1799999964,17,146311.5468750000,192893.5312500000,184801.4375000000,150897.5000000000,119874.0781250000,151659.3593750000,134517.8437500000,144406.5000000000,,,
2.1839999964,17,145981.8437500000,194592.2812500000,183013.6718750000,150432.4687500000,119566.2968750000,151360.6406250000,134220.2812500000,144136.4531250000,,,
2.1879999964,17,146031.4687500000,195936.6875000000,182717.6250000000,150527.6250000000,119609.3750000000,151398.7812500000,134259.0156250000,144159.9843750000,,,
2.1919999963,17,146394.1875000000,195029.5625000000,184164.2031250000,151043.0625000000,119951.2500000000,151728.6093750000,134586.5937500000,144440.5937500000,,,
2.1959999963,17,146568.2656250000,193173.2343750000,185488.4531250000,151282.1093750000,120119.2890625000,151892.9218750000,134750.3906250000,144598.2031250000,,,
2.1999999965,17,146309.8281250000,192921.9062500000,184821.3593750000,150897.2031250000,119880.9218750000,151660.3281250000,134522.0781250000,144403.7968750000,,,
2.2039999964,17,145981.1250000000,194574.6093750000,183021.3906250000,150427.2031250000,119570.9062500000,151354.7656250000,134222.9687500000,144126.6093750000,,,
2.2079999964,17,146033.8281250000,195898.1093750000,182711.4531250000,150525.3281250000,119615.2968750000,151394.0156250000,134265.2812500000,144149.0625000000,,,
2.2119999963,17,146392.3906250000,195027.1406250000,184161.7343750000,151034.1718750000,119954.4375000000,151723.2968750000,134591.6875000000,144431.9531250000,,,
2.2159999963,17,146570.6250000000,193208.3593750000,185498.5781250000,151280.6875000000,120125.4531250000,151895.6406250000,134759.3281250000,144599.5156250000,,,
2.2199999965,17,146313.7500000000,192952.6718750000,184840.8125000000,150898.3906250000,119890.0937500000,151670.3906250000,134533.4218750000,144411.0625000000,,,
2.2239999964,17,145997.0781250000,194559.3437500000,183030.7500000000,150439.7343750000,119594.4609375000,151382.5000000000,134246.3281250000,144150.2500000000,,,
2.2279999964,17,146048.0468750000,195865.8125000000,182706.6250000000,150537.6093750000,119636.0859375000,151417.2656250000,134282.7500000000,144174.5468750000,,,
2.2319999964,17,146395.4687500000,195018.8593750000,184149.8437500000,151035.0468750000,119960.7421875000,151732.0000000000,134594.5000000000,144446.3125000000,,,
2.2359999963,17,146569.7343750000,193233.2343750000,185496.8750000000,151273.0937500000,120127.0156250000,151893.9218750000,134757.4375000000,144604.2187500000,,,
2.2399999963,17,146316.6093750000,192973.0000000000,184850.1718750000,150905.2812500000,119894.2500000000,151667.4687500000,134533.1250000000,144413.1562500000,,,
2.2439999965,17,145992.3125000000,194550.0312500000,183029.5156250000,150445.7343750000,119589.4687500000,151369.0156250000,134241.7968750000,144141.8281250000,,,
2.2479999964,17,146037.8750000000,195837.5468750000,182684.7500000000,150527.7968750000,119625.4687500000,151401.0625000000,134279.3125000000,144162.3437500000,,,
2.2519999964,17,146388.1250000000,195022.3437500000,184131.0156250000,151031.8906250000,119952.4531250000,151720.0312500000,134596.1093750000,144440.7031250000,,,
2.2559999963,17,146560.3750000000,193273.4062500000,185491.8906250000,151272.3437500000,120115.4765625000,151883.0781250000,134756.8750000000,144599.8437500000,,,
2.2599999963,17,146314.0937500000,193004.9218750000,184855.1875000000,150899.3281250000,119886.6875000000,151665.8750000000,134536.7031250000,144413.0000000000,,,
2.2639999965,17,145991.4843750000,194534.8593750000,183024.0781250000,150439.0625000000,119580.7031250000,151371.8750000000,134238.9687500000,144139.5156250000,,,
2.2679999964,17,146035.8906250000,195804.7187500000,182664.7343750000,150530.3906250000,119614.5468750000,151404.5312500000,134270.0000000000,144158.1406250000,,,
2.2719999964,17,146382.6250000000,195017.1875000000,184111.5468750000,151032.6406250000,119938.7500000000,151717.3437500000,134581.4687500000,144434.1093750000,,,
2.2759999963,17,146558.8125000000,193300.0156250000,185490.5781250000,151276.9843750000,120107.5390625000,151878.7968750000,134744.7031250000,144595.5937500000,,,
2.2799999963,17,146316.0312500000,193022.5156250000,184866.8906250000,150904.0000000000,119887.5468750000,151664.0000000000,134530.3750000000,144412.2500000000,,,
2.2839999963,17,145998.2656250000,194511.7343750000,183028.0468750000,150440.8906250000,119592.0468750000,151372.8750000000,134240.3906250000,144144.1093750000,,,
2.2879999964,17,146040.3125000000,195766.8437500000,182657.6875000000,150524.0625000000,119624.9531250000,151393.7656250000,134268.8281250000,144158.9687500000,,,
2.2919999964,17,146385.5468750000,195009.4687500000,184108.2968750000,151021.9531250000,119946.8203125000,151703.9687500000,134579.4843750000,144430.2187500000,,,
2.2959999964,17,146569.0625000000,193323.7031250000,185502.3750000000,151279.5937500000,120121.6171875000,151875.9218750000,134754.3593750000,144597.1093750000,,,
2.2999999963,17,146335.4218750000,193034.6875000000,184893.0156250000,150927.8750000000,119908.8125000000,151673.2031250000,134552.0937500000,144421.1562500000,,,
2.3039999963,18,146003.7812500000,194479.5000000000,183039.3125000000,150451.3281250000,119598.5937500000,151371.3750000000,134250.3125000000,144141.8750000000,,,
2.3079999962,18,146031.3593750000,195704.5937500000,182642.1250000000,150520.5781250000,119616.6953125000,151389.6718750000,134265.2343750000,144148.6718750000,,,
2.3119999962,18,146357.4687500000,194974.5781250000,184081.5312500000,151007.0937500000,119920.0000000000,151687.2031250000,134556.0937500000,144410.2812500000,,,
2.3159999961,18,146533.3437500000,193338.8593750000,185484.5156250000,151252.6250000000,120086.0781250000,151851.9687500000,134718.2343750000,144574.7812500000,,,
2.3199999961,18,146310.1562500000,193049.0468750000,184883.2500000000,150898.7187500000,119880.7578125000,151653.5625000000,134518.5156250000,144407.1718750000,,,
2.3239999961,18,146002.6875000000,194449.1562500000,183027.4218750000,150442.5156250000,119593.5234375000,151370.8593750000,134235.5625000000,144147.3750000000,,,
2.3279999963,18,146040.2343750000,195660.6250000000,182626.8906250000,150525.1406250000,119624.3906250000,151401.7656250000,134262.8750000000,144167.3281250000,,,
2.3319999962,18,146371.1718750000,194964.5468750000,184078.6406250000,151019.0312500000,119934.7265625000,151708.1250000000,134564.5468750000,144436.4687500000,,,
2.3359999962,18,146545.9687500000,193366.6093750000,185503.4843750000,151264.7343750000,120100.9140625000,151868.4062500000,134733.0312500000,144596.2187500000,,,
2.3399999961,18,146318.6718750000,193074.3125000000,184915.2968750000,150906.2968750000,119894.2734375000,151661.9375000000,134537.3125000000,144420.3125000000,,,
2.3439999961,18,146000.0000000000,194428.7500000000,183042.0468750000,150434.2031250000,119597.3828125000,151370.1875000000,134244.6093750000,144148.8750000000,,,
2.3479999963,18,146030.6875000000,195610.3125000000,182615.6250000000,150497.2656250000,119618.0625000000,151387.3906250000,134258.1250000000,144156.0937500000,,,
2.3519999962,18,146368.6718750000,194944.3125000000,184063.5625000000,150993.3750000000,119929.7890625000,151693.1093750000,134558.6718750000,144426.7031250000,,,
2.3559999962,18,146542.8125000000,193391.1875000000,185499.3437500000,151243.1562500000,120094.6406250000,151857.3281250000,134723.7500000000,144585.3750000000,,,
2.3599999961,18,146310.6562500000,193096.3906250000,184916.8593750000,150889.9375000000,119884.9140625000,151654.5000000000,134521.8125000000,144405.4843750000,,,
2.3639999961,18,146000.2500000000,194412.8437500000,183036.8593750000,150431.2031250000,119596.3125000000,151373.6250000000,134241.7343750000,144139.4687500000,,,
2.3679999961,18,146033.1093750000,195575.8125000000,182599.7500000000,150504.5312500000,119619.9140625000,151393.3593750000,134264.4843750000,144150.7031250000,,,
2.3719999962,18,146354.9375000000,194940.8125000000,184051.7812500000,150991.2968750000,119919.5937500000,151679.5781250000,134552.9531250000,144409.7187500000,,,
2.3759999962,18,146528.8281250000,193427.7656250000,185503.4218750000,151246.7812500000,120087.1796875000,151843.3125000000,134719.5781250000,144571.4375000000,,,
2.3799999962,18,146304.7343750000,193124.1718750000,184933.0781250000,150900.6718750000,119886.6328125000,151649.4843750000,134527.1562500000,144398.5156250000,,,
2.3839999961,18,145994.6406250000,194398.5625000000,183046.9531250000,150435.3125000000,119600.8671875000,151368.2343750000,134247.7500000000,144130.5625000000,,,
2.3879999961,18,146025.5937500000,195530.1875000000,182596.3593750000,150508.4531250000,119621.0390625000,151380.7343750000,134263.4687500000,144139.9218750000,,,
2.3919999963,18,146345.6406250000,194917.8437500000,184045.4062500000,150989.9687500000,119913.0234375000,151666.5468750000,134543.6250000000,144401.0625000000,,,
2.3959999962,18,146521.1250000000,193447.2968750000,185506.5156250000,151241.3125000000,120075.6484375000,151835.1562500000,134705.7656250000,144566.6406250000,,,
2.3999999962,18,146308.8906250000,193148.3906250000,184945.0625000000,150907.2500000000,119882.8750000000,151654.6718750000,134522.8125000000,144406.3125000000,,,
2.4039999961,18,145997.4531250000,194383.9062500000,183045.5312500000,150446.5156250000,119593.5468750000,151375.6875000000,134242.4531250000,144138.5312500000,,,
2.4079999961,18,146017.1718750000,195510.0468750000,182577.2968750000,150504.9375000000,119605.7812500000,151387.5156250000,134256.4062500000,144138.0468750000,,,
2.4119999961,18,146332.3281250000,194932.5156250000,184025.1562500000,150981.7500000000,119898.4062500000,151676.9218750000,134539.0312500000,144394.1875000000,,,
2.4159999962,18,146509.6718750000,193493.4062500000,185499.0312500000,151241.3125000000,120068.3515625000,151847.4843750000,134704.9531250000,144558.5937500000,,,
2.4199999962,18,146295.4218750000,193189.4062500000,184952.5312500000,150899.2500000000,119878.1562500000,151663.6718750000,134519.6093750000,144395.0312500000,,,
2.4239999962,18,145986.4687500000,194393.3593750000,183048.8281250000,150433.0781250000,119594.6484375000,151383.4375000000,134241.1250000000,144129.6718750000,,,
2.4279999961,18,146007.4843750000,195506.3281250000,182569.4843750000,150493.2656250000,119606.4453125000,151388.9062500000,134250.9062500000,144130.0312500000,,,
2.4319999961,19,146326.0312500000,194943.4375000000,184014.6718750000,150976.2812500000,119896.8750000000,151671.1093750000,134532.5937500000,144388.6406250000,,,
2.4359999960,19,146510.7500000000,193527.9531250000,185507.3906250000,151247.3437500000,120068.2187500000,151841.0468750000,134702.5625000000,144560.4062500000,,,
2.4399999960,19,146306.8437500000,193225.7968750000,184980.7500000000,150916.9531250000,119884.5156250000,151661.3125000000,134524.5468750000,144399.9062500000,,,
2.4439999959,19,145998.0000000000,194392.8593750000,183068.9687500000,150440.9375000000,119600.5781250000,151381.0312500000,134246.5625000000,144130.9062500000,,,
2.4479999959,19,146017.7343750000,195478.8281250000,182564.7968750000,150493.8281250000,119612.8828125000,151388.3281250000,134256.1093750000,144132.9218750000,,,
2.4519999959,19,146337.7812500000,194947.3437500000,184010.9062500000,150975.9375000000,119907.9296875000,151674.2812500000,134542.0312500000,144396.9062500000,,,
2.4559999960,19,146521.7031250000,193572.3125000000,185515.2500000000,151238.3593750000,120081.9531250000,151844.5937500000,134714.5781250000,144570.1718750000,,,
2.4599999960,19,146315.1406250000,193263.9218750000,184995.1718750000,150912.9843750000,119896.6406250000,151667.9218750000,134535.6875000000,144409.0781250000,,,
2.4639999960,19,146015.8593750000,194382.2031250000,183074.8125000000,150462.7968750000,119621.3593750000,151406.4843750000,134270.2968750000,144148.3906250000,,,
2.4679999959,19,146029.3437500000,195444.6875000000,182560.2656250000,150517.9687500000,119627.0781250000,151411.6875000000,134279.4218750000,144146.7031250000,,,
2.4719999959,19,146329.4375000000,194940.5937500000,184002.5625000000,150989.7968750000,119903.3984375000,151679.3906250000,134548.9531250000,144392.8750000000,,,
2.4759999961,19,146507.7968750000,193604.6406250000,185520.4531250000,151248.3906250000,120069.8281250000,151838.2343750000,134713.0468750000,144555.5781250000,,,
2.4799999960,19,146310.7656250000,193298.7500000000,185015.7656250000,150917.4843750000,119890.0625000000,151662.2812500000,134536.0781250000,144397.3593750000,,,
2.4839999960,19,146013.6093750000,194381.8281250000,183085.0156250000,150456.9218750000,119615.8125000000,151392.2343750000,134267.2187500000,144137.9687500000,,,
2.4879999959,19,146022.6250000000,195422.0937500000,182549.3125000000,150498.0937500000,119617.3671875000,151393.3593750000,134266.5156250000,144136.2968750000,,,
2.4919999959,19,146324.2031250000,194941.0781250000,183985.2343750000,150963.8593750000,119894.5703125000,151666.5468750000,134534.8750000000,144390.3906250000,,,
2.4959999959,19,146497.9062500000,193650.5312500000,185515.7343750000,151226.2968750000,120058.0546875000,151832.5312500000,134696.5312500000,144558.1093750000,,,
2.4999999960,19,146291.9843750000,193341.4531250000,185011.3125000000,150905.8281250000,119874.0000000000,151659.0625000000,134517.8437500000,144396.9531250000,,,
2.5039999960,19,145999.4687500000,194375.3750000000,183068.5937500000,150458.4843750000,119604.7890625000,151400.3593750000,134257.7031250000,144139.2500000000,,,
2.5079999960,19,146016.0156250000,195396.8906250000,182524.3281250000,150516.5312500000,119613.6093750000,151404.3125000000,134265.8437500000,144138.3906250000,,,
2.5119999959,19,146318.1093750000,194947.0312500000,183967.7031250000,150982.1875000000,119891.7031250000,151673.5156250000,134537.3437500000,144388.7812500000,,,
2.5159999959,19,146493.5625000000,193698.5937500000,185518.3437500000,151240.8281250000,120056.4687500000,151837.7031250000,134703.3125000000,144553.7031250000,,,
2.5199999961,19,146297.8593750000,193393.0312500000,185035.3750000000,150922.1875000000,119880.0312500000,151669.3125000000,134529.0625000000,144395.5625000000,,,
2.5239999960,19,146012.9375000000,194376.0468750000,183083.2656250000,150472.2968750000,119617.1250000000,151408.6562500000,134269.2343750000,144139.3281250000,,,
2.5279999960,19,146021.5468750000,195359.7343750000,182515.0625000000,150509.2343750000,119617.1796875000,151402.2187500000,134267.8593750000,144131.9531250000,,,
2.5319999959,19,146328.2343750000,194936.3750000000,183958.7656250000,150980.8906250000,119897.4687500000,151671.3750000000,134537.8281250000,144390.2812500000,,,
2.5359999959,19,146516.8750000000,193726.2812500000,185529.7343750000,151250.1562500000,120075.6171875000,151843.4687500000,134713.1875000000,144570.4375000000,,,
2.5399999958,19,146324.7968750000,193416.2187500000,185056.0000000000,150931.7500000000,119903.6406250000,151677.3125000000,134547.3750000000,144418.0156250000,,,
2.5439999960,19,146034.8750000000,194354.1562500000,183093.1718750000,150478.2031250000,119638.5000000000,151417.3125000000,134287.7343750000,144161.4375000000,,,
2.5479999960,19,146037.6406250000,195305.2031250000,182507.5000000000,150515.5000000000,119634.3437500000,151410.8281250000,134284.3593750000,144150.7343750000,,,
2.5519999960,19,146333.4062500000,194903.4218750000,183948.4218750000,150973.8906250000,119906.1015625000,151675.6406250000,134551.7656250000,144398.4375000000,,,
2.5559999959,19,146516.4062500000,193735.8437500000,185530.5625000000,151241.9531250000,120077.2578125000,151847.8125000000,134721.2031250000,144572.7187500000,,,
2.5599999959,20,146325.3593750000,193433.4531250000,185074.5468750000,150934.0156250000,119904.1718750000,151683.2656250000,134550.3750000000,144414.0156250000,,,
2.5639999958,20,146034.5000000000,194335.8906250000,183103.8593750000,150484.6562500000,119635.7656250000,151422.0625000000,134284.1718750000,144150.8906250000,,,
2.5679999958,20,146035.2500000000,195264.6875000000,182500.4531250000,150516.8437500000,119628.2265625000,151415.8906250000,134279.8281250000,144138.7187500000,,,
2.5719999957,20,146316.3750000000,194889.2343750000,183935.6718750000,150962.4687500000,119881.9140625000,151669.7343750000,134534.1562500000,144376.2500000000,,,
2.5759999957,20,146495.3281250000,193754.2812500000,185521.2812500000,151231.7031250000,120049.1484375000,151836.4375000000,134703.0781250000,144547.2968750000,,,
2.5799999957,20,146310.0468750000,193441.0156250000,185067.4062500000,150922.6718750000,119883.8671875000,151677.0156250000,134538.9843750000,144397.4375000000,,,
2.5839999958,20,146027.4218750000,194301.7500000000,183088.3125000000,150466.9375000000,119625.0078125000,151424.7187500000,134282.5625000000,144146.0625000000,,,
2.5879999958,20,146028.1406250000,195194.7031250000,182468.1093750000,150501.1093750000,119619.2421875000,151413.8593750000,134276.4687500000,144134.5000000000,,,
2.5919999958,20,146311.0625000000,194840.2187500000,183908.7968750000,150955.3281250000,119876.8125000000,151665.8281250000,134530.0781250000,144376.9218750000,,,
2.5959999957,20,146488.2968750000,193748.1406250000,185514.3125000000,151224.6562500000,120042.3906250000,151828.9843750000,134694.5937500000,144545.5312500000,,,
2.5999999957,20,146315.6562500000,193435.3593750000,185079.4531250000,150936.5312500000,119891.7578125000,151680.4375000000,134544.8281250000,144403.6406250000,,,
2.6039999959,20,146032.9218750000,194260.2812500000,183095.3437500000,150482.0312500000,119635.6875000000,151428.5625000000,134287.8437500000,144147.3281250000,,,
2.6079999958,20,146028.6250000000,195141.8437500000,182462.7343750000,150503.0000000000,119625.5703125000,151415.7656250000,134278.8125000000,144129.5468750000,,,
2.6119999958,20,146297.6250000000,194806.5625000000,183896.1406250000,150945.8437500000,119869.3828125000,151654.5937500000,134522.5312500000,144359.1406250000,,,
2.6159999957,20,146473.1406250000,193729.5156250000,185505.1718750000,151218.4843750000,120033.2656250000,151818.3281250000,134690.2812500000,144528.4062500000,,,
2.6199999957,20,146300.0937500000,193411.4375000000,185078.0468750000,150925.2187500000,119878.7734375000,151668.9843750000,134538.5000000000,144385.7500000000,,,
2.6239999956,20,146033.2968750000,194212.8593750000,183095.3906250000,150484.8437500000,119634.2109375000,151430.5625000000,134295.1093750000,144145.6562500000,,,
2.6279999958,20,146038.6875000000,195077.5468750000,182447.9843750000,150511.1875000000,119630.9375000000,151422.9218750000,134288.7343750000,144140.6406250000,,,
2.6319999958,20,146316.1093750000,194765.4375000000,183880.3906250000,150948.5156250000,119881.8281250000,151664.4375000000,134532.1718750000,144382.8750000000,,,
2.6359999957,20,146496.2656250000,193737.0000000000,185510.6718750000,151216.0468750000,120050.4921875000,151829.2187500000,134701.2031250000,144559.0156250000,,,
2.6399999957,20,146329.4062500000,193434.2031250000,185102.0000000000,150920.1718750000,119903.7734375000,151687.2812500000,134557.7343750000,144425.4687500000,,,
2.6439999957,20,146052.2500000000,194202.0468750000,183110.0312500000,150471.6562500000,119651.5390625000,151442.9375000000,134307.7656250000,144175.4375000000,,,
2.6479999959,20,146062.3906250000,195053.6718750000,182455.1718750000,150510.9531250000,119654.3515625000,151440.7031250000,134307.9531250000,144172.2656250000,,,
2.6519999958,20,146339.8437500000,194769.5781250000,183887.9375000000,150961.4843750000,119907.2578125000,151680.9218750000,134556.7656250000,144410.4687500000,,,
2.6559999958,20,146512.8750000000,193773.7968750000,185523.0625000000,151234.7343750000,120070.1250000000,151845.5625000000,134724.5000000000,144577.2343750000,,,
2.6599999957,20,146340.6718750000,193467.8750000000,185122.3593750000,150946.7031250000,119921.6328125000,151707.4531250000,134580.9062500000,144436.1406250000,,,
2.6639999957,20,146058.0468750000,194205.5625000000,183121.1093750000,150495.6093750000,119665.6953125000,151461.6562500000,134328.9062500000,144179.5156250000,,,
2.6679999956,20,146040.9062500000,195029.4218750000,182436.3437500000,150510.3750000000,119641.8515625000,151437.5625000000,134305.9531250000,144152.7656250000,,,
2.6719999958,20,146309.5312500000,194769.2812500000,183865.7500000000,150952.7343750000,119883.5781250000,151673.3281250000,134544.5312500000,144385.0000000000,,,
2.6759999958,20,146488.2812500000,193821.1406250000,185527.8906250000,151228.6562500000,120046.8437500000,151838.6406250000,134709.8281250000,144556.0937500000,,,
2.6799999957,20,146318.7812500000,193484.2812500000,185140.2343750000,150936.9687500000,119894.7031250000,151695.3281250000,134557.7031250000,144412.0625000000,,,
2.6839999957,20,146043.4062500000,194070.7031250000,183111.2187500000,150486.6718750000,119642.4453125000,151446.6406250000,134303.6406250000,144155.1250000000,,,
2.6879999957,21,146037.8750000000,194738.4843750000,182401.2656250000,150503.4375000000,119630.5078125000,151430.7812500000,134290.0156250000,144139.5781250000,,,
2.6919999956,21,146304.2968750000,194446.2031250000,183838.7343750000,150946.9375000000,119873.3593750000,151662.6562500000,134523.9062500000,144373.2656250000,,,
2.6959999956,21,146479.9062500000,193572.4843750000,185529.6093750000,151221.4062500000,120039.4375000000,151823.2656250000,134683.9062500000,144543.5468750000,,,
2.6999999955,21,146320.3750000000,193306.9843750000,185161.4687500000,150942.9687500000,119902.6484375000,151689.1093750000,134549.3906250000,144410.3906250000,,,
2.7039999955,21,146043.4531250000,193911.9687500000,183120.9531250000,150491.6406250000,119651.6406250000,151442.6718750000,134300.6093750000,144152.0156250000,,,
2.7079999954,21,146037.0000000000,194611.6406250000,182394.4687500000,150501.1250000000,119637.9687500000,151423.2187500000,134287.1406250000,144136.5468750000,,,
2.7119999956,21,146298.1562500000,194397.6875000000,183832.4375000000,150935.2500000000,119871.1015625000,151651.0781250000,134520.4375000000,144368.9218750000,,,
2.7159999956,21,146475.9843750000,193599.9687500000,185539.9375000000,151218.6250000000,120032.0625000000,151813.1562500000,134680.9218750000,144544.3437500000,,,
2.7199999955,21,146321.8750000000,193327.5937500000,185184.3281250000,150938.0000000000,119894.9218750000,151682.4843750000,134544.0468750000,144414.6562500000,,,
2.7239999955,21,146055.2031250000,193851.3437500000,183140.6406250000,150485.3281250000,119651.9140625000,151445.7187500000,134300.4843750000,144164.6250000000,,,
2.7279999955,21,146042.6250000000,194466.9687500000,182400.2656250000,150495.3125000000,119633.1875000000,151427.1562500000,134279.8281250000,144147.1875000000,,,
2.7319999957,21,146292.9062500000,194254.8906250000,183837.5000000000,150924.4843750000,119859.7812500000,151650.4531250000,134507.5468750000,144375.0468750000,,,
2.7359999956,21,146472.1250000000,193517.7656250000,185558.9687500000,151213.1406250000,120027.2890625000,151815.9531250000,134678.0000000000,144548.7968750000,,,
2.7399999956,21,146323.8593750000,193275.0781250000,185214.3593750000,150943.5625000000,119899.5312500000,151691.7812500000,134550.5625000000,144418.4687500000,,,
2.7439999955,21,146065.6875000000,193761.9687500000,183165.6093750000,150493.8906250000,119668.6484375000,151462.4843750000,134317.4218750000,144170.9531250000,,,
2.7479999955,21,146055.4218750000,194361.8437500000,182409.0468750000,150500.7500000000,119651.6953125000,151438.4843750000,134296.5312500000,144148.9375000000,,,
2.7519999954,21,146306.5312500000,194224.1250000000,183845.6250000000,150931.6562500000,119876.5468750000,151653.0625000000,134518.7812500000,144373.8593750000,,,
2.7559999956,21,146480.0468750000,193581.5468750000,185580.0312500000,151213.9218750000,120037.2656250000,151811.8906250000,134681.6718750000,144545.1718750000,,,
2.7599999956,21,146335.3906250000,193357.6875000000,185246.0156250000,150949.3281250000,119914.5546875000,151696.1562500000,134559.9062500000,144421.5781250000,,,
2.7639999955,21,146079.4843750000,193787.0000000000,183189.1093750000,150505.0156250000,119687.3437500000,151472.2968750000,134332.9375000000,144180.2656250000,,,
2.7679999955,21,146065.4531250000,194331.6718750000,182417.3593750000,150506.1718750000,119666.9843750000,151450.2500000000,134316.6718750000,144162.9843750000,,,
2.7719999955,21,146302.7968750000,194196.3281250000,183848.3125000000,150927.3281250000,119876.4687500000,151656.1093750000,134530.4531250000,144381.2187500000,,,
2.7759999956,21,146474.2968750000,193597.3125000000,185589.3437500000,151208.1250000000,120032.6015625000,151816.6250000000,134690.3125000000,144554.3281250000,,,
2.7799999956,21,146334.3437500000,193385.8437500000,185265.3593750000,150945.2031250000,119910.6640625000,151705.9843750000,134569.7500000000,144433.4375000000,,,
2.7839999956,21,146080.6406250000,193752.4062500000,183195.5156250000,150506.5781250000,119681.3359375000,151485.2031250000,134337.2500000000,144188.6093750000,,,
2.7879999955,21,146064.4375000000,194244.0781250000,182402.7968750000,150511.7187500000,119658.1640625000,151459.3750000000,134312.2187500000,144162.9062500000,,,
2.7919999955,21,146306.5000000000,194151.4375000000,183835.7031250000,150933.6875000000,119873.5156250000,151664.9062500000,134526.3750000000,144380.6250000000,,,
2.7959999954,21,146481.8437500000,193639.1250000000,185596.2343750000,151218.2968750000,120033.4062500000,151817.7187500000,134686.6875000000,144551.1562500000,,,
2.7999999956,21,146343.1718750000,193461.6250000000,185288.5781250000,150957.4531250000,119913.2109375000,151698.2500000000,134567.1093750000,144425.1718750000,,,
2.8039999956,21,146093.5312500000,193799.3593750000,183215.6562500000,150515.0156250000,119690.2109375000,151477.7968750000,134342.5000000000,144182.5937500000,,,
2.8079999955,21,146070.8125000000,194262.4687500000,182404.2968750000,150512.6875000000,119659.7421875000,151447.7656250000,134312.8125000000,144156.3593750000,,,
2.8119999955,21,146302.1093750000,194192.2500000000,183826.9062500000,150928.3281250000,119863.3203125000,151648.9531250000,134518.8593750000,144373.7031250000,,,
2.8159999955,22,146473.7968750000,193733.5937500000,185597.5156250000,151208.8906250000,120021.9531250000,151807.9531250000,134681.6250000000,144547.5156250000,,,
2.8199999954,22,146331.9843750000,193566.0937500000,185299.7968750000,150949.4062500000,119900.7421875000,151687.7656250000,134559.7656250000,144419.6562500000,,,
2.8239999954,22,146089.4531250000,193861.6250000000,183219.6250000000,150516.7187500000,119684.2343750000,151471.3593750000,134340.1718750000,144182.5156250000,,,
2.8279999953,22,146068.8125000000,194295.9687500000,182394.5312500000,150510.4062500000,119653.7109375000,151439.1250000000,134311.5781250000,144155.9375000000,,,
2.8319999953,22,146296.7343750000,194250.6718750000,183812.9062500000,150918.9375000000,119849.1875000000,151636.0312500000,134508.3281250000,144366.4062500000,,,
2.8359999952,22,146472.0781250000,193824.5781250000,185590.2500000000,151200.3281250000,120006.8750000000,151794.7812500000,134666.8593750000,144540.4062500000,,,
2.8399999954,22,146345.6406250000,193663.0000000000,185311.8125000000,150946.4531250000,119902.1640625000,151691.9218750000,134560.5468750000,144425.6093750000,,,
2.8439999954,22,146095.4687500000,193921.0312500000,183229.5781250000,150505.5625000000,119682.3046875000,151475.4687500000,134340.4218750000,144180.9375000000,,,
2.8479999953,22,146067.5781250000,194319.8437500000,182386.3750000000,150499.1406250000,119652.8515625000,151442.0781250000,134310.5156250000,144150.4687500000,,,
2.8519999953,22,146296.0156250000,194267.4062500000,183799.1562500000,150918.7968750000,119857.5859375000,151637.0468750000,134514.6718750000,144364.0781250000,,,
2.8559999953,22,146469.6406250000,193862.9531250000,185589.8125000000,151201.0468750000,120020.0468750000,151794.1718750000,134677.5937500000,144538.2500000000,,,
2.8599999954,22,146341.8281250000,193696.2656250000,185323.4531250000,150947.7187500000,119915.0390625000,151690.0937500000,134568.5312500000,144424.7968750000,,,
2.8639999954,22,146095.2031250000,193914.9687500000,183236.8437500000,150511.4531250000,119697.2656250000,151470.9375000000,134346.7500000000,144185.3281250000,,,
2.8679999954,22,146069.3906250000,194280.3906250000,182373.6562500000,150499.7656250000,119663.5546875000,151435.8593750000,134316.3281250000,144156.9062500000,,,
2.8719999953,22,146300.3906250000,194248.2343750000,183780.2968750000,150914.5156250000,119864.7734375000,151636.9687500000,134520.5781250000,144377.4062500000,,,
2.8759999953,22,146466.8750000000,193885.4843750000,185580.4375000000,151196.1718750000,120014.7109375000,151792.3437500000,134673.6250000000,144549.2500000000,,,
2.8799999952,22,146334.7500000000,193736.1718750000,185325.4531250000,150949.0781250000,119902.7812500000,151691.3906250000,134564.3281250000,144432.4218750000,,,
2.8839999954,22,146094.1250000000,193933.0000000000,183234.6718750000,150519.0781250000,119690.3515625000,151487.4062500000,134349.8906250000,144200.2187500000,,,
2.8879999954,22,146066.9843750000,194283.8750000000,182357.1093750000,150506.5156250000,119654.0546875000,151452.4531250000,134315.5000000000,144170.8437500000,,,
2.8919999953,22,146291.0000000000,194281.1406250000,183758.2187500000,150917.1406250000,119847.7968750000,151647.2968750000,134510.8125000000,144383.4062500000,,,
2.8959999953,22,146465.1875000000,193957.0312500000,185568.1250000000,151205.5625000000,120006.4453125000,151808.6718750000,134670.4843750000,144559.5312500000,,,
2.8999999953,22,146337.2187500000,193820.9062500000,185332.4375000000,150954.6875000000,119901.8906250000,151705.4218750000,134564.1093750000,144443.2500000000,,,
2.9039999954,22,146092.9687500000,193997.3125000000,183243.7500000000,150517.6250000000,119691.6640625000,151491.4531250000,134348.2187500000,144199.8125000000,,,
2.9079999954,22,146063.0156250000,194315.9531250000,182352.8437500000,150500.6406250000,119660.2265625000,151449.9531250000,134315.2812500000,144157.8906250000,,,
2.9119999954,22,146290.8906250000,194292.0312500000,183751.4062500000,150906.5937500000,119863.2421875000,151639.9375000000,134517.5468750000,144366.5937500000,,,
2.9159999953,22,146473.9843750000,193973.2031250000,185579.0937500000,151201.8281250000,120032.8359375000,151804.0937500000,134688.5156250000,144550.5468750000,,,
2.9199999953,22,146357.9218750000,193825.0625000000,185362.3750000000,150971.4843750000,119939.1796875000,151707.4218750000,134591.7656250000,144449.0937500000,,,
2.9239999952,22,146115.0468750000,193976.4687500000,183273.3593750000,150534.5468750000,119726.4218750000,151498.6406250000,134373.4375000000,144212.5625000000,,,
2.9279999954,22,146083.3437500000,194293.3437500000,182368.4531250000,150510.9218750000,119689.2734375000,151463.0000000000,134338.4062500000,144180.3750000000,,,
2.9319999954,22,146301.6250000000,194304.4531250000,183752.1562500000,150911.8593750000,119877.1875000000,151648.7656250000,134530.2656250000,144387.5156250000,,,
2.9359999953,22,146471.9375000000,194011.4687500000,185571.6406250000,151199.7031250000,120031.6875000000,151806.5000000000,134687.7656250000,144560.7031250000,,,
2.9399999953,22,146349.9062500000,193871.3593750000,185360.7812500000,150960.6250000000,119929.1484375000,151709.9218750000,134586.3125000000,144451.2187500000,,,
2.9439999952,23,146108.2656250000,194019.5468750000,183274.9687500000,150520.9843750000,119715.5078125000,151499.0468750000,134370.0000000000,144213.0937500000,,,
