Time:250Hz,Epoch,Channel 1,Channel 2,Channel 3,Channel 4,Channel 5,Channel 6,Channel 7,Channel 8,Event Id,Event Date,Event Duration
0.0000000000,0,153555.1250000000,153605.8906250000,178314.9687500000,173420.9062500000,161891.7187500000,164161.1718750000,52237.6914062500,170928.6406250000,,,
0.0040000000,0,153551.8281250000,153600.4687500000,178307.3281250000,173409.2656250000,161884.5625000000,164161.3750000000,52235.3828125000,170922.1093750000,,,
0.0079999999,0,153548.8906250000,153598.4062500000,178302.9062500000,173413.7656250000,161881.8281250000,164159.8281250000,52231.0390625000,170924.0312500000,,,
0.0119999999,0,153547.2656250000,153597.2343750000,178302.5000000000,173414.4375000000,161882.5000000000,164154.5625000000,52207.2734375000,170924.8125000000,,,
0.0159999998,0,153550.7968750000,153603.4843750000,178304.9062500000,173421.9687500000,161887.4375000000,164158.5312500000,52208.4023437500,170926.2812500000,,,
0.0199999998,0,153547.1875000000,153598.7812500000,178301.8281250000,173422.4375000000,161883.1093750000,164159.7500000000,52245.4960937500,170918.3437500000,,,
0.0240000000,0,153540.2656250000,153592.3281250000,178298.5000000000,173411.1718750000,161877.8593750000,164158.6718750000,52257.2421875000,170913.5468750000,,,
0.0279999999,0,153537.4218750000,153585.6093750000,178295.3593750000,173412.0312500000,161875.9218750000,164155.4843750000,52253.0078125000,170911.7500000000,,,
0.0319999999,0,153537.3125000000,153587.2500000000,178292.1406250000,173417.2031250000,161871.6875000000,164153.0625000000,52244.1835937500,170913.8125000000,,,
0.0359999998,0,153538.4062500000,153588.7343750000,178297.1406250000,173421.3906250000,161873.5625000000,164148.9062500000,52236.4023437500,170911.7500000000,,,
0.0399999998,0,153551.4687500000,153603.4062500000,178312.7656250000,173415.9218750000,161887.2343750000,164160.1718750000,52251.9335937500,170917.9218750000,,,
0.0440000000,0,153550.1875000000,153605.0625000000,178309.9531250000,173421.8906250000,161885.4375000000,164161.1875000000,52250.7265625000,170920.5156250000,,,
0.0480000000,0,153552.8906250000,153610.8281250000,178313.4375000000,173422.7500000000,161889.8437500000,164164.8437500000,52248.8476562500,170929.5937500000,,,
0.0519999999,0,153552.0625000000,153610.9062500000,178312.9375000000,173406.1250000000,161890.0625000000,164170.7343750000,52254.1054687500,170938.2968750000,,,
0.0559999999,0,153539.6718750000,153597.2812500000,178296.0000000000,173412.5156250000,161874.9531250000,164157.3593750000,52241.8750000000,170926.2656250000,,,
0.0599999998,0,153538.5468750000,153596.6406250000,178294.5312500000,173417.2500000000,161871.0156250000,164151.0312500000,52238.9531250000,170917.3593750000,,,
0.0639999998,0,153548.2031250000,153605.0156250000,178302.6250000000,173426.1406250000,161878.0937500000,164153.8125000000,52245.5781250000,170922.2031250000,,,
0.0680000000,0,153554.8437500000,153611.6406250000,178310.3281250000,173428.3906250000,161885.9062500000,164158.8906250000,52251.4218750000,170932.5625000000,,,
0.0719999999,0,153558.1718750000,153618.0468750000,178313.9531250000,173421.3281250000,161890.8593750000,164164.8593750000,52255.8476562500,170941.3593750000,,,
0.0759999999,0,153554.3906250000,153610.2187500000,178312.3437500000,173414.2187500000,161889.2031250000,164161.1406250000,52253.5703125000,170935.0781250000,,,
0.0799999998,0,153555.7031250000,153612.0312500000,178313.0937500000,173425.0937500000,161890.8593750000,164161.8906250000,52258.8007812500,170930.0625000000,,,
0.0839999998,0,153561.3750000000,153617.4218750000,178319.1562500000,173428.0625000000,161897.5156250000,164166.9843750000,52264.6992187500,170935.0000000000,,,
0.0880000000,0,153559.9531250000,153612.8437500000,178316.9062500000,173430.3750000000,161896.5781250000,164164.1406250000,52256.1445312500,170936.0781250000,,,
0.0919999999,0,153561.6093750000,153610.6406250000,178321.0781250000,173428.5937500000,161900.5156250000,164163.0937500000,52267.4375000000,170937.3593750000,,,
0.0959999999,0,153560.7187500000,153608.5781250000,178321.5468750000,173424.6562500000,161901.2656250000,164165.6406250000,52273.8750000000,170933.2656250000,,,
0.0999999999,0,153558.8437500000,153606.9375000000,178317.5937500000,173423.2968750000,161897.1093750000,164166.1250000000,52265.5039062500,170925.7500000000,,,
0.1039999998,0,153559.2968750000,153606.0781250000,178314.1718750000,173433.4843750000,161893.5781250000,164164.4843750000,52264.3515625000,170925.8125000000,,,
0.1079999998,0,153554.5000000000,153597.0937500000,178311.4531250000,173434.7187500000,161890.0000000000,164160.0156250000,52256.6796875000,170923.4218750000,,,
0.1120000000,0,153549.0312500000,153593.3750000000,178305.1250000000,173421.2031250000,161883.8906250000,164161.5937500000,52255.5820312500,170923.6875000000,,,
0.1159999999,0,153557.9687500000,153601.8750000000,178314.2656250000,173427.0937500000,161892.5468750000,164172.7187500000,52267.1406250000,170928.5156250000,,,
0.1199999999,0,153554.5000000000,153597.6875000000,178314.0312500000,173429.9218750000,161890.8906250000,164170.0156250000,52268.2929687500,170921.7812500000,,,
0.1239999998,0,153556.9687500000,153603.9843750000,178318.7500000000,173433.8593750000,161894.4375000000,164171.2812500000,52270.5742187500,170925.2656250000,,,
0.1279999998,1,153545.4687500000,153593.5781250000,178306.4687500000,173426.4843750000,161881.4218750000,164157.6718750000,52255.1796875000,170920.5156250000,,,
0.1319999998,1,153536.0468750000,153585.9375000000,178297.9062500000,173414.5156250000,161874.3750000000,164155.1562500000,52259.2304687500,170916.5781250000,,,
0.1359999997,1,153538.6562500000,153591.7343750000,178302.5781250000,173422.8281250000,161876.1093750000,164159.0000000000,52246.4882812500,170917.3750000000,,,
0.1399999997,1,153541.3906250000,153595.7031250000,178306.6562500000,173424.5312500000,161876.2968750000,164156.1562500000,52245.4414062500,170914.1406250000,,,
0.1439999996,1,153538.1875000000,153598.4375000000,178295.9843750000,173431.6562500000,161868.3125000000,164158.5625000000,52247.7226562500,170914.9687500000,,,
0.1479999996,1,153552.5468750000,153614.0937500000,178307.8281250000,173434.9843750000,161883.7500000000,164179.5312500000,52270.6015625000,170937.1718750000,,,
0.1519999998,1,153543.1875000000,153598.6718750000,178302.9218750000,173427.5625000000,161878.0937500000,164167.3125000000,52256.3593750000,170931.6718750000,,,
0.1559999997,1,153542.8281250000,153599.1562500000,178301.3906250000,173429.4531250000,161877.0468750000,164165.9375000000,52247.7500000000,170927.9531250000,,,
0.1599999997,1,153544.8750000000,153602.7343750000,178302.4218750000,173423.7968750000,161877.8750000000,164168.8125000000,52244.8242187500,170925.4843750000,,,
0.1639999996,1,153541.1250000000,153598.8906250000,178301.5000000000,173417.9531250000,161876.5468750000,164162.7187500000,52246.1953125000,170919.9375000000,,,
0.1679999996,1,153542.5468750000,153597.9531250000,178301.1562500000,173425.2500000000,161876.3750000000,164162.2343750000,52262.1250000000,170922.2656250000,,,
0.1719999998,1,153548.6875000000,153605.1406250000,178307.4062500000,173430.6406250000,161881.7187500000,164171.0156250000,52272.6953125000,170931.3281250000,,,
0.1759999997,1,153546.5312500000,153603.1562500000,178303.8437500000,173419.3437500000,161877.9687500000,164173.0781250000,52261.9648437500,170930.6875000000,,,
0.1799999997,1,153546.7031250000,153599.2343750000,178301.9062500000,173427.8281250000,161876.2656250000,164170.6406250000,52257.4570312500,170921.8281250000,,,
0.1839999997,1,153549.0312500000,153598.0312500000,178306.5781250000,173432.1718750000,161880.5937500000,164173.3437500000,52263.9218750000,170921.0000000000,,,
0.1879999996,1,153536.8593750000,153585.3437500000,178299.2031250000,173413.1718750000,161873.9687500000,164166.7187500000,52259.1484375000,170915.1875000000,,,
0.1919999996,1,153537.5781250000,153583.2343750000,178302.6250000000,173422.2968750000,161877.7187500000,164166.7968750000,52260.2226562500,170914.7343750000,,,
0.1959999998,1,153536.3906250000,153587.4062500000,178293.9375000000,173427.0937500000,161866.1093750000,164165.7500000000,52247.8554687500,170913.9687500000,,,
0.1999999997,1,153542.9687500000,153594.7968750000,178300.0312500000,173431.1718750000,161871.0937500000,164170.9062500000,52245.7109375000,170910.8906250000,,,
0.2039999997,1,153546.2656250000,153596.5937500000,178305.7656250000,173427.3437500000,161877.7187500000,164170.6093750000,52260.0351562500,170910.3593750000,,,
0.2079999996,1,153548.7343750000,153598.4375000000,178307.6406250000,173424.2343750000,161880.7500000000,164168.8125000000,52275.4843750000,170918.2187500000,,,
0.2119999996,1,153555.7031250000,153605.8593750000,178313.0625000000,173421.8437500000,161888.1250000000,164172.2500000000,52278.3789062500,170927.9218750000,,,
0.2159999998,1,153560.7500000000,153607.7500000000,178317.6718750000,173442.4687500000,161894.4062500000,164173.0468750000,52280.3632812500,170929.1093750000,,,
0.2199999997,1,153560.3281250000,153609.3281250000,178315.2187500000,173449.5000000000,161892.1718750000,164175.4843750000,52281.0625000000,170926.4218750000,,,
0.2239999997,1,153558.0937500000,153609.6718750000,178314.3750000000,173434.1562500000,161891.6093750000,164177.6093750000,52280.6601562500,170926.9531250000,,,
0.2279999997,1,153560.9375000000,153614.0468750000,178319.2031250000,173431.1718750000,161897.5156250000,164181.2343750000,52282.9648437500,170937.0468750000,,,
0.2319999996,1,153563.0312500000,153615.9218750000,178322.9375000000,173432.5781250000,161899.1250000000,164180.1562500000,52280.8476562500,170945.0156250000,,,
0.2359999996,1,153558.0625000000,153612.3281250000,178314.2187500000,173444.1250000000,161886.7812500000,164176.3750000000,52275.0000000000,170940.5625000000,,,
0.2399999998,1,153560.0000000000,153620.1093750000,178315.2656250000,173438.2500000000,161889.0625000000,164189.2187500000,52286.9648437500,170944.8750000000,,,
0.2439999997,1,153554.9531250000,153614.2656250000,178314.8593750000,173434.1875000000,161890.4531250000,164188.0625000000,52282.5117187500,170940.0156250000,,,
0.2479999997,1,153556.5625000000,153613.8281250000,178318.1875000000,173440.5625000000,161894.9687500000,164190.4062500000,52288.7343750000,170943.1250000000,,,
0.2519999996,1,153557.3125000000,153615.0468750000,178317.4687500000,173437.9062500000,161894.5156250000,164188.6875000000,52285.7812500000,170947.8281250000,,,
0.2559999996,2,153556.3281250000,153611.3906250000,178317.4687500000,173430.9375000000,161895.7187500000,164188.3437500000,52286.3984375000,170943.2187500000,,,
0.2599999995,2,153563.4687500000,153617.6093750000,178325.4531250000,173432.5468750000,161903.9531250000,164198.8437500000,52295.2773437500,170944.0937500000,,,
0.2639999995,2,153562.5000000000,153615.6875000000,178324.7812500000,173434.7656250000,161902.2968750000,164198.2656250000,52299.8125000000,170943.0000000000,,,
0.2679999995,2,153561.4687500000,153613.2500000000,178323.9531250000,173433.4843750000,161902.4843750000,164197.9375000000,52289.1093750000,170946.8125000000,,,
0.2719999994,2,153557.6875000000,153605.3906250000,178319.3125000000,173431.3125000000,161897.1718750000,164191.3593750000,52288.0078125000,170942.0781250000,,,
0.2759999994,2,153558.7343750000,153600.0156250000,178321.8906250000,173428.6562500000,161898.3750000000,164186.6718750000,52304.1562500000,170934.6875000000,,,
0.2799999996,2,153559.0937500000,153601.0937500000,178319.0000000000,173438.0468750000,161891.0781250000,164184.8281250000,52300.8554687500,170925.6406250000,,,
0.2839999995,2,153554.5000000000,153598.5937500000,178313.0156250000,173425.3750000000,161885.7187500000,164181.0625000000,52291.7656250000,170919.4218750000,,,
0.2879999995,2,153553.6406250000,153600.9062500000,178314.6406250000,173413.7968750000,161890.2656250000,164183.0781250000,52288.8945312500,170926.3125000000,,,
0.2919999994,2,153558.1250000000,153608.6093750000,178321.0781250000,173423.0156250000,161899.1718750000,164191.2812500000,52291.9531250000,170936.7812500000,,,
0.2959999994,2,153566.8906250000,153619.8906250000,178330.5312500000,173437.1562500000,161908.1406250000,164201.7187500000,52305.5234375000,170943.4062500000,,,
0.2999999996,2,153561.9375000000,153613.1093750000,178322.6406250000,173432.8437500000,161900.1093750000,164198.4687500000,52304.2890625000,170933.0781250000,,,
0.3039999995,2,153556.7343750000,153611.2812500000,178317.0625000000,173433.7812500000,161894.3750000000,164194.4218750000,52292.7304687500,170930.5781250000,,,
0.3079999995,2,153558.8437500000,153617.4218750000,178320.0156250000,173430.5937500000,161898.1875000000,164196.5156250000,52297.4765625000,170940.1250000000,,,
0.3119999995,2,153559.2500000000,153619.3593750000,178318.1562500000,173430.6718750000,161896.5156250000,164196.5781250000,52288.9492187500,170946.8906250000,,,
0.3159999994,2,153556.4375000000,153618.8750000000,178314.7343750000,173433.4218750000,161892.4687500000,164194.6406250000,52287.4726562500,170945.7343750000,,,
0.3199999994,2,153554.5625000000,153613.8906250000,178314.3281250000,173444.2187500000,161891.5312500000,164188.6875000000,52297.9335937500,170934.4687500000,,,
0.3239999996,2,153557.6093750000,153618.7968750000,178317.6718750000,173444.0000000000,161893.3906250000,164189.4843750000,52295.1445312500,170935.8906250000,,,
0.3279999995,2,153553.6250000000,153617.4218750000,178311.7500000000,173438.5781250000,161889.5156250000,164192.2812500000,52283.8515625000,170943.7187500000,,,
0.3319999995,2,153548.1250000000,153612.2812500000,178306.5937500000,173434.4531250000,161882.5000000000,164189.0625000000,52278.5156250000,170945.4687500000,,,
0.3359999994,2,153554.0937500000,153617.4218750000,178317.1718750000,173434.8437500000,161891.2656250000,164192.3593750000,52298.5234375000,170948.5468750000,,,
0.3399999994,2,153564.8281250000,153625.9062500000,178331.4687500000,173439.5468750000,161903.7656250000,164197.3281250000,52309.4414062500,170950.4843750000,,,
0.3439999996,2,153559.8437500000,153624.5625000000,178323.1562500000,173436.4375000000,161895.5781250000,164190.9843750000,52301.1796875000,170947.6718750000,,,
0.3479999995,2,153550.3750000000,153618.5000000000,178312.7187500000,173430.8750000000,161886.0625000000,164186.7343750000,52285.4609375000,170948.1406250000,,,
0.3519999995,2,153556.3593750000,153622.3593750000,178320.9843750000,173437.4062500000,161894.0781250000,164191.4687500000,52283.8515625000,170956.0625000000,,,
0.3559999994,2,153557.9375000000,153619.4062500000,178321.2968750000,173433.2656250000,161894.8906250000,164187.4218750000,52297.9335937500,170954.3906250000,,,
0.3599999994,2,153554.5781250000,153609.9375000000,178316.7968750000,173431.8125000000,161890.1406250000,164178.0156250000,52304.5585937500,170941.0468750000,,,
0.3639999994,2,153553.1562500000,153606.0781250000,178313.8437500000,173436.9687500000,161884.3125000000,164164.9218750000,52293.1601562500,170932.0000000000,,,
0.3679999996,2,153555.0312500000,153609.7500000000,178316.0937500000,173432.9687500000,161889.3906250000,164168.8125000000,52302.3046875000,170940.5781250000,,,
0.3719999995,2,153560.1406250000,153614.2656250000,178322.0000000000,173438.8437500000,161896.1250000000,164175.2812500000,52313.2500000000,170948.9218750000,,,
0.3759999995,2,153560.7500000000,153614.5000000000,178319.7968750000,173440.1406250000,161891.6093750000,164173.6406250000,52309.1445312500,170950.3750000000,,,
0.3799999994,2,153557.1875000000,153611.7343750000,178314.0625000000,173429.5468750000,161884.1093750000,164164.4062500000,52301.6875000000,170941.6250000000,,,
0.3839999994,3,153560.3281250000,153617.7187500000,178320.5000000000,173424.4375000000,161893.0937500000,164167.7968750000,52304.3164062500,170945.4687500000,,,
0.3879999993,3,153560.4375000000,153620.3437500000,178321.6718750000,173430.0781250000,161896.8125000000,164172.1875000000,52289.2968750000,170953.7812500000,,,
0.3919999993,3,153560.1875000000,153616.4062500000,178325.2187500000,173433.2343750000,161899.5781250000,164172.9062500000,52292.2187500000,170954.0000000000,,,
0.3959999993,3,153566.4375000000,153623.7812500000,178327.7343750000,173439.2500000000,161900.2812500000,164177.6093750000,52308.2578125000,170959.4062500000,,,
0.3999999992,3,153568.1250000000,153623.4062500000,178325.7500000000,173445.5000000000,161895.1562500000,164176.8281250000,52309.1992187500,170954.0000000000,,,
0.4039999992,3,153576.9531250000,153634.8125000000,178334.7343750000,173451.2187500000,161903.1718750000,164185.2500000000,52322.4218750000,170961.3437500000,,,
0.4079999994,3,153572.5468750000,153634.1718750000,178329.2968750000,173453.5468750000,161899.8437500000,164185.3281250000,52322.6914062500,170968.6093750000,,,
0.4119999993,3,153553.9062500000,153613.2500000000,178313.2500000000,173441.6875000000,161886.2031250000,164172.4843750000,52318.0507812500,170956.6250000000,,,
0.4159999993,3,153551.2343750000,153610.4531250000,178311.2187500000,173437.5000000000,161885.3437500000,164172.5625000000,52315.7968750000,170950.1875000000,,,
0.4199999992,3,153559.0625000000,153621.0156250000,178319.8437500000,173446.9218750000,161893.4062500000,164183.4843750000,52325.4257812500,170952.3125000000,,,
0.4239999992,3,153559.8593750000,153621.9843750000,178317.9531250000,173445.1718750000,161892.5468750000,164184.5000000000,52322.7421875000,170953.2656250000,,,
0.4279999994,3,153561.0156250000,153620.0000000000,178317.3281250000,173457.8906250000,161893.2031250000,164184.4531250000,52319.0976562500,170957.3750000000,,,
0.4319999993,3,153569.7343750000,153624.2968750000,178327.7343750000,173452.1562500000,161904.5625000000,164196.4375000000,52333.4726562500,170965.6093750000,,,
0.4359999993,3,153566.2812500000,153620.4062500000,178324.0312500000,173440.4531250000,161901.0781250000,164194.7500000000,52328.0273437500,170962.7656250000,,,
0.4399999992,3,153571.9062500000,153623.4375000000,178333.2968750000,173431.0937500000,161907.7812500000,164195.4218750000,52331.2734375000,170958.3437500000,,,
0.4439999992,3,153580.7343750000,153629.0468750000,178343.7031250000,173443.1406250000,161917.4218750000,164202.3125000000,52343.0195312500,170959.5468750000,,,
0.4479999992,3,153579.0781250000,153627.4531250000,178336.9843750000,173449.4375000000,161910.7343750000,164203.7656250000,52335.6171875000,170964.2656250000,,,
0.4519999993,3,153569.0937500000,153617.0468750000,178329.0312500000,173445.9062500000,161904.4062500000,164196.4062500000,52327.8671875000,170960.5156250000,,,
0.4559999993,3,153568.0156250000,153617.2656250000,178328.8593750000,173443.5468750000,161904.5625000000,164194.6718750000,52328.5390625000,170958.3125000000,,,
0.4599999993,3,153573.5781250000,153625.2031250000,178328.2812500000,173453.4375000000,161902.6093750000,164198.4531250000,52326.7656250000,170958.8750000000,,,
0.4639999992,3,153582.6718750000,153634.3593750000,178338.0312500000,173456.0156250000,161911.8125000000,164209.9218750000,52343.9609375000,170965.7187500000,,,
0.4679999992,3,153590.2343750000,153640.5937500000,178347.2968750000,173463.7187500000,161922.4062500000,164216.3593750000,52350.9882812500,170978.2656250000,,,
0.4719999994,3,153583.6875000000,153631.2343750000,178342.7343750000,173459.2343750000,161920.0781250000,164205.0781250000,52340.4726562500,170973.8906250000,,,
0.4759999993,3,153582.0000000000,153633.1718750000,178341.3906250000,173455.7187500000,161917.9531250000,164203.5468750000,52344.5234375000,170973.3906250000,,,
0.4799999993,3,153584.7656250000,153636.0156250000,178343.0468750000,173462.7187500000,161917.4375000000,164201.7812500000,52345.0078125000,170969.4218750000,,,
0.4839999992,3,153582.8593750000,153634.5156250000,178341.2500000000,173460.7343750000,161913.2031250000,164196.7031250000,52338.5156250000,170966.4062500000,,,
0.4879999992,3,153583.6250000000,153639.6562500000,178339.3750000000,173465.7812500000,161910.3281250000,164199.0625000000,52329.5820312500,170974.9687500000,,,
0.4919999992,3,153586.6406250000,153642.2031250000,178348.5781250000,173461.7031250000,161919.6406250000,164203.5468750000,52348.6289062500,170981.0312500000,,,
0.4959999993,3,153585.3281250000,153641.1875000000,178348.9531250000,173466.5000000000,161919.7812500000,164205.0781250000,52357.5312500000,170979.8281250000,,,
0.4999999993,3,153585.4062500000,153646.4531250000,178344.9531250000,173463.6875000000,161916.0156250000,164214.0625000000,52353.8554687500,170980.8125000000,,,
0.5039999993,3,153579.2656250000,153638.9062500000,178336.3125000000,173452.9218750000,161908.2500000000,164208.5625000000,52349.2421875000,170975.0000000000,,,
0.5079999992,3,153574.2968750000,153628.3437500000,178333.3906250000,173455.3437500000,161905.4062500000,164198.9375000000,52341.4101562500,170969.6250000000,,,
0.5119999992,4,153572.7968750000,153625.1718750000,178333.6093750000,173454.0312500000,161906.7187500000,164197.8281250000,52340.6875000000,170972.1875000000,,,
0.5159999991,4,153578.1562500000,153627.1406250000,178337.0937500000,173451.9687500000,161911.7031250000,164199.5156250000,52343.7460937500,170970.9531250000,,,
0.5199999991,4,153593.0000000000,153640.9531250000,178349.4375000000,173460.8750000000,161924.4218750000,164209.7968750000,52360.0546875000,170976.7343750000,,,
0.5239999990,4,153586.0937500000,153633.8437500000,178340.2031250000,173453.1406250000,161915.3593750000,164204.9375000000,52343.0742187500,170971.6406250000,,,
0.5279999990,4,153581.5156250000,153630.0000000000,178337.3906250000,173461.0781250000,161915.7812500000,164202.5468750000,52342.1093750000,170972.1875000000,,,
0.5319999990,4,153581.1406250000,153629.1718750000,178340.8281250000,173458.5156250000,161919.0468750000,164203.1406250000,52346.1328125000,170975.4062500000,,,
0.5359999991,4,153580.8437500000,153626.5468750000,178343.0781250000,173456.2812500000,161920.6562500000,164201.1875000000,52363.9687500000,170971.2187500000,,,
0.5399999991,4,153583.4218750000,153626.8437500000,178345.5937500000,173454.7500000000,161919.8281250000,164203.8593750000,52368.6914062500,170967.5625000000,,,
0.5439999991,4,153587.7031250000,153629.7187500000,178350.4531250000,173458.7968750000,161923.0000000000,164204.7500000000,52370.2734375000,170969.8125000000,,,
0.5479999990,4,153597.6093750000,153635.5000000000,178362.3906250000,173471.2968750000,161934.8281250000,164207.3750000000,52377.3281250000,170981.8906250000,,,
0.5519999990,4,153598.5156250000,153637.9218750000,178365.0000000000,173459.0937500000,161936.3281250000,164209.1250000000,52367.4296875000,170988.7812500000,,,
0.5559999992,4,153584.8125000000,153628.1562500000,178347.9375000000,173451.1562500000,161922.0781250000,164199.7968750000,52345.0859375000,170978.2187500000,,,
0.5599999991,4,153584.8437500000,153628.1093750000,178348.0625000000,173453.5468750000,161922.1093750000,164199.4375000000,52355.2265625000,170969.3437500000,,,
0.5639999991,4,153594.5000000000,153636.7968750000,178359.0156250000,173464.6250000000,161930.9687500000,164205.8750000000,52375.3945312500,170972.5312500000,,,
0.5679999990,4,153598.5937500000,153643.5468750000,178361.1875000000,173467.1718750000,161934.3906250000,164214.6562500000,52381.1640625000,170983.2812500000,,,
0.5719999990,4,153596.6406250000,153645.4843750000,178358.5312500000,173463.0156250000,161933.0468750000,164215.3437500000,52379.8203125000,170991.3281250000,,,
0.5759999990,4,153602.8125000000,153651.7343750000,178362.6562500000,173468.8281250000,161935.0156250000,164217.2187500000,52377.5429687500,170995.2812500000,,,
0.5799999991,4,153610.2968750000,153655.9687500000,178370.3593750000,173474.2031250000,161940.3437500000,164213.7031250000,52377.8906250000,170993.5000000000,,,
0.5839999991,4,153604.0156250000,153650.1250000000,178363.2031250000,173467.8125000000,161933.4218750000,164206.0312500000,52359.7578125000,170987.7031250000,,,
0.5879999991,4,153593.9062500000,153640.8437500000,178354.5625000000,173466.0468750000,161926.5625000000,164206.5000000000,52347.9296875000,170984.8437500000,,,
0.5919999990,4,153592.0000000000,153644.6562500000,178350.5625000000,173470.7968750000,161925.1406250000,164216.2031250000,52346.4804687500,170990.6406250000,,,
0.5959999990,4,153597.7656250000,153651.7812500000,178354.7500000000,173478.5156250000,161928.5781250000,164224.7812500000,52365.3632812500,170997.7656250000,,,
0.5999999992,4,153597.1718750000,153651.5468750000,178355.2031250000,173477.3125000000,161927.0156250000,164221.5625000000,52374.4570312500,170992.8125000000,,,
0.6039999991,4,153595.9218750000,153649.3750000000,178356.7031250000,173480.2343750000,161929.5625000000,164218.7812500000,52384.1914062500,170989.4062500000,,,
0.6079999991,4,153590.0468750000,153645.4531250000,178352.2500000000,173471.7031250000,161928.4375000000,164216.4687500000,52383.8437500000,170991.4843750000,,,
0.6119999990,4,153585.6093750000,153641.3750000000,178343.9843750000,173478.4843750000,161923.1250000000,164212.6406250000,52375.1796875000,170991.9687500000,,,
0.6159999990,4,153587.5781250000,153641.8593750000,178345.2187500000,173476.2656250000,161925.2187500000,164217.2968750000,52375.2890625000,170991.2500000000,,,
0.6199999989,4,153588.3750000000,153640.7656250000,178347.5625000000,173453.2968750000,161927.0000000000,164220.3125000000,52379.3398437500,170985.2500000000,,,
0.6239999991,4,153588.3593750000,153636.4687500000,178350.7031250000,173459.9062500000,161929.6406250000,164216.3125000000,52378.3476562500,170978.2656250000,,,
0.6279999991,4,153596.6718750000,153641.7343750000,178361.6718750000,173461.6250000000,161939.2031250000,164221.3750000000,52391.5429687500,170985.1875000000,,,
0.6319999991,4,153597.0468750000,153642.8593750000,178361.8281250000,173463.2812500000,161940.1093750000,164223.8750000000,52397.8437500000,170991.3281250000,,,
0.6359999990,4,153597.4218750000,153645.6718750000,178359.0625000000,173467.2812500000,161937.2968750000,164230.0937500000,52393.3398437500,170993.7656250000,,,
0.6399999990,5,153596.7968750000,153645.4218750000,178358.6875000000,173474.5937500000,161932.7812500000,164228.0312500000,52385.9375000000,170988.6718750000,,,
0.6439999989,5,153600.7656250000,153650.0468750000,178364.0312500000,173478.8125000000,161935.3593750000,164229.0781250000,52394.7070312500,170989.7187500000,,,
0.6479999989,5,153602.2500000000,153653.1875000000,178368.5312500000,173483.6718750000,161939.2812500000,164227.1406250000,52392.5625000000,170994.4218750000,,,
0.6519999988,5,153602.6406250000,153658.2031250000,178367.3281250000,173477.5000000000,161937.3125000000,164230.6562500000,52388.6718750000,171005.8906250000,,,
0.6559999988,5,153595.9218750000,153655.8437500000,178356.5781250000,173462.1250000000,161927.0781250000,164231.8125000000,52375.3164062500,171006.4375000000,,,
0.6599999988,5,153600.2031250000,153657.6406250000,178358.8750000000,173452.1718750000,161930.4218750000,164233.3125000000,52374.7265625000,171001.8750000000,,,
0.6639999989,5,153600.7968750000,153654.6250000000,178359.6250000000,173456.2343750000,161930.6875000000,164228.2187500000,52380.2226562500,170996.6406250000,,,
0.6679999989,5,153608.2500000000,153658.8906250000,178368.1250000000,173464.1875000000,161940.2500000000,164231.3125000000,52395.2968750000,171003.2656250000,,,
0.6719999989,5,153615.9218750000,153668.9062500000,178375.5937500000,173472.8281250000,161949.8437500000,164241.3906250000,52402.5664062500,171017.3281250000,,,
0.6759999988,5,153612.5156250000,153668.4218750000,178369.6562500000,173473.2031250000,161946.0156250000,164240.7500000000,52402.4843750000,171017.4218750000,,,
0.6799999988,5,153608.9531250000,153664.3593750000,178365.4687500000,173477.3906250000,161939.8906250000,164235.9218750000,52400.7968750000,171009.2500000000,,,
0.6839999990,5,153609.4062500000,153665.4062500000,178364.9062500000,173484.5000000000,161938.3593750000,164237.0156250000,52400.0468750000,171007.4531250000,,,
0.6879999989,5,153600.7656250000,153655.3593750000,178359.6875000000,173483.0468750000,161933.1406250000,164229.7500000000,52395.0546875000,171001.7343750000,,,
0.6919999989,5,153591.8593750000,153647.8125000000,178350.2343750000,173480.8281250000,161923.4218750000,164227.0937500000,52382.7187500000,170999.4531250000,,,
0.6959999988,5,153595.4062500000,153652.2968750000,178357.3750000000,173478.4062500000,161929.5625000000,164234.8125000000,52387.4375000000,171003.1562500000,,,
0.6999999988,5,153596.2343750000,153653.7500000000,178359.5156250000,173480.0937500000,161931.5000000000,164236.4218750000,52384.4062500000,171000.8281250000,,,
0.7039999987,5,153593.3906250000,153650.3593750000,178351.8750000000,173484.4687500000,161927.0937500000,164233.1875000000,52383.7656250000,170994.2343750000,,,
0.7079999989,5,153597.2031250000,153651.2812500000,178356.2187500000,173487.3906250000,161933.5156250000,164233.4843750000,52394.4375000000,170997.1562500000,,,
0.7119999989,5,153595.6718750000,153648.1406250000,178357.1093750000,173491.5781250000,161935.6093750000,164237.3437500000,52399.0000000000,170999.3281250000,,,
0.7159999989,5,153588.9375000000,153639.3125000000,178351.0156250000,173479.8906250000,161929.6406250000,164230.1562500000,52390.7382812500,170989.8593750000,,,
0.7199999988,5,153593.2031250000,153640.0625000000,178357.1875000000,173476.7812500000,161933.6718750000,164228.4375000000,52394.2500000000,170983.5468750000,,,
0.7239999988,5,153590.9062500000,153637.7812500000,178356.7031250000,173476.7500000000,161931.8281250000,164227.2812500000,52395.1367187500,170978.0781250000,,,
0.7279999990,5,153589.4218750000,153637.6562500000,178355.7343750000,173485.5468750000,161930.9843750000,164229.7968750000,52394.6523437500,170985.2968750000,,,
0.7319999989,5,153585.1875000000,153637.4687500000,178350.4843750000,173473.4531250000,161926.2187500000,164229.3437500000,52385.6406250000,170992.1875000000,,,
0.7359999989,5,153587.8125000000,153643.3437500000,178350.8593750000,173466.6406250000,161925.5156250000,164233.2343750000,52380.0078125000,170996.3437500000,,,
0.7399999988,5,153599.3437500000,153653.3437500000,178364.1562500000,173469.2343750000,161938.5468750000,164241.3125000000,52394.7617187500,171000.6718750000,,,
0.7439999988,5,153597.2031250000,153646.2812500000,178365.5312500000,173464.9375000000,161939.7656250000,164233.8593750000,52395.6992187500,170996.3750000000,,,
0.7479999987,5,153600.2343750000,153651.8593750000,178367.8437500000,173474.8750000000,161942.5000000000,164244.3906250000,52407.5820312500,171006.0312500000,,,
0.7519999989,5,153596.9843750000,153648.0000000000,178361.3750000000,173481.6562500000,161936.0000000000,164242.2500000000,52397.2304687500,171008.5312500000,,,
0.7559999989,5,153595.7500000000,153647.3281250000,178356.4687500000,173475.7500000000,161932.1093750000,164239.1093750000,52382.4765625000,171006.1562500000,,,
0.7599999988,5,153596.9062500000,153648.9218750000,178358.1562500000,173465.3437500000,161932.7031250000,164238.4687500000,52379.2304687500,171002.4375000000,,,
0.7639999988,5,153598.2968750000,153651.9218750000,178358.8281250000,173472.6406250000,161933.5312500000,164238.8906250000,52390.5507812500,171001.2031250000,,,
0.7679999988,6,153600.0468750000,153654.8750000000,178361.2656250000,173473.9531250000,161936.2968750000,164239.3593750000,52414.8515625000,171006.9687500000,,,
0.7719999987,6,153592.7500000000,153642.1250000000,178360.2968750000,173473.6406250000,161933.6718750000,164229.1250000000,52400.6875000000,171004.7187500000,,,
0.7759999987,6,153588.3593750000,153637.8593750000,178357.1562500000,173477.9531250000,161929.2500000000,164228.8437500000,52383.9257812500,170997.6562500000,,,
0.7799999986,6,153596.0156250000,153646.7187500000,178364.2187500000,173478.6250000000,161934.9531250000,164236.0312500000,52421.2070312500,170998.1718750000,,,
0.7839999986,6,153601.0937500000,153650.2031250000,178360.4843750000,173484.8750000000,161930.6093750000,164236.9843750000,52409.2734375000,170997.9843750000,,,
0.7879999985,6,153604.0625000000,153650.3125000000,178363.4687500000,173486.7500000000,161934.0468750000,164237.8437500000,52406.9648437500,171002.8906250000,,,
0.7919999987,6,153603.1093750000,153647.6875000000,178364.6250000000,173486.1406250000,161936.3281250000,164237.0937500000,52404.3085937500,171004.7500000000,,,
0.7959999987,6,153601.5000000000,153645.6718750000,178360.9687500000,173500.8125000000,161933.7812500000,164234.1250000000,52399.5898437500,171000.7187500000,,,
0.7999999986,6,153612.3593750000,153656.6875000000,178372.8281250000,173512.8750000000,161944.3125000000,164244.6093750000,52413.3476562500,171004.5468750000,,,
0.8039999986,6,153607.4687500000,153647.3906250000,178367.8906250000,173506.0625000000,161938.5468750000,164235.7812500000,52407.5546875000,170994.6093750000,,,
0.8079999986,6,153600.2656250000,153640.7968750000,178364.3437500000,173477.9531250000,161936.5156250000,164231.7656250000,52405.1406250000,170992.6406250000,,,
0.8119999988,6,153595.5937500000,153641.3593750000,178361.6406250000,173471.0937500000,161936.1406250000,164233.7187500000,52411.8203125000,170998.1250000000,,,
0.8159999987,6,153589.2968750000,153639.8750000000,178351.7187500000,173471.7656250000,161925.6562500000,164227.3906250000,52396.2343750000,170996.9843750000,,,
0.8199999987,6,153598.4843750000,153651.7656250000,178358.4687500000,173478.5781250000,161930.0156250000,164231.7031250000,52399.7226562500,171000.7500000000,,,
0.8239999986,6,153605.2031250000,153659.5937500000,178368.4843750000,173480.4531250000,161936.7500000000,164237.1562500000,52403.4765625000,171005.1250000000,,,
0.8279999986,6,153609.5937500000,153667.1875000000,178372.5000000000,173495.2343750000,161940.8125000000,164250.0468750000,52412.6523437500,171017.0781250000,,,
0.8319999985,6,153599.0468750000,153654.1406250000,178361.2187500000,173486.7812500000,161931.2343750000,164246.5937500000,52406.0273437500,171013.6406250000,,,
0.8359999987,6,153594.9218750000,153649.5937500000,178354.8593750000,173486.8593750000,161925.3593750000,164241.0625000000,52397.1210937500,171009.9218750000,,,
0.8399999987,6,153600.7656250000,153653.4687500000,178359.3593750000,173490.3437500000,161928.5781250000,164242.2187500000,52399.5898437500,171005.7343750000,,,
0.8439999986,6,153597.3437500000,153650.0468750000,178358.6093750000,173480.5312500000,161927.8750000000,164240.7500000000,52399.9648437500,170997.8281250000,,,
0.8479999986,6,153596.0781250000,153648.4062500000,178358.5000000000,173479.8281250000,161928.3906250000,164241.3593750000,52409.2734375000,171000.5312500000,,,
0.8519999986,6,153601.7031250000,153654.8750000000,178359.4687500000,173487.0781250000,161930.0000000000,164247.0781250000,52407.9570312500,171010.1093750000,,,
0.8559999987,6,153603.2343750000,153655.8906250000,178359.3906250000,173491.7187500000,161928.5468750000,164245.5468750000,52409.5937500000,171010.8906250000,,,
0.8599999987,6,153605.0312500000,153656.9062500000,178364.7031250000,173480.2343750000,161930.1875000000,164244.9375000000,52414.3671875000,171005.9531250000,,,
0.8639999987,6,153609.1406250000,153660.4843750000,178371.3281250000,173476.0000000000,161934.1562500000,164247.4062500000,52415.2265625000,171007.3125000000,,,
0.8679999986,6,153620.7812500000,153668.6250000000,178381.5625000000,173497.2656250000,161945.5468750000,164257.2656250000,52423.5156250000,171019.5468750000,,,
0.8719999986,6,153613.4375000000,153656.3437500000,178374.7031250000,173484.6093750000,161942.8906250000,164252.4218750000,52413.3476562500,171015.0468750000,,,
0.8759999985,6,153610.2187500000,153646.8437500000,178376.2343750000,173481.9843750000,161945.3437500000,164247.8750000000,52401.7070312500,171004.5468750000,,,
0.8799999987,6,153610.0312500000,153647.9843750000,178374.5937500000,173482.8281250000,161940.2968750000,164249.4062500000,52413.8867187500,170996.9687500000,,,
0.8839999987,6,153610.1093750000,153648.8125000000,178372.6718750000,173489.7500000000,161937.5312500000,164249.4843750000,52426.8125000000,170994.3281250000,,,
0.8879999986,6,153612.2187500000,153652.5312500000,178376.7656250000,173491.2343750000,161945.0156250000,164251.9531250000,52430.9453125000,171001.2031250000,,,
0.8919999986,6,153603.7812500000,153646.7968750000,178371.8281250000,173488.5000000000,161941.5781250000,164245.9218750000,52417.9882812500,171002.5468750000,,,
0.8959999986,7,153600.0156250000,153645.5312500000,178368.3125000000,173480.0937500000,161937.1093750000,164248.6562500000,52410.8554687500,171001.0937500000,,,
0.8999999985,7,153598.7656250000,153645.3437500000,178367.4062500000,173476.6718750000,161934.2031250000,164245.3906250000,52413.1601562500,170992.5312500000,,,
0.9039999985,7,153592.2656250000,153642.9687500000,178354.6093750000,173469.7187500000,161921.0625000000,164241.2343750000,52412.1679687500,170989.7500000000,,,
0.9079999984,7,153584.3593750000,153632.7500000000,178346.3750000000,173463.5781250000,161912.5937500000,164230.5468750000,52399.6171875000,170986.5625000000,,,
0.9119999984,7,153588.7031250000,153633.7343750000,178351.8281250000,173480.2343750000,161919.7187500000,164233.8593750000,52403.2109375000,170992.9062500000,,,
0.9159999983,7,153599.8906250000,153647.3125000000,178358.2656250000,173486.5312500000,161927.7500000000,164247.4531250000,52405.9726562500,171005.6875000000,,,
0.9199999985,7,153610.8593750000,153661.5156250000,178366.9531250000,173496.0312500000,161935.8125000000,164257.9375000000,52414.8242187500,171014.2031250000,,,
0.9239999985,7,153613.5156250000,153665.2187500000,178375.3125000000,173495.8750000000,161946.1406250000,164263.3593750000,52429.7890625000,171018.5000000000,,,
0.9279999984,7,153614.1875000000,153665.4687500000,178377.6562500000,173493.4843750000,161951.2968750000,164264.6406250000,52437.3007812500,171024.6250000000,,,
0.9319999984,7,153609.3593750000,153660.1875000000,178369.1718750000,173496.4687500000,161944.5312500000,164259.1406250000,52430.4062500000,171024.7031250000,,,
0.9359999984,7,153612.1718750000,153662.9375000000,178369.8281250000,173492.7812500000,161944.4218750000,164265.5000000000,52432.7421875000,171027.1718750000,,,
0.9399999985,7,153622.6875000000,153671.4218750000,178379.2031250000,173501.4843750000,161950.1875000000,164271.0000000000,52434.9687500000,171029.3125000000,,,
0.9439999985,7,153623.9218750000,153671.1250000000,178381.4843750000,173503.5156250000,161950.8125000000,164271.2968750000,52431.6132812500,171029.1718750000,,,
0.9479999985,7,153622.4218750000,153669.6250000000,178385.7187500000,173499.8125000000,161954.4375000000,164268.5000000000,52427.5625000000,171031.4531250000,,,
0.9519999984,7,153615.2343750000,153662.0000000000,178378.2656250000,173499.7343750000,161947.3281250000,164263.2187500000,52415.6015625000,171029.9218750000,,,
0.9559999984,7,153610.7812500000,153655.2187500000,178374.1093750000,173499.2812500000,161942.7656250000,164261.8281250000,52425.0429687500,171021.8593750000,,,
0.9599999983,7,153612.7031250000,153653.0781250000,178378.0000000000,173506.0625000000,161946.0312500000,164263.8125000000,52446.3398437500,171013.5937500000,,,
0.9639999985,7,153615.0625000000,153652.7031250000,178382.7812500000,173505.2812500000,161950.5156250000,164267.9687500000,52453.9296875000,171008.0468750000,,,
0.9679999985,7,153609.4843750000,153649.7187500000,178377.8750000000,173494.7656250000,161949.1406250000,164266.9218750000,52453.4492187500,171007.4531250000,,,
0.9719999984,7,153598.7343750000,153642.5625000000,178363.5156250000,173491.1562500000,161936.2500000000,164260.1875000000,52435.1562500000,171004.9062500000,,,
0.9759999984,7,153598.2812500000,153644.2031250000,178357.9375000000,173484.0625000000,161931.3125000000,164259.7656250000,52418.5234375000,171004.2343750000,,,
0.9799999984,7,153611.0781250000,153655.8125000000,178368.0312500000,173486.6406250000,161941.2343750000,164268.9843750000,52420.5898437500,171005.0156250000,,,
0.9839999985,7,153613.7187500000,153658.5781250000,178371.1875000000,173486.4531250000,161941.6562500000,164268.3125000000,52439.2578125000,171005.1718750000,,,
0.9879999985,7,153613.4531250000,153660.4218750000,178373.9531250000,173483.3125000000,161944.3125000000,164269.8437500000,52442.3164062500,171010.2343750000,,,
0.9919999985,7,153606.4531250000,153657.1250000000,178364.6718750000,173478.8125000000,161937.6093750000,164270.9218750000,52434.1875000000,171013.2187500000,,,
0.9959999984,7,153608.6250000000,153659.8593750000,178365.2031250000,173492.8125000000,161938.7187500000,164273.7187500000,52433.5468750000,171014.0156250000,,,
0.9999999984,7,153615.8437500000,153663.6406250000,178375.0781250000,173496.5468750000,161947.1406250000,164277.7031250000,52442.2343750000,171014.9062500000,,,
1.0039999983,7,153615.3906250000,153663.4531250000,178374.4062500000,173499.3281250000,161946.5468750000,164274.1875000000,52441.9687500000,171015.7343750000,,,
1.0079999985,7,153613.9062500000,153663.7187500000,178375.2343750000,173502.6562500000,161947.5156250000,164271.7500000000,52442.7734375000,171021.7187500000,,,
1.0119999985,7,153617.5312500000,153666.8281250000,178380.1406250000,173511.5937500000,161954.0625000000,164277.5781250000,52449.1015625000,171031.7031250000,,,
1.0159999984,7,153612.1406250000,153660.5781250000,178374.6718750000,173500.6250000000,161948.3906250000,164274.1718750000,52446.6875000000,171026.0937500000,,,
1.0199999984,7,153605.4687500000,153657.5000000000,178367.1718750000,173485.3593750000,161939.0156250000,164270.0156250000,52436.6562500000,171018.9062500000,,,
1.0239999983,8,153605.3906250000,153659.2968750000,178367.8437500000,173484.5468750000,161937.0781250000,164271.8593750000,52434.2695312500,171018.7656250000,,,
1.0279999983,8,153606.5156250000,153657.5000000000,178368.7500000000,173484.1718750000,161938.4531250000,164271.2500000000,52432.5820312500,171021.8593750000,,,
1.0319999983,8,153601.8906250000,153654.3593750000,178362.5781250000,173486.2968750000,161935.4375000000,164268.4531250000,52426.3320312500,171024.4062500000,,,
1.0359999982,8,153607.1562500000,153659.3750000000,178366.6250000000,173488.7343750000,161940.0781250000,164271.8906250000,52432.9843750000,171027.7500000000,,,
1.0399999982,8,153609.7812500000,153656.7968750000,178372.0000000000,173490.9062500000,161943.7343750000,164271.4531250000,52441.7265625000,171023.0312500000,,,
1.0439999981,8,153607.7500000000,153650.3906250000,178369.1562500000,173483.7812500000,161942.7656250000,164272.7968750000,52444.6484375000,171016.0937500000,,,
1.0479999983,8,153608.2343750000,153645.7812500000,178370.8906250000,173489.4843750000,161945.5312500000,164270.1406250000,52441.1640625000,171015.2031250000,,,
1.0519999983,8,153602.9687500000,153640.6250000000,178370.5781250000,173485.9687500000,161946.1718750000,164268.3750000000,52442.3710937500,171011.9843750000,,,
1.0559999982,8,153603.4531250000,153642.2343750000,178370.3593750000,173488.1406250000,161944.2343750000,164269.9843750000,52442.5039062500,171006.7500000000,,,
1.0599999982,8,153605.7656250000,153647.2343750000,178367.1875000000,173486.8125000000,161938.6406250000,164271.3437500000,52437.0312500000,171002.4843750000,,,
1.0639999982,8,153603.7968750000,153645.4531250000,178364.5937500000,173486.2187500000,161934.3906250000,164268.4531250000,52431.4531250000,170997.8437500000,,,
1.0679999983,8,153607.8281250000,153652.2187500000,178367.5625000000,173497.5937500000,161936.2656250000,164269.6093750000,52422.6015625000,171003.5312500000,,,
1.0719999983,8,153609.4843750000,153656.4843750000,178369.7343750000,173493.1406250000,161939.2500000000,164273.0156250000,52427.9414062500,171012.5156250000,,,
1.0759999983,8,153612.0156250000,153661.0468750000,178369.6406250000,173503.0000000000,161939.0312500000,164276.7187500000,52421.2070312500,171017.3281250000,,,
1.0799999982,8,153610.1093750000,153659.5156250000,178364.1406250000,173501.8593750000,161933.0468750000,164271.2656250000,52426.4375000000,171011.4687500000,,,
1.0839999982,8,153607.0156250000,153656.9375000000,178360.2968750000,173495.7968750000,161929.0312500000,164269.6562500000,52429.0117187500,171006.7812500000,,,
1.0879999981,8,153607.8750000000,153655.4843750000,178362.4375000000,173491.9531250000,161930.6406250000,164270.3593750000,52431.0234375000,171008.6093750000,,,
1.0919999983,8,153607.2031250000,153653.7968750000,178360.4062500000,173476.1093750000,161930.3125000000,164270.1093750000,52432.5273437500,171014.5937500000,,,
1.0959999983,8,153610.9062500000,153659.8593750000,178363.5781250000,173476.2968750000,161936.2187500000,164271.1406250000,52438.6679687500,171021.6406250000,,,
1.0999999982,8,153611.7187500000,153658.1406250000,178365.0156250000,173480.0000000000,161936.6406250000,164269.0781250000,52436.6835937500,171016.9218750000,,,
1.1039999982,8,153617.7968750000,153656.9687500000,178379.1875000000,173483.5937500000,161948.7656250000,164267.7031250000,52445.3750000000,171013.2187500000,,,
1.1079999981,8,153624.7031250000,153660.6718750000,178387.7968750000,173492.7812500000,161957.4687500000,164270.4375000000,52455.5117187500,171019.7656250000,,,
1.1119999983,8,153616.3593750000,153653.1250000000,178375.9843750000,173497.0468750000,161946.6562500000,164266.0937500000,52443.0156250000,171018.6406250000,,,
1.1159999983,8,153611.7968750000,153646.3125000000,178375.0781250000,173489.6250000000,161947.0625000000,164264.6406250000,52448.5117187500,171015.8437500000,33029,1.1166782517,0.0000000000
1.1199999982,8,153611.7187500000,153647.0312500000,178377.6875000000,173487.0000000000,161948.6093750000,164268.6093750000,52449.5039062500,171013.3593750000,,,
1.1239999982,8,153608.8750000000,153644.2968750000,178376.4218750000,173489.7500000000,161945.6093750000,164264.2968750000,52451.2500000000,171006.5156250000,,,
1.1279999982,8,153608.3281250000,153646.0937500000,178371.2656250000,173491.0468750000,161940.3281250000,164266.2343750000,52439.0156250000,171010.8593750000,,,
1.1319999981,8,153612.4687500000,153655.2187500000,178369.6406250000,173486.4843750000,161941.8593750000,164274.7031250000,52448.9414062500,171024.2968750000,,,
1.1359999983,8,153616.4687500000,153660.9375000000,178369.3906250000,173484.3125000000,161942.9218750000,164277.8437500000,52450.6601562500,171031.2187500000,,,
1.1399999983,8,153619.1406250000,153663.5312500000,178367.2968750000,173482.5156250000,161939.7656250000,164278.7031250000,52446.9023437500,171029.8750000000,,,
1.1439999982,8,153622.6875000000,153667.3906250000,178369.0937500000,173483.1562500000,161941.9531250000,164281.8125000000,52447.7617187500,171025.7500000000,,,
1.1479999982,8,153623.0937500000,153668.3125000000,178371.1406250000,173490.3125000000,161944.7500000000,164279.4531250000,52430.7031250000,171029.7187500000,,,
1.1519999981,9,153623.0625000000,153670.6718750000,178372.2031250000,173494.7187500000,161946.9687500000,164277.6875000000,52439.4453125000,171034.4062500000,,,
1.1559999981,9,153626.5156250000,153675.5000000000,178373.8906250000,173487.4687500000,161948.6875000000,164278.2187500000,52459.9921875000,171037.7656250000,,,
1.1599999981,9,153627.3281250000,153677.2968750000,178369.2343750000,173485.1093750000,161942.8906250000,164280.0468750000,52455.6992187500,171035.5312500000,,,
1.1639999980,9,153622.7968750000,153674.0781250000,178366.2031250000,173477.3437500000,161938.8281250000,164274.6562500000,52448.5664062500,171029.7343750000,,,
1.1679999980,9,153629.5312500000,153675.4218750000,178379.3906250000,173491.0156250000,161950.8437500000,164273.7656250000,52461.1992187500,171034.9687500000,,,
1.1719999979,9,153624.9062500000,153669.0625000000,178375.4531250000,173487.2343750000,161948.5312500000,164268.2187500000,52456.2109375000,171036.3437500000,,,
1.1759999981,9,153622.4218750000,153666.5312500000,178372.4218750000,173484.2343750000,161945.6406250000,164268.4218750000,52457.0937500000,171037.4687500000,,,
1.1799999981,9,153626.2500000000,153670.2187500000,178376.2656250000,173490.2187500000,161947.4062500000,164274.4843750000,52459.4296875000,171038.1562500000,,,
1.1839999980,9,153630.5937500000,153674.9375000000,178386.6875000000,173497.4531250000,161956.4687500000,164282.6093750000,52460.6367187500,171039.0781250000,,,
1.1879999980,9,153631.2968750000,153676.7500000000,178393.9062500000,173504.9687500000,161963.9062500000,164288.4687500000,52463.7734375000,171046.3906250000,,,
1.1919999979,9,153625.0468750000,153671.4218750000,178383.6875000000,173503.7500000000,161954.5937500000,164288.7656250000,52465.4648437500,171046.7656250000,,,
1.1959999981,9,153614.6875000000,153657.8437500000,178371.7031250000,173485.4843750000,161944.3125000000,164277.3906250000,52461.0390625000,171035.8593750000,,,
1.1999999981,9,153614.7187500000,153658.3906250000,178368.3437500000,173485.4062500000,161939.5468750000,164273.4218750000,52458.0351562500,171027.0312500000,,,
1.2039999980,9,153626.5937500000,153668.4375000000,178380.2343750000,173497.7500000000,161951.1250000000,164278.1093750000,52468.3320312500,171030.8437500000,,,
1.2079999980,9,153623.3593750000,153666.0781250000,178377.2500000000,173492.6718750000,161949.0937500000,164273.5468750000,52462.1640625000,171030.6718750000,,,
1.2119999980,9,153625.1250000000,153667.2968750000,178380.2812500000,173493.2500000000,161954.4062500000,164272.2656250000,52467.6093750000,171035.2656250000,,,
1.2159999979,9,153627.9375000000,153669.6562500000,178380.2343750000,173498.2812500000,161955.6406250000,164278.4531250000,52470.3984375000,171038.2500000000,,,
1.2199999981,9,153632.1562500000,153673.4843750000,178383.0781250000,173499.2187500000,161959.2343750000,164289.3750000000,52481.6640625000,171038.0781250000,,,
1.2239999981,9,153632.1250000000,153674.0156250000,178383.6875000000,173503.7031250000,161960.0937500000,164294.2343750000,52484.8281250000,171035.4531250000,,,
1.2279999980,9,153634.6718750000,153675.3906250000,178391.2500000000,173510.6250000000,161966.6093750000,164295.7812500000,52487.4296875000,171038.9687500000,,,
1.2319999980,9,153631.3437500000,153674.2968750000,178390.9062500000,173495.5156250000,161966.9843750000,164293.0000000000,52488.9062500000,171044.0937500000,,,
1.2359999979,9,153626.2500000000,153671.7968750000,178382.5156250000,173490.7500000000,161958.3281250000,164289.5625000000,52476.0039062500,171042.1093750000,,,
1.2399999981,9,153627.7812500000,153676.1406250000,178380.5000000000,173495.7656250000,161952.7343750000,164286.1093750000,52463.9609375000,171040.6093750000,,,
1.2439999981,9,153632.2343750000,153680.7812500000,178385.5312500000,173494.0937500000,161954.9687500000,164290.8281250000,52467.6093750000,171042.3437500000,,,
1.2479999980,9,153630.2500000000,153675.8750000000,178385.1093750000,173493.9687500000,161954.8281250000,164288.7656250000,52469.1640625000,171045.3437500000,,,
1.2519999980,9,153627.3281250000,153670.1875000000,178384.7343750000,173482.1718750000,161954.8906250000,164284.7031250000,52479.1718750000,171047.2343750000,,,
1.2559999980,9,153618.1250000000,153660.6093750000,178376.6093750000,173473.8750000000,161947.0000000000,164278.1875000000,52464.5234375000,171040.1406250000,,,
1.2599999979,9,153617.0468750000,153659.8906250000,178375.4218750000,173481.7656250000,161944.0000000000,164277.4375000000,52461.2539062500,171034.3281250000,,,
1.2639999981,9,153620.2656250000,153664.2031250000,178379.2031250000,173498.4687500000,161947.3281250000,164280.8125000000,52464.9257812500,171032.0468750000,,,
1.2679999981,9,153619.7343750000,153665.6875000000,178377.6562500000,173501.8593750000,161946.8906250000,164282.2187500000,52470.3437500000,171035.1875000000,,,
1.2719999980,9,153613.9375000000,153656.5625000000,178371.6718750000,173487.1562500000,161942.5000000000,164277.3906250000,52463.5585937500,171033.0468750000,,,
1.2759999980,9,153606.3437500000,153649.1562500000,178363.4062500000,173471.0937500000,161936.4843750000,164269.6875000000,52433.4101562500,171025.4687500000,,,
1.2799999979,10,153611.5468750000,153656.2656250000,178368.9062500000,173465.5312500000,161941.6875000000,164272.4531250000,52442.5039062500,171024.5937500000,,,
1.2839999979,10,153628.8750000000,153674.8750000000,178385.8593750000,173480.3906250000,161960.2187500000,164287.2812500000,52481.9609375000,171035.4531250000,,,
1.2879999978,10,153619.2500000000,153663.0781250000,178372.9375000000,173475.3593750000,161951.7187500000,164282.6093750000,52486.4375000000,171032.4531250000,,,
1.2919999978,10,153609.1875000000,153649.7500000000,178360.5156250000,173481.4375000000,161942.4375000000,164271.4375000000,52477.5351562500,171027.4062500000,,,
1.2959999978,10,153614.6718750000,153654.0156250000,178363.9531250000,173488.5000000000,161947.5937500000,164276.6875000000,52469.1132812500,171034.0625000000,,,
1.2999999977,10,153613.8281250000,153652.0000000000,178364.1093750000,173484.0625000000,161945.2031250000,164275.2343750000,52459.3476562500,171027.7031250000,,,
1.3039999979,10,153614.9062500000,153655.7812500000,178368.7968750000,173489.0781250000,161947.7812500000,164279.7656250000,52478.9804687500,171025.0000000000,,,
1.3079999979,10,153618.3906250000,153662.6718750000,178378.5312500000,173496.7343750000,161957.2187500000,164287.0937500000,52491.8828125000,171033.2500000000,,,
1.3119999978,10,153620.7031250000,153669.1718750000,178386.5781250000,173492.6562500000,161964.2812500000,164291.4375000000,52493.1171875000,171044.4375000000,,,
1.3159999978,10,153619.2031250000,153660.0000000000,178390.5000000000,173492.1406250000,161965.0781250000,164280.3593750000,52484.6132812500,171037.4375000000,,,
1.3199999977,10,153630.4843750000,153672.7812500000,178401.0625000000,173499.8125000000,161970.6093750000,164285.4375000000,52494.9414062500,171041.1093750000,,,
1.3239999979,10,153624.2968750000,153666.1406250000,178393.6875000000,173494.9843750000,161964.0937500000,164283.6406250000,52496.1757812500,171035.1562500000,,,
1.3279999979,10,153621.0156250000,153666.7500000000,178387.2031250000,173480.8750000000,161958.9843750000,164284.7343750000,52491.8046875000,171039.7500000000,,,
1.3319999978,10,153620.7031250000,153670.2968750000,178386.1093750000,173478.0312500000,161959.9531250000,164285.6718750000,52489.2031250000,171049.0312500000,,,
1.3359999978,10,153625.1718750000,153676.7500000000,178388.7031250000,173490.0781250000,161965.2187500000,164289.8593750000,52494.0546875000,171055.6250000000,,,
1.3399999978,10,153631.3437500000,153683.7343750000,178395.0312500000,173505.3125000000,161970.2031250000,164293.8750000000,52502.7460937500,171055.7343750000,,,
1.3439999977,10,153630.2500000000,153685.6406250000,178395.1718750000,173497.8281250000,161968.2656250000,164292.7500000000,52498.4804687500,171054.0625000000,,,
1.3479999979,10,153622.1718750000,153679.4687500000,178387.6093750000,173492.5937500000,161961.2656250000,164294.9531250000,52486.0351562500,171053.5625000000,,,
1.3519999979,10,153614.4531250000,153674.2656250000,178380.2812500000,173487.4687500000,161954.8593750000,164303.5937500000,52482.2265625000,171052.8281250000,,,
1.3559999978,10,153617.4843750000,153678.5000000000,178379.3906250000,173485.3281250000,161954.7031250000,164315.9843750000,52482.3906250000,171056.3750000000,,,
1.3599999978,10,153616.6718750000,153670.4218750000,178378.0000000000,173481.8906250000,161952.9218750000,164305.9531250000,52480.0820312500,171046.8750000000,,,
1.3639999977,10,153621.1093750000,153667.4531250000,178381.5156250000,173483.5312500000,161956.0468750000,164297.5000000000,52481.9335937500,171039.2968750000,,,
1.3679999979,10,153625.1250000000,153668.4375000000,178386.4531250000,173481.0937500000,161962.0468750000,164294.6250000000,52488.3710937500,171040.8750000000,,,
1.3719999979,10,153633.0156250000,153673.0625000000,178395.4843750000,173494.0937500000,161971.1875000000,164297.5000000000,52495.4765625000,171047.9531250000,,,
1.3759999978,10,153633.2187500000,153672.5781250000,178394.7656250000,173497.9843750000,161969.3125000000,164294.4375000000,52487.9687500000,171046.8593750000,,,
1.3799999978,10,153643.5000000000,153681.3906250000,178406.9687500000,173493.9062500000,161981.0937500000,164297.3750000000,52495.3437500000,171050.2656250000,,,
1.3839999977,10,153647.4218750000,153685.1875000000,178414.8750000000,173497.0781250000,161988.3125000000,164299.4062500000,52493.2500000000,171050.9062500000,,,
1.3879999977,10,153645.7812500000,153686.2031250000,178413.8437500000,173493.8593750000,161985.7343750000,164303.5156250000,52490.1953125000,171056.3281250000,,,
1.3919999979,10,153643.3906250000,153683.4687500000,178410.6718750000,173499.6875000000,161982.0625000000,164299.6718750000,52500.9218750000,171059.3281250000,,,
1.3959999979,10,153641.2500000000,153681.5781250000,178407.0000000000,173499.2187500000,161976.7812500000,164295.1093750000,52493.0625000000,171057.0781250000,,,
1.3999999978,10,153647.1250000000,153687.6718750000,178412.0625000000,173505.1562500000,161981.3906250000,164301.2343750000,52499.8515625000,171058.3125000000,,,
1.4039999978,10,153648.7500000000,153689.6093750000,178412.2031250000,173511.1406250000,161982.0000000000,164305.9531250000,52502.9882812500,171058.0156250000,,,
1.4079999977,11,153647.7343750000,153688.2343750000,178408.9218750000,173509.8125000000,161980.0781250000,164304.0781250000,52501.0039062500,171060.2656250000,,,
1.4119999977,11,153639.7968750000,153682.0156250000,178402.8906250000,173493.2500000000,161973.8437500000,164297.0468750000,52497.4882812500,171058.2031250000,,,
1.4159999976,11,153641.2656250000,153684.7500000000,178404.2656250000,173492.3593750000,161975.0312500000,164293.3437500000,52496.6835937500,171060.5781250000,,,
1.4199999976,11,153648.5156250000,153694.3750000000,178408.4218750000,173498.2031250000,161980.6562500000,164298.9843750000,52503.1484375000,171063.7812500000,,,
1.4239999976,11,153649.3125000000,153697.4687500000,178407.2656250000,173502.7656250000,161980.7656250000,164301.3125000000,52502.3437500000,171063.2187500000,,,
1.4279999975,11,153639.1250000000,153689.1250000000,178398.1250000000,173487.9375000000,161973.8281250000,164295.1093750000,52494.9414062500,171059.7500000000,,,
1.4319999977,11,153636.0156250000,153687.9218750000,178396.2343750000,173476.7500000000,161972.8906250000,164298.0312500000,52489.3906250000,171062.2812500000,,,
1.4359999977,11,153637.0937500000,153688.6093750000,178399.5937500000,173483.6406250000,161974.1406250000,164302.3281250000,52500.1992187500,171065.0937500000,,,
1.4399999976,11,153636.9062500000,153686.4062500000,178397.0937500000,173491.7187500000,161970.2031250000,164305.6093750000,52505.0820312500,171056.1875000000,,,
1.4439999976,11,153639.7187500000,153684.5937500000,178401.3593750000,173497.9687500000,161973.6093750000,164308.3437500000,52510.9023437500,171050.6406250000,,,
1.4479999975,11,153635.5625000000,153678.4531250000,178400.3125000000,173494.1250000000,161971.8125000000,164308.9062500000,52509.1289062500,171048.8125000000,,,
1.4519999977,11,153630.1875000000,153673.7343750000,178395.6562500000,173499.9218750000,161966.6093750000,164306.0312500000,52501.5664062500,171050.6875000000,,,
1.4559999977,11,153632.9843750000,153673.1406250000,178403.8906250000,173499.7812500000,161973.0781250000,164304.3437500000,52505.8046875000,171051.4687500000,,,
1.4599999976,11,153633.4062500000,153670.9843750000,178406.0312500000,173487.3906250000,161972.3437500000,164301.7187500000,52501.1914062500,171042.8593750000,,,
1.4639999976,11,153632.6093750000,153667.6093750000,178404.3906250000,173491.8437500000,161970.3906250000,164301.3125000000,52503.4179687500,171036.5468750000,,,
1.4679999975,11,153634.6406250000,153666.1406250000,178411.6093750000,173503.3593750000,161977.2031250000,164300.4843750000,52512.7500000000,171040.0625000000,,,
1.4719999975,11,153630.4062500000,153664.5781250000,178410.2343750000,173503.3750000000,161976.2343750000,164297.0781250000,52509.8007812500,171042.7031250000,,,
1.4759999977,11,153627.6406250000,153665.4687500000,178405.8437500000,173500.2656250000,161973.9843750000,164292.8906250000,52506.2890625000,171044.0625000000,,,
1.4799999977,11,153631.7500000000,153671.7343750000,178408.2343750000,173508.2343750000,161975.2187500000,164294.2500000000,52504.5976562500,171044.2031250000,,,
1.4839999976,11,153644.6250000000,153686.9218750000,178420.5937500000,173521.0000000000,161986.5625000000,164306.4843750000,52512.6718750000,171054.0937500000,,,
1.4879999976,11,153640.7343750000,153687.2968750000,178414.9687500000,173522.9375000000,161983.3437500000,164302.4687500000,52508.0039062500,171058.9843750000,,,
1.4919999975,11,153631.9843750000,153682.6562500000,178402.3593750000,173500.4062500000,161971.8593750000,164296.1406250000,52497.9179687500,171058.8125000000,,,
1.4959999977,11,153629.5468750000,153677.9843750000,178398.2500000000,173486.9687500000,161967.8125000000,164293.0781250000,52500.8710937500,171055.5468750000,,,
1.4999999977,11,153637.8125000000,153684.1562500000,178403.5156250000,173495.3906250000,161972.4218750000,164297.1562500000,52510.2304687500,171056.2656250000,,,
1.5039999976,11,153644.5156250000,153692.3125000000,178406.2656250000,173510.7343750000,161975.9218750000,164302.8125000000,52516.1328125000,171060.3437500000,,,
1.5079999976,11,153641.4531250000,153690.3593750000,178400.9375000000,173511.4218750000,161971.0312500000,164300.6093750000,52508.0312500000,171062.6562500000,,,
1.5119999975,11,153639.0781250000,153690.4062500000,178397.0468750000,173497.4531250000,161968.0625000000,164301.3593750000,52502.9882812500,171066.2656250000,,,
1.5159999975,11,153640.2812500000,153690.5156250000,178402.2187500000,173497.1875000000,161972.2187500000,164302.5156250000,52511.3046875000,171067.4531250000,,,
1.5199999977,11,153633.7031250000,153680.5156250000,178395.1718750000,173494.0937500000,161965.0312500000,164300.0468750000,52501.0820312500,171055.7343750000,,,
1.5239999976,11,153625.7656250000,153667.9531250000,178389.1562500000,173481.7031250000,161958.3281250000,164293.5937500000,52499.5000000000,171041.3750000000,,,
1.5279999976,11,153624.5625000000,153664.3437500000,178388.3750000000,173479.9687500000,161957.7812500000,164293.6093750000,52493.3593750000,171040.1718750000,,,
1.5319999976,11,153626.9218750000,153659.9375000000,178394.3437500000,173480.9375000000,161963.9843750000,164298.3906250000,52501.1914062500,171043.0468750000,,,
1.5359999975,12,153625.6093750000,153653.5000000000,178397.2656250000,173475.2656250000,161966.8750000000,164295.2187500000,52507.2812500000,171037.5156250000,,,
1.5399999975,12,153630.7343750000,153655.4843750000,178399.8593750000,173480.9375000000,161969.6718750000,164297.2343750000,52507.8437500000,171031.8125000000,,,
1.5439999974,12,153638.7968750000,153663.7031250000,178405.1718750000,173476.8750000000,161973.4531250000,164301.6562500000,52519.8593750000,171034.3750000000,,,
1.5479999974,12,153646.1875000000,153672.7031250000,178414.1562500000,173479.8593750000,161983.2968750000,164301.2500000000,52531.6328125000,171042.1093750000,,,
1.5519999973,12,153646.0468750000,153670.5312500000,178415.7656250000,173496.5468750000,161984.8437500000,164293.2968750000,52528.7382812500,171044.8437500000,,,
1.5559999973,12,153643.8125000000,153673.8281250000,178414.0781250000,173506.5156250000,161982.2968750000,164287.6875000000,52521.1992187500,171050.0937500000,,,
1.5599999975,12,153650.6562500000,153685.7656250000,178423.1406250000,173508.0000000000,161989.8593750000,164293.5625000000,52529.6757812500,171055.7031250000,,,
1.5639999975,12,153658.9531250000,153694.5625000000,178438.5156250000,173508.3125000000,162005.3593750000,164305.4375000000,52532.7070312500,171061.2343750000,,,
1.5679999974,12,153656.1093750000,153696.9218750000,178429.8750000000,173510.4687500000,161997.0781250000,164309.8750000000,52512.8593750000,171067.9375000000,,,
1.5719999974,12,153644.8437500000,153686.2031250000,178409.8125000000,173503.2500000000,161977.3125000000,164302.6718750000,52526.7539062500,171065.1718750000,,,
1.5759999973,12,153644.5468750000,153688.6875000000,178406.0625000000,173504.5312500000,161971.9687500000,164307.2343750000,52531.1250000000,171066.4843750000,,,
1.5799999975,12,153640.8750000000,153687.8125000000,178399.4062500000,173492.2500000000,161965.0312500000,164303.2656250000,52523.8554687500,171062.4062500000,,,
1.5839999975,12,153641.7812500000,153685.3906250000,178399.7031250000,173493.7812500000,161967.1406250000,164301.6562500000,52527.7968750000,171057.1250000000,,,
1.5879999974,12,153643.0625000000,153683.7031250000,178403.7812500000,173495.9843750000,161972.2656250000,164303.5937500000,52527.5585937500,171058.7343750000,,,
1.5919999974,12,153635.9375000000,153677.4218750000,178397.4531250000,173487.7656250000,161967.8437500000,164302.3593750000,52515.5156250000,171058.4062500000,,,
1.5959999973,12,153636.7968750000,153679.2812500000,178401.0937500000,173490.0468750000,161971.6718750000,164304.3906250000,52513.4765625000,171062.7031250000,,,
1.5999999973,12,153641.5625000000,153685.8750000000,178405.8906250000,173488.7656250000,161974.4062500000,164310.1406250000,52519.8046875000,171064.9531250000,,,
1.6039999975,12,153641.7343750000,153682.7656250000,178407.4062500000,173494.5625000000,161971.1406250000,164306.1406250000,52522.2460937500,171055.5468750000,,,
1.6079999974,12,153640.5781250000,153678.8281250000,178405.8750000000,173501.0937500000,161966.2343750000,164305.2031250000,52516.4531250000,171051.7656250000,,,
1.6119999974,12,153637.2968750000,153676.4062500000,178397.3906250000,173508.0468750000,161959.0781250000,164306.1093750000,52509.4257812500,171054.0156250000,,,
1.6159999974,12,153633.4375000000,153672.2500000000,178394.3593750000,173510.7812500000,161957.6562500000,164303.7187500000,52507.1445312500,171050.4687500000,,,
1.6199999973,12,153630.5468750000,153667.7656250000,178393.5625000000,173493.6406250000,161958.0781250000,164302.6718750000,52510.6601562500,171041.6250000000,,,
1.6239999975,12,153625.9531250000,153662.0937500000,178389.5625000000,173481.7343750000,161955.3906250000,164296.7500000000,52507.3320312500,171032.1250000000,,,
1.6279999975,12,153619.4375000000,153659.2187500000,178387.0625000000,173484.5781250000,161954.4531250000,164290.6406250000,52503.5234375000,171030.6562500000,,,
1.6319999974,12,153618.6562500000,153661.7031250000,178388.2187500000,173492.5781250000,161956.8750000000,164288.6562500000,52505.9648437500,171036.1562500000,,,
1.6359999974,12,153618.4218750000,153663.4062500000,178389.9375000000,173509.8125000000,161958.4843750000,164291.1250000000,52510.3632812500,171039.0781250000,,,
1.6399999973,12,153624.5625000000,153672.6562500000,178392.2968750000,173522.3437500000,161960.8750000000,164300.0468750000,52518.1445312500,171043.7187500000,,,
1.6439999973,12,153631.0781250000,153676.6718750000,178402.1406250000,173512.1718750000,161969.3906250000,164302.3281250000,52529.2734375000,171045.5312500000,,,
1.6479999975,12,153631.1562500000,153673.6250000000,178405.1718750000,173495.5156250000,161972.4062500000,164305.8906250000,52529.1132812500,171049.1562500000,,,
1.6519999974,12,153623.1875000000,153662.5937500000,178397.9843750000,173479.1562500000,161965.1875000000,164300.0468750000,52520.1523437500,171046.8750000000,,,
1.6559999974,12,153629.5312500000,153665.5937500000,178401.5000000000,173485.6718750000,161966.0468750000,164304.1250000000,52516.9375000000,171052.0625000000,,,
1.6599999974,12,153634.7500000000,153672.2812500000,178400.9843750000,173487.0781250000,161963.4375000000,164308.0937500000,52514.6015625000,171053.5000000000,,,
1.6639999973,13,153638.6406250000,153673.1562500000,178403.9687500000,173489.1718750000,161966.2031250000,164308.8750000000,52529.9453125000,171051.7031250000,,,
1.6679999973,13,153642.7968750000,153678.5625000000,178408.7343750000,173489.8125000000,161975.1718750000,164319.6250000000,52532.7343750000,171061.2343750000,,,
1.6719999972,13,153641.3281250000,153677.0000000000,178411.3750000000,173494.6406250000,161981.2031250000,164319.2343750000,52533.9414062500,171066.3750000000,,,
1.6759999972,13,153640.8437500000,153675.6093750000,178413.8593750000,173506.7812500000,161985.0937500000,164318.3906250000,52538.4453125000,171064.5625000000,,,
1.6799999971,13,153636.4218750000,153672.2500000000,178404.5781250000,173499.4375000000,161975.9687500000,164316.2500000000,52536.1679687500,171054.0468750000,,,
1.6839999971,13,153634.0312500000,153673.2656250000,178400.8593750000,173489.3750000000,161970.7968750000,164317.3437500000,52530.4804687500,171049.7031250000,,,
1.6879999973,13,153635.1562500000,153678.4531250000,178399.3281250000,173486.6718750000,161969.4531250000,164316.0312500000,52526.4296875000,171055.1875000000,,,
1.6919999972,13,153631.5156250000,153672.3125000000,178396.4218750000,173486.3281250000,161968.8125000000,164315.7343750000,52525.5195312500,171054.6250000000,,,
1.6959999972,13,153628.2968750000,153665.1093750000,178394.7187500000,173485.2812500000,161966.5625000000,164310.8125000000,52519.1093750000,171045.5937500000,,,
1.6999999972,13,153631.7500000000,153665.7656250000,178399.1406250000,173492.5468750000,161969.3437500000,164309.6250000000,52521.5234375000,171038.7500000000,,,
1.7039999971,13,153628.6718750000,153662.3281250000,178397.3750000000,173493.5625000000,161967.4375000000,164307.7968750000,52511.7578125000,171030.1718750000,,,
1.7079999973,13,153629.5468750000,153667.7656250000,178396.1562500000,173494.7187500000,161964.3750000000,164312.7031250000,52515.7539062500,171035.5000000000,,,
1.7119999973,13,153624.0312500000,153666.1093750000,178385.8593750000,173494.5000000000,161952.4218750000,164309.4062500000,52516.9882812500,171040.6875000000,,,
1.7159999972,13,153627.8906250000,153670.5937500000,178388.5625000000,173497.3125000000,161955.1093750000,164316.7812500000,52522.6210937500,171049.4218750000,,,
1.7199999972,13,153631.8906250000,153675.6562500000,178393.6406250000,173497.6406250000,161962.0156250000,164325.2656250000,52531.5000000000,171052.2500000000,,,
1.7239999971,13,153637.0312500000,153678.0156250000,178404.9062500000,173491.5468750000,161974.1718750000,164327.6562500000,52543.1132812500,171055.9687500000,,,
1.7279999971,13,153626.2031250000,153664.8437500000,178394.5781250000,173477.6093750000,161967.7812500000,164318.5312500000,52536.0585937500,171052.8125000000,,,
1.7319999973,13,153626.8906250000,153667.6875000000,178393.9843750000,173473.3125000000,161971.9531250000,164323.1250000000,52538.2851562500,171063.2968750000,,,
1.7359999972,13,153629.3437500000,153670.8593750000,178400.5625000000,173471.0312500000,161979.9375000000,164322.5312500000,52540.0039062500,171069.9687500000,,,
1.7399999972,13,153631.2656250000,153670.9687500000,178401.8125000000,173475.4531250000,161979.6250000000,164320.2812500000,52532.3046875000,171065.4062500000,,,
1.7439999972,13,153636.2500000000,153674.4843750000,178407.0781250000,173486.0781250000,161982.0625000000,164318.2031250000,52531.1796875000,171060.3125000000,,,
1.7479999971,13,153644.8437500000,153682.1718750000,178415.3125000000,173499.7031250000,161989.8125000000,164320.3593750000,52546.6015625000,171064.7187500000,,,
1.7519999973,13,153650.2812500000,153689.2031250000,178421.4062500000,173501.7500000000,161995.0937500000,164327.2968750000,52564.1679687500,171074.7187500000,,,
1.7559999973,13,153644.2812500000,153684.9687500000,178415.4218750000,173504.5625000000,161986.9375000000,164322.5781250000,52556.1484375000,171070.8906250000,,,
1.7599999972,13,153644.8125000000,153692.1562500000,178412.1406250000,173499.9687500000,161980.5312500000,164326.5468750000,52552.4492187500,171072.5156250000,,,
1.7639999972,13,153648.1875000000,153698.4531250000,178412.6875000000,173481.3906250000,161978.6718750000,164328.7031250000,52549.6835937500,171075.0156250000,,,
1.7679999971,13,153638.1093750000,153688.0000000000,178401.7343750000,173466.7968750000,161969.0781250000,164321.8906250000,52538.7148437500,171067.9375000000,,,
1.7719999971,13,153635.8281250000,153685.0468750000,178400.1093750000,173475.9218750000,161967.7656250000,164326.4218750000,52537.8046875000,171068.1562500000,,,
1.7759999973,13,153631.2656250000,153677.4218750000,178400.1250000000,173475.2500000000,161968.0625000000,164324.1093750000,52536.5703125000,171064.2656250000,,,
1.7799999972,13,153635.4531250000,153678.9062500000,178405.4375000000,173478.4375000000,161972.9687500000,164323.8750000000,52539.2265625000,171059.6250000000,,,
1.7839999972,13,153635.6406250000,153678.2031250000,178406.4375000000,173479.8906250000,161975.6250000000,164329.5312500000,52546.4414062500,171054.7656250000,,,
1.7879999971,13,153634.2656250000,153675.8750000000,178404.7187500000,173486.0000000000,161974.9531250000,164336.3125000000,52545.3125000000,171054.5000000000,,,
1.7919999971,14,153628.3906250000,153668.5781250000,178400.2656250000,173483.0468750000,161972.5312500000,164334.4062500000,52542.0156250000,171052.9218750000,,,
1.7959999971,14,153632.4218750000,153670.6718750000,178406.6250000000,173480.8437500000,161978.6562500000,164335.7812500000,52547.1367187500,171052.6250000000,,,
1.7999999970,14,153636.1718750000,153670.7812500000,178414.3125000000,173483.2656250000,161985.1406250000,164331.7031250000,52545.6367187500,171047.2812500000,,,
1.8039999970,14,153631.6093750000,153669.2812500000,178410.0781250000,173488.6093750000,161980.6093750000,164325.6406250000,52524.6328125000,171042.0468750000,,,
1.8079999969,14,153636.4218750000,153676.0000000000,178413.1406250000,173491.1562500000,161982.7812500000,164330.5000000000,52532.0625000000,171053.4843750000,,,
1.8119999969,14,153633.0156250000,153676.1875000000,178406.4531250000,173476.9062500000,161977.2500000000,164329.9062500000,52545.5546875000,171062.2500000000,,,
1.8159999971,14,153628.5000000000,153673.3281250000,178398.5468750000,173475.7812500000,161968.7343750000,164325.7968750000,52538.0195312500,171061.1718750000,,,
1.8199999970,14,153632.7968750000,153677.4218750000,178400.6875000000,173482.1718750000,161969.8593750000,164324.7812500000,52543.6250000000,171059.4062500000,,,
1.8239999970,14,153638.5156250000,153680.5625000000,178408.5312500000,173490.3437500000,161976.3750000000,164323.7812500000,52552.7421875000,171059.9375000000,,,
1.8279999970,14,153637.4375000000,153678.9062500000,178403.3750000000,173515.6875000000,161972.8906250000,164323.6250000000,52551.6171875000,171060.6093750000,,,
1.8319999969,14,153637.6562500000,153682.4375000000,178404.6406250000,173508.3906250000,161972.7031250000,164325.9531250000,52549.1210937500,171066.4375000000,,,
1.8359999971,14,153637.9218750000,153683.7343750000,178410.9687500000,173475.0625000000,161978.5937500000,164323.0312500000,52547.2187500000,171067.6406250000,,,
1.8399999971,14,153641.2187500000,153689.4218750000,178414.2343750000,173475.0781250000,161980.6093750000,164323.1250000000,52541.6132812500,171064.4687500000,,,
1.8439999970,14,153632.8750000000,153680.3593750000,178405.3281250000,173474.4687500000,161973.5625000000,164313.2968750000,52539.4140625000,171054.3593750000,,,
1.8479999970,14,153625.1718750000,153671.5000000000,178397.6562500000,173465.4843750000,161967.9218750000,164308.3593750000,52536.8359375000,171049.1875000000,,,
1.8519999969,14,153630.7500000000,153677.7187500000,178403.9062500000,173472.1093750000,161972.1093750000,164310.2968750000,52538.6601562500,171057.1718750000,,,
1.8559999969,14,153638.8593750000,153684.0000000000,178413.4843750000,173488.5781250000,161979.3750000000,164310.0312500000,52544.0273437500,171063.1093750000,,,
1.8599999971,14,153649.6718750000,153695.4843750000,178422.3125000000,173494.4531250000,161987.5625000000,164317.1093750000,52552.6914062500,171067.0000000000,,,
1.8639999970,14,153655.7031250000,153696.2343750000,178431.0781250000,173491.0625000000,161994.8281250000,164318.6875000000,52560.7617187500,171067.0781250000,,,
1.8679999970,14,153655.3593750000,153691.0312500000,178432.8593750000,173484.6250000000,161997.5000000000,164313.9687500000,52560.6015625000,171063.5625000000,,,
1.8719999969,14,153648.4531250000,153682.7187500000,178422.7968750000,173486.3437500000,161990.9062500000,164306.6718750000,52552.7421875000,171060.1562500000,,,
1.8759999969,14,153643.3437500000,153679.3906250000,178418.1875000000,173487.3437500000,161986.4375000000,164302.5156250000,52548.4257812500,171058.1250000000,,,
1.8799999971,14,153653.6875000000,153690.8437500000,178432.1250000000,173480.3906250000,161999.4375000000,164311.9531250000,52565.1093750000,171062.7656250000,,,
1.8839999971,14,153651.3906250000,153690.2968750000,178427.0625000000,173478.2968750000,161995.6093750000,164308.1718750000,52560.0390625000,171058.3593750000,,,
1.8879999970,14,153650.0625000000,153692.2812500000,178420.9218750000,173480.5781250000,161988.7031250000,164310.5625000000,52545.7968750000,171062.0312500000,,,
1.8919999970,14,153649.2343750000,153691.9687500000,178417.4375000000,173480.1250000000,161985.4375000000,164311.8750000000,52556.9257812500,171067.5937500000,,,
1.8959999969,14,153649.4218750000,153690.6718750000,178415.3125000000,173485.7812500000,161983.2187500000,164308.6406250000,52560.6835937500,171066.9375000000,,,
1.8999999969,14,153648.3281250000,153688.5000000000,178412.7656250000,173482.7812500000,161978.7812500000,164306.5468750000,52554.6210937500,171062.1718750000,,,
1.9039999971,14,153650.2031250000,153690.0625000000,178416.6250000000,173481.0312500000,161982.2187500000,164312.5156250000,52559.4492187500,171062.1093750000,,,
1.9079999970,14,153657.4687500000,153699.8750000000,178424.7187500000,173488.0625000000,161990.5312500000,164321.6406250000,52567.7617187500,171074.4062500000,,,
1.9119999970,14,153666.8281250000,153709.1250000000,178437.7343750000,173507.5156250000,162003.2500000000,164328.5625000000,52577.7148437500,171088.3750000000,,,
1.9159999969,14,153667.2968750000,153713.2343750000,178437.0156250000,173508.8750000000,162003.6562500000,164334.3750000000,52575.1679687500,171094.1406250000,,,
1.9199999969,15,153658.1406250000,153702.5000000000,178427.7031250000,173500.2500000000,161995.7343750000,164327.0000000000,52568.4882812500,171082.5468750000,,,
1.9239999969,15,153643.6562500000,153686.1406250000,178414.9375000000,173486.8593750000,161983.6406250000,164310.1093750000,52551.8320312500,171062.8437500000,,,
1.9279999968,15,153647.1406250000,153688.2968750000,178419.2031250000,173494.3750000000,161988.3906250000,164313.0312500000,52556.7382812500,171066.0781250000,,,
1.9319999968,15,153643.9062500000,153686.1406250000,178416.9218750000,173492.7656250000,161986.5937500000,164309.4375000000,52560.8437500000,171070.0312500000,,,
1.9359999967,15,153639.7968750000,153681.4531250000,178412.5000000000,173488.8906250000,161982.2656250000,164300.1875000000,52558.6445312500,171066.4531250000,,,
1.9399999967,15,153637.7031250000,153680.2500000000,178408.1562500000,173485.3281250000,161978.3281250000,164298.6875000000,52552.8242187500,171061.5312500000,,,
1.9439999969,15,153643.6093750000,153687.9375000000,178414.4062500000,173495.3906250000,161982.2187500000,164307.5312500000,52550.5156250000,171064.7500000000,,,
1.9479999968,15,153653.6875000000,153696.1250000000,178427.5156250000,173503.7500000000,161994.0000000000,164317.6406250000,52570.9570312500,171074.8750000000,,,
1.9519999968,15,153647.7031250000,153686.4375000000,178422.2031250000,173490.8750000000,161990.2656250000,164311.9062500000,52569.2656250000,171073.0000000000,,,
1.9559999967,15,153637.4375000000,153673.5156250000,178410.8906250000,173482.0625000000,161980.9843750000,164299.1093750000,52555.8007812500,171063.2343750000,,,
1.9599999967,15,153639.7968750000,153681.6406250000,178409.5156250000,173485.9218750000,161980.4531250000,164307.8593750000,52554.8085937500,171063.5625000000,,,
1.9639999969,15,153647.2812500000,153691.7031250000,178417.4375000000,173499.0625000000,161988.1406250000,164322.8281250000,52558.6445312500,171068.6250000000,,,
1.9679999969,15,153643.6562500000,153687.1875000000,178414.8281250000,173503.8437500000,161985.9531250000,164319.7656250000,52556.0976562500,171067.3750000000,,,
1.9719999968,15,153632.3593750000,153674.2656250000,178401.5000000000,173495.0156250000,161972.8281250000,164303.8125000000,52545.6367187500,171058.4062500000,,,
1.9759999968,15,153625.8750000000,153666.7031250000,178394.1250000000,173473.6875000000,161967.1718750000,164293.9375000000,52545.8515625000,171052.1093750000,,,
1.9799999967,15,153630.4843750000,153672.3125000000,178396.2968750000,173472.0468750000,161968.2500000000,164295.8906250000,52557.1953125000,171050.9062500000,,,
1.9839999967,15,153642.9687500000,153685.3437500000,178410.2343750000,173485.5156250000,161978.2187500000,164304.6562500000,52563.5781250000,171056.7968750000,,,
1.9879999969,15,153649.6718750000,153693.9218750000,178416.2968750000,173497.3750000000,161983.6093750000,164308.7968750000,52562.3984375000,171066.4843750000,,,
1.9919999968,15,153648.3593750000,153694.0781250000,178412.4687500000,173506.3125000000,161981.0156250000,164307.8593750000,52561.7539062500,171072.7968750000,,,
1.9959999968,15,153641.9375000000,153693.8437500000,178404.7656250000,173486.6250000000,161975.4375000000,164311.0000000000,52555.5859375000,171075.5000000000,,,
1.9999999967,15,153642.9375000000,153695.9062500000,178409.4375000000,173476.5000000000,161980.2812500000,164312.7031250000,52561.3515625000,171076.4062500000,,,
2.0039999967,15,153643.0625000000,153694.5625000000,178409.7812500000,173487.6093750000,161979.8593750000,164309.0625000000,52559.4492187500,171070.8593750000,,,
2.0079999969,15,153644.7031250000,153697.4687500000,178414.6875000000,173497.5937500000,161984.8437500000,164310.3437500000,52562.5585937500,171073.1406250000,,,
2.0119999968,15,153643.7343750000,153698.8125000000,178415.5781250000,173483.2656250000,161985.9531250000,164312.6875000000,52560.6835937500,171080.1406250000,,,
2.0159999968,15,153637.8593750000,153692.9531250000,178408.2500000000,173473.8281250000,161978.7031250000,164310.1562500000,52546.1992187500,171075.9531250000,,,
2.0199999968,15,153637.7656250000,153692.1562500000,178405.0937500000,173482.6718750000,161973.7968750000,164308.2656250000,52547.5117187500,171070.3281250000,,,
2.0239999967,15,153642.4218750000,153696.1562500000,178405.8437500000,173485.2187500000,161972.5625000000,164313.2812500000,52552.9570312500,171067.6718750000,,,
2.0279999967,15,153639.3437500000,153686.8906250000,178402.8906250000,173480.1562500000,161970.2812500000,164305.9531250000,52551.7226562500,171061.1562500000,,,
2.0319999969,15,153638.7968750000,153684.1093750000,178402.6250000000,173486.4375000000,161972.2343750000,164306.1406250000,52551.4843750000,171065.0312500000,,,
2.0359999968,15,153634.2187500000,153679.8125000000,178395.0625000000,173487.4218750000,161967.6562500000,164306.7500000000,52545.2578125000,171065.2031250000,,,
2.0399999968,15,153638.7187500000,153681.6875000000,178399.3750000000,173486.5312500000,161972.6406250000,164309.5781250000,52557.1132812500,171063.7500000000,,,
2.0439999967,15,153642.4531250000,153683.8906250000,178403.1562500000,173485.5156250000,161975.8281250000,164310.8593750000,52561.6484375000,171063.0000000000,,,
2.0479999967,16,153645.8125000000,153685.5781250000,178407.1562500000,173491.8750000000,161979.9687500000,164314.8593750000,52561.1367187500,171065.0156250000,,,
2.0519999966,16,153651.4687500000,153688.8750000000,178417.3750000000,173495.3281250000,161991.3906250000,164320.1718750000,52571.0625000000,171074.0312500000,,,
2.0559999966,16,153644.2187500000,153681.5625000000,178412.1718750000,173486.6406250000,161988.9218750000,164316.7343750000,52575.6484375000,171071.1250000000,,,
2.0599999966,16,153634.3750000000,153675.6875000000,178390.5468750000,173487.3906250000,161966.9062500000,164308.8281250000,52555.9882812500,171058.8125000000,,,
2.0639999965,16,153631.2343750000,153673.5312500000,178385.1875000000,173491.7343750000,161959.4687500000,164300.8750000000,52549.6054687500,171049.7968750000,,,
2.0679999965,16,153634.5156250000,153678.0156250000,178392.6718750000,173492.5781250000,161964.6718750000,164302.7812500000,52558.4843750000,171052.8593750000,,,
2.0719999967,16,153636.9843750000,153680.0312500000,178400.7812500000,173504.0312500000,161972.7968750000,164306.8593750000,52568.9179687500,171061.3906250000,,,
2.0759999966,16,153636.7968750000,153680.9218750000,178404.1250000000,173498.6093750000,161975.8281250000,164312.3906250000,52571.4921875000,171067.5312500000,,,
2.0799999966,16,153637.7343750000,153683.6562500000,178407.6406250000,173484.9531250000,161977.8125000000,164311.3906250000,52570.5781250000,171066.0625000000,,,
2.0839999965,16,153638.3437500000,153690.1406250000,178406.2187500000,173486.2656250000,161977.9843750000,164314.6875000000,52570.9296875000,171068.3437500000,,,
2.0879999965,16,153635.4843750000,153687.8906250000,178404.5625000000,173499.8750000000,161978.4062500000,164314.1250000000,52568.8359375000,171068.7343750000,,,
2.0919999967,16,153626.9687500000,153674.9375000000,178400.1875000000,173496.0625000000,161974.9218750000,164304.4531250000,52566.2890625000,171063.5312500000,,,
2.0959999966,16,153635.4218750000,153686.1718750000,178410.0468750000,173480.9062500000,161983.6718750000,164308.8750000000,52565.1875000000,171072.2812500000,,,
2.0999999966,16,153632.0468750000,153685.4218750000,178406.9375000000,173469.1562500000,161979.7187500000,164305.0625000000,52554.9414062500,171068.8437500000,,,
2.1039999966,16,153625.6875000000,153679.5156250000,178399.3593750000,173474.1250000000,161970.2812500000,164303.9062500000,52563.0429687500,171059.1406250000,,,
2.1079999965,16,153620.2656250000,153672.0312500000,178394.2500000000,173470.5781250000,161964.8906250000,164301.0937500000,52572.0000000000,171052.6250000000,,,
2.1119999965,16,153619.5468750000,153667.8750000000,178393.1093750000,173476.0781250000,161963.3593750000,164297.0468750000,52563.4179687500,171050.9062500000,,,
2.1159999967,16,153622.5781250000,153671.6562500000,178389.3437500000,173475.8906250000,161958.8906250000,164299.6718750000,52556.1757812500,171055.5937500000,,,
2.1199999966,16,153626.8125000000,153674.0468750000,178392.7500000000,173482.0312500000,161962.5625000000,164300.0312500000,52556.9023437500,171055.1875000000,,,
2.1239999966,16,153632.2343750000,153678.6875000000,178400.3125000000,173484.1250000000,161970.6562500000,164307.2343750000,52564.3046875000,171055.6250000000,,,
2.1279999965,16,153633.0312500000,153677.4843750000,178404.1875000000,173484.4687500000,161974.8750000000,164309.5468750000,52568.8632812500,171058.1250000000,,,
2.1319999965,16,153628.1875000000,153670.1093750000,178400.2968750000,173472.2187500000,161973.5625000000,164306.0625000000,52571.1445312500,171055.5937500000,,,
2.1359999967,16,153631.3437500000,153672.3125000000,178399.9375000000,173470.6250000000,161974.6093750000,164308.0468750000,52572.5117187500,171058.8906250000,,,
2.1399999966,16,153628.8593750000,153671.8437500000,178394.9218750000,173474.1718750000,161970.9218750000,164309.4062500000,52571.1679687500,171056.6718750000,,,
2.1439999966,16,153633.5000000000,153676.9218750000,178403.3750000000,173480.3750000000,161978.3281250000,164315.8281250000,52576.1601562500,171055.3281250000,,,
2.1479999966,16,153636.5312500000,153678.0156250000,178413.5937500000,173480.7656250000,161987.1875000000,164315.0156250000,52584.8242187500,171057.2656250000,,,
2.1519999965,16,153616.6718750000,153657.4218750000,178391.8750000000,173474.9843750000,161968.4531250000,164294.8750000000,52573.2890625000,171044.1718750000,,,
2.1559999965,16,153616.5468750000,153660.1562500000,178390.9375000000,173483.5625000000,161967.7656250000,164291.7031250000,52569.3984375000,171047.1718750000,,,
2.1599999967,16,153631.8906250000,153675.6093750000,178407.2656250000,173496.8437500000,161980.0468750000,164301.1562500000,52573.0742187500,171056.3281250000,,,
2.1639999966,16,153645.2187500000,153688.7187500000,178421.8281250000,173493.1875000000,161990.2343750000,164312.5468750000,52582.3281250000,171062.8125000000,,,
2.1679999966,16,153644.7812500000,153688.7500000000,178417.5312500000,173482.2500000000,161987.4218750000,164314.7187500000,52584.7148437500,171067.3750000000,,,
2.1719999965,16,153638.5937500000,153680.7343750000,178408.6562500000,173492.1093750000,161978.9531250000,164311.0468750000,52569.6953125000,171069.3281250000,,,
2.1759999965,17,153631.0312500000,153672.7812500000,178401.3593750000,173490.9375000000,161973.0781250000,164309.2968750000,52562.5312500000,171064.5000000000,,,
2.1799999964,17,153633.0156250000,153675.9062500000,178403.9687500000,173486.7187500000,161976.1093750000,164306.8906250000,52569.9101562500,171061.6250000000,,,
2.1839999964,17,153629.0156250000,153672.5781250000,178399.8281250000,173479.2187500000,161972.0000000000,164303.1562500000,52573.7734375000,171052.6406250000,,,
2.1879999964,17,153627.5937500000,153673.0625000000,178401.5000000000,173472.4531250000,161973.6406250000,164305.3593750000,52576.0234375000,171053.7500000000,,,
2.1919999963,17,153624.3750000000,153670.5312500000,178402.5781250000,173462.9375000000,161975.4062500000,164303.0468750000,52579.3789062500,171055.2500000000,,,
2.1959999963,17,153626.2812500000,153671.2656250000,178409.1093750000,173464.0000000000,161980.2656250000,164302.0312500000,52575.8359375000,171055.7343750000,,,
2.1999999965,17,153632.2656250000,153676.0312500000,178415.5468750000,173474.3593750000,161985.4375000000,164305.7968750000,52573.4218750000,171055.8593750000,,,
2.2039999964,17,153629.9531250000,153672.3593750000,178408.8750000000,173481.1250000000,161978.7031250000,164301.2343750000,52582.1406250000,171049.4062500000,,,
2.2079999964,17,153630.1406250000,153671.2031250000,178404.6406250000,173485.2812500000,161974.6875000000,164301.5000000000,52581.2812500000,171051.1250000000,,,
2.2119999963,17,153627.2500000000,153668.2812500000,178400.3906250000,173487.0000000000,161972.1562500000,164305.8437500000,52575.5937500000,171056.2187500000,,,
2.2159999963,17,153614.5625000000,153658.4375000000,178386.0468750000,173481.4375000000,161961.4062500000,164301.3593750000,52558.3750000000,171048.8437500000,,,
2.2199999965,17,153618.7656250000,153662.5156250000,178389.1875000000,173485.3906250000,161965.2343750000,164308.2812500000,52563.1484375000,171045.8281250000,,,
2.2239999964,17,153626.3125000000,153670.9687500000,178394.3437500000,173480.6093750000,161971.7656250000,164318.9375000000,52578.7890625000,171048.2187500000,,,
2.2279999964,17,153629.9531250000,153678.5312500000,178398.6250000000,173484.9843750000,161974.4687500000,164325.8593750000,52583.1875000000,171057.2031250000,,,
2.2319999964,17,153624.7812500000,153677.1562500000,178391.7343750000,173486.7500000000,161969.1562500000,164323.2500000000,52579.5937500000,171062.5156250000,,,
2.2359999963,17,153622.2812500000,153676.0625000000,178390.0156250000,173478.2187500000,161969.5312500000,164322.4218750000,52582.2734375000,171061.6875000000,,,
2.2399999963,17,153620.5625000000,153673.6718750000,178387.3125000000,173474.8437500000,161963.3593750000,164315.9843750000,52572.8320312500,171055.9218750000,,,
2.2439999965,17,153610.2187500000,153662.8906250000,178374.7812500000,173465.0312500000,161950.4843750000,164302.8437500000,52560.9257812500,171042.5000000000,,,
2.2479999964,17,153612.9218750000,153667.3750000000,178379.0000000000,173462.3906250000,161954.5625000000,164305.0156250000,52557.0898437500,171045.4843750000,,,
2.2519999964,17,153619.5468750000,153676.4843750000,178386.5000000000,173477.2031250000,161961.2187500000,164309.2968750000,52566.9335937500,171058.8750000000,,,
2.2559999963,17,153616.2500000000,153669.9218750000,178385.8281250000,173488.8906250000,161960.2031250000,164300.5312500000,52562.8007812500,171056.3281250000,,,
2.2599999963,17,153622.6250000000,153676.8125000000,178393.9062500000,173485.8437500000,161965.8281250000,164305.4687500000,52566.6640625000,171058.3125000000,,,
2.2639999965,17,153622.9843750000,153674.2343750000,178393.1250000000,173484.1718750000,161964.0312500000,164301.1250000000,52563.2851562500,171051.7812500000,,,
2.2679999964,17,153633.6875000000,153681.3437500000,178406.2968750000,173492.9218750000,161979.2343750000,164313.0312500000,52565.6992187500,171061.1562500000,,,
2.2719999964,17,153637.0000000000,153683.6250000000,178415.0468750000,173481.7031250000,161989.3281250000,164321.5156250000,52577.0976562500,171072.5781250000,,,
2.2759999963,17,153623.2187500000,153669.1718750000,178400.2968750000,173480.0156250000,161976.1093750000,164317.5625000000,52580.2343750000,171066.9218750000,,,
2.2799999963,17,153616.5468750000,153667.3437500000,178389.9687500000,173474.7812500000,161965.4531250000,164318.1562500000,52584.4726562500,171060.2343750000,,,
2.2839999963,17,153617.7812500000,153666.0312500000,178392.7343750000,173463.2031250000,161966.2656250000,164316.5781250000,52586.4843750000,171055.6562500000,,,
2.2879999964,17,153616.6562500000,153661.8437500000,178394.6250000000,173464.6250000000,161967.1250000000,164312.9218750000,52584.4453125000,171054.7187500000,,,
2.2919999964,17,153617.5312500000,153662.7812500000,178396.2343750000,173477.8750000000,161969.4531250000,164311.8593750000,52583.0000000000,171057.9062500000,,,
2.2959999964,17,153622.3281250000,153668.1406250000,178401.0937500000,173482.0312500000,161974.2500000000,164313.3750000000,52573.6914062500,171060.6718750000,,,
2.2999999963,17,153629.9531250000,153674.0468750000,178405.0937500000,173483.1093750000,161978.1718750000,164313.2968750000,52576.1054687500,171059.2968750000,,,
2.3039999963,18,153626.9218750000,153670.0000000000,178393.2656250000,173476.3437500000,161967.5781250000,164308.2656250000,52582.7851562500,171049.5937500000,,,
2.3079999962,18,153630.2187500000,153676.7500000000,178395.6718750000,173467.9687500000,161973.2343750000,164318.7656250000,52597.2148437500,171055.5625000000,,,
2.3119999962,18,153630.0937500000,153676.5937500000,178397.3906250000,173469.1562500000,161975.8906250000,164316.4375000000,52597.6718750000,171061.1718750000,,,
2.3159999961,18,153625.3906250000,153669.9687500000,178395.0312500000,173471.2968750000,161973.9062500000,164309.7812500000,52588.5234375000,171057.6562500000,,,
2.3199999961,18,153629.8750000000,153675.6562500000,178400.9687500000,173478.7031250000,161979.6406250000,164314.5000000000,52593.5664062500,171059.0781250000,,,
2.3239999961,18,153631.4531250000,153675.8437500000,178403.1093750000,173490.5000000000,161980.8750000000,164312.3906250000,52600.2187500000,171055.7343750000,,,
2.3279999963,18,153633.2187500000,153682.3593750000,178404.0468750000,173488.8437500000,161980.8281250000,164319.6250000000,52599.4414062500,171062.8437500000,,,
2.3319999962,18,153629.1718750000,153680.4375000000,178400.2968750000,173475.0000000000,161977.5781250000,164320.0937500000,52595.8710937500,171067.5625000000,,,
2.3359999962,18,153633.5156250000,153686.5468750000,178406.3750000000,173480.0156250000,161984.5468750000,164325.7968750000,52599.2265625000,171075.4531250000,,,
2.3399999961,18,153636.9531250000,153693.3281250000,178410.0468750000,173477.8750000000,161985.6250000000,164329.1718750000,52594.9062500000,171079.1718750000,,,
2.3439999961,18,153639.4218750000,153698.2187500000,178410.4843750000,173469.7187500000,161984.3593750000,164326.5312500000,52588.4960937500,171077.9062500000,,,
2.3479999963,18,153624.7812500000,153682.2343750000,178393.3750000000,173472.1562500000,161967.8750000000,164311.2812500000,52576.7500000000,171062.7343750000,,,
2.3519999962,18,153618.9218750000,153673.0000000000,178391.2187500000,173476.3906250000,161964.4375000000,164304.5625000000,52574.6015625000,171055.8125000000,,,
2.3559999962,18,153612.2187500000,153666.8593750000,178385.1875000000,173479.9062500000,161957.6718750000,164301.6562500000,52567.3593750000,171053.5000000000,,,
2.3599999961,18,153622.9531250000,153677.1562500000,178396.0468750000,173492.0156250000,161965.9062500000,164311.5312500000,52575.3554687500,171058.0156250000,,,
2.3639999961,18,153629.1562500000,153684.7187500000,178402.1093750000,173489.0312500000,161970.9531250000,164318.3437500000,52580.3710937500,171060.7500000000,,,
2.3679999961,18,153632.1718750000,153686.4375000000,178406.4375000000,173488.2031250000,161975.0000000000,164321.9062500000,52582.5703125000,171065.2031250000,,,
2.3719999962,18,153635.4843750000,153691.8906250000,178407.6093750000,173495.1250000000,161979.0468750000,164328.7968750000,52590.7226562500,171075.7343750000,,,
2.3759999962,18,153636.3593750000,153690.5156250000,178407.6718750000,173497.0312500000,161979.3437500000,164327.7500000000,52593.8085937500,171076.4062500000,,,
2.3799999962,18,153631.9375000000,153680.9687500000,178405.0937500000,173487.5312500000,161977.8437500000,164321.1562500000,52590.8320312500,171067.1093750000,,,
2.3839999961,18,153636.6562500000,153681.1250000000,178409.5468750000,173495.6562500000,161982.5468750000,164320.7031250000,52594.9335937500,171060.5625000000,,,
2.3879999961,18,153640.0625000000,153684.6718750000,178411.9062500000,173482.8593750000,161986.4843750000,164328.2656250000,52598.3398437500,171064.5781250000,,,
2.3919999963,18,153630.8437500000,153675.9218750000,178401.0625000000,173476.3437500000,161975.1875000000,164325.9375000000,52594.8281250000,171061.6093750000,,,
2.3959999962,18,153630.1718750000,153672.3281250000,178402.9687500000,173480.1875000000,161974.0312500000,164318.9062500000,52592.8945312500,171056.4531250000,,,
2.3999999962,18,153635.2968750000,153682.0468750000,178405.5156250000,173487.5781250000,161978.3281250000,164324.5156250000,52593.5937500000,171058.7343750000,,,
2.4039999961,18,153642.0000000000,153692.7968750000,178411.0156250000,173492.1406250000,161982.0312500000,164335.8593750000,52591.5000000000,171063.5625000000,,,
2.4079999961,18,153635.3125000000,153685.7968750000,178404.8281250000,173488.6875000000,161976.4843750000,164331.9218750000,52586.4335937500,171060.5781250000,,,
2.4119999961,18,153630.0312500000,153681.1562500000,178403.3750000000,173483.7812500000,161976.4843750000,164327.1406250000,52586.2695312500,171061.5312500000,,,
2.4159999962,18,153634.2656250000,153687.0625000000,178410.5625000000,173477.6250000000,161983.7812500000,164331.6250000000,52595.8710937500,171069.0156250000,,,
2.4199999962,18,153635.8593750000,153688.1250000000,178409.8593750000,173479.8906250000,161982.6406250000,164337.8125000000,52596.9726562500,171068.7187500000,,,
2.4239999962,18,153641.5937500000,153691.1562500000,178414.2968750000,173486.7812500000,161986.4375000000,164339.1093750000,52600.5664062500,171066.8125000000,,,
2.4279999961,18,153635.7500000000,153685.8750000000,178408.3593750000,173475.2968750000,161981.4687500000,164334.1406250000,52597.0273437500,171063.4531250000,,,
2.4319999961,19,153635.4531250000,153687.5625000000,178410.4062500000,173474.0625000000,161985.0625000000,164337.2187500000,52602.5781250000,171070.0468750000,,,
2.4359999960,19,153635.7187500000,153688.5937500000,178412.6093750000,173470.0625000000,161986.5625000000,164340.5468750000,52603.0625000000,171075.6093750000,,,
2.4399999960,19,153635.4531250000,153689.6875000000,178411.3750000000,173474.9218750000,161985.5781250000,164344.1250000000,52606.3867187500,171073.0312500000,,,
2.4439999959,19,153638.5156250000,153696.8437500000,178413.7812500000,173488.9843750000,161988.3593750000,164346.3125000000,52605.0742187500,171072.8750000000,,,
2.4479999959,19,153636.7187500000,153695.2187500000,178412.9218750000,173487.2812500000,161987.5781250000,164346.1250000000,52598.4218750000,171072.8906250000,,,
2.4519999959,19,153625.1562500000,153686.5000000000,178396.6406250000,173475.8281250000,161972.0468750000,164342.0468750000,52591.1796875000,171073.2500000000,,,
2.4559999960,19,153623.3750000000,153684.7187500000,178391.1250000000,173471.3750000000,161969.2031250000,164343.4218750000,52589.0859375000,171077.3281250000,,,
2.4599999960,19,153637.3593750000,153695.8281250000,178406.4062500000,173488.4218750000,161986.2187500000,164356.0781250000,52606.6835937500,171086.0937500000,,,
2.4639999960,19,153645.9687500000,153700.8750000000,178417.6718750000,173493.9687500000,161999.1093750000,164361.4531250000,52616.3398437500,171088.0312500000,,,
2.4679999959,19,153637.0625000000,153688.6875000000,178406.7812500000,173491.5000000000,161990.2656250000,164352.4843750000,52609.0703125000,171078.2343750000,,,
2.4719999959,19,153634.2968750000,153683.0625000000,178403.2343750000,173493.1562500000,161987.0156250000,164352.8906250000,52610.9726562500,171078.2656250000,,,
2.4759999961,19,153632.5000000000,153681.8593750000,178404.6875000000,173479.7031250000,161987.5000000000,164354.0937500000,52607.9414062500,171078.7656250000,,,
2.4799999960,19,153628.7656250000,153680.0000000000,178401.2812500000,173473.1250000000,161981.1718750000,164354.4531250000,52602.6328125000,171072.3281250000,,,
2.4839999960,19,153630.8593750000,153685.2031250000,178398.9843750000,173473.3437500000,161975.2500000000,164355.4375000000,52603.9726562500,171068.7343750000,,,
2.4879999959,19,153627.2656250000,153683.3750000000,178397.2031250000,173471.4843750000,161972.2187500000,164351.6875000000,52598.0195312500,171068.7968750000,,,
2.4919999959,19,153623.1406250000,153682.3125000000,178396.6718750000,173468.8906250000,161972.4843750000,164354.3906250000,52596.3281250000,171073.8906250000,,,
2.4959999959,19,153629.6093750000,153688.5000000000,178403.1406250000,173488.9843750000,161980.5781250000,164359.1875000000,52606.0664062500,171079.2500000000,,,
2.4999999960,19,153628.3437500000,153690.2500000000,178401.7187500000,173477.0937500000,161979.5156250000,164357.2031250000,52605.5820312500,171074.9062500000,,,
2.5039999960,19,153620.8281250000,153689.3906250000,178396.4062500000,173465.1562500000,161973.6875000000,164354.0937500000,52598.8515625000,171068.0468750000,,,
2.5079999960,19,153613.1406250000,153682.0468750000,178393.7187500000,173458.4531250000,161970.9531250000,164352.3750000000,52595.7929687500,171063.2187500000,,,
2.5119999959,19,153612.6250000000,153679.3593750000,178393.6718750000,173461.7812500000,161970.6093750000,164352.8125000000,52601.1015625000,171064.9843750000,,,
2.5159999959,19,153609.5937500000,153676.4843750000,178391.2031250000,173462.8750000000,161967.1718750000,164348.5781250000,52592.2539062500,171064.4687500000,,,
2.5199999961,19,153608.2500000000,153675.5000000000,178389.6718750000,173454.5156250000,161966.2031250000,164348.4375000000,52593.2187500000,171060.9687500000,,,
2.5239999960,19,153608.1406250000,153676.8593750000,178387.9218750000,173451.0468750000,161965.3281250000,164347.8437500000,52599.2812500000,171057.9843750000,,,
2.5279999960,19,153613.2656250000,153679.2812500000,178394.2812500000,173458.7031250000,161970.6250000000,164349.8593750000,52605.0468750000,171058.5468750000,,,
2.5319999959,19,153618.6875000000,153683.4375000000,178402.7656250000,173459.0937500000,161979.0468750000,164352.1406250000,52608.9609375000,171069.1093750000,,,
2.5359999959,19,153634.2968750000,153702.8593750000,178415.7187500000,173469.7968750000,161992.6250000000,164366.5937500000,52618.1093750000,171087.9687500000,,,
2.5399999958,19,153625.9843750000,153688.5000000000,178400.4843750000,173490.4218750000,161978.4687500000,164355.7812500000,52604.4023437500,171074.9375000000,,,
2.5439999960,19,153618.3593750000,153681.4531250000,178390.6093750000,173477.3437500000,161968.7031250000,164351.1718750000,52597.2148437500,171064.1562500000,,,
2.5479999960,19,153613.3281250000,153675.4687500000,178383.3906250000,173468.2187500000,161961.9375000000,164342.4062500000,52588.6835937500,171059.3750000000,,,
2.5519999960,19,153612.1718750000,153671.6406250000,178382.5312500000,173451.1562500000,161964.8437500000,164343.6406250000,52590.0781250000,171064.0781250000,,,
2.5559999959,19,153614.4531250000,153675.2500000000,178380.0937500000,173450.6562500000,161964.8906250000,164352.4062500000,52590.0273437500,171068.8750000000,,,
2.5599999959,20,153620.4843750000,153677.7968750000,178388.4375000000,173461.8281250000,161970.6093750000,164354.8437500000,52596.9453125000,171064.7656250000,,,
2.5639999958,20,153624.5625000000,153678.4218750000,178395.6562500000,173468.2187500000,161973.1250000000,164352.3593750000,52593.6718750000,171058.1718750000,,,
2.5679999958,20,153628.0781250000,153680.9687500000,178399.4531250000,173470.3125000000,161975.3750000000,164349.3281250000,52596.8671875000,171057.7187500000,,,
2.5719999957,20,153629.5468750000,153684.9375000000,178400.9843750000,173473.3906250000,161974.8906250000,164344.0156250000,52609.6054687500,171065.9218750000,,,
2.5759999957,20,153628.2656250000,153681.2343750000,178404.1250000000,173478.9531250000,161976.5937500000,164336.4687500000,52607.7539062500,171067.4531250000,,,
2.5799999957,20,153627.9687500000,153684.1093750000,178400.4218750000,173495.0468750000,161973.4687500000,164337.3906250000,52602.5507812500,171066.2187500000,,,
2.5839999958,20,153631.7500000000,153692.5312500000,178401.6250000000,173488.3125000000,161972.5937500000,164342.7812500000,52604.9375000000,171070.0312500000,,,
2.5879999958,20,153632.5781250000,153695.9375000000,178404.4687500000,173482.2500000000,161975.0000000000,164341.8906250000,52607.3007812500,171076.3593750000,,,
2.5919999958,20,153629.9531250000,153693.7656250000,178404.9843750000,173480.1250000000,161977.0468750000,164335.9375000000,52606.4687500000,171082.2656250000,,,
2.5959999957,20,153633.6250000000,153695.0781250000,178410.7500000000,173478.3593750000,161983.8750000000,164335.9843750000,52611.2968750000,171087.6250000000,,,
2.5999999957,20,153628.5781250000,153693.0625000000,178404.5781250000,173461.0312500000,161976.8593750000,164331.7343750000,52602.8203125000,171081.7968750000,,,
2.6039999959,20,153622.8437500000,153689.8750000000,178396.7031250000,173452.1718750000,161969.0781250000,164326.7656250000,52601.7734375000,171073.0781250000,,,
2.6079999958,20,153627.4062500000,153694.7031250000,178398.9531250000,173464.8906250000,161971.3593750000,164328.8593750000,52602.0429687500,171077.1093750000,,,
2.6119999958,20,153632.0156250000,153694.2500000000,178403.2968750000,173469.7656250000,161977.7656250000,164323.6250000000,52602.1210937500,171082.6875000000,,,
2.6159999957,20,153635.3750000000,153698.0000000000,178405.1250000000,173465.6093750000,161981.3906250000,164327.6562500000,52609.3632812500,171088.7968750000,,,
2.6199999957,20,153633.5000000000,153692.9062500000,178403.7031250000,173468.1406250000,161978.9218750000,164321.7500000000,52610.7343750000,171081.7500000000,,,
2.6239999956,20,153631.6406250000,153689.0156250000,178402.5156250000,173474.8125000000,161977.0937500000,164320.4843750000,52607.8906250000,171071.5625000000,,,
2.6279999958,20,153636.5000000000,153693.6093750000,178409.2812500000,173473.8750000000,161985.3593750000,164331.7031250000,52621.1914062500,171078.9531250000,,,
2.6319999958,20,153635.0000000000,153688.9843750000,178407.2343750000,173466.9843750000,161986.2968750000,164329.8437500000,52620.5781250000,171082.5000000000,,,
2.6359999957,20,153641.4843750000,153692.8437500000,178413.4843750000,173472.6093750000,161991.6093750000,164334.4375000000,52622.2656250000,171087.5625000000,,,
2.6399999957,20,153647.0625000000,153695.6406250000,178415.6875000000,173484.3906250000,161991.5468750000,164337.1406250000,52622.9648437500,171085.6718750000,,,
2.6439999957,20,153650.6093750000,153696.8750000000,178420.7031250000,173489.8906250000,161995.6250000000,164335.5937500000,52628.2460937500,171079.7031250000,,,
2.6479999959,20,153645.5937500000,153693.1406250000,178419.6250000000,173479.7812500000,161993.7187500000,164332.0468750000,52623.5546875000,171076.3906250000,,,
2.6519999958,20,153637.5781250000,153687.0000000000,178412.9218750000,173471.4843750000,161987.1250000000,164323.3593750000,52611.9140625000,171075.6875000000,,,
2.6559999958,20,153637.9687500000,153683.4062500000,178416.9218750000,173475.0625000000,161989.7812500000,164315.9843750000,52612.7695312500,171073.1875000000,,,
2.6599999957,20,153644.7031250000,153687.9218750000,178424.4062500000,173487.4218750000,161993.5312500000,164319.5781250000,52619.9335937500,171070.8125000000,,,
2.6639999957,20,153641.7500000000,153688.0000000000,178420.4375000000,173483.3750000000,161988.3593750000,164317.2968750000,52620.7382812500,171064.4218750000,,,
2.6679999956,20,153639.7968750000,153689.7343750000,178417.7500000000,173474.1406250000,161987.0000000000,164318.5625000000,52620.0664062500,171065.7968750000,,,
2.6719999958,20,153640.0156250000,153694.3281250000,178416.1406250000,173482.7500000000,161987.1875000000,164322.5000000000,52615.0507812500,171074.9843750000,,,
2.6759999958,20,153646.2343750000,153703.6093750000,178423.6250000000,173492.7812500000,161994.5625000000,164330.1250000000,52621.9453125000,171088.4218750000,,,
2.6799999957,20,153648.7343750000,153709.0468750000,178425.7500000000,173492.3281250000,161994.3906250000,164333.5468750000,52625.9687500000,171092.3125000000,,,
2.6839999957,20,153646.2343750000,153704.2031250000,178425.0156250000,173493.4531250000,161990.6875000000,164331.1562500000,52626.5312500000,171084.9375000000,,,
2.6879999957,21,153637.1406250000,153698.5312500000,178415.2812500000,173474.4062500000,161982.3281250000,164329.6093750000,52617.4648437500,171080.3281250000,,,
2.6919999956,21,153634.8281250000,153701.8437500000,178413.1718750000,173469.4218750000,161981.9531250000,164330.7812500000,52614.4062500000,171089.2656250000,,,
2.6959999956,21,153630.7500000000,153698.8593750000,178407.8281250000,173470.7656250000,161977.2343750000,164328.1406250000,52608.4257812500,171090.7343750000,,,
2.6999999955,21,153632.8437500000,153700.2343750000,178406.7500000000,173482.1875000000,161974.5468750000,164330.5000000000,52606.0664062500,171088.9843750000,,,
2.7039999955,21,153637.1093750000,153701.8906250000,178410.8906250000,173472.8593750000,161978.4687500000,164332.3437500000,52609.3632812500,171085.2343750000,,,
2.7079999954,21,153632.8750000000,153694.9687500000,178407.6875000000,173458.2968750000,161976.3125000000,164326.4375000000,52609.3906250000,171079.1406250000,,,
2.7119999956,21,153636.3125000000,153697.0156250000,178409.3281250000,173466.0781250000,161979.4218750000,164331.4843750000,52616.9296875000,171084.6718750000,,,
2.7159999956,21,153644.7031250000,153703.9062500000,178417.5937500000,173473.8281250000,161989.7343750000,164339.7500000000,52631.6015625000,171093.1250000000,,,
2.7199999955,21,153637.4687500000,153694.6406250000,178411.1250000000,173466.2812500000,161983.0000000000,164333.7968750000,52626.4218750000,171084.8593750000,,,
2.7239999955,21,153635.8750000000,153691.2968750000,178411.9375000000,173465.9375000000,161982.5937500000,164333.2343750000,52623.1523437500,171076.8437500000,,,
2.7279999955,21,153640.3593750000,153694.4375000000,178418.2343750000,173471.2968750000,161988.7656250000,164338.1406250000,52625.0273437500,171079.2343750000,,,
2.7319999957,21,153638.3281250000,153689.7968750000,178415.0625000000,173472.1093750000,161986.3437500000,164335.6718750000,52626.5312500000,171080.9375000000,,,
2.7359999956,21,153635.3125000000,153688.4062500000,178409.8593750000,173470.2343750000,161980.7187500000,164336.7187500000,52623.4726562500,171080.7343750000,,,
2.7399999956,21,153638.6093750000,153690.2812500000,178413.2187500000,173474.4375000000,161982.5937500000,164339.4843750000,52623.5820312500,171077.7187500000,,,
2.7439999955,21,153640.8125000000,153687.5937500000,178418.1875000000,173476.4218750000,161986.3281250000,164336.0937500000,52630.2851562500,171068.9843750000,,,
2.7479999955,21,153643.3906250000,153687.4531250000,178422.2656250000,173484.7187500000,161988.8125000000,164330.6562500000,52626.3710937500,171066.0781250000,,,
2.7519999954,21,153639.3906250000,153686.3906250000,178417.4375000000,173486.7187500000,161986.6406250000,164328.9843750000,52621.0039062500,171070.3281250000,,,
2.7559999956,21,153638.7968750000,153687.8125000000,178419.4687500000,173486.3281250000,161989.3281250000,164330.1250000000,52627.0390625000,171075.6875000000,,,
2.7599999956,21,153640.5937500000,153694.5937500000,178421.2343750000,173490.6093750000,161990.8750000000,164332.6093750000,52627.6289062500,171079.7343750000,,,
2.7639999955,21,153634.0312500000,153686.5937500000,178418.9062500000,173485.2500000000,161988.6562500000,164325.6718750000,52622.2929687500,171071.0781250000,,,
2.7679999955,21,153638.2343750000,153690.3593750000,178422.5468750000,173487.4218750000,161991.6875000000,164328.4062500000,52616.9570312500,171074.1093750000,,,
2.7719999955,21,153631.9687500000,153687.5468750000,178408.4375000000,173479.0312500000,161978.5781250000,164327.6250000000,52615.9101562500,171078.4531250000,,,
2.7759999956,21,153631.1093750000,153687.8906250000,178404.2812500000,173479.2656250000,161974.8906250000,164328.6093750000,52619.2343750000,171082.3593750000,,,
2.7799999956,21,153629.9531250000,153687.8125000000,178400.2968750000,173481.2500000000,161969.8750000000,164325.2343750000,52611.1093750000,171079.8125000000,,,
2.7839999956,21,153631.9375000000,153691.5156250000,178401.0937500000,173475.0625000000,161970.5468750000,164326.3906250000,52613.6289062500,171076.2968750000,,,
2.7879999955,21,153629.7968750000,153690.5781250000,178399.6718750000,173477.0625000000,161970.6093750000,164327.5937500000,52615.6406250000,171076.1718750000,,,
2.7919999955,21,153626.3906250000,153686.1718750000,178396.5312500000,173472.1406250000,161970.0625000000,164327.0312500000,52616.0429687500,171075.7187500000,,,
2.7959999954,21,153626.8125000000,153683.8437500000,178396.5937500000,173466.6093750000,161971.4687500000,164324.7031250000,52616.4453125000,171075.9843750000,,,
2.7999999956,21,153639.8750000000,153696.3125000000,178409.0156250000,173480.0156250000,161983.5625000000,164332.0156250000,52626.1015625000,171083.7343750000,,,
2.8039999956,21,153646.6406250000,153705.0000000000,178414.0312500000,173471.2500000000,161987.6406250000,164340.0468750000,52626.3164062500,171088.9375000000,,,
2.8079999955,21,153646.3750000000,153706.5000000000,178412.8750000000,173462.7968750000,161984.7187500000,164343.2031250000,52621.4062500000,171092.4843750000,,,
2.8119999955,21,153639.5781250000,153694.2968750000,178408.7187500000,173467.0937500000,161981.3906250000,164336.2343750000,52619.8242187500,171087.2500000000,,,
2.8159999955,22,153638.2343750000,153688.0468750000,178409.1718750000,173463.2812500000,161981.7968750000,164332.8750000000,52618.3515625000,171083.4843750000,,,
2.8199999954,22,153635.3437500000,153686.2187500000,178405.9843750000,173456.1718750000,161976.8593750000,164328.0781250000,52608.0234375000,171075.7656250000,,,
2.8239999954,22,153637.3281250000,153690.8906250000,178407.4062500000,173466.2343750000,161977.5312500000,164330.2812500000,52607.9414062500,171074.1250000000,,,
2.8279999953,22,153640.8125000000,153695.5000000000,178412.8125000000,173474.3906250000,161982.8593750000,164332.6875000000,52604.3203125000,171078.0781250000,,,
2.8319999953,22,153630.7500000000,153682.2500000000,178409.2812500000,173474.5937500000,161979.2343750000,164322.6562500000,52604.5351562500,171072.6875000000,,,
2.8359999952,22,153621.6718750000,153674.7187500000,178402.3593750000,173474.3125000000,161973.7187500000,164315.9531250000,52612.8515625000,171067.2187500000,,,
2.8399999954,22,153620.4843750000,153675.6250000000,178400.7187500000,173474.0625000000,161970.3125000000,164317.4531250000,52622.2929687500,171066.5625000000,,,
2.8439999954,22,153627.5468750000,153682.2812500000,178408.8750000000,173472.6718750000,161976.5937500000,164325.3750000000,52632.5937500000,171067.5000000000,,,
2.8479999953,22,153628.4843750000,153685.6562500000,178409.1093750000,173478.2812500000,161977.3906250000,164326.7187500000,52628.3554687500,171071.2656250000,,,
2.8519999953,22,153628.8750000000,153687.4843750000,178408.8437500000,173486.1562500000,161977.5468750000,164327.6718750000,52622.2656250000,171077.4062500000,,,
2.8559999953,22,153631.7968750000,153688.7187500000,178412.1718750000,173485.3906250000,161981.3906250000,164333.0625000000,52630.4726562500,171083.2812500000,,,
2.8599999954,22,153634.1093750000,153693.9218750000,178410.4531250000,173481.6093750000,161979.4843750000,164339.0781250000,52629.0507812500,171085.0156250000,,,
2.8639999954,22,153633.5781250000,153691.2968750000,178412.2812500000,173491.4218750000,161979.9062500000,164336.7187500000,52621.8359375000,171075.4531250000,,,
2.8679999954,22,153622.9843750000,153682.0937500000,178398.9218750000,173470.3593750000,161967.0625000000,164327.7031250000,52606.8437500000,171067.5312500000,,,
2.8719999953,22,153617.6093750000,153678.0156250000,178391.5000000000,173458.9062500000,161960.4687500000,164319.1406250000,52604.9101562500,171068.7343750000,,,
2.8759999953,22,153616.7812500000,153680.7031250000,178388.2812500000,173471.7656250000,161959.8437500000,164322.8281250000,52613.2539062500,171076.0937500000,,,
2.8799999952,22,153623.9218750000,153688.0468750000,178397.2031250000,173471.0625000000,161970.7656250000,164332.3437500000,52632.8867187500,171081.5937500000,,,
2.8839999954,22,153623.5156250000,153689.0156250000,178394.2500000000,173464.7031250000,161967.3281250000,164335.5312500000,52632.0546875000,171078.9531250000,,,
2.8879999954,22,153617.7812500000,153683.5937500000,178384.8906250000,173452.0937500000,161958.9843750000,164331.8125000000,52620.2812500000,171077.1093750000,,,
2.8919999953,22,153625.7656250000,153689.3906250000,178393.5000000000,173458.5625000000,161967.8437500000,164338.0781250000,52626.1835937500,171088.0468750000,,,
2.8959999953,22,153627.7500000000,153688.6718750000,178397.3750000000,173458.4531250000,161971.0937500000,164337.7031250000,52625.9687500000,171090.2812500000,,,
2.8999999953,22,153622.9843750000,153682.9843750000,178393.8281250000,173453.0625000000,161967.9218750000,164334.7656250000,52623.0703125000,171081.6093750000,,,
2.9039999954,22,153629.6875000000,153689.6093750000,178402.0937500000,173454.3437500000,161974.8437500000,164345.2187500000,52631.8164062500,171081.1250000000,,,
2.9079999954,22,153634.2968750000,153690.8593750000,178411.3906250000,173462.2968750000,161982.2968750000,164347.0937500000,52636.4804687500,171081.4843750000,,,
2.9119999954,22,153635.2968750000,153685.6562500000,178418.0468750000,173469.7968750000,161987.1562500000,164340.2343750000,52635.2226562500,171081.9687500000,,,
2.9159999953,22,153628.6718750000,153679.3906250000,178408.9843750000,173466.4218750000,161979.3281250000,164335.9375000000,52626.9062500000,171078.6406250000,,,
2.9199999953,22,153625.5000000000,153680.5468750000,178401.4687500000,173464.4062500000,161972.2656250000,164336.1718750000,52623.1523437500,171075.0625000000,,,
2.9239999952,22,153624.4218750000,153679.1406250000,178403.2343750000,173463.9062500000,161972.7968750000,164334.1718750000,52628.3554687500,171067.5937500000,,,
2.9279999954,22,153635.6875000000,153691.2343750000,178414.3750000000,173482.2968750000,161984.0937500000,164343.7500000000,52638.9218750000,171077.8593750000,,,
2.9319999954,22,153635.3750000000,153692.0000000000,178414.6718750000,173472.6406250000,161986.2500000000,164342.5937500000,52639.0820312500,171087.3750000000,,,
2.9359999953,22,153629.6875000000,153686.2500000000,178411.0000000000,173459.9843750000,161983.1093750000,164339.1562500000,52633.8281250000,171086.6250000000,,,
2.9399999953,22,153626.0625000000,153682.6250000000,178404.0937500000,173456.0156250000,161974.9843750000,164336.3906250000,52632.0039062500,171081.6093750000,,,
2.9439999952,23,153629.6562500000,153686.9218750000,178408.0625000000,173460.3125000000,161977.5312500000,164336.0937500000,52638.0625000000,171078.7656250000,,,
2.9479999952,23,153631.7187500000,153685.7500000000,178412.5000000000,173470.7656250000,161980.0000000000,164330.9687500000,52635.4101562500,171076.8906250000,,,
2.9519999952,23,153629.4218750000,153684.4843750000,178410.7500000000,173480.1250000000,161980.3906250000,164328.1875000000,52636.5625000000,171081.4843750000,,,
2.9559999951,23,153627.7812500000,153688.5312500000,178408.2031250000,173474.8437500000,161979.5937500000,164330.1718750000,52636.8320312500,171087.2187500000,,,
2.9599999951,23,153629.4687500000,153691.6093750000,178410.8281250000,173462.1093750000,161982.2968750000,164331.2187500000,52637.7695312500,171088.2343750000,,,
