Time:250Hz,Epoch,Channel 1,Channel 2,Channel 3,Channel 4,Channel 5,Channel 6,Channel 7,Channel 8,Event Id,Event Date,Event Duration
0.0000000000,0,134474.0156250000,113853.1640625000,129320.1796875000,140327.1406250000,110030.8281250000,128029.7656250000,133974.0312500000,125646.7812500000,,,
0.0040000000,0,136213.8281250000,115783.5781250000,131078.7968750000,142318.6250000000,111880.8515625000,129978.5000000000,135834.8593750000,127138.9218750000,,,
0.0079999999,0,137022.8437500000,116561.5234375000,131904.2968750000,143070.7187500000,112680.0156250000,130743.0390625000,136620.7500000000,127992.8593750000,,,
0.0119999999,0,135793.3125000000,115132.3359375000,130670.2109375000,141570.3437500000,111343.4453125000,129288.0156250000,135269.5312500000,127047.3828125000,,,
0.0159999998,0,134253.7812500000,113500.8515625000,129113.6171875000,139914.9843750000,109746.1640625000,127651.3906250000,133678.5312500000,125635.7031250000,,,
0.0199999998,0,134530.3906250000,113923.1406250000,129384.0156250000,140391.8281250000,110092.2265625000,128085.5000000000,134040.8125000000,125709.8671875000,,,
0.0240000000,0,136234.0625000000,115813.5078125000,131101.8281250000,142336.8125000000,111901.4531250000,129991.5078125000,135854.6093750000,127161.7734375000,,,
0.0279999999,0,137039.6875000000,116581.9062500000,131920.5312500000,143077.2500000000,112695.2265625000,130755.9375000000,136636.1406250000,128009.6484375000,,,
0.0319999999,0,135803.5000000000,115142.3906250000,130680.1640625000,141562.5781250000,111351.1953125000,129296.0390625000,135278.4687500000,127059.3125000000,,,
0.0359999998,0,134266.4687500000,113514.6718750000,129124.4843750000,139911.2500000000,109759.0390625000,127658.6796875000,133687.7500000000,125649.0390625000,,,
0.0399999998,0,134555.0468750000,113947.3125000000,129405.6328125000,140404.3593750000,110120.4140625000,128110.3437500000,134065.8437500000,125734.8125000000,,,
0.0440000000,0,136277.1875000000,115856.6406250000,131141.9687500000,142376.2656250000,111948.3125000000,130043.6796875000,135906.2031250000,127203.1640625000,,,
0.0480000000,0,137093.5625000000,116637.9921875000,131971.8437500000,143139.6406250000,112752.7578125000,130818.3281250000,136700.5781250000,128057.2890625000,,,
0.0519999999,0,135863.6406250000,115202.5312500000,130737.7812500000,141634.7968750000,111412.9687500000,129362.4765625000,135348.6562500000,127111.9375000000,,,
0.0559999999,0,134306.3437500000,113549.5390625000,129162.5703125000,139957.7187500000,109793.4765625000,127699.2890625000,133730.9062500000,125686.9609375000,,,
0.0599999998,0,134579.7500000000,113965.9765625000,129428.4843750000,140429.8281250000,110137.2343750000,128130.1640625000,134087.6718750000,125757.9375000000,,,
0.0639999998,0,136289.8125000000,115857.3671875000,131152.2343750000,142380.3593750000,111953.4375000000,130042.0156250000,135910.0937500000,127210.9921875000,,,
0.0680000000,0,137087.1562500000,116615.7031250000,131962.5312500000,143122.2031250000,112740.2343750000,130797.6171875000,136684.2968750000,128043.4218750000,,,
0.0719999999,0,135874.6718750000,115204.5703125000,130745.5312500000,141640.2031250000,111421.9531250000,129365.8828125000,135351.5000000000,127115.4296875000,,,
0.0759999999,0,134319.4687500000,113559.8906250000,129173.1640625000,139968.3125000000,109807.9375000000,127708.7890625000,133737.3281250000,125696.7578125000,,,
0.0799999998,0,134554.5937500000,113937.1406250000,129401.3671875000,140393.4843750000,110111.1093750000,128101.6250000000,134053.4531250000,125737.6562500000,,,
0.0839999998,0,136273.8906250000,115853.5312500000,131134.3750000000,142368.8281250000,111939.8125000000,130037.5859375000,135891.6250000000,127202.4140625000,,,
0.0880000000,0,137128.2500000000,116676.9921875000,132003.5625000000,143170.0625000000,112786.7187500000,130857.7578125000,136729.2500000000,128092.2343750000,,,
0.0919999999,0,135913.6875000000,115257.0312500000,130783.6953125000,141679.3906250000,111459.6953125000,129411.9375000000,135386.9375000000,127161.6406250000,,,
0.0959999999,0,134335.2187500000,113583.8984375000,129185.8515625000,139983.0000000000,109819.2265625000,127727.2421875000,133748.1875000000,125722.1796875000,,,
0.0999999999,0,134566.7343750000,113953.6953125000,129411.5859375000,140410.6562500000,110121.6171875000,128118.6562500000,134064.9531250000,125757.3984375000,,,
0.1039999998,0,136265.7812500000,115841.6171875000,131127.8750000000,142365.1875000000,111931.5468750000,130025.2734375000,135882.1250000000,127199.1093750000,,,
0.1079999998,0,137105.5000000000,116647.6250000000,131982.2500000000,143155.0625000000,112764.3437500000,130822.2656250000,136703.0937500000,128066.3515625000,,,
0.1120000000,0,135907.9218750000,115249.8203125000,130779.3828125000,141689.0000000000,111460.6562500000,129405.2265625000,135387.0156250000,127153.4375000000,,,
0.1159999999,0,134371.5000000000,113617.7421875000,129225.9218750000,140034.2656250000,109862.7890625000,127767.8515625000,133791.9062500000,125758.7421875000,,,
0.1199999999,0,134600.4062500000,113985.2343750000,129449.0546875000,140456.9531250000,110158.7968750000,128153.3906250000,134103.8750000000,125794.0625000000,,,
0.1239999998,0,136198.8437500000,115771.4296875000,131062.8125000000,142296.2031250000,111865.2187500000,129961.3359375000,135817.8281250000,127136.4296875000,,,
0.1279999998,1,136996.9843750000,116541.9687500000,131874.3437500000,143046.2187500000,112657.6250000000,130725.7343750000,136599.0156250000,127960.8593750000,,,
0.1319999998,1,135898.0000000000,115252.4687500000,130770.9296875000,141688.2812500000,111453.2265625000,129408.3984375000,135382.8750000000,127142.0390625000,,,
0.1359999997,1,134437.3750000000,113696.0703125000,129293.0078125000,140105.0937500000,109929.3046875000,127839.8125000000,133859.8750000000,125825.6328125000,,,
0.1399999997,1,134626.0781250000,114012.2734375000,129473.4921875000,140468.0781250000,110179.5312500000,128176.6406250000,134123.9531250000,125821.4531250000,,,
0.1439999996,1,136189.4531250000,115752.9687500000,131049.8828125000,142272.2187500000,111845.8750000000,129942.3984375000,135799.8125000000,127121.0625000000,,,
0.1479999996,1,136991.7187500000,116523.1953125000,131864.5000000000,143030.4218750000,112643.1406250000,130709.2656250000,136585.3750000000,127945.1406250000,,,
0.1519999998,1,135912.8125000000,115249.4140625000,130782.3046875000,141696.5156250000,111462.9375000000,129415.2343750000,135392.0312500000,127146.6250000000,,,
0.1559999997,1,134458.0781250000,113691.8515625000,129311.2187500000,140117.7343750000,109947.1406250000,127847.4062500000,133878.1562500000,125835.9062500000,,,
0.1599999997,1,134612.2500000000,113972.6328125000,129456.2187500000,140455.9843750000,110162.7109375000,128146.4453125000,134109.0937500000,125800.2343750000,,,
0.1639999996,1,136148.4687500000,115697.7421875000,131005.8671875000,142242.1718750000,111804.3046875000,129896.8828125000,135758.4218750000,127079.0000000000,,,
0.1679999996,1,136970.3437500000,116502.1953125000,131841.7812500000,143024.9218750000,112624.6562500000,130700.0156250000,136568.0156250000,127924.3046875000,,,
0.1719999998,1,135922.5468750000,115264.5390625000,130791.0468750000,141716.8593750000,111476.2421875000,129442.5937500000,135405.2812500000,127157.6718750000,,,
0.1759999997,1,134478.9531250000,113716.4765625000,129332.7578125000,140140.0156250000,109968.4140625000,127884.7109375000,133896.5625000000,125862.6718750000,,,
0.1799999997,1,134637.6250000000,113997.3046875000,129482.1562500000,140474.6250000000,110184.3593750000,128179.2734375000,134125.1093750000,125830.2734375000,,,
0.1839999997,1,136170.4062500000,115716.2500000000,131028.1796875000,142254.1406250000,111822.7578125000,129919.7890625000,135773.5156250000,127097.3515625000,,,
0.1879999996,1,136986.7656250000,116513.7265625000,131858.3281250000,143040.3437500000,112639.1171875000,130712.8593750000,136582.3437500000,127932.1328125000,,,
0.1919999996,1,135952.6406250000,115290.9062500000,130820.8750000000,141754.9062500000,111504.8906250000,129468.7968750000,135439.5625000000,127182.5625000000,,,
0.1959999998,1,134506.9843750000,113743.9453125000,129356.9531250000,140181.6718750000,109995.7968750000,127910.9687500000,133932.3906250000,125890.9218750000,,,
0.1999999997,1,134645.7031250000,114011.8437500000,129486.7734375000,140497.9062500000,110194.5234375000,128192.6562500000,134142.5781250000,125845.5390625000,,,
0.2039999997,1,136155.0156250000,115715.9062500000,131012.3281250000,142257.2187500000,111812.0312500000,129915.7656250000,135766.8906250000,127095.0468750000,,,
0.2079999996,1,136957.2656250000,116496.2421875000,131830.7031250000,143018.5937500000,112615.8906250000,130698.3203125000,136561.1718750000,127916.5468750000,,,
0.2119999996,1,135939.4218750000,115286.5625000000,130810.3828125000,141742.6718750000,111500.0078125000,129471.6406250000,135434.4843750000,127180.3906250000,,,
0.2159999998,1,134509.9375000000,113754.3750000000,129363.9765625000,140182.7500000000,110007.3593750000,127929.0781250000,133941.6250000000,125903.7421875000,,,
0.2199999997,1,134639.2343750000,114008.8671875000,129483.6562500000,140481.3593750000,110194.5781250000,128193.3281250000,134137.5937500000,125846.6640625000,,,
0.2239999997,1,136140.1718750000,115700.1093750000,130997.9765625000,142228.1718750000,111800.8984375000,129899.9140625000,135751.0468750000,127081.9531250000,,,
0.2279999997,1,136972.2812500000,116516.4062500000,131844.9218750000,143027.2812500000,112632.1953125000,130708.5156250000,136574.2343750000,127925.5078125000,,,
0.2319999996,1,135985.4375000000,115342.1406250000,130856.6796875000,141779.3125000000,111545.3906250000,129508.8437500000,135478.4531250000,127214.8828125000,,,
0.2359999996,1,134556.6562500000,113806.4687500000,129411.1875000000,140209.7343750000,110050.8125000000,127959.4375000000,133985.2968750000,125937.8593750000,,,
0.2399999998,1,134650.9375000000,114016.0781250000,129496.1015625000,140464.7031250000,110200.2656250000,128179.1953125000,134142.0312500000,125848.5703125000,,,
0.2439999997,1,136128.4218750000,115680.8984375000,130985.6406250000,142192.1250000000,111782.7890625000,129857.6093750000,135729.1093750000,127058.4843750000,,,
0.2479999997,1,136970.4062500000,116510.6718750000,131839.4687500000,143005.0781250000,112626.0781250000,130681.6406250000,136563.2187500000,127908.2109375000,,,
0.2519999996,1,135999.2031250000,115355.6328125000,130866.7656250000,141782.7343750000,111557.4843750000,129502.9140625000,135486.1250000000,127216.1953125000,,,
0.2559999996,2,134570.7968750000,113820.5234375000,129423.9531250000,140218.2656250000,110063.8750000000,127956.3828125000,133997.6562500000,125946.4687500000,,,
0.2599999995,2,134667.3750000000,114035.8515625000,129512.0625000000,140487.2031250000,110216.3281250000,128188.5781250000,134165.0781250000,125859.5625000000,,,
0.2639999995,2,136147.9062500000,115706.3281250000,131006.0234375000,142222.9218750000,111803.3125000000,129879.7109375000,135760.6406250000,127073.3437500000,,,
0.2679999995,2,136970.9375000000,116511.6875000000,131841.6093750000,143015.5156250000,112624.8984375000,130681.9609375000,136573.0625000000,127906.1718750000,,,
0.2719999994,2,135999.2343750000,115352.6250000000,130868.4296875000,141787.7500000000,111554.5625000000,129503.4531250000,135490.6875000000,127213.7578125000,,,
0.2759999994,2,134573.5468750000,113822.1328125000,129430.5234375000,140227.3593750000,110064.0625000000,127960.1093750000,134001.2500000000,125947.6171875000,,,
0.2799999996,2,134654.3750000000,114021.3125000000,129504.5781250000,140479.6093750000,110201.7343750000,128172.9687500000,134150.3281250000,125848.5703125000,,,
0.2839999995,2,136119.2500000000,115674.8359375000,130981.5078125000,142194.9218750000,111773.2734375000,129850.2656250000,135729.3906250000,127048.6953125000,,,
0.2879999995,2,136966.3593750000,116517.5859375000,131843.7656250000,143019.2656250000,112625.7343750000,130692.4531250000,136575.8281250000,127905.6093750000,,,
0.2919999994,2,136019.0156250000,115388.8906250000,130895.4375000000,141824.3437500000,111581.2812500000,129545.2421875000,135524.7500000000,127241.0390625000,,,
0.2959999994,2,134591.8437500000,113850.8046875000,129452.6250000000,140262.2187500000,110087.5000000000,127999.2734375000,134032.8750000000,125978.2265625000,,,
0.2999999996,2,134663.5625000000,114030.3203125000,129513.3750000000,140494.2343750000,110211.9296875000,128197.7812500000,134167.8437500000,125871.6328125000,,,
0.3039999995,2,136120.0000000000,115676.1250000000,130981.4296875000,142192.7500000000,111774.3671875000,129866.0312500000,135737.3125000000,127060.3906250000,,,
0.3079999995,2,136963.4531250000,116512.9765625000,131837.6250000000,143011.2968750000,112619.2109375000,130697.6015625000,136574.3125000000,127908.1796875000,,,
0.3119999995,2,136020.9218750000,115383.5781250000,130892.9453125000,141817.7656250000,111577.2578125000,129548.0859375000,135522.1406250000,127243.3671875000,,,
0.3159999994,2,134588.8750000000,113838.1171875000,129444.9843750000,140248.1406250000,110078.8359375000,127994.2812500000,134020.7031250000,125976.8281250000,,,
0.3199999994,2,134626.6562500000,113989.3671875000,129473.0078125000,140446.0156250000,110171.7812500000,128159.5625000000,134118.1406250000,125838.8281250000,,,
0.3239999996,2,136074.7031250000,115630.3437500000,130932.9609375000,142143.9062500000,111727.5390625000,129820.6484375000,135680.7187500000,127014.6328125000,,,
0.3279999995,2,136941.4843750000,116491.0625000000,131812.7500000000,142996.8437500000,112597.5156250000,130676.5937500000,136542.9062500000,127883.0781250000,,,
0.3319999995,2,136023.4531250000,115391.0078125000,130892.9687500000,141832.5156250000,111581.8671875000,129554.2812500000,135520.3437500000,127242.6171875000,,,
0.3359999994,2,134597.5312500000,113854.2890625000,129450.5078125000,140264.2031250000,110087.9609375000,128005.5156250000,134030.4375000000,125984.9296875000,,,
0.3399999994,2,134637.1250000000,114003.4453125000,129479.9296875000,140457.9218750000,110179.9062500000,128167.1484375000,134131.0156250000,125850.3125000000,,,
0.3439999996,2,136065.1250000000,115623.1015625000,130920.8671875000,142136.8750000000,111714.0781250000,129806.0312500000,135670.0156250000,127007.7343750000,,,
0.3479999995,2,136925.4218750000,116483.2578125000,131796.3906250000,142983.8906250000,112581.0468750000,130663.4531250000,136530.4375000000,127870.7890625000,,,
0.3519999995,2,136023.7968750000,115401.3359375000,130894.3359375000,141829.7812500000,111583.7421875000,129555.5390625000,135523.7031250000,127247.4453125000,,,
0.3559999994,2,134607.8593750000,113874.2421875000,129461.3671875000,140268.1718750000,110100.6953125000,128013.3750000000,134040.0937500000,125999.5468750000,,,
0.3599999994,2,134630.5156250000,114005.5390625000,129474.0546875000,140446.6250000000,110176.5781250000,128159.1796875000,134123.5781250000,125849.8515625000,,,
0.3639999994,2,136040.4062500000,115602.8515625000,130897.3437500000,142108.5468750000,111694.9765625000,129777.4140625000,135646.5468750000,126987.5390625000,,,
0.3679999996,2,136911.6875000000,116471.8593750000,131785.0156250000,142966.9375000000,112575.1953125000,130644.5468750000,136519.1250000000,127855.5000000000,,,
0.3719999995,2,136035.4062500000,115412.6250000000,130907.4843750000,141842.6093750000,111603.2968750000,129563.0000000000,135539.0625000000,127252.6250000000,,,
0.3759999995,2,134623.2031250000,113885.3750000000,129481.0000000000,140286.5468750000,110121.7031250000,128021.9843750000,134058.8906250000,126010.9765625000,,,
0.3799999994,2,134626.8750000000,113993.6015625000,129475.3984375000,140442.9531250000,110172.9062500000,128141.0234375000,134118.1093750000,125845.0546875000,,,
0.3839999994,3,136008.7187500000,115566.3437500000,130868.6406250000,142075.3750000000,111660.8593750000,129733.8828125000,135612.8750000000,126956.0234375000,,,
0.3879999993,3,136893.4218750000,116451.9843750000,131767.2968750000,142951.1093750000,112553.5546875000,130618.9062500000,136499.4531250000,127836.2734375000,,,
0.3919999993,3,136032.2968750000,115413.8359375000,130902.3828125000,141842.4531250000,111596.2187500000,129557.5546875000,135532.8750000000,127250.6093750000,,,
0.3959999993,3,134626.7187500000,113893.3125000000,129479.3359375000,140286.6875000000,110121.2968750000,128026.4375000000,134057.6093750000,126018.7031250000,,,
0.3999999992,3,134627.2500000000,113998.2187500000,129470.6796875000,140438.6875000000,110172.4453125000,128147.4375000000,134117.9218750000,125851.4375000000,,,
0.4039999992,3,136020.7343750000,115580.0468750000,130876.0234375000,142083.0468750000,111672.8203125000,129752.1171875000,135622.7187500000,126973.5390625000,,,
0.4079999994,3,136906.7812500000,116469.1484375000,131777.1093750000,142963.5781250000,112568.7343750000,130637.8359375000,136511.7968750000,127850.5156250000,,,
0.4119999993,3,136053.1406250000,115439.2343750000,130923.2500000000,141869.1875000000,111620.7031250000,129588.4218750000,135559.2968750000,127269.7109375000,,,
0.4159999993,3,134633.4531250000,113901.0703125000,129490.3906250000,140305.8125000000,110130.5546875000,128040.6796875000,134070.9531250000,126026.2109375000,,,
0.4199999992,3,134601.1718750000,113966.2968750000,129448.6796875000,140422.7500000000,110144.2031250000,128119.0000000000,134093.0625000000,125828.4765625000,,,
0.4239999992,3,135994.9375000000,115553.6875000000,130854.4843750000,142073.3125000000,111646.5937500000,129725.7578125000,135603.1250000000,126946.5000000000,,,
0.4279999994,3,136895.4375000000,116460.3750000000,131770.0781250000,142969.1875000000,112558.6250000000,130628.3203125000,136506.6718750000,127834.7187500000,,,
0.4319999993,3,136061.7187500000,115449.9609375000,130934.4921875000,141885.1718750000,111627.4687500000,129592.5312500000,135565.1875000000,127272.4140625000,,,
0.4359999993,3,134653.7187500000,113923.7343750000,129512.0625000000,140324.5000000000,110147.6093750000,128052.2421875000,134083.3750000000,126040.2343750000,,,
0.4399999992,3,134626.9843750000,113997.4921875000,129476.0703125000,140441.9531250000,110169.8203125000,128140.3515625000,134110.6875000000,125848.0859375000,,,
0.4439999992,3,136003.3593750000,115562.6171875000,130865.6093750000,142067.8593750000,111654.6406250000,129731.7343750000,135602.7968750000,126949.5312500000,,,
0.4479999992,3,136884.4687500000,116447.8828125000,131762.4375000000,142943.6093750000,112549.0234375000,130618.4453125000,136493.0781250000,127816.3437500000,,,
0.4519999993,3,136057.1562500000,115442.7187500000,130934.2265625000,141872.2968750000,111628.9375000000,129593.5234375000,135566.0781250000,127261.3906250000,,,
0.4559999993,3,134645.0625000000,113905.2500000000,129507.6093750000,140304.6250000000,110144.9843750000,128046.4218750000,134082.6562500000,126030.1250000000,,,
0.4599999993,3,134569.0156250000,113915.7968750000,129423.6562500000,140365.1406250000,110114.5625000000,128073.7031250000,134059.2656250000,125794.4921875000,,,
0.4639999992,3,135918.1718750000,115453.9062500000,130784.9296875000,141972.2968750000,111573.7109375000,129633.4843750000,135526.0781250000,126866.1171875000,,,
0.4679999992,3,136849.7500000000,116400.5390625000,131730.9218750000,142910.3125000000,112519.8359375000,130574.4609375000,136467.7343750000,127778.5234375000,,,
0.4719999994,3,136054.1093750000,115436.3359375000,130932.3984375000,141872.8437500000,111628.8593750000,129580.8046875000,135570.6406250000,127255.9765625000,,,
0.4759999993,3,134650.2968750000,113916.3281250000,129512.5156250000,140314.7187500000,110151.5781250000,128044.2500000000,134092.6875000000,126036.8281250000,,,
0.4799999993,3,134592.8593750000,113949.3750000000,129444.2031250000,140392.8437500000,110138.3281250000,128098.2734375000,134084.6875000000,125823.1953125000,,,
0.4839999992,3,135961.6718750000,115507.2812500000,130823.7187500000,142021.7031250000,111615.7968750000,129684.3984375000,135568.1406250000,126915.5781250000,,,
0.4879999992,3,136886.3437500000,116442.0078125000,131761.8750000000,142956.7500000000,112555.7812500000,130620.7265625000,136500.8281250000,127820.7187500000,,,
0.4919999992,3,136083.3125000000,115461.0937500000,130956.7031250000,141911.8593750000,111657.6640625000,129619.0859375000,135593.7656250000,127288.6953125000,,,
0.4959999993,3,134667.8125000000,113924.4531250000,129525.3906250000,140338.4218750000,110167.4609375000,128069.3593750000,134106.6406250000,126057.0000000000,,,
0.4999999993,3,134580.5000000000,113931.3515625000,129428.4062500000,140390.1718750000,110123.9765625000,128091.4296875000,134072.8437500000,125812.8906250000,,,
0.5039999993,3,135926.9375000000,115469.7343750000,130785.3046875000,141997.9375000000,111577.6328125000,129654.5937500000,135534.8281250000,126881.6718750000,,,
0.5079999992,3,136875.2968750000,116432.8593750000,131748.9375000000,142957.3125000000,112541.6718750000,130614.6953125000,136493.0781250000,127807.2265625000,,,
0.5119999992,4,136101.0468750000,115483.5156250000,130975.9296875000,141943.4531250000,111676.5781250000,129641.7500000000,135619.3437500000,127302.9140625000,,,
0.5159999991,4,134687.7812500000,113945.6171875000,129548.6250000000,140370.1875000000,110191.0078125000,128089.5546875000,134134.0000000000,126076.7968750000,,,
0.5199999991,4,134592.5156250000,113940.6875000000,129441.7890625000,140405.6875000000,110138.5468750000,128096.3671875000,134088.5000000000,125827.0546875000,,,
0.5239999990,4,135941.3750000000,115481.0468750000,130802.4453125000,142007.1875000000,111596.6171875000,129659.4765625000,135551.9218750000,126894.9218750000,,,
0.5279999990,4,136889.8750000000,116439.3515625000,131764.5625000000,142959.0000000000,112559.1015625000,130617.9375000000,136502.9687500000,127815.4296875000,,,
0.5319999990,4,136123.9843750000,115496.2343750000,130999.6171875000,141944.1875000000,111701.0390625000,129655.3437500000,135632.9375000000,127320.8593750000,,,
0.5359999991,4,134704.0625000000,113953.0234375000,129565.8984375000,140358.6250000000,110208.5234375000,128101.0078125000,134142.1718750000,126092.0859375000,,,
0.5399999991,4,134596.7812500000,113939.1250000000,129446.5390625000,140385.6250000000,110144.3671875000,128101.8671875000,134084.9843750000,125830.7812500000,,,
0.5439999991,4,135936.6718750000,115472.8125000000,130795.8515625000,141979.6093750000,111591.9765625000,129659.0234375000,135537.4843750000,126891.6015625000,,,
0.5479999990,4,136871.0312500000,116419.9062500000,131743.4218750000,142922.3125000000,112541.0234375000,130610.0234375000,136482.1875000000,127800.1406250000,,,
0.5519999990,4,136111.4218750000,115486.2031250000,130982.6875000000,141921.6875000000,111688.1406250000,129655.1015625000,135625.1875000000,127311.8437500000,,,
0.5559999992,4,134694.0156250000,113945.4062500000,129549.5078125000,140344.1406250000,110194.7890625000,128098.9140625000,134134.3750000000,126085.7265625000,,,
0.5599999991,4,134584.5781250000,113929.1484375000,129428.2187500000,140371.1406250000,110128.3281250000,128095.1328125000,134076.1093750000,125823.1640625000,,,
0.5639999991,4,135930.7187500000,115467.5546875000,130787.2109375000,141974.2812500000,111585.8906250000,129657.3046875000,135540.0625000000,126890.3125000000,,,
0.5679999990,4,136874.2968750000,116426.7421875000,131745.8906250000,142923.7500000000,112544.5937500000,130610.5078125000,136490.2812500000,127804.6250000000,,,
0.5719999990,4,136126.9062500000,115511.1953125000,130997.8984375000,141939.8125000000,111703.8046875000,129668.7031250000,135643.4531250000,127324.5312500000,,,
0.5759999990,4,134717.0468750000,113981.3437500000,129574.1015625000,140373.8281250000,110222.2812500000,128128.0703125000,134166.1562500000,126108.1796875000,,,
0.5799999991,4,134592.8125000000,113945.8359375000,129440.5546875000,140380.3281250000,110138.8437500000,128106.9062500000,134091.9843750000,125834.4062500000,,,
0.5839999991,4,135906.5000000000,115447.7656250000,130764.1953125000,141947.3750000000,111559.1796875000,129633.2421875000,135518.8750000000,126863.3281250000,,,
0.5879999991,4,136868.7187500000,116426.8750000000,131738.4375000000,142926.3281250000,112537.8046875000,130614.9609375000,136490.6093750000,127791.0781250000,,,
0.5919999990,4,136142.0781250000,115531.2109375000,131011.5234375000,141962.3125000000,111720.6484375000,129696.5156250000,135665.6406250000,127330.1953125000,,,
0.5959999990,4,134727.1093750000,113993.8750000000,129582.3906250000,140383.4531250000,110231.8046875000,128144.2421875000,134177.8750000000,126112.2812500000,,,
0.5999999992,4,134590.3125000000,113947.3906250000,129433.6875000000,140375.3906250000,110134.4921875000,128108.9687500000,134085.9531250000,125829.3125000000,,,
0.6039999991,4,135913.8281250000,115463.7265625000,130769.0546875000,141956.4218750000,111566.5781250000,129646.3593750000,135523.8125000000,126870.0078125000,,,
0.6079999991,4,136893.2656250000,116463.4375000000,131764.3750000000,142953.3906250000,112567.4453125000,130645.9687500000,136519.2500000000,127813.9531250000,,,
0.6119999990,4,136173.5937500000,115565.6484375000,131045.2421875000,141994.1250000000,111756.2421875000,129725.9453125000,135699.1718750000,127359.9921875000,,,
0.6159999990,4,134734.9218750000,113992.6953125000,129590.5703125000,140390.2656250000,110239.0234375000,128139.4687500000,134180.9062500000,126119.0390625000,,,
0.6199999989,4,134577.8750000000,113918.7421875000,129421.6171875000,140359.7031250000,110121.0312500000,128078.2578125000,134069.4062500000,125816.8359375000,,,
0.6239999991,4,135897.9687500000,115433.3906250000,130752.4218750000,141942.3281250000,111549.3359375000,129611.7578125000,135504.0312500000,126853.2968750000,,,
0.6279999991,4,136869.2500000000,116425.9687500000,131740.3125000000,142929.9531250000,112539.7109375000,130604.4765625000,136487.9218750000,127787.9140625000,,,
0.6319999991,4,136136.5625000000,115524.7187500000,131008.1718750000,141960.7343750000,111715.4453125000,129680.8281250000,135653.1718750000,127320.2968750000,,,
0.6359999990,4,134731.3750000000,113995.7734375000,129587.5703125000,140389.3906250000,110233.3906250000,128136.2265625000,134169.7187500000,126116.2265625000,,,
0.6399999990,5,134564.8125000000,113912.0625000000,129407.0546875000,140345.7812500000,110101.7734375000,128064.7187500000,134043.3125000000,125809.7031250000,,,
0.6439999989,5,135871.3593750000,115409.2500000000,130722.4609375000,141908.1562500000,111514.7578125000,129588.2343750000,135460.2656250000,126831.9218750000,,,
0.6479999989,5,136860.7031250000,116422.0234375000,131726.7656250000,142918.4687500000,112525.8984375000,130604.2890625000,136465.0468750000,127780.6953125000,,,
0.6519999988,5,136167.7031250000,115563.2031250000,131033.4687500000,141991.4218750000,111743.7656250000,129720.5781250000,135675.7187500000,127352.7265625000,,,
0.6559999988,5,134744.3750000000,114011.4140625000,129595.7187500000,140399.0468750000,110243.3359375000,128149.3671875000,134174.8906250000,126133.6562500000,,,
0.6599999988,5,134556.8125000000,113906.4843750000,129396.4609375000,140334.2187500000,110092.1953125000,128052.7265625000,134031.5625000000,125808.2031250000,,,
0.6639999989,5,135868.8750000000,115415.2265625000,130718.2500000000,141907.8125000000,111514.1406250000,129580.1875000000,135463.6406250000,126832.5078125000,,,
0.6679999989,5,136892.9375000000,116467.4296875000,131758.1406250000,142960.3593750000,112562.5625000000,130631.9921875000,136509.4687500000,127811.7812500000,,,
0.6719999989,5,136220.9062500000,115626.1328125000,131087.1562500000,142051.3906250000,111801.3828125000,129767.6484375000,135741.8750000000,127401.2187500000,,,
0.6759999988,5,134793.9843750000,114063.7968750000,129644.6171875000,140454.1562500000,110293.8750000000,128192.5000000000,134234.6250000000,126179.6562500000,,,
0.6799999988,5,134593.7968750000,113942.6406250000,129432.1328125000,140371.5468750000,110128.3281250000,128086.3359375000,134076.1093750000,125843.9296875000,,,
0.6839999990,5,135888.7500000000,115435.2109375000,130739.0390625000,141926.9375000000,111534.7421875000,129605.6171875000,135491.2968750000,126855.5234375000,,,
0.6879999989,5,136882.8281250000,116455.2578125000,131749.1250000000,142944.1875000000,112550.4140625000,130629.6015625000,136499.6718750000,127808.0546875000,,,
0.6919999989,5,136201.6250000000,115608.6171875000,131068.0156250000,142028.1562500000,111780.3750000000,129762.1796875000,135720.8437500000,127389.2265625000,,,
0.6959999988,5,134769.5937500000,114046.7109375000,129623.8281250000,140428.0937500000,110270.9375000000,128189.0390625000,134213.6250000000,126164.4765625000,,,
0.6999999988,5,134568.9375000000,113926.0390625000,129413.8906250000,140353.3437500000,110107.7500000000,128083.1406250000,134059.7500000000,125827.6718750000,,,
0.7039999987,5,135875.3906250000,115428.5625000000,130731.3671875000,141926.3437500000,111525.8906250000,129606.3125000000,135487.8906250000,126844.8203125000,,,
0.7079999989,5,136895.7031250000,116477.4609375000,131766.7031250000,142974.2031250000,112570.9843750000,130654.7656250000,136526.8125000000,127816.9843750000,,,
0.7119999989,5,136230.4062500000,115639.1093750000,131100.0937500000,142069.0468750000,111814.4453125000,129797.2890625000,135761.9531250000,127410.9296875000,,,
0.7159999989,5,134800.1718750000,114068.8671875000,129654.8125000000,140464.3750000000,110302.3750000000,128216.7968750000,134249.8437500000,126187.1406250000,,,
0.7199999988,5,134575.9062500000,113918.0156250000,129420.4375000000,140356.7656250000,110112.2343750000,128080.2421875000,134065.7500000000,125828.8515625000,,,
0.7239999988,5,135852.2500000000,115392.2968750000,130708.1171875000,141898.5625000000,111498.2656250000,129576.2187500000,135459.2656250000,126818.0546875000,,,
0.7279999990,5,136879.8281250000,116451.9062500000,131750.6875000000,142955.0312500000,112551.0312500000,130636.7656250000,136504.1250000000,127794.7265625000,,,
0.7319999989,5,136231.5000000000,115637.2890625000,131103.1562500000,142072.9843750000,111813.8281250000,129800.3984375000,135757.2656250000,127404.0625000000,,,
0.7359999989,5,134795.6718750000,114065.9453125000,129652.6875000000,140462.7656250000,110295.3750000000,128212.1328125000,134237.9218750000,126177.8593750000,,,
0.7399999988,5,134558.5000000000,113906.8046875000,129403.5703125000,140342.2656250000,110090.9609375000,128062.1171875000,134046.1718750000,125810.3203125000,,,
0.7439999988,5,135827.4062500000,115372.7187500000,130683.5703125000,141871.1406250000,111469.4609375000,129551.8125000000,135435.7968750000,126793.3203125000,,,
0.7479999987,5,136858.9843750000,116435.4843750000,131730.6562500000,142931.8281250000,112529.1953125000,130618.2578125000,136488.6718750000,127773.8281250000,,,
0.7519999989,5,136224.8593750000,115631.7343750000,131096.3906250000,142067.4531250000,111808.3828125000,129798.6562500000,135761.7500000000,127398.7265625000,,,
0.7559999989,5,134792.7187500000,114062.5625000000,129648.8281250000,140461.9687500000,110294.9687500000,128218.7031250000,134249.9218750000,126180.0625000000,,,
0.7599999988,5,134544.0781250000,113890.8984375000,129389.4609375000,140324.7656250000,110079.0234375000,128057.3671875000,134038.4843750000,125804.3906250000,,,
0.7639999988,5,135809.2968750000,115354.6875000000,130666.6718750000,141851.4062500000,111457.5781250000,129544.3046875000,135421.1250000000,126782.1640625000,,,
0.7679999988,6,136837.0156250000,116414.7500000000,131711.8437500000,142917.3750000000,112514.7656250000,130608.2578125000,136472.4843750000,127754.3281250000,,,
0.7719999987,6,136207.9843750000,115618.4609375000,131086.1718750000,142061.2343750000,111798.2656250000,129792.1953125000,135748.8750000000,127384.2109375000,,,
0.7759999987,6,134775.5000000000,114050.6015625000,129639.5781250000,140450.6250000000,110283.0625000000,128205.8281250000,134234.4375000000,126168.1484375000,,,
0.7799999986,6,134538.7031250000,113887.6328125000,129388.6562500000,140329.0937500000,110078.9765625000,128056.8828125000,134037.8906250000,125805.0078125000,,,
0.7839999986,6,135809.3593750000,115355.5781250000,130667.7968750000,141861.7343750000,111461.1718750000,129548.4843750000,135426.9218750000,126788.6796875000,,,
0.7879999985,6,136866.7343750000,116452.3046875000,131742.5625000000,142952.3750000000,112550.3359375000,130643.4687500000,136510.0468750000,127792.2031250000,,,
0.7919999987,6,136250.3125000000,115669.0468750000,131127.2656250000,142100.3125000000,111846.3359375000,129836.1796875000,135796.2187500000,127432.5703125000,,,
0.7959999987,6,134815.5625000000,114099.2031250000,129677.9062500000,140481.6875000000,110330.9140625000,128248.5546875000,134279.4218750000,126212.2500000000,,,
0.7999999986,6,134546.9375000000,113904.3125000000,129396.7265625000,140315.7031250000,110093.8046875000,128061.2031250000,134048.3281250000,125820.0000000000,,,
0.8039999986,6,135812.1406250000,115364.1093750000,130670.0234375000,141843.3593750000,111466.3203125000,129541.1406250000,135427.3593750000,126794.7734375000,,,
0.8079999986,6,136871.5156250000,116457.1562500000,131745.0781250000,142940.0937500000,112551.4062500000,130635.9921875000,136506.5156250000,127790.8359375000,,,
0.8119999988,6,136265.3281250000,115685.2734375000,131140.5156250000,142102.8593750000,111856.7421875000,129842.8359375000,135805.2500000000,127437.6953125000,,,
0.8159999987,6,134830.5625000000,114111.3515625000,129691.4218750000,140488.5468750000,110338.8515625000,128251.9843750000,134286.9062500000,126220.2109375000,,,
0.8199999987,6,134551.2656250000,113895.3046875000,129397.3984375000,140314.6562500000,110086.8593750000,128047.5468750000,134037.7343750000,125817.1015625000,,,
0.8239999986,6,135800.2656250000,115330.0703125000,130655.2187500000,141825.5468750000,111446.0937500000,129512.6015625000,135401.7343750000,126773.0468750000,,,
0.8279999986,6,136874.3593750000,116440.0234375000,131744.9218750000,142941.9375000000,112552.5859375000,130632.9843750000,136504.7656250000,127780.7500000000,,,
0.8319999985,6,136287.2968750000,115689.5390625000,131159.4687500000,142124.0781250000,111879.3828125000,129865.3125000000,135824.8906250000,127447.6718750000,,,
0.8359999987,6,134844.9062500000,114110.4140625000,129703.9218750000,140498.9218750000,110356.5000000000,128273.3906250000,134303.6718750000,126230.6484375000,,,
0.8399999987,6,134542.9531250000,113882.3984375000,129391.2265625000,140300.3593750000,110085.5468750000,128055.3828125000,134041.3750000000,125813.1875000000,,,
0.8439999986,6,135781.5468750000,115321.4843750000,130641.1953125000,141804.2500000000,111436.2265625000,129517.7187500000,135404.8437500000,126763.3906250000,,,
0.8479999986,6,136869.9843750000,116454.6093750000,131746.7187500000,142945.5937500000,112556.3984375000,130655.2187500000,136527.5937500000,127787.0546875000,,,
0.8519999986,6,136293.8125000000,115713.6484375000,131171.5468750000,142144.2500000000,111893.4843750000,129897.3359375000,135862.5156250000,127463.0937500000,,,
0.8559999987,6,134838.2343750000,114115.1093750000,129702.8203125000,140502.8750000000,110353.6875000000,128286.1562500000,134328.0781250000,126230.8359375000,,,
0.8599999987,6,134512.1875000000,113851.4218750000,129362.7421875000,140280.4375000000,110054.6718750000,128038.5625000000,134038.2968750000,125790.6015625000,,,
0.8639999987,6,135752.6718750000,115287.3437500000,130611.6640625000,141784.2500000000,111407.8750000000,129503.5625000000,135400.1093750000,126744.6406250000,,,
0.8679999986,6,136849.3750000000,116428.0312500000,131724.9687500000,142932.9062500000,112539.9843750000,130651.7578125000,136528.8593750000,127772.1640625000,,,
0.8719999986,6,136286.2968750000,115706.1171875000,131164.8593750000,142142.6875000000,111894.6640625000,129916.3515625000,135883.7031250000,127462.2890625000,,,
0.8759999985,6,134840.9375000000,114122.4062500000,129708.4531250000,140510.5625000000,110368.7890625000,128319.2031250000,134366.9218750000,126245.0000000000,,,
0.8799999987,6,134527.0468750000,113875.2343750000,129381.5703125000,140296.0000000000,110084.3125000000,128080.2187500000,134093.7656250000,125817.0546875000,,,
0.8839999987,6,135762.6250000000,115307.0781250000,130625.4453125000,141790.9531250000,111428.0703125000,129539.7421875000,135448.6562500000,126761.5937500000,,,
0.8879999986,6,136867.3437500000,116456.0859375000,131743.6406250000,142940.3593750000,112564.8984375000,130692.7734375000,136580.2187500000,127795.0468750000,,,
0.8919999986,6,136336.9218750000,115763.5156250000,131214.0000000000,142179.3906250000,111949.0859375000,129977.2890625000,135955.1875000000,127511.9140625000,,,
0.8959999986,7,134892.5781250000,114173.9531250000,129755.2578125000,140543.6406250000,110418.3828125000,128370.7578125000,134425.3906250000,126293.1406250000,,,
0.8999999985,7,134563.0312500000,113905.2265625000,129411.0234375000,140308.4062500000,110115.0781250000,128118.6015625000,134129.6718750000,125850.3125000000,,,
0.9039999985,7,135804.3437500000,115337.7968750000,130661.9765625000,141815.2031250000,111467.5781250000,129584.7812500000,135493.6562500000,126797.6640625000,,,
0.9079999984,7,136928.4531250000,116503.8281250000,131802.7812500000,142995.6562500000,112625.7343750000,130755.9609375000,136649.8750000000,127843.3281250000,,,
0.9119999984,7,136381.4687500000,115786.4453125000,131256.0312500000,142210.4531250000,111989.6484375000,130015.2421875000,136001.3750000000,127543.6953125000,,,
0.9159999983,7,134912.9531250000,114169.3984375000,129771.9140625000,140545.7812500000,110433.2656250000,128385.0234375000,134443.2812500000,126306.0156250000,,,
0.9199999985,7,134555.2812500000,113874.9687500000,129400.9921875000,140284.8593750000,110101.2343750000,128099.4765625000,134119.1093750000,125839.5000000000,,,
0.9239999985,7,135776.1406250000,115297.1328125000,130630.1171875000,141781.6093750000,111432.5234375000,129543.6328125000,135458.9531250000,126768.0312500000,,,
0.9279999984,7,136884.9531250000,116461.0781250000,131754.1718750000,142947.4843750000,112576.1640625000,130710.5312500000,136597.1718750000,127802.3437500000,,,
0.9319999984,7,136348.9843750000,115767.9921875000,131220.6250000000,142190.7343750000,111957.2734375000,129999.8203125000,135970.0781250000,127516.3671875000,,,
0.9359999984,7,134893.6250000000,114164.1953125000,129752.7890625000,140547.7187500000,110416.7968750000,128383.2265625000,134430.0781250000,126295.5312500000,,,
0.9399999985,7,134528.9687500000,113860.8359375000,129375.7812500000,140273.8593750000,110076.6093750000,128084.9687500000,134095.7656250000,125825.3359375000,,,
0.9439999985,7,135749.5156250000,115283.5078125000,130603.8281250000,141768.2812500000,111406.5312500000,129527.5156250000,135431.4531250000,126750.1093750000,,,
0.9479999985,7,136868.5625000000,116449.5156250000,131738.3437500000,142949.2656250000,112559.4296875000,130703.1484375000,136579.6875000000,127788.5546875000,,,
0.9519999984,7,136341.4218750000,115759.5468750000,131212.1250000000,142199.6718750000,111945.4140625000,129991.6171875000,135954.1093750000,127506.2812500000,,,
0.9559999984,7,134883.0312500000,114151.6640625000,129739.3828125000,140544.3437500000,110400.3828125000,128364.3203125000,134403.4531250000,126282.0156250000,,,
0.9599999983,7,134480.8281250000,113806.1718750000,129323.5859375000,140239.9687500000,110021.9218750000,128029.9531250000,134030.3750000000,125778.3203125000,,,
0.9639999985,7,135665.3750000000,115185.9296875000,130517.4062500000,141691.5156250000,111315.9296875000,129433.0156250000,135330.7187500000,126669.2421875000,,,
0.9679999985,7,136764.8125000000,116333.6171875000,131632.0781250000,142846.6718750000,112449.4531250000,130577.8359375000,136456.5156250000,127682.6640625000,,,
0.9719999984,7,136292.3437500000,115708.0703125000,131161.2187500000,142149.7500000000,111893.2500000000,129919.5468750000,135887.7500000000,127449.2812500000,,,
0.9759999984,7,134854.4531250000,114120.3906250000,129709.7968750000,140511.8593750000,110367.4140625000,128310.2187500000,134355.5937500000,126247.4140625000,,,
0.9799999984,7,134467.2812500000,113790.2421875000,129309.7421875000,140214.3750000000,110003.5234375000,127989.6406250000,133996.5781250000,125759.9765625000,,,
0.9839999985,7,135683.5312500000,115205.6953125000,130534.0625000000,141705.7812500000,111329.9296875000,129429.6406250000,135328.8906250000,126681.4453125000,,,
0.9879999985,7,136856.1093750000,116435.5703125000,131724.5312500000,142948.2343750000,112542.4218750000,130665.8984375000,136534.7500000000,127767.7421875000,,,
0.9919999985,7,136382.5937500000,115801.4687500000,131252.3906250000,142255.7031250000,111984.2812500000,130012.8828125000,135965.4531250000,127535.5937500000,,,
0.9959999984,7,134903.3593750000,114170.9531250000,129757.1875000000,140574.5468750000,110411.4609375000,128360.8593750000,134391.2500000000,126294.4296875000,,,
0.9999999984,7,134461.9687500000,113788.5234375000,129300.0312500000,140211.8750000000,109989.6015625000,127982.5078125000,133977.7343750000,125754.9062500000,,,
1.0039999983,7,135663.9531250000,115191.1328125000,130509.0937500000,141682.3750000000,111302.4609375000,129405.4453125000,135297.7500000000,126661.0625000000,,,
1.0079999985,7,136843.0000000000,116423.1484375000,131704.7656250000,142927.5937500000,112522.8125000000,130644.0625000000,136511.1250000000,127751.5390625000,,,
1.0119999985,7,136364.0937500000,115784.5156250000,131229.2968750000,142225.7812500000,111962.6093750000,129987.0312500000,135941.4062500000,127518.4062500000,,,
1.0159999984,7,134885.6250000000,114156.0078125000,129740.1015625000,140546.7812500000,110397.2421875000,128338.0859375000,134375.5781250000,126281.6093750000,,,
1.0199999984,7,134465.0781250000,113789.3281250000,129308.2421875000,140208.5781250000,109999.2578125000,127978.7500000000,133981.0468750000,125765.7421875000,,,
1.0239999983,8,135678.1406250000,115203.2031250000,130530.2265625000,141692.7500000000,111323.4609375000,129414.2187500000,135310.5156250000,126681.3359375000,,,
1.0279999983,8,136878.3437500000,116464.5859375000,131747.4218750000,142964.5156250000,112565.5703125000,130677.5078125000,136546.9375000000,127787.2656250000,,,
1.0319999983,8,136392.8437500000,115819.1171875000,131265.6093750000,142255.4218750000,111997.4218750000,130009.9843750000,135968.1406250000,127544.9296875000,,,
1.0359999982,8,134886.7031250000,114156.6015625000,129749.4921875000,140545.2031250000,110402.6640625000,128332.0234375000,134374.2187500000,126281.1015625000,,,
1.0399999982,8,134467.2343750000,113788.2578125000,129317.4921875000,140215.6093750000,110005.1562500000,127976.9296875000,133984.9687500000,125762.9218750000,,,
1.0439999981,8,135707.4062500000,115226.0781250000,130566.1406250000,141728.5000000000,111357.5859375000,129441.7656250000,135344.0781250000,126702.2890625000,,,
1.0479999983,8,136915.5468750000,116490.3906250000,131790.0625000000,143007.8750000000,112606.4453125000,130712.8593750000,136588.0781250000,127815.0000000000,,,
1.0519999983,8,136425.0000000000,115838.6406250000,131303.1093750000,142295.5781250000,112032.3437500000,130041.1015625000,136007.6562500000,127570.4140625000,,,
1.0559999982,8,134888.9531250000,114149.5234375000,129755.3359375000,140552.3125000000,110404.8046875000,128331.2968750000,134380.5468750000,126284.6406250000,,,
1.0599999982,8,134444.9375000000,113763.3359375000,129298.6093750000,140199.0781250000,109980.8046875000,127951.5781250000,133962.7656250000,125743.9609375000,,,
1.0639999982,8,135699.2187500000,115217.0703125000,130559.1953125000,141733.6093750000,111346.5859375000,129431.9218750000,135332.1093750000,126690.9687500000,,,
1.0679999983,8,136923.3281250000,116496.2109375000,131797.0937500000,143012.4843750000,112610.5781250000,130718.7890625000,136589.0781250000,127818.1171875000,,,
1.0719999983,8,136420.8906250000,115827.4843750000,131296.1406250000,142277.8281250000,112021.4296875000,130029.2968750000,135990.8593750000,127561.0234375000,,,
1.0759999983,8,134874.6562500000,114128.7031250000,129736.6953125000,140527.0625000000,110384.3437500000,128311.0234375000,134352.8593750000,126264.8203125000,,,
1.0799999982,8,134423.8593750000,113739.2734375000,129270.3984375000,140165.6718750000,109954.9765625000,127927.7343750000,133930.0312500000,125720.6562500000,,,
1.0839999982,8,135683.4843750000,115203.6015625000,130537.1796875000,141708.6562500000,111328.8281250000,129421.0859375000,135309.4375000000,126675.3046875000,,,
1.0879999981,8,136943.3906250000,116525.0468750000,131814.4375000000,143046.5156250000,112634.0468750000,130752.5078125000,136606.4218750000,127836.1640625000,,,
1.0919999983,8,136453.3281250000,115870.1562500000,131327.9531250000,142329.1562500000,112059.3046875000,130079.2968750000,136021.6562500000,127596.5625000000,,,
1.0959999983,8,134858.3437500000,114114.0078125000,129719.3671875000,140523.2031250000,110367.5546875000,128301.6640625000,134329.8281250000,126262.5390625000,,,
1.0999999982,8,134376.0625000000,113690.4062500000,129222.7031250000,140139.3750000000,109905.6250000000,127886.0000000000,133874.8125000000,125689.4843750000,,,
1.1039999982,8,135668.7187500000,115201.5937500000,130523.7890625000,141726.2500000000,111317.2968750000,129422.5000000000,135297.1875000000,126668.0390625000,,,
1.1079999981,8,136973.7500000000,116575.7656250000,131846.8750000000,143105.7343750000,112667.3281250000,130800.1953125000,136642.3750000000,127866.1015625000,,,
1.1119999983,8,136464.0000000000,115895.4765625000,131339.8281250000,142359.6562500000,112069.4921875000,130099.3046875000,136034.0156250000,127609.0859375000,,,
1.1159999983,8,134823.1562500000,114086.9218750000,129684.9062500000,140496.8437500000,110331.9609375000,128273.8984375000,134299.4531250000,126235.6406250000,,,
1.1199999982,8,134316.6562500000,113637.8593750000,129164.1015625000,140076.8906250000,109846.1015625000,127836.1093750000,133823.0468750000,125640.6953125000,,,
1.1239999982,8,135640.6406250000,115180.0546875000,130495.3359375000,141702.2187500000,111290.3906250000,129408.7968750000,135275.1875000000,126647.0078125000,,,
1.1279999982,8,136986.8906250000,116588.9921875000,131856.2343750000,143130.5468750000,112681.5781250000,130826.3437500000,136659.4062500000,127880.3125000000,,,
1.1319999981,8,136476.0156250000,115900.4921875000,131348.7812500000,142372.8750000000,112081.5625000000,130116.0937500000,136046.2968750000,127623.8437500000,,,
1.1359999983,8,134799.6093750000,114050.3828125000,129659.1796875000,140467.5937500000,110306.6640625000,128246.0078125000,134270.4843750000,126217.3984375000,,,
1.1399999983,8,134286.9375000000,113595.4062500000,129131.9687500000,140044.8906250000,109816.4140625000,127800.4921875000,133788.6562500000,125612.4218750000,,,
1.1439999982,8,135642.0156250000,115171.2265625000,130494.9296875000,141698.4375000000,111293.3984375000,129406.7031250000,135275.4375000000,126644.4609375000,33029,1.1467411274,0.0000000000
1.1479999982,8,137019.0781250000,116615.7031250000,131889.8125000000,143154.9531250000,112715.2656250000,130861.8828125000,136693.8125000000,127909.4687500000,,,
1.1519999981,9,136504.2812500000,115923.7500000000,131378.6406250000,142394.6875000000,112108.5234375000,130149.7812500000,136076.1250000000,127651.7656250000,,,
1.1559999981,9,134783.2500000000,114025.0937500000,129640.9140625000,140438.7187500000,110283.5703125000,128229.1875000000,134249.3750000000,126206.2968750000,,,
1.1599999981,9,134245.2031250000,113546.0234375000,129086.2890625000,139996.3906250000,109765.4531250000,127758.4609375000,133740.4375000000,125577.2109375000,,,
1.1639999980,9,135635.7343750000,115167.1796875000,130486.6718750000,141699.6250000000,111281.5703125000,129406.1406250000,135268.0781250000,126638.7187500000,,,
1.1679999980,9,137058.1093750000,116662.7265625000,131928.5781250000,143206.2656250000,112755.6015625000,130906.8671875000,136734.9062500000,127941.6328125000,,,
1.1719999979,9,136536.6406250000,115960.1171875000,131413.4531250000,142426.3906250000,112145.2109375000,130181.5390625000,136109.4687500000,127679.8750000000,,,
1.1759999981,9,134779.4062500000,114029.5468750000,129642.8437500000,140438.3125000000,110287.2187500000,128226.2890625000,134250.5625000000,126204.1484375000,,,
1.1799999981,9,134221.2500000000,113534.4609375000,129069.0156250000,139977.8281250000,109750.0546875000,127734.5859375000,133719.4843750000,125557.2812500000,,,
1.1839999980,9,135644.4531250000,115193.2734375000,130500.5937500000,141717.5312500000,111298.5234375000,129415.4531250000,135278.8437500000,126646.1484375000,,,
1.1879999980,9,137101.4218750000,116728.4921875000,131978.0625000000,143264.1250000000,112804.8750000000,130951.4687500000,136781.6875000000,127983.9296875000,,,
1.1919999979,9,136568.9062500000,116011.5078125000,131448.4375000000,142466.9218750000,112174.6406250000,130208.2265625000,136138.8906250000,127711.4921875000,,,
1.1959999981,9,134766.1406250000,114026.4375000000,129628.1718750000,140420.8750000000,110265.1953125000,128199.2265625000,134225.8281250000,126192.2421875000,,,
1.1999999981,9,134189.2968750000,113511.2109375000,129033.6875000000,139941.4062500000,109710.8359375000,127689.7421875000,133679.9687500000,125528.7109375000,,,
1.2039999980,9,135635.0625000000,115192.0703125000,130485.9453125000,141704.0781250000,111285.0546875000,129398.8984375000,135266.6093750000,126639.9296875000,,,
1.2079999980,9,137122.6406250000,116754.8593750000,131993.7500000000,143277.8281250000,112825.9062500000,130969.2031250000,136801.8281250000,128003.9921875000,,,
1.2119999980,9,136591.9375000000,116040.1015625000,131471.4218750000,142493.8437500000,112204.6796875000,130233.0156250000,136168.8281250000,127734.0781250000,,,
1.2159999979,9,134747.7031250000,114009.0000000000,129615.2734375000,140403.8125000000,110254.9765625000,128182.5156250000,134220.2812500000,126177.2421875000,,,
1.2199999981,9,134147.3281250000,113469.0703125000,128998.2890625000,139899.2343750000,109676.6718750000,127650.8750000000,133655.1875000000,125490.6250000000,,,
1.2239999981,9,135613.6875000000,115172.0312500000,130470.5468750000,141686.0781250000,111271.6171875000,129381.3281250000,135260.3593750000,126620.8046875000,,,
1.2279999980,9,137132.8593750000,116765.1015625000,132007.0781250000,143291.9375000000,112840.0625000000,130978.7187500000,136820.8750000000,128012.6562500000,,,
1.2319999980,9,136610.0937500000,116051.0703125000,131489.0312500000,142513.1562500000,112220.3984375000,130243.5546875000,136182.9062500000,127746.4453125000,,,
1.2359999979,9,134750.0625000000,114001.2734375000,129616.0546875000,140405.4062500000,110254.2031250000,128174.8437500000,134211.4843750000,126176.1171875000,,,
1.2399999981,9,134136.5625000000,113451.1015625000,128988.4921875000,139875.7187500000,109664.7578125000,127627.5156250000,133633.3906250000,125480.7578125000,,,
1.2439999981,9,135608.1875000000,115160.8984375000,130467.6796875000,141661.5000000000,111267.1093750000,129362.7187500000,135246.2031250000,126616.4531250000,,,
1.2479999980,9,137163.2500000000,116794.7968750000,132040.6406250000,143311.6875000000,112874.3750000000,131001.0390625000,136844.3906250000,128039.6640625000,,,
1.2519999980,9,136655.7031250000,116102.6250000000,131538.0937500000,142545.2187500000,112271.7890625000,130283.8125000000,136225.0468750000,127788.6093750000,,,
1.2559999980,9,134776.1718750000,114034.1328125000,129643.0625000000,140412.9843750000,110281.5859375000,128192.2578125000,134232.8906250000,126200.1796875000,,,
1.2599999979,9,134134.5625000000,113444.9609375000,128983.3437500000,139857.4531250000,109657.6015625000,127612.1171875000,133619.1093750000,125478.3125000000,,,
1.2639999981,9,135612.2656250000,115153.6562500000,130465.5859375000,141655.9062500000,111262.8203125000,129354.0781250000,135237.0000000000,126620.6953125000,,,
1.2679999981,9,137191.3281250000,116809.2265625000,132060.8125000000,143329.9687500000,112893.0703125000,131020.9375000000,136860.8281250000,128067.2656250000,,,
1.2719999980,9,136691.5937500000,116121.6718750000,131565.1562500000,142568.9843750000,112297.0781250000,130313.5625000000,136249.3906250000,127821.1718750000,,,
1.2759999980,9,134782.7968750000,114021.2343750000,129641.6640625000,140408.3281250000,110278.2343750000,128190.1640625000,134226.7656250000,126203.7968750000,,,
1.2799999979,10,134112.0468750000,113408.1328125000,128954.9140625000,139827.9531250000,109628.2812500000,127583.4765625000,133587.0312500000,125455.8359375000,,,
1.2839999979,10,135599.0468750000,115135.0703125000,130451.2890625000,141642.1406250000,111249.1171875000,129341.5781250000,135219.7812500000,126608.3046875000,,,
1.2879999978,10,137207.4062500000,116823.9531250000,132078.9375000000,143347.3593750000,112915.1953125000,131043.7109375000,136876.9843750000,128083.1718750000,,,
1.2919999978,10,136713.7656250000,116146.2109375000,131590.4531250000,142593.5781250000,112327.6328125000,130346.6875000000,136276.3750000000,127843.4296875000,,,
1.2959999978,10,134776.0937500000,114017.0703125000,129638.0468750000,140399.4218750000,110278.5000000000,128194.6953125000,134225.6093750000,126198.5390625000,,,
1.2999999977,10,134076.6406250000,113379.1640625000,128920.3906250000,139787.7343750000,109596.9765625000,127553.8359375000,133553.8281250000,125424.6171875000,,,
1.3039999979,10,135580.8906250000,115130.9140625000,130430.9375000000,141615.5937500000,111231.1718750000,129323.6875000000,135199.3125000000,126595.9140625000,,,
1.3079999979,10,137248.5468750000,116886.7421875000,132117.7968750000,143386.7812500000,112952.4218750000,131082.9218750000,136914.2656250000,128125.7343750000,,,
1.3119999978,10,136775.6250000000,116227.7500000000,131648.0625000000,142655.2656250000,112378.9687500000,130395.3437500000,136324.8750000000,127900.4062500000,,,
1.3159999978,10,134788.3906250000,114045.9843750000,129645.2890625000,140407.2812500000,110276.9218750000,128191.7421875000,134220.7343750000,126208.4375000000,,,
1.3199999977,10,134037.8906250000,113348.1875000000,128877.1015625000,139738.9218750000,109541.7500000000,127502.3671875000,133496.4531250000,125387.7656250000,,,
1.3239999979,10,135569.9687500000,115123.5937500000,130416.5859375000,141602.5000000000,111206.3046875000,129307.4140625000,135174.9843750000,126585.0234375000,,,
1.3279999979,10,137304.5312500000,116945.3750000000,132173.6250000000,143446.1875000000,113003.1953125000,131142.4218750000,136966.7812500000,128177.5859375000,,,
1.3319999978,10,136834.2500000000,116285.5234375000,131712.1718750000,142713.4687500000,112442.0000000000,130460.0859375000,136388.7187500000,127953.1640625000,,,
1.3359999978,10,134778.5000000000,114028.5000000000,129643.4921875000,140394.9062500000,110275.4218750000,128183.6953125000,134218.1406250000,126191.7265625000,,,
1.3399999978,10,133989.1875000000,113288.5546875000,128836.9218750000,139692.6093750000,109503.6406250000,127453.9765625000,133460.2187500000,125334.3906250000,,,
1.3439999977,10,135541.7031250000,115081.8828125000,130394.1640625000,141577.3593750000,111185.3281250000,129273.3984375000,135157.6093750000,126554.7890625000,,,
1.3479999979,10,137298.5156250000,116925.5781250000,132169.2500000000,143447.5312500000,112998.3203125000,131124.9531250000,136965.7656250000,128170.2109375000,,,
1.3519999979,10,136837.7968750000,116276.8046875000,131713.2500000000,142726.2343750000,112443.1015625000,130456.3593750000,136393.3437500000,127954.2890625000,,,
1.3559999978,10,134772.4687500000,114010.0468750000,129631.4765625000,140392.1562500000,110262.8125000000,128170.6093750000,134210.3593750000,126186.9296875000,,,
1.3599999978,10,133958.8906250000,113245.3750000000,128798.4609375000,139653.2500000000,109463.4843750000,127413.8750000000,133425.8593750000,125308.0781250000,,,
1.3639999977,10,135495.8906250000,115027.8671875000,130341.2656250000,141523.4843750000,111136.0859375000,129226.9453125000,135113.5156250000,126513.7578125000,,,
1.3679999979,10,137276.7968750000,116902.3281250000,132143.5000000000,143423.8281250000,112982.1718750000,131108.0781250000,136956.4062500000,128148.3437500000,,,
1.3719999979,10,136841.4375000000,116281.9296875000,131715.9062500000,142728.0937500000,112454.3906250000,130463.6328125000,136410.4375000000,127954.8281250000,,,
1.3759999978,10,134781.0000000000,114024.3671875000,129642.6875000000,140404.7812500000,110280.7031250000,128192.6328125000,134231.1406250000,126193.0703125000,,,
1.3799999978,10,133949.4531250000,113244.7812500000,128792.6406250000,139652.9062500000,109463.2968750000,127421.3906250000,133425.8125000000,125302.2578125000,,,
1.3839999977,10,135468.9062500000,115012.4140625000,130318.0390625000,141506.2812500000,111113.0468750000,129209.8046875000,135092.5000000000,126492.4062500000,,,
1.3879999977,10,137251.3593750000,116887.9765625000,132123.4687500000,143411.2187500000,112959.0781250000,131095.6875000000,136935.9687500000,128128.4453125000,,,
1.3919999979,10,136847.5781250000,116298.6640625000,131726.0625000000,142751.1250000000,112464.1015625000,130483.7968750000,136423.7968750000,127962.3359375000,,,
1.3959999979,10,134798.0000000000,114041.4296875000,129660.5000000000,140428.5000000000,110295.2109375000,128202.4453125000,134246.9375000000,126208.2265625000,,,
1.3999999978,10,133949.2968750000,113234.8359375000,128792.9375000000,139654.1718750000,109454.9062500000,127401.9453125000,133415.5625000000,125300.2187500000,,,
1.4039999978,10,135459.5156250000,114988.7031250000,130307.7109375000,141495.1562500000,111093.4140625000,129182.6875000000,135069.7812500000,126483.6875000000,,,
1.4079999977,11,137252.9687500000,116879.2578125000,132119.8437500000,143405.0156250000,112948.8828125000,131083.3593750000,136921.9375000000,128127.7500000000,,,
1.4119999977,11,136850.1093750000,116292.1250000000,131723.0312500000,142745.5156250000,112455.2265625000,130477.3906250000,136409.5781250000,127960.9921875000,,,
1.4159999976,11,134794.0625000000,114033.2187500000,129655.2109375000,140419.0312500000,110287.9687500000,128198.9843750000,134237.5468750000,126203.0781250000,,,
1.4199999976,11,133934.4843750000,113223.1406250000,128780.1171875000,139635.1562500000,109443.4218750000,127393.9453125000,133405.1093750000,125289.8125000000,,,
1.4239999976,11,135431.4062500000,114964.6406250000,130283.3046875000,141465.2968750000,111071.9843750000,129164.2890625000,135049.7812500000,126462.1796875000,,,
1.4279999975,11,137238.5468750000,116871.8281250000,132111.6562500000,143397.4062500000,112943.4687500000,131077.4531250000,136914.5312500000,128116.4296875000,,,
1.4319999977,11,136854.7187500000,116304.5390625000,131736.3593750000,142758.0781250000,112470.0312500000,130488.8125000000,136420.9531250000,127962.7890625000,,,
1.4359999977,11,134812.7500000000,114056.0468750000,129678.1484375000,140441.5781250000,110311.2500000000,128219.0234375000,134254.5781250000,126215.2500000000,,,
1.4399999976,11,133939.2031250000,113222.6015625000,128785.2656250000,139639.5468750000,109446.8828125000,127389.4453125000,133401.5000000000,125287.8281250000,,,
1.4439999976,11,135424.4531250000,114953.5390625000,130277.4062500000,141460.1562500000,111061.8125000000,129143.2578125000,135033.2812500000,126448.3906250000,,,
1.4479999975,11,137237.2031250000,116868.1796875000,132109.8906250000,143393.5156250000,112940.2187500000,131067.0468750000,136908.6875000000,128109.4531250000,,,
1.4519999977,11,136874.4843750000,116323.1015625000,131753.3750000000,142776.0156250000,112487.5468750000,130500.5390625000,136437.0468750000,127978.1093750000,,,
1.4559999977,11,134824.5781250000,114067.0703125000,129691.1796875000,140458.0468750000,110322.6015625000,128225.0078125000,134268.8281250000,126227.2109375000,,,
1.4599999976,11,133929.5000000000,113212.2734375000,128778.2656250000,139630.1093750000,109438.1093750000,127379.9453125000,133396.4687500000,125283.1328125000,,,
1.4639999976,11,135402.2500000000,114931.6796875000,130254.4453125000,141433.6718750000,111039.5234375000,129126.9531250000,135013.8593750000,126433.4765625000,,,
1.4679999975,11,137221.2187500000,116856.9140625000,132091.3593750000,143375.0625000000,112924.0156250000,131060.2890625000,136894.7968750000,128097.6796875000,,,
1.4719999975,11,136884.7343750000,116344.9609375000,131758.4687500000,142790.7500000000,112497.6015625000,130523.5234375000,136446.9687500000,127988.2734375000,,,
1.4759999977,11,134838.1250000000,114094.4531250000,129697.4609375000,140470.6093750000,110332.8984375000,128247.1875000000,134273.6562500000,126240.9765625000,,,
1.4799999977,11,133923.0937500000,113219.3046875000,128764.1015625000,139615.0625000000,109426.2031250000,127375.4140625000,133375.6250000000,125278.5156250000,,,
1.4839999976,11,135379.5312500000,114918.6406250000,130227.0625000000,141393.0468750000,111012.5156250000,129100.3437500000,134978.9218750000,126413.4140625000,,,
1.4879999976,11,137214.6718750000,116859.5468750000,132083.7968750000,143357.6250000000,112917.0468750000,131052.0000000000,136882.8281250000,128090.0859375000,,,
1.4919999975,11,136889.4218750000,116353.0937500000,131767.2343750000,142789.1406250000,112506.5859375000,130530.0390625000,136456.3281250000,127985.7265625000,,,
1.4959999977,11,134857.4843750000,114112.7500000000,129722.7734375000,140491.5312500000,110359.7500000000,128266.9531250000,134303.9843750000,126249.4218750000,,,
1.4999999977,11,133927.2500000000,113217.1562500000,128776.6562500000,139622.8906250000,109438.1093750000,127376.0546875000,133392.8437500000,125276.8515625000,,,
1.5039999976,11,135366.6250000000,114899.6015625000,130222.4765625000,141386.0937500000,111006.5859375000,129086.5859375000,134979.8593750000,126400.1328125000,,,
1.5079999976,11,137191.6875000000,116834.4687500000,132067.6406250000,143342.7343750000,112899.3671875000,131032.3125000000,136871.2187500000,128069.3593750000,,,
1.5119999975,11,136892.0000000000,116364.6484375000,131773.4531250000,142802.5156250000,112513.0781250000,130543.1015625000,136466.1250000000,127992.9140625000,,,
1.5159999975,11,134855.5312500000,114123.2890625000,129723.8750000000,140495.0937500000,110360.3906250000,128279.8281250000,134307.0156250000,126256.9609375000,,,
1.5199999977,11,133916.8906250000,113218.3125000000,128767.6953125000,139617.0156250000,109428.5390625000,127379.9453125000,133386.0781250000,125276.0468750000,,,
1.5239999976,11,135350.9687500000,114893.8359375000,130206.6718750000,141373.9531250000,110992.8515625000,129082.9609375000,134966.3906250000,126392.9453125000,,,
1.5279999976,11,137183.2812500000,116831.8359375000,132059.5937500000,143337.8593750000,112894.6250000000,131033.9453125000,136865.6875000000,128066.9921875000,,,
1.5319999976,11,136905.7343750000,116377.4687500000,131788.5625000000,142824.0625000000,112532.2265625000,130561.8281250000,136487.4375000000,128006.6484375000,,,
1.5359999975,12,134881.3593750000,114141.6640625000,129749.7343750000,140528.6250000000,110388.7968750000,128303.0859375000,134338.5312500000,126279.7578125000,,,
1.5399999975,12,133916.7343750000,113209.9140625000,128765.6015625000,139619.2968750000,109425.9375000000,127372.2500000000,133387.5937500000,125280.0468750000,,,
1.5439999974,12,135331.6718750000,114870.0937500000,130183.4765625000,141356.5625000000,110967.1875000000,129058.8750000000,134951.4218750000,126381.1718750000,,,
1.5479999974,12,137186.2968750000,116837.0703125000,132057.5937500000,143346.1250000000,112892.3437500000,131038.7500000000,136876.0937500000,128073.9140625000,,,
1.5519999973,12,136924.5156250000,116403.8671875000,131802.3750000000,142844.1718750000,112547.7890625000,130589.1015625000,136513.1718750000,128024.5625000000,,,
1.5559999973,12,134904.7031250000,114169.5312500000,129768.7500000000,140549.4843750000,110410.3359375000,128336.5546875000,134365.8906250000,126300.3281250000,,,
1.5599999975,12,133944.8750000000,113235.3984375000,128791.1953125000,139642.6875000000,109454.3671875000,127410.1796875000,133417.2812500000,125304.1562500000,,,
1.5639999975,12,135341.3125000000,114866.6640625000,130193.1015625000,141352.2812500000,110977.3281250000,129069.0703125000,134954.5312500000,126389.7031250000,,,
1.5679999974,12,137185.2968750000,116822.2656250000,132058.2343750000,143335.3593750000,112893.5468750000,131035.6406250000,136867.9375000000,128072.4375000000,,,
1.5719999974,12,136940.2812500000,116410.8671875000,131821.0937500000,142864.0468750000,112567.9843750000,130604.9843750000,136523.2812500000,128040.2031250000,,,
1.5759999973,12,134919.2343750000,114185.3515625000,129786.7187500000,140564.9062500000,110429.6953125000,128355.1484375000,134380.8437500000,126319.5937500000,,,
1.5799999975,12,133927.9218750000,113227.1328125000,128778.1328125000,139625.3281250000,109439.9062500000,127397.6250000000,133404.5625000000,125296.1640625000,,,
1.5839999975,12,135306.8437500000,114843.9140625000,130162.0156250000,141329.1562500000,110943.9062500000,129039.4296875000,134925.7031250000,126361.4296875000,,,
1.5879999974,12,137161.7031250000,116814.0312500000,132037.8437500000,143322.0937500000,112871.8203125000,131019.4375000000,136853.3750000000,128048.9687500000,,,
1.5919999974,12,136930.7031250000,116413.1484375000,131815.3906250000,142853.9375000000,112559.3437500000,130598.1953125000,136521.0000000000,128022.0937500000,,,
1.5959999973,12,134924.2500000000,114194.5000000000,129796.9140625000,140574.1406250000,110437.6640625000,128358.0156250000,134391.9062500000,126310.0703125000,,,
1.5999999973,12,133929.4531250000,113225.5781250000,128784.0312500000,139627.0468750000,109444.8984375000,127391.6171875000,133410.3281250000,125285.8125000000,,,
1.6039999975,12,135294.3750000000,114828.9765625000,130151.8750000000,141310.3281250000,110934.8359375000,129019.4218750000,134916.8281250000,126344.3203125000,,,
1.6079999974,12,137144.1562500000,116795.3359375000,132018.5312500000,143303.7656250000,112852.6718750000,130997.2578125000,136835.1875000000,128030.3828125000,,,
1.6119999974,12,136950.3593750000,116441.3593750000,131829.1406250000,142884.2968750000,112576.3750000000,130620.7265625000,136540.5312500000,128040.0937500000,,,
1.6159999974,12,134958.6406250000,114241.7890625000,129824.3828125000,140616.9687500000,110467.8671875000,128401.4140625000,134422.0625000000,126346.6250000000,,,
1.6199999973,12,133927.9375000000,113229.6562500000,128775.5312500000,139623.2343750000,109435.0546875000,127397.5156250000,133400.1875000000,125293.0546875000,,,
1.6239999975,12,135269.7500000000,114800.7343750000,130118.9687500000,141279.2343750000,110899.6718750000,129001.0234375000,134886.3593750000,126328.9765625000,,,
1.6279999975,12,137127.4218750000,116768.8593750000,131997.2031250000,143283.7031250000,112830.9218750000,130985.5859375000,136815.8281250000,128018.7187500000,,,
1.6319999974,12,136942.7812500000,116418.2656250000,131821.9062500000,142880.4687500000,112569.4296875000,130620.7578125000,136536.3125000000,128032.4218750000,,,
1.6359999974,12,134954.3125000000,114220.1718750000,129821.6406250000,140621.0000000000,110467.0859375000,128399.4843750000,134426.9375000000,126337.6953125000,,,
1.6399999973,12,133920.0625000000,113209.8125000000,128767.8828125000,139624.6093750000,109432.2656250000,127386.0078125000,133399.7343750000,125279.4296875000,,,
1.6439999973,12,135251.1093750000,114773.5625000000,130101.8515625000,141266.8750000000,110884.7890625000,128971.5468750000,134867.4375000000,126305.8828125000,,,
1.6479999975,12,137108.7968750000,116747.1093750000,131979.5937500000,143267.3437500000,112816.1640625000,130958.8203125000,136797.1875000000,127995.0078125000,,,
1.6519999974,12,136950.6406250000,116430.5781250000,131828.6093750000,142886.6562500000,112582.0078125000,130627.3828125000,136545.2500000000,128034.4843750000,,,
1.6559999974,12,134981.4687500000,114251.3359375000,129845.2500000000,140639.0781250000,110495.5234375000,128429.8750000000,134449.9843750000,126361.4062500000,,,
1.6599999974,12,133935.9687500000,113220.9687500000,128780.8671875000,139627.2656250000,109446.6406250000,127403.9531250000,133410.0156250000,125297.4765625000,,,
1.6639999973,13,135241.0937500000,114762.0312500000,130091.9531250000,141243.1093750000,110874.8671875000,128967.2812500000,134857.2187500000,126303.1718750000,,,
1.6679999973,13,137096.7812500000,116737.8828125000,131969.3437500000,143253.7968750000,112806.0000000000,130954.0156250000,136787.9531250000,127988.7031250000,,,
1.6719999972,13,136943.1718750000,116425.6718750000,131822.8593750000,142883.2500000000,112578.1718750000,130625.5781250000,136539.9843750000,128030.1953125000,,,
1.6759999972,13,134973.2031250000,114247.8515625000,129840.0937500000,140636.2343750000,110494.1250000000,128426.2812500000,134447.8437500000,126356.2812500000,,,
1.6799999971,13,133902.4375000000,113194.1484375000,128751.1484375000,139599.0468750000,109418.6093750000,127368.1718750000,133381.8281250000,125270.2578125000,,,
1.6839999971,13,135193.5156250000,114714.9843750000,130044.7500000000,141196.0312500000,110828.2734375000,128910.4453125000,134810.3437500000,126261.1484375000,,,
1.6879999973,13,137079.4062500000,116721.5703125000,131949.8125000000,143236.4687500000,112788.7578125000,130932.3984375000,136770.0468750000,127972.1796875000,,,
1.6919999972,13,136965.3593750000,116451.2031250000,131843.4062500000,142903.1875000000,112599.7968750000,130649.5859375000,136563.5625000000,128047.4921875000,,,
1.6959999972,13,135005.6250000000,114281.4843750000,129869.1171875000,140669.4687500000,110523.2812500000,128462.1640625000,134481.1718750000,126381.3359375000,,,
1.6999999972,13,133925.4218750000,113210.3203125000,128767.3203125000,139621.4218750000,109433.0156250000,127398.2109375000,133403.5468750000,125289.0312500000,,,
1.7039999971,13,135192.3125000000,114703.0468750000,130036.0312500000,141197.3437500000,110816.9843750000,128917.0156250000,134809.0312500000,126259.9609375000,,,
1.7079999973,13,137081.0937500000,116719.5859375000,131942.0625000000,143238.6250000000,112780.2265625000,130942.0312500000,136772.1406250000,127974.5390625000,,,
1.7119999973,13,136994.8125000000,116485.3750000000,131863.9062500000,142934.9687500000,112620.9062500000,130684.6953125000,136591.9375000000,128077.1328125000,,,
1.7159999972,13,135029.7500000000,114310.9921875000,129886.8750000000,140688.7500000000,110540.6328125000,128483.1640625000,134500.4375000000,126408.6640625000,,,
1.7199999972,13,133930.3281250000,113224.8046875000,128768.5000000000,139613.0000000000,109436.1796875000,127394.4062500000,133404.6250000000,125298.5000000000,,,
1.7239999971,13,135184.0000000000,114706.6953125000,130026.8359375000,141176.5625000000,110810.2812500000,128902.0234375000,134796.4687500000,126257.7890625000,,,
1.7279999971,13,137045.5625000000,116689.7343750000,131907.3281250000,143193.2656250000,112746.2968750000,130899.9687500000,136734.6562500000,127944.9843750000,,,
1.7319999973,13,136966.0000000000,116456.8671875000,131837.1562500000,142906.2656250000,112595.0156250000,130649.5859375000,136564.9843750000,128048.3281250000,,,
1.7359999972,13,135022.6562500000,114301.1718750000,129885.8046875000,140687.2812500000,110539.3750000000,128477.4296875000,134498.1093750000,126398.7968750000,,,
1.7399999972,13,133921.0000000000,113208.2500000000,128766.0859375000,139613.3906250000,109431.3828125000,127388.4218750000,133399.1250000000,125289.0546875000,,,
1.7439999972,13,135170.5625000000,114686.5234375000,130018.9218750000,141170.8281250000,110799.4921875000,128887.5625000000,134787.2656250000,126245.2421875000,,,
1.7479999971,13,137065.5625000000,116708.8046875000,131934.9218750000,143225.1250000000,112772.0468750000,130923.7109375000,136763.3125000000,127962.5468750000,,,
1.7519999973,13,137011.0156250000,116501.7343750000,131888.7968750000,142957.9531250000,112645.1250000000,130703.5781250000,136618.1406250000,128088.0781250000,,,
1.7559999973,13,135067.8906250000,114348.3281250000,129932.0468750000,140740.8437500000,110583.3593750000,128525.6250000000,134547.0312500000,126438.1171875000,,,
1.7599999972,13,133942.3281250000,113229.6875000000,128785.3203125000,139629.8906250000,109446.8281250000,127405.8281250000,133420.2812500000,125308.3984375000,,,
1.7639999972,13,135169.4843750000,114680.3593750000,130014.0625000000,141155.9843750000,110791.8203125000,128885.0703125000,134785.4687500000,126245.5312500000,,,
1.7679999971,13,137069.0000000000,116710.6562500000,131934.5468750000,143219.2031250000,112774.5390625000,130928.1328125000,136768.6406250000,127968.0781250000,,,
1.7719999971,13,137028.8437500000,116522.2812500000,131903.8750000000,142971.7187500000,112665.5312500000,130723.0000000000,136639.3437500000,128107.5234375000,,,
1.7759999973,13,135067.0312500000,114343.9531250000,129931.1562500000,140727.1093750000,110587.3593750000,128526.7812500000,134549.2500000000,126442.9453125000,,,
1.7799999972,13,133926.9062500000,113209.2968750000,128771.5078125000,139608.2187500000,109437.9765625000,127397.2500000000,133409.9843750000,125300.7265625000,,,
1.7839999972,13,135146.7968750000,114654.1796875000,129991.6406250000,141131.3437500000,110773.4765625000,128867.9843750000,134763.6093750000,126229.5468750000,,,
1.7879999971,13,137042.0937500000,116681.6875000000,131904.7812500000,143189.9687500000,112750.3203125000,130910.5703125000,136740.9375000000,127945.8671875000,,,
1.7919999971,14,137013.1250000000,116517.1640625000,131887.1093750000,142969.4843750000,112659.8515625000,130730.9921875000,136633.8593750000,128097.9765625000,,,
1.7959999971,14,135079.1250000000,114366.8593750000,129941.7812500000,140757.7656250000,110605.7578125000,128558.8828125000,134568.0781250000,126459.5781250000,,,
1.7999999970,14,133927.8906250000,113214.7187500000,128770.7500000000,139614.4687500000,109439.4296875000,127406.6328125000,133409.1562500000,125309.5781250000,,,
1.8039999970,14,135140.2187500000,114638.5937500000,129983.1093750000,141114.6250000000,110760.0937500000,128853.8515625000,134745.7812500000,126228.1250000000,,,
1.8079999969,14,137046.9531250000,116678.6015625000,131908.7500000000,143196.4218750000,112748.1171875000,130909.7343750000,136739.0937500000,127953.0859375000,,,
1.8119999969,14,137030.5937500000,116532.3125000000,131904.4375000000,142998.6093750000,112673.1250000000,130749.6875000000,136649.5625000000,128113.6953125000,,,
1.8159999971,14,135100.5468750000,114385.3671875000,129963.3203125000,140784.5781250000,110626.0625000000,128580.6093750000,134590.2031250000,126475.8281250000,,,
1.8199999970,14,133927.2500000000,113203.6953125000,128770.2187500000,139615.8125000000,109436.8515625000,127399.5546875000,133404.8125000000,125303.5937500000,,,
1.8239999970,14,135120.5156250000,114603.3750000000,129963.2890625000,141091.0781250000,110738.1250000000,128818.4140625000,134719.9218750000,126202.7265625000,,,
1.8279999970,14,137043.2812500000,116665.2968750000,131908.5312500000,143188.4375000000,112748.3046875000,130893.4531250000,136734.0937500000,127943.1015625000,,,
1.8319999969,14,137052.1875000000,116546.9843750000,131933.9375000000,143016.4531250000,112704.5078125000,130765.9921875000,136676.4843750000,128127.5625000000,,,
1.8359999971,14,135124.1093750000,114400.0625000000,129996.6562500000,140798.6406250000,110659.1640625000,128600.4843750000,134623.4687500000,126487.4687500000,,,
1.8399999971,14,133936.3593750000,113206.2656250000,128791.5703125000,139619.2187500000,109456.5625000000,127406.7968750000,133434.1718750000,125301.9296875000,,,
1.8439999970,14,135118.6562500000,114600.5312500000,129973.0781250000,141089.8750000000,110747.6484375000,128828.1250000000,134744.7656250000,126198.2968750000,,,
1.8479999970,14,137050.6875000000,116676.9375000000,131925.3593750000,143202.9375000000,112765.7421875000,130925.0781250000,136770.9843750000,127952.9453125000,,,
1.8519999969,14,137075.9531250000,116578.9843750000,131964.8125000000,143046.4062500000,112736.1562500000,130818.8906250000,136730.1093750000,128155.6953125000,,,
1.8559999969,14,135140.8593750000,114427.0234375000,130016.7187500000,140821.2500000000,110681.4765625000,128649.9765625000,134666.8125000000,126516.1718750000,,,
1.8599999971,14,133942.3750000000,113218.7109375000,128795.4843750000,139618.2812500000,109463.3281250000,127442.5234375000,133459.9218750000,125323.8984375000,,,
1.8639999970,14,135094.3281250000,114576.5546875000,129943.9531250000,141050.5312500000,110720.3671875000,128824.4531250000,134734.6250000000,126189.2578125000,,,
1.8679999970,14,137013.8281250000,116634.4765625000,131881.4687500000,143141.2812500000,112727.1171875000,130900.0781250000,136745.1250000000,127925.0000000000,,,
1.8719999969,14,137043.1406250000,116539.1562500000,131924.5781250000,142989.9218750000,112703.6796875000,130793.8359375000,136706.8281250000,128125.7656250000,,,
1.8759999969,14,135139.3906250000,114420.4218750000,130010.6562500000,140799.8125000000,110683.8906250000,128656.1171875000,134679.2656250000,126512.5468750000,,,
1.8799999971,14,133926.1718750000,113199.3515625000,128780.1718750000,139587.6718750000,109454.2031250000,127440.6171875000,133464.9375000000,125310.7578125000,,,
1.8839999971,14,135077.8593750000,114560.0312500000,129930.0546875000,141020.8906250000,110710.4453125000,128825.4687500000,134740.7343750000,126180.6250000000,,,
1.8879999970,14,137019.0781250000,116648.0781250000,131889.4375000000,143139.8593750000,112736.6953125000,130928.4843750000,136772.4062500000,127939.7812500000,,,
1.8919999970,14,137102.8281250000,116617.1562500000,131985.9687500000,143055.2031250000,112769.2578125000,130887.0703125000,136794.2656250000,128194.3984375000,,,
1.8959999969,14,135195.7656250000,114494.0781250000,130068.3281250000,140865.6875000000,110745.9843750000,128744.0390625000,134759.4843750000,126581.0781250000,,,
1.8999999969,14,133955.5937500000,113239.3359375000,128807.9843750000,139613.4531250000,109486.2343750000,127489.9218750000,133506.6562500000,125355.9531250000,,,
1.9039999971,14,135099.3750000000,114589.5625000000,129949.1250000000,141035.5312500000,110737.3984375000,128860.1250000000,134775.6875000000,126217.3203125000,,,
1.9079999970,14,137046.6562500000,116678.4140625000,131915.3750000000,143161.5000000000,112773.5703125000,130963.3515625000,136816.4375000000,127974.9921875000,,,
1.9119999970,14,137128.0156250000,116640.5156250000,132010.0781250000,143071.5937500000,112805.4921875000,130916.2500000000,136835.4843750000,128219.2343750000,,,
1.9159999969,14,135228.3281250000,114521.8359375000,130098.4453125000,140880.9843750000,110787.1015625000,128775.7968750000,134805.2187500000,126610.0468750000,,,
1.9199999969,15,133975.0468750000,113248.6718750000,128824.1796875000,139614.9843750000,109509.5703125000,127499.3046875000,133529.5312500000,125370.4062500000,,,
1.9239999969,15,135087.2812500000,114563.6796875000,129934.5078125000,141004.3906250000,110723.0546875000,128835.9843750000,134757.5781250000,126200.7421875000,,,
1.9279999968,15,137038.9843750000,116662.3750000000,131906.5468750000,143143.4218750000,112762.1250000000,130949.0000000000,136799.4062500000,127963.6796875000,,,
1.9319999968,15,137145.4218750000,116655.2656250000,132026.2812500000,143085.1406250000,112815.7109375000,130925.1875000000,136835.2656250000,128233.9921875000,,,
1.9359999967,15,135230.1875000000,114519.9843750000,130097.6953125000,140881.6562500000,110776.4296875000,128768.9062500000,134783.1093750000,126610.5000000000,,,
1.9399999967,15,133952.4375000000,113219.7031250000,128797.7109375000,139601.6562500000,109473.9218750000,127468.6250000000,133488.5468750000,125343.5625000000,,,
1.9439999969,15,135063.7031250000,114534.3125000000,129906.1562500000,140995.4375000000,110688.1562500000,128800.3359375000,134719.8750000000,126170.9453125000,,,
1.9479999968,15,137031.9843750000,116647.6796875000,131894.6718750000,143152.1718750000,112741.7890625000,130930.0937500000,136778.8593750000,127947.2109375000,,,
1.9519999968,15,137145.0937500000,116645.5859375000,132022.6093750000,143104.7968750000,112805.0390625000,130916.1718750000,136824.0000000000,128220.5781250000,,,
1.9559999967,15,135245.8437500000,114530.0468750000,130114.8906250000,140918.0312500000,110791.3671875000,128774.0546875000,134790.9218750000,126614.4453125000,,,
1.9599999967,15,133957.6875000000,113222.6796875000,128807.8203125000,139615.1875000000,109482.7187500000,127461.7812500000,133484.3125000000,125345.9765625000,,,
1.9639999969,15,135045.8593750000,114516.3359375000,129894.3281250000,140980.7812500000,110675.2265625000,128777.1093750000,134692.7968750000,126159.0859375000,,,
1.9679999969,15,137001.7812500000,116623.2421875000,131869.8281250000,143128.5156250000,112719.6093750000,130900.4296875000,136740.1875000000,127926.6640625000,,,
1.9719999968,15,137126.4531250000,116637.5625000000,132009.6875000000,143094.6093750000,112797.9296875000,130903.5625000000,136801.9843750000,128208.3515625000,,,
1.9759999968,15,135231.2031250000,114525.2187500000,130106.9765625000,140913.7343750000,110785.1484375000,128767.9140625000,134773.9062500000,126604.2500000000,,,
1.9799999967,15,133927.8437500000,113204.3359375000,128782.9843750000,139599.8750000000,109456.0000000000,127437.9609375000,133450.4531250000,125321.6171875000,,,
1.9839999967,15,135009.5156250000,114497.6953125000,129860.9375000000,140959.4843750000,110637.7578125000,128740.6562500000,134650.7968750000,126127.3593750000,,,
1.9879999969,15,136993.7968750000,116633.9687500000,131864.8750000000,143132.6718750000,112709.2812500000,130887.3671875000,136730.6093750000,127914.0859375000,,,
1.9919999968,15,137148.3125000000,116673.3750000000,132033.4531250000,143125.4218750000,112814.6093750000,130914.5937500000,136822.5000000000,128216.9843750000,,,
1.9959999968,15,135243.6562500000,114544.9062500000,130118.3515625000,140927.1406250000,110791.1015625000,128760.6953125000,134782.6093750000,126597.1171875000,,,
1.9999999967,15,133929.0468750000,113207.6093750000,128784.0546875000,139596.8437500000,109453.0781250000,127420.4765625000,133448.3906250000,125305.1250000000,,,
2.0039999967,15,135007.3750000000,114489.8125000000,129857.2109375000,140947.3437500000,110632.5234375000,128720.9218750000,134638.5625000000,126112.6562500000,,,
2.0079999969,15,137001.4375000000,116638.7187500000,131866.4531250000,143133.6406250000,112713.3281250000,130881.4140625000,136720.4531250000,127915.1562500000,,,
2.0119999968,15,137193.2343750000,116724.6015625000,132071.5937500000,143173.1718750000,112857.4453125000,130954.6640625000,136849.0625000000,128260.7031250000,,,
2.0159999968,15,135287.5000000000,114597.5546875000,130154.2109375000,140974.0312500000,110829.8046875000,128800.8750000000,134806.3437500000,126647.7031250000,,,
2.0199999968,15,133934.2500000000,113217.6406250000,128780.2187500000,139596.4218750000,109447.8515625000,127417.8984375000,133430.0937500000,125322.9062500000,,,
2.0239999967,15,134990.5312500000,114470.6875000000,129833.3906250000,140928.1406250000,110603.3984375000,128695.7343750000,134605.0156250000,126106.7031250000,,,
2.0279999967,15,136981.3437500000,116608.7812500000,131840.0937500000,143112.2812500000,112680.9296875000,130853.0078125000,136687.2968750000,127899.4687500000,,,
2.0319999969,15,137184.3125000000,116701.3750000000,132057.5312500000,143163.7500000000,112839.1796875000,130937.0390625000,136831.1718750000,128246.3281250000,,,
2.0359999968,15,135290.0000000000,114584.3359375000,130154.3750000000,140977.4062500000,110828.9687500000,128801.8671875000,134807.3906250000,126639.6328125000,,,
2.0399999968,15,133930.5000000000,113196.5312500000,128775.2890625000,139589.7187500000,109443.1015625000,127412.0234375000,133426.4531250000,125308.7421875000,,,
2.0439999967,15,134957.2187500000,114422.8671875000,129796.5625000000,140884.8125000000,110567.2187500000,128654.1562500000,134565.8750000000,126065.4531250000,,,
2.0479999967,16,136971.5000000000,116598.7031250000,131828.7656250000,143090.9843750000,112671.1406250000,130841.7656250000,136676.0781250000,127885.3046875000,,,
2.0519999966,16,137192.0937500000,116715.9687500000,132064.0312500000,143158.4687500000,112846.3671875000,130950.1328125000,136835.2187500000,128257.6484375000,,,
2.0559999966,16,135301.2656250000,114604.7421875000,130166.0156250000,140982.3906250000,110839.0000000000,128818.3125000000,134809.0312500000,126662.3203125000,,,
2.0599999966,16,133927.1093750000,113201.7109375000,128772.9765625000,139586.1406250000,109439.0546875000,127411.3828125000,133412.6406250000,125321.7265625000,,,
2.0639999965,16,134954.6406250000,114432.6250000000,129796.2968750000,140880.5781250000,110568.0468750000,128655.2343750000,134560.1093750000,126077.4687500000,,,
2.0679999965,16,136965.7812500000,116602.3203125000,131824.9062500000,143089.3281250000,112671.3828125000,130835.9765625000,136667.8750000000,127889.8906250000,,,
2.0719999967,16,137183.2343750000,116714.6250000000,132059.1093750000,143162.7343750000,112846.2109375000,130940.3125000000,136828.5625000000,128253.3046875000,,,
2.0759999966,16,135303.4687500000,114613.3281250000,130172.2109375000,140995.9218750000,110848.7656250000,128825.2578125000,134822.3281250000,126663.8750000000,,,
2.0799999966,16,133930.6562500000,113212.1171875000,128779.7421875000,139602.8906250000,109449.0312500000,127428.8984375000,133436.1875000000,125325.9687500000,,,
2.0839999965,16,134939.1718750000,114416.5312500000,129783.1015625000,140882.1406250000,110556.0000000000,128656.4140625000,134563.3906250000,126067.7812500000,,,
2.0879999965,16,136927.9687500000,116556.0234375000,131791.4062500000,143067.4375000000,112636.6484375000,130813.8203125000,136652.4218750000,127856.5468750000,,,
2.0919999967,16,137162.4218750000,116683.8359375000,132043.6406250000,143159.8906250000,112831.3750000000,130937.4687500000,136836.1875000000,128226.8515625000,,,
2.0959999966,16,135309.0468750000,114607.8046875000,130184.8984375000,141017.6406250000,110862.5000000000,128846.2578125000,134857.0312500000,126658.7812500000,,,
2.0999999966,16,133933.3593750000,113196.5859375000,128792.2890625000,139611.5000000000,109461.8515625000,127436.4921875000,133464.3281250000,125314.4609375000,,,
2.1039999966,16,134934.8750000000,114391.7500000000,129790.8515625000,140882.2187500000,110565.1484375000,128651.7968750000,134584.9843750000,126045.5234375000,,,
2.1079999965,16,136955.6562500000,116567.7500000000,131828.9843750000,143096.2500000000,112678.4609375000,130843.9375000000,136703.9218750000,127864.7031250000,,,
2.1119999965,16,137209.8437500000,116721.3828125000,132096.1093750000,143197.8281250000,112887.7031250000,130988.1093750000,136899.1875000000,128260.9765625000,,,
2.1159999967,16,135359.2500000000,114653.7734375000,130234.8906250000,141052.7500000000,110915.4765625000,128899.1250000000,134910.5781250000,126706.0703125000,,,
2.1199999966,16,133964.0937500000,113227.8359375000,128816.9687500000,139626.1093750000,109488.5390625000,127471.1406250000,133488.2187500000,125354.0234375000,,,
2.1239999966,16,134928.2500000000,114391.6171875000,129777.1953125000,140855.2656250000,110551.5781250000,128654.7187500000,134575.9062500000,126058.9843750000,,,
2.1279999965,16,136905.6250000000,116525.0468750000,131770.9062500000,143024.4687500000,112617.5234375000,130797.9921875000,136652.3437500000,127836.2734375000,,,
2.1319999965,16,137190.0156250000,116714.6796875000,132070.0781250000,143170.8593750000,112862.0625000000,130971.0234375000,136883.9531250000,128257.8593750000,,,
2.1359999967,16,135366.3125000000,114674.0546875000,130239.7968750000,141062.7031250000,110922.8750000000,128904.9453125000,134928.2187500000,126725.5937500000,,,
2.1399999966,16,133963.8593750000,113232.4218750000,128818.2812500000,139622.8125000000,109486.6875000000,127458.5390625000,133496.1562500000,125365.6640625000,,,
2.1439999966,16,134896.9687500000,114356.8828125000,129747.0000000000,140812.1093750000,110513.2734375000,128598.9843750000,134537.6406250000,126035.1718750000,,,
2.1479999966,16,136894.4687500000,116516.1718750000,131760.6718750000,143012.7968750000,112604.1093750000,130773.5078125000,136632.9062500000,127826.8828125000,,,
2.1519999965,16,137195.9531250000,116724.1484375000,132077.8593750000,143177.7031250000,112868.0390625000,130969.5468750000,136877.7812500000,128260.7890625000,,,
2.1559999965,16,135378.1875000000,114688.2187500000,130252.6718750000,141072.5468750000,110932.6640625000,128910.8984375000,134926.0156250000,126730.5859375000,,,
2.1599999967,16,133969.1718750000,113240.2812500000,128823.1640625000,139628.6875000000,109490.7109375000,127462.9062500000,133488.9218750000,125364.6171875000,,,
2.1639999966,16,134903.7656250000,114364.9531250000,129753.2500000000,140821.5781250000,110520.1406250000,128608.0781250000,134535.2031250000,126037.1015625000,,,
2.1679999966,16,136904.2812500000,116523.0859375000,131771.1875000000,143020.9531250000,112611.4843750000,130780.8828125000,136633.5937500000,127829.5703125000,,,
2.1719999965,16,137211.8750000000,116736.7500000000,132095.0781250000,143196.2187500000,112880.4062500000,130986.5234375000,136891.0156250000,128271.0078125000,,,
2.1759999965,17,135381.4375000000,114689.7187500000,130259.4609375000,141078.4218750000,110937.4140625000,128922.8359375000,134936.0312500000,126736.0859375000,,,
2.1799999964,17,133951.9531250000,113221.6640625000,128810.9296875000,139606.8281250000,109478.1875000000,127454.0312500000,133483.9375000000,125355.3125000000,,,
2.1839999964,17,134881.0625000000,114344.4921875000,129734.5234375000,140796.0625000000,110504.2343750000,128594.0781250000,134527.6406250000,126023.1796875000,,,
2.1879999964,17,136887.4218750000,116512.3046875000,131757.3906250000,143005.0312500000,112606.3359375000,130777.0234375000,136635.0468750000,127821.3593750000,,,
2.1919999963,17,137222.0781250000,116752.8984375000,132107.7500000000,143204.0781250000,112905.7265625000,131013.6406250000,136921.3437500000,128288.2265625000,,,
2.1959999963,17,135408.8750000000,114720.5390625000,130287.4375000000,141103.2343750000,110975.6093750000,128965.4531250000,134978.0000000000,126769.4218750000,,,
2.1999999965,17,133969.5000000000,113242.1796875000,128827.8593750000,139618.9218750000,109500.7656250000,127486.0859375000,133509.2812500000,125377.9453125000,,,
2.2039999964,17,134879.3750000000,114339.9843750000,129730.3125000000,140781.2812500000,110500.4296875000,128598.9609375000,134522.0468750000,126025.7812500000,,,
2.2079999964,17,136896.8750000000,116515.3906250000,131762.1406250000,143009.8750000000,112610.3906250000,130790.9140625000,136634.9687500000,127828.1953125000,,,
2.2119999963,17,137242.6406250000,116766.0390625000,132123.2500000000,143228.5312500000,112917.5781250000,131036.5000000000,136931.4218750000,128300.7734375000,,,
2.2159999963,17,135425.1875000000,114730.8593750000,130299.5078125000,141127.1250000000,110981.8828125000,128978.3046875000,134985.9687500000,126775.3515625000,,,
2.2199999965,17,133961.5000000000,113223.8671875000,128817.9609375000,139624.5781250000,109485.2890625000,127470.1250000000,133498.4687500000,125361.0781250000,,,
2.2239999964,17,134854.0000000000,114306.7500000000,129707.2500000000,140772.7812500000,110472.9921875000,128567.3046875000,134502.5312500000,125990.3750000000,,,
2.2279999964,17,136869.1562500000,116488.7578125000,131740.1406250000,142996.2812500000,112582.0937500000,130755.4531250000,136616.3281250000,127787.1875000000,,,
2.2319999964,17,137238.3750000000,116774.5156250000,132124.5937500000,143231.4218750000,112914.7890625000,131023.7265625000,136936.4218750000,128280.6328125000,,,
2.2359999963,17,135436.0937500000,114754.3359375000,130313.6171875000,141135.3437500000,110991.8593750000,128975.4609375000,134998.1250000000,126772.5078125000,,,
2.2399999963,17,133970.0000000000,113242.6406250000,128826.7578125000,139621.3125000000,109488.6953125000,127457.8359375000,133498.2812500000,125361.1328125000,,,
2.2439999965,17,134854.5468750000,114313.9921875000,129705.0234375000,140763.8437500000,110466.9843750000,128550.4921875000,134491.9531250000,125987.5625000000,,,
2.2479999964,17,136863.5156250000,116485.2656250000,131726.5000000000,142974.9062500000,112568.6015625000,130739.0937500000,136597.9843750000,127783.2968750000,,,
2.2519999964,17,137233.8750000000,116769.0703125000,132110.4218750000,143215.1562500000,112904.1953125000,131014.8515625000,136915.1718750000,128282.1875000000,,,
2.2559999963,17,135431.4375000000,114746.3125000000,130300.5546875000,141120.3906250000,110984.5937500000,128972.4531250000,134977.9687500000,126777.1718750000,,,
2.2599999963,17,133957.4531250000,113224.5859375000,128808.6562500000,139599.7656250000,109475.8281250000,127452.3671875000,133473.3125000000,125360.2421875000,,,
2.2639999965,17,134829.2500000000,114286.6328125000,129675.1406250000,140734.4843750000,110443.2968750000,128534.7500000000,134453.9218750000,125971.1406250000,,,
2.2679999964,17,136844.5312500000,116470.1406250000,131707.9062500000,142960.2812500000,112554.3046875000,130732.1171875000,136571.2031250000,127769.9375000000,,,
2.2719999964,17,137237.1406250000,116782.8906250000,132118.7343750000,143227.1093750000,112913.8828125000,131031.3750000000,136919.1718750000,128287.2031250000,,,
2.2759999963,17,135454.2343750000,114782.4140625000,130328.6640625000,141152.9375000000,111013.8593750000,129007.0000000000,135004.1562500000,126801.2578125000,,,
2.2799999963,17,133965.6562500000,113243.7656250000,128819.5703125000,139620.7812500000,109487.9218750000,127468.5156250000,133483.7968750000,125372.8750000000,,,
2.2839999963,17,134823.0781250000,114289.2343750000,129670.4218750000,140743.8125000000,110437.1562500000,128532.4375000000,134449.9843750000,125972.6718750000,,,
2.2879999964,17,136835.4843750000,116469.6015625000,131698.1718750000,142967.3593750000,112544.1406250000,130726.0078125000,136560.0468750000,127768.7578125000,,,
2.2919999964,17,137234.8437500000,116792.7343750000,132114.2031250000,143244.0937500000,112910.7656250000,131032.8750000000,136911.1250000000,128292.2187500000,,,
2.2959999964,17,135447.9062500000,114786.4921875000,130322.7031250000,141160.8437500000,111004.5781250000,129000.7031250000,134987.0937500000,126801.7734375000,,,
2.2999999963,17,133947.2812500000,113231.3750000000,128804.0937500000,139604.9531250000,109466.7578125000,127443.1953125000,133451.9531250000,125358.2343750000,,,
2.3039999963,18,134799.4531250000,114263.2734375000,129651.8359375000,140715.8906250000,110413.9843750000,128497.4375000000,134413.9375000000,125946.2265625000,,,
2.3079999962,18,136834.7343750000,116464.5625000000,131703.2187500000,142966.3437500000,112546.5546875000,130711.0625000000,136549.0312500000,127754.8437500000,,,
2.3119999962,18,137278.6718750000,116828.7031250000,132160.0000000000,143285.3906250000,112953.8203125000,131059.6171875000,136943.0468750000,128314.3203125000,,,
2.3159999961,18,135505.5156250000,114829.5156250000,130379.0625000000,141215.6406250000,111057.7656250000,129037.6328125000,135032.0468750000,126839.2421875000,,,
2.3199999961,18,133990.9218750000,113261.6562500000,128844.0546875000,139644.3750000000,109502.2421875000,127462.0781250000,133480.0468750000,125386.4218750000,,,
2.3239999961,18,134811.2968750000,114270.9687500000,129658.7500000000,140717.8437500000,110415.4531250000,128485.2343750000,134409.2968750000,125949.2265625000,,,
2.3279999963,18,136861.0781250000,116494.2812500000,131724.2968750000,142984.3906250000,112563.9062500000,130722.8125000000,136567.5937500000,127774.0468750000,,,
2.3319999962,18,137311.9218750000,116866.5156250000,132191.1875000000,143309.3437500000,112982.4140625000,131083.1718750000,136973.9218750000,128342.4062500000,,,
2.3359999962,18,135546.0937500000,114882.4062500000,130417.3593750000,141250.6406250000,111097.8671875000,129075.1015625000,135076.0312500000,126876.1250000000,,,
2.3399999961,18,134025.1406250000,113306.2578125000,128875.6250000000,139672.9375000000,109536.5781250000,127498.2031250000,133521.8281250000,125422.6015625000,,,
2.3439999961,18,134827.4843750000,114282.9843750000,129669.9609375000,140718.8750000000,110429.4609375000,128505.0234375000,134430.8906250000,125967.1718750000,,,
2.3479999963,18,136855.2500000000,116479.7187500000,131712.4687500000,142961.2187500000,112556.9843750000,130716.8828125000,136563.3750000000,127764.5234375000,,,
2.3519999962,18,137295.7031250000,116841.6250000000,132170.7968750000,143281.3125000000,112969.0781250000,131070.2109375000,136964.0937500000,128318.6171875000,,,
2.3559999962,18,135531.6718750000,114852.3125000000,130402.7421875000,141221.5937500000,111086.9218750000,129066.4921875000,135072.4218750000,126854.1796875000,,,
2.3599999961,18,134001.7031250000,113263.6640625000,128850.2265625000,139629.8437500000,109513.6406250000,127482.5703125000,133507.1093750000,125396.4531250000,,,
2.3639999961,18,134799.9531250000,114250.5625000000,129640.6718750000,140690.6250000000,110404.0312500000,128496.8203125000,134420.4843750000,125944.6953125000,,,
2.3679999961,18,136848.3281250000,116479.3671875000,131706.0781250000,142973.1875000000,112552.7187500000,130749.8515625000,136583.9531250000,127767.5234375000,,,
2.3719999962,18,137327.0000000000,116882.3984375000,132201.2500000000,143336.6250000000,113001.6718750000,131147.7812500000,137021.9843750000,128363.7031250000,,,
2.3759999962,18,135567.3437500000,114899.7109375000,130436.5937500000,141278.8125000000,111123.8828125000,129143.6640625000,135134.2968750000,126911.1250000000,,,
2.3799999962,18,134005.9218750000,113279.4687500000,128856.3984375000,139653.6250000000,109519.9453125000,127516.0703125000,133540.8437500000,125425.2343750000,,,
2.3839999961,18,134782.7968750000,114241.6015625000,129626.4609375000,140688.1250000000,110389.1171875000,128494.1640625000,134431.7500000000,125943.6484375000,,,
2.3879999961,18,136800.9062500000,116433.2578125000,131663.1875000000,142930.3281250000,112507.5546875000,130700.3359375000,136554.2500000000,127728.3671875000,,,
2.3919999963,18,137285.6093750000,116840.4765625000,132167.3750000000,143300.7343750000,112967.0390625000,131101.5156250000,136997.8125000000,128323.0625000000,,,
2.3959999962,18,135559.7968750000,114890.1875000000,130436.9453125000,141275.2187500000,111126.0546875000,129132.1250000000,135140.7812500000,126898.1718750000,,,
2.3999999962,18,133999.7968750000,113265.4375000000,128856.7734375000,139644.8593750000,109520.8046875000,127503.3046875000,133535.9375000000,125410.4296875000,,,
2.4039999961,18,134757.1718750000,114201.2890625000,129608.1640625000,140651.4687500000,110367.5781250000,128456.6406250000,134397.9218750000,125909.1015625000,,,
2.4079999961,18,136782.2968750000,116400.4062500000,131649.8593750000,142904.9218750000,112494.5156250000,130668.2578125000,136530.5468750000,127696.7968750000,,,
2.4119999961,18,137287.5156250000,116832.7734375000,132171.3906250000,143301.4687500000,112973.2890625000,131091.8281250000,136996.5312500000,128310.8046875000,,,
2.4159999962,18,135567.5468750000,114887.4531250000,130446.9453125000,141279.6875000000,111134.4218750000,129125.2109375000,135137.5468750000,126896.9062500000,,,
2.4199999962,18,133992.6093750000,113246.5312500000,128850.1484375000,139628.3906250000,109510.5312500000,127476.9062500000,133511.9375000000,125398.9453125000,,,
2.4239999962,18,134744.8906250000,114185.3046875000,129591.6171875000,140636.5468750000,110348.2109375000,128428.6406250000,134366.1875000000,125894.2734375000,,,
2.4279999961,18,136781.8906250000,116399.5468750000,131641.6562500000,142904.2500000000,112481.3437500000,130655.4609375000,136503.8281250000,127692.5625000000,,,
2.4319999961,19,137308.1406250000,116853.4062500000,132184.0781250000,143323.6250000000,112979.9687500000,131100.5937500000,136988.6093750000,128325.5078125000,,,
2.4359999960,19,135593.7031250000,114913.7890625000,130461.9375000000,141303.4843750000,111145.0937500000,129135.8281250000,135135.1875000000,126918.7656250000,,,
2.4399999960,19,134017.5000000000,113275.8984375000,128864.2812500000,139647.0000000000,109522.4140625000,127487.9062500000,133515.0156250000,125425.6640625000,,,
2.4439999959,19,134745.0468750000,114190.4218750000,129585.6875000000,140626.8437500000,110342.6328125000,128416.5703125000,134348.8125000000,125900.0390625000,,,
2.4479999959,19,136765.7968750000,116387.8281250000,131623.4375000000,142877.4375000000,112468.6640625000,130635.3437500000,136478.9062500000,127682.9062500000,,,
2.4519999959,19,137309.3750000000,116861.3984375000,132185.2656250000,143314.0156250000,112988.8515625000,131102.6718750000,136985.3906250000,128332.2109375000,,,
2.4559999960,19,135606.3125000000,114934.5234375000,130477.3125000000,141309.7343750000,111165.8281250000,129154.7656250000,135146.5000000000,126941.0078125000,,,
2.4599999960,19,134012.7500000000,113277.0234375000,128861.6015625000,139637.2500000000,109522.9531250000,127491.8203125000,133508.9843750000,125436.5546875000,,,
2.4639999960,19,134723.0312500000,114170.7656250000,129564.4453125000,140603.8906250000,110319.6484375000,128400.5546875000,134323.1718750000,125893.2500000000,,,
2.4679999959,19,136736.0000000000,116362.5078125000,131594.6875000000,142856.3281250000,112434.4609375000,130607.6640625000,136445.3593750000,127663.4609375000,,,
2.4719999959,19,137274.7031250000,116832.3750000000,132151.6562500000,143294.0625000000,112948.6953125000,131068.3593750000,136947.3281250000,128302.6015625000,,,
2.4759999961,19,135580.7500000000,114915.3203125000,130454.1640625000,141298.5156250000,111136.3515625000,129126.0156250000,135120.2187500000,126916.0312500000,,,
2.4799999960,19,133988.9843750000,113257.5234375000,128843.9218750000,139639.7343750000,109498.5156250000,127459.9062500000,133483.3906250000,125409.2187500000,,,
2.4839999960,19,134688.3281250000,114135.5468750000,129537.3593750000,140593.2812500000,110287.3515625000,128359.2734375000,134288.0781250000,125852.6718750000,,,
2.4879999959,19,136709.7187500000,116334.5546875000,131574.8125000000,142842.4531250000,112410.6171875000,130577.2187500000,136416.0468750000,127627.3515625000,,,
2.4919999959,19,137250.1562500000,116804.9609375000,132133.9218750000,143279.6250000000,112927.2109375000,131039.0468750000,136918.5625000000,128266.0703125000,,,
2.4959999959,19,135572.1093750000,114898.5546875000,130451.0234375000,141300.3437500000,111130.0000000000,129107.9062500000,135105.5468750000,126894.3359375000,,,
2.4999999960,19,133980.3750000000,113232.6328125000,128836.7656250000,139625.4062500000,109487.5703125000,127430.8046875000,133463.1718750000,125386.7421875000,,,
2.5039999960,19,134676.1250000000,114105.5859375000,129523.1640625000,140568.0781250000,110270.2109375000,128319.3906250000,134257.9375000000,125823.6484375000,,,
2.5079999960,19,136710.3906250000,116318.6796875000,131574.2031250000,142830.8437500000,112407.7187500000,130548.0390625000,136397.7968750000,127607.9921875000,,,
2.5119999959,19,137298.1718750000,116838.4609375000,132179.0937500000,143315.3593750000,112972.6171875000,131059.0000000000,136949.2656250000,128292.8359375000,,,
2.5159999959,19,135632.2812500000,114949.5937500000,130507.4609375000,141351.3281250000,111189.5703125000,129149.2656250000,135154.2031250000,126937.8359375000,,,
2.5199999961,19,134021.9843750000,113269.7031250000,128876.4843750000,139657.5000000000,109530.7265625000,127464.5703125000,133499.7500000000,125422.5546875000,,,
2.5239999960,19,134690.9843750000,114119.9375000000,129536.7890625000,140576.0937500000,110287.0312500000,128332.9609375000,134274.5156250000,125841.9921875000,,,
2.5279999960,19,136710.3281250000,116324.3125000000,131570.5781250000,142830.5156250000,112408.3906250000,130553.1640625000,136401.0468750000,127616.3593750000,,,
2.5319999959,19,137314.7500000000,116867.3750000000,132190.6718750000,143332.4218750000,112990.9140625000,131089.1718750000,136971.5000000000,128318.1875000000,,,
2.5359999959,19,135662.5625000000,114990.5546875000,130533.4765625000,141372.3593750000,111219.6093750000,129187.3515625000,135184.3437500000,126980.5156250000,,,
2.5399999958,19,134040.0625000000,113297.5703125000,128890.9687500000,139661.3750000000,109544.8906250000,127486.9687500000,133511.9687500000,125457.9062500000,,,
2.5439999960,19,134683.2500000000,114121.9218750000,129524.5625000000,140556.9218750000,110272.8437500000,128328.6484375000,134255.0468750000,125852.0000000000,,,
2.5479999960,19,136699.1250000000,116325.3281250000,131555.0468750000,142819.7343750000,112394.2812500000,130549.7031250000,136380.1875000000,127618.1250000000,,,
2.5519999960,19,137307.4218750000,116878.2421875000,132185.1718750000,143335.2031250000,112983.7265625000,131091.4062500000,136958.7031250000,128322.8750000000,,,
2.5559999959,19,135651.9062500000,115000.6093750000,130527.0078125000,141379.6562500000,111208.3203125000,129188.6953125000,135171.9218750000,126980.5937500000,,,
2.5599999959,20,134024.2656250000,113295.2656250000,128877.8281250000,139658.1093750000,109525.4218750000,127476.3750000000,133491.0156250000,125450.5234375000,,,
2.5639999958,20,134658.2812500000,114108.2421875000,129504.4218750000,140545.3593750000,110244.8437500000,128306.5156250000,134226.6875000000,125831.2421875000,,,
2.5679999958,20,136675.9218750000,116310.1718750000,131537.1250000000,142801.0937500000,112368.0234375000,130527.0625000000,136357.5468750000,127591.5234375000,,,
2.5719999957,20,137303.4843750000,116871.6406250000,132181.8750000000,143342.2031250000,112977.3437500000,131088.4843750000,136958.8125000000,128307.0781250000,,,
2.5759999957,20,135667.0312500000,115005.3359375000,130540.4453125000,141406.0781250000,111218.1875000000,129204.0625000000,135193.0312500000,126980.7265625000,,,
2.5799999957,20,134027.9375000000,113287.7500000000,128880.5625000000,139675.9531250000,109513.9687500000,127477.9296875000,133501.8437500000,125442.1015625000,,,
2.5839999958,20,134645.5937500000,114082.7890625000,129489.1015625000,140538.3593750000,110214.2890625000,128291.8750000000,134220.3593750000,125810.5312500000,,,
2.5879999958,20,136662.7031250000,116289.4921875000,131522.3593750000,142794.9062500000,112340.1796875000,130514.7812500000,136349.4687500000,127571.6953125000,,,
2.5919999958,20,137301.0156250000,116870.9140625000,132178.9531250000,143343.5468750000,112961.5468750000,131086.9531250000,136954.7187500000,128299.3281250000,,,
2.5959999957,20,135669.3125000000,115014.8281250000,130543.5312500000,141407.5312500000,111210.8671875000,129205.1640625000,135187.9375000000,126984.1875000000,,,
2.5999999957,20,134017.5000000000,113279.7890625000,128871.1250000000,139659.5625000000,109504.5546875000,127467.0625000000,133482.2500000000,125437.1718750000,,,
2.6039999959,20,134607.7812500000,114040.3281250000,129450.5625000000,140494.1562500000,110176.7968750000,128247.5078125000,134168.1562500000,125776.7343750000,,,
2.6079999958,20,136636.3906250000,116259.0234375000,131490.4531250000,142768.8750000000,112311.9140625000,130485.0312500000,136310.3593750000,127544.6328125000,,,
2.6119999958,20,137305.8125000000,116873.8671875000,132176.8593750000,143348.7812500000,112965.2187500000,131091.9843750000,136952.9062500000,128299.8906250000,,,
2.6159999957,20,135685.1718750000,115028.5078125000,130552.5468750000,141426.3281250000,111227.5781250000,129220.2656250000,135198.2343750000,126998.0312500000,,,
2.6199999957,20,134026.9687500000,113291.5078125000,128873.4843750000,139674.8125000000,109515.1171875000,127473.5546875000,133488.2812500000,125449.2968750000,,,
2.6239999956,20,134607.3281250000,114050.8125000000,129446.0234375000,140496.5937500000,110180.6015625000,128247.1875000000,134171.3593750000,125785.4296875000,,,
2.6279999958,20,136624.2031250000,116255.7265625000,131479.1718750000,142762.7187500000,112306.4687500000,130472.6953125000,136302.8750000000,127543.5625000000,,,
2.6319999958,20,137301.8906250000,116879.9296875000,132176.2968750000,143350.1250000000,112968.7890625000,131087.6406250000,136952.0000000000,128305.9296875000,,,
2.6359999957,20,135701.0468750000,115056.0781250000,130572.6093750000,141443.5156250000,111249.3046875000,129236.6562500000,135216.3906250000,127019.1640625000,,,
2.6399999957,20,134036.9843750000,113307.5468750000,128888.3437500000,139685.1250000000,109529.1171875000,127479.5625000000,133498.2343750000,125462.9218750000,,,
2.6439999957,20,134608.0781250000,114050.0625000000,129451.0156250000,140499.2812500000,110184.7343750000,128238.7343750000,134169.2343750000,125784.9218750000,,,
2.6479999959,20,136616.2500000000,116245.8828125000,131475.8125000000,142749.5781250000,112301.3984375000,130455.5546875000,136293.3281250000,127528.9453125000,,,
2.6519999958,20,137293.7500000000,116867.7812500000,132170.9843750000,143339.4687500000,112961.4375000000,131076.9218750000,136945.7187500000,128291.3125000000,,,
2.6559999958,20,135702.0937500000,115050.5312500000,130572.1796875000,141446.8281250000,111247.2656250000,129239.2578125000,135221.0937500000,127017.9062500000,,,
2.6599999957,20,134046.0937500000,113308.9687500000,128894.9921875000,139691.8281250000,109533.8125000000,127493.1406250000,133510.2656250000,125472.5781250000,,,
2.6639999957,20,134611.0156250000,114038.8828125000,129450.5625000000,140489.9218750000,110181.8359375000,128244.7968750000,134170.5312500000,125784.2500000000,,,
2.6679999956,20,136630.6250000000,116243.1484375000,131488.7187500000,142756.5781250000,112311.9921875000,130471.7578125000,136301.7343750000,127533.8515625000,,,
2.6719999958,20,137341.8281250000,116896.9609375000,132221.3125000000,143385.8437500000,113010.3828125000,131123.8593750000,136987.6250000000,128321.0781250000,,,
2.6759999958,20,135752.3906250000,115078.3437500000,130630.2187500000,141483.9375000000,111303.8593750000,129285.0156250000,135266.4687500000,127049.0468750000,,,
2.6799999957,20,134063.3906250000,113302.4765625000,128921.2812500000,139692.0468750000,109558.2734375000,127499.1953125000,133521.7031250000,125477.3515625000,,,
2.6839999957,20,134602.0937500000,114014.3671875000,129449.5390625000,140472.8281250000,110180.9531250000,128228.6250000000,134159.9843750000,125772.6875000000,,,
2.6879999957,21,136628.9062500000,116237.6171875000,131491.2656250000,142756.1093750000,112317.6250000000,130471.6250000000,136304.4062500000,127532.4296875000,,,
2.6919999956,21,137340.2031250000,116902.6171875000,132221.1250000000,143391.8593750000,113013.8203125000,131130.1875000000,136989.6406250000,128324.1640625000,,,
2.6959999956,21,135756.2187500000,115095.8828125000,130633.8984375000,141512.3750000000,111307.9062500000,129297.4843750000,135270.8125000000,127061.5937500000,,,
2.6999999955,21,134046.5312500000,113298.4531250000,128902.6406250000,139697.3437500000,109536.5000000000,127492.5703125000,133505.9218750000,125475.5000000000,,,
2.7039999955,21,134564.1875000000,113988.2109375000,129408.9843750000,140450.1875000000,110133.1562500000,128200.3515625000,134122.8906250000,125751.4687500000,,,
2.7079999954,21,136587.7031250000,116206.4765625000,131445.7812500000,142727.0156250000,112264.5156250000,130434.3125000000,136260.4218750000,127503.9453125000,,,
2.7119999956,21,137324.6093750000,116896.2656250000,132200.9531250000,143384.1562500000,112988.2578125000,131114.7343750000,136971.3906250000,128315.1015625000,,,
2.7159999956,21,135761.7968750000,115105.3515625000,130635.1875000000,141509.5000000000,111306.1093750000,129298.4765625000,135274.2187500000,127070.0156250000,,,
2.7199999955,21,134063.6406250000,113313.9843750000,128916.0781250000,139696.9687500000,109550.5234375000,127503.0078125000,133518.7187500000,125494.2734375000,,,
2.7239999955,21,134555.0781250000,113971.4453125000,129396.4062500000,140421.6562500000,110125.5625000000,128183.4296875000,134108.7500000000,125745.0625000000,,,
2.7279999955,21,136557.5625000000,116168.6093750000,131413.0781250000,142679.4843750000,112240.1875000000,130406.5234375000,136231.3125000000,127477.8750000000,,,
2.7319999957,21,137304.2343750000,116869.8750000000,132180.1562500000,143350.2187500000,112978.4921875000,131105.7031250000,136960.0468750000,128297.8281250000,,,
2.7359999956,21,135756.7500000000,115097.3906250000,130631.0546875000,141501.0000000000,111313.1093750000,129310.2812500000,135281.1406250000,127069.7734375000,,,
2.7399999956,21,134057.7031250000,113307.2265625000,128911.4921875000,139691.9843750000,109552.4531250000,127513.4375000000,133522.8281250000,125495.8828125000,,,
2.7439999955,21,134540.0468750000,113957.7734375000,129385.6250000000,140407.9687500000,110115.5546875000,128180.6953125000,134100.2968750000,125734.7890625000,,,
2.7479999955,21,136536.6875000000,116149.2656250000,131399.1093750000,142656.7656250000,112224.8515625000,130390.6171875000,136214.5781250000,127455.5859375000,,,
2.7519999954,21,137293.3437500000,116860.2421875000,132176.6562500000,143343.7812500000,112971.8125000000,131093.7656250000,136948.2500000000,128282.5078125000,,,
2.7559999956,21,135753.9375000000,115094.4609375000,130633.2812500000,141499.5000000000,111310.2656250000,129299.2031250000,135271.4687500000,127062.9140625000,,,
2.7599999956,21,134043.8437500000,113294.1875000000,128901.9140625000,139676.5312500000,109536.5000000000,127484.7421875000,133499.9687500000,125479.1484375000,,,
2.7639999955,21,134510.9531250000,113931.2187500000,129357.3828125000,140373.3750000000,110081.3906250000,128139.0937500000,134061.7656250000,125707.6718750000,,,
2.7679999955,21,136527.3750000000,116147.2031250000,131386.6250000000,142652.8750000000,112209.2656250000,130379.6796875000,136198.3750000000,127444.8828125000,,,
2.7719999955,21,137318.2812500000,116891.0625000000,132195.1875000000,143375.9687500000,112989.6562500000,131126.0000000000,136967.3437500000,128298.7656250000,,,
2.7759999956,21,135791.5781250000,115134.0781250000,130664.7187500000,141545.0781250000,111343.0156250000,129350.0859375000,135305.4218750000,127088.7421875000,,,
2.7799999956,21,134070.6718750000,113316.1015625000,128923.7734375000,139709.6093750000,109560.3125000000,127524.3281250000,133524.8906250000,125494.8125000000,,,
2.7839999956,21,134510.6875000000,113917.6718750000,129353.3046875000,140376.4062500000,110078.7578125000,128145.6093750000,134057.4687500000,125695.3359375000,,,
2.7879999955,21,136501.4687500000,116105.6796875000,131359.8593750000,142630.4531250000,112184.2890625000,130359.9062500000,136171.1250000000,127407.7343750000,,,
2.7919999955,21,137298.1406250000,116861.9609375000,132177.8593750000,143365.4375000000,112975.4140625000,131112.6718750000,136952.3281250000,128268.9687500000,,,
2.7959999954,21,135785.1875000000,115123.2734375000,130663.8281250000,141542.8125000000,111346.9062500000,129349.3906250000,135311.1875000000,127079.9453125000,,,
2.7999999956,21,134052.2343750000,113293.9218750000,128911.3046875000,139687.5625000000,109552.3515625000,127506.7343750000,133516.7968750000,125484.4843750000,,,
2.8039999956,21,134489.8906250000,113898.2812500000,129337.1562500000,140350.5156250000,110070.0703125000,128121.6015625000,134046.5312500000,125687.6875000000,,,
2.8079999955,21,136491.2187500000,116102.7578125000,131351.1718750000,142608.0000000000,112183.6250000000,130340.7343750000,136166.7656250000,127411.6250000000,,,
2.8119999955,21,137309.7812500000,116887.1171875000,132188.0000000000,143357.8125000000,112991.9843750000,131119.0625000000,136965.7031250000,128296.6718750000,,,
2.8159999955,22,135806.6406250000,115161.7031250000,130681.6406250000,141550.5468750000,111368.2343750000,129371.3281250000,135331.3593750000,127120.5546875000,,,
2.8199999954,22,134064.1406250000,113319.2421875000,128919.8046875000,139691.5000000000,109559.9687500000,127520.7343750000,133522.6562500000,125512.9921875000,,,
2.8239999954,22,134478.0156250000,113889.1015625000,129325.8359375000,140333.8437500000,110051.6718750000,128109.8593750000,134024.6093750000,125685.6250000000,,,
2.8279999953,22,136481.6562500000,116088.5156250000,131344.6875000000,142601.5468750000,112170.6953125000,130335.2890625000,136150.5000000000,127400.7343750000,,,
2.8319999953,22,137302.3281250000,116871.9062500000,132185.6093750000,143359.1250000000,112986.2187500000,131115.2656250000,136959.8593750000,128279.3203125000,,,
2.8359999952,22,135812.2031250000,115158.8125000000,130694.5390625000,141565.8593750000,111379.4453125000,129376.2109375000,135343.9375000000,127112.6406250000,,,
2.8399999954,22,134067.7968750000,113314.2578125000,128928.6562500000,139701.7187500000,109570.0234375000,127518.6484375000,133536.9843750000,125508.0625000000,,,
2.8439999954,22,134483.6406250000,113892.4062500000,129333.8828125000,140343.4687500000,110064.3046875000,128114.2031250000,134043.3125000000,125689.9687500000,,,
2.8479999953,22,136464.6250000000,116073.2812500000,131328.2968750000,142584.5000000000,112158.7031250000,130318.4687500000,136142.0000000000,127387.8046875000,,,
2.8519999953,22,137284.3593750000,116863.2968750000,132166.4375000000,143345.1250000000,112972.0078125000,131100.3906250000,136945.5312500000,128265.9609375000,,,
2.8559999953,22,135817.0468750000,115174.6640625000,130694.6250000000,141580.7968750000,111385.2890625000,129386.8046875000,135345.0625000000,127121.0312500000,,,
2.8599999954,22,134077.8281250000,113330.3750000000,128932.5703125000,139717.3125000000,109576.8125000000,127534.3125000000,133536.0156250000,125522.8671875000,,,
2.8639999954,22,134466.1093750000,113875.6953125000,129310.4921875000,140326.4062500000,110039.6796875000,128098.7031250000,134011.3125000000,125678.3828125000,,,
2.8679999954,22,136461.0468750000,116070.4375000000,131320.1875000000,142590.0000000000,112147.6250000000,130316.9140625000,136123.5468750000,127386.9218750000,,,
2.8719999953,22,137325.9062500000,116900.8203125000,132203.8437500000,143399.2031250000,113007.1406250000,131144.2187500000,136974.2968750000,128301.6328125000,,,
2.8759999953,22,135864.2031250000,115212.9375000000,130741.4531250000,141626.5000000000,111428.0156250000,129431.6484375000,135381.9687500000,127159.0390625000,,,
2.8799999952,22,134104.3593750000,113346.5468750000,128961.7812500000,139737.6406250000,109600.3046875000,127555.2578125000,133554.3437500000,125541.2109375000,,,
2.8839999954,22,134466.1875000000,113865.0468750000,129313.0937500000,140322.2031250000,110034.9062500000,128091.6718750000,134002.4375000000,125668.5078125000,,,
2.8879999954,22,136452.6250000000,116054.0468750000,131315.3906250000,142577.7968750000,112136.0156250000,130303.0156250000,136110.4843750000,127362.7265625000,,,
2.8919999953,22,137327.0625000000,116895.5156250000,132209.2656250000,143394.1250000000,113006.9296875000,131137.4531250000,136971.2656250000,128286.4843750000,,,
2.8959999953,22,135881.5625000000,115227.5546875000,130760.4140625000,141645.5468750000,111442.8203125000,129440.3671875000,135392.4062500000,127164.0312500000,,,
2.8999999953,22,134122.0625000000,113364.3281250000,128978.7578125000,139750.0781250000,109616.2343750000,127566.5234375000,133567.1562500000,125555.5859375000,,,
2.9039999954,22,134468.0312500000,113867.9921875000,129312.9062500000,140314.6093750000,110037.0000000000,128089.4218750000,134001.7343750000,125677.0156250000,,,
2.9079999954,22,136439.1562500000,116045.7343750000,131296.8593750000,142550.8125000000,112122.1484375000,130289.4218750000,136095.9218750000,127361.7656250000,,,
2.9119999954,22,137330.0937500000,116913.2421875000,132207.2500000000,143387.8593750000,113012.5625000000,131153.2500000000,136979.6250000000,128302.9531250000,,,
2.9159999953,22,135908.7343750000,115271.0859375000,130786.1406250000,141666.8750000000,111473.3984375000,129482.4765625000,135427.3281250000,127204.6953125000,,,
2.9199999953,22,134147.5156250000,113401.9609375000,129005.9843750000,139778.0000000000,109642.7109375000,127600.7734375000,133598.5468750000,125593.4921875000,,,
2.9239999952,22,134474.3125000000,113883.8750000000,129321.0859375000,140321.9531250000,110044.9375000000,128099.8281250000,134014.0781250000,125694.2578125000,,,
2.9279999954,22,136427.8906250000,116041.3906250000,131287.2031250000,142543.0156250000,112113.7500000000,130276.9453125000,136085.4062500000,127358.6484375000,,,
2.9319999954,22,137310.4062500000,116897.4140625000,132185.9375000000,143373.0000000000,112992.0390625000,131127.4843750000,136953.1562500000,128287.0156250000,,,
2.9359999953,22,135907.1406250000,115271.6484375000,130777.6875000000,141664.4843750000,111468.4140625000,129478.2656250000,135417.5312500000,127203.8906250000,,,
2.9399999953,22,134148.7656250000,113405.6640625000,128998.7421875000,139771.6250000000,109640.6171875000,127600.9375000000,133590.0625000000,125596.6250000000,,,
2.9439999952,23,134450.3281250000,113858.2343750000,129289.1953125000,140289.3437500000,110014.4375000000,128072.2265625000,133978.0468750000,125672.7734375000,,,
