Time:250Hz,Epoch,Channel 1,Channel 2,Channel 3,Channel 4,Channel 5,Channel 6,Channel 7,Channel 8,Event Id,Event Date,Event Duration
0,0,200069.375,194102.6406,199689.25,185243.6563,185999.7656,163488.0625,169741.1563,-16502.99023,0,0,0
0.004,0,200068.5938,194109.5313,199682.2813,185235.6094,185983.75,163466.3438,169729.5469,-16513.69336,,,
0.008,0,200083.8125,194126.5469,199694.8906,185251.5938,185989.8125,163455.4688,169733.4219,-16515.24805,,,
0.012,0,200093.4688,194121.0625,199711.3281,185264.0625,186008.5625,163464.25,169747.1406,-16510.09766,,,
0.016,0,200082.5781,194100.5156,199710.1719,185255.9375,186011.4375,163464.1094,169749.9531,-16513.31641,,,
0.02,0,200067.2813,194089.8438,199695.4844,185232.8906,185992.5469,163447.4844,169737.0781,-16524.04688,,,
0.024,0,200067.5,194101.75,199685.7344,185222.7813,185975.7656,163440.6094,169721.6875,-16525.65625,,,
0.028,0,200074.9844,194113.5313,199688.9063,185227.6406,185976.625,163441.4219,169718.4688,-16521.44336,,,
0.032,0,200080.2656,194111.8438,199697.9531,185234.5625,185989.6094,163453.5156,169725.25,-16513.77344,,,
0.036,0,200059.2656,194088,199684.7188,185212.625,185981.5,163445.2813,169715,-16522.70508,,,
0.04,0,200036.0156,194073.3594,199661.3125,185183.6719,185956.0781,163425.0938,169701.625,-16539.95117,,,
0.044,0,200021.4688,194074.5938,199638.125,185174.5938,185926.8438,163404.8438,169679.8438,-16558.2168,,,
0.048,0,200040.0625,194094.2969,199652.7813,185220.7813,185936.8906,163411.625,169688.875,-16551.48438,,,
0.052,0,200053.5469,194095.125,199667.6875,185268.4844,185952.9063,163416.0469,169698.4844,-16544.99414,,,
0.056,0,200031.0156,194063.0469,199654.4063,185187.8594,185944.0625,163407.7031,169693.1719,-16555.34766,,,
0.06,0,200014.6563,194056.2656,199639.8281,185165.5938,185926.9531,163396.5781,169685.0156,-16560.33594,,,
0.064,0,200017.2969,194071.875,199635.5625,185189.8438,185916.6719,163390.375,169676.3281,-16560.22852,,,
0.068,0,200035.7188,194087.2969,199653.9063,185198.8281,185931.6719,163403.6094,169689.25,-16550.11719,,,
0.072,0,200045.4844,194087,199670.125,185209.7188,185951.2188,163423.6719,169709.1875,-16540.75586,,,
0.076,0,200033.1094,194065.3125,199665.7656,185210.2656,185950.3594,163421.7344,169712.375,-16545.04688,,,
0.08,0,200029.5156,194066.3594,199662,185205.1563,185943.5156,163419.0313,169714.4375,-16542.71484,,,
0.084,0,200023.8594,194073,199648.1875,185203.1563,185922.3906,163400.2969,169689.6875,-16554.5957,,,
0.088,0,200037.9375,194089.2656,199656.2031,185222.3281,185925.2031,163405.2188,169684.1875,-16552.85352,,,
0.092,0,200072.25,194107.3125,199696.875,185261.3281,185966.2969,163436.9688,169729.5625,-16525.68164,,,
0.096,0,200064.1406,194091.3281,199700.3594,185261.625,185971.4219,163436.4375,169736.2969,-16529.00781,,,
0.1,0,200062.1094,194093.5469,199699.3125,185253.5781,185967.2031,163430.9063,169731.1719,-16524.60938,,,
0.104,0,200061.875,194105.0625,199687.2656,185232.2813,185948.625,163410.2813,169713.8281,-16531.04688,,,
0.108,0,200093.4688,194136.4375,199714.4375,185277.5781,185972.9688,163425.2188,169734.3125,-16511.6543,,,
0.112,0,200119.6094,194152.3906,199746.7813,185304.6719,186007.6875,163456.9219,169757.5156,-16487.29883,,,
0.116,0,200110.1406,194138.2656,199742.7344,185289.8125,186009.2969,163458.0469,169747.2656,-16489.31055,,,
0.12,0,200107.1406,194142.2344,199735.2344,185261.6719,186001.0625,163457.8125,169745.9844,-16486.36133,,,
0.124,0,200140.75,194180.9063,199760.7969,185285.1719,186019.5625,163490.9688,169781.125,-16461.2832,,,
0.128,1,200162.1563,194202.2656,199778.5781,185313.2813,186032.5469,163507.5625,169788.3594,-16472.0918,,,
0.132,1,200174.4375,194203.1719,199795.5781,185353.2188,186053.0938,163518.1875,169792.8594,-16486.38867,,,
0.136,1,200182.2188,194205.7656,199811.8906,185374.8438,186074.625,163533.8281,169817.4063,-16478.74414,,,
0.14,1,200193.8594,194221.4844,199825.4063,185387.3594,186085.1406,163543.0781,169842.375,-16466.10938,,,
0.144,1,200224.2969,194260.5938,199847.125,185421.1094,186100.1563,163555.625,169858.6094,-16447.14648,,,
0.148,1,200221.0625,194259.8438,199839.2188,185356.0625,186093.5156,163550.125,169852.875,-16457.5,,,
0.152,1,200223.2813,194250.8906,199845.875,185335.2813,186103.8594,163555.2344,169860.6719,-16456.72266,,,
0.156,1,200200.8281,194220.3594,199832.5938,185315.4531,186094.4219,163545.7813,169851.9531,-16469.75781,,,
0.16,1,200171.8906,194198.9063,199806.5156,185301.6719,186066.2344,163523.5313,169826.7188,-16488.23828,,,
0.164,1,200198.3906,194235.1094,199828.2969,185334.7969,186082.0313,163538.1719,169840.8438,-16465.22461,,,
0.168,1,200225,194267.2031,199847.375,185365.3438,186096.9219,163542.2656,169851.8281,-16454.06641,,,
0.172,1,200222.125,194259.4219,199846.0625,185374.5781,186097.7813,163553.8594,169853.9375,-16459.27148,,,
0.176,1,200195.4375,194228.7031,199829.0781,185363.5469,186083.4219,163553.4531,169844.5781,-16475.33789,,,
0.18,1,200168.6719,194209.75,199802.1719,185330.4219,186052.3438,163534.9844,169814.2188,-16497.81445,,,
0.184,1,200166.0156,194219.7969,199790.75,185312.7188,186034.2656,163522.4219,169787.6875,-16506.87891,,,
0.188,1,200185.5156,194238.6563,199807.25,185343.3438,186045.875,163524.2188,169788.5156,-16501.32813,,,
0.192,1,200194.9844,194235.0625,199822.4063,185361.2188,186063.4375,163531.1719,169806.4063,-16496.76758,,,
0.196,1,200185.4688,194214.5156,199820.8906,185357.6406,186065.4219,163526.2031,169814.6719,-16499.23633,,,
0.2,1,200182.8125,194215,199818.25,185349.5469,186058.3281,163514.3438,169808.875,-16497.97461,,,
0.204,1,200183.0469,194228.5938,199809.0938,185339.0938,186041.5,163503.1719,169789.5625,-16502.24023,,,
0.208,1,200180.0938,194234.3594,199800.4063,185345.2031,186031.125,163498.7344,169781.0156,-16511.78906,,,
0.212,1,200193.1406,194239.6719,199819.0156,185358.4844,186054.3438,163522.2656,169801.7969,-16496.90234,,,
0.216,1,200174.4375,194210.9688,199808.4531,185355.8438,186047.7813,163512.0781,169792.3281,-16504.81445,,,
0.22,1,200152.9844,194186.7031,199790.2188,185339.1719,186026.6406,163488.0313,169773.6094,-16518.6543,,,
0.224,1,200162.2656,194204.0625,199793.8125,185337.875,186025.1406,163488.2031,169780.75,-16512.67383,,,
0.228,1,200167.6563,194213.3125,199794.3125,185345.9219,186022.375,163477.5469,169777.9531,-16519.70117,,,
0.232,1,200156.25,194194.8906,199783.7969,185331.2344,186013.3438,163463.8125,169763.7031,-16535.07031,,,
0.236,1,200161.4531,194189.25,199796.5938,185360.2813,186028.25,163477.125,169777.2031,-16518.52148,,,
0.24,1,200153.5469,194189.4844,199788.2344,185337.7969,186017.9063,163472.9844,169773.5781,-16517.63477,,,
0.244,1,200127.9063,194179.9688,199754.8906,185253.1719,185980.5938,163441.5781,169745.6875,-16543.75977,,,
0.248,1,200142.875,194199.0469,199767.4688,185257.8438,185992.1719,163453.1094,169757.7344,-16531.7168,,,
0.252,1,200156.6094,194206.6875,199783.5938,185306.6563,186010.5313,163466.5313,169771.6563,-16519.11133,,,
0.256,2,200145.6875,194187.5938,199779.4063,185326,186008.1875,163458.875,169770.6094,-16522.14258,,,
0.26,2,200155,194203.0313,199788.625,185339.5938,186014.8125,163466.3594,169777.6563,-16504.4668,,,
0.264,2,200177.3125,194233.8281,199801.3438,185328.7031,186022.7031,163482.8594,169784.625,-16486.17383,,,
0.268,2,200171.4375,194223.3438,199794.2344,185310.6563,186013.9375,163468.8281,169780.75,-16505.0293,,,
0.271999999,2,200188.7656,194229.1094,199817.9688,185348.9531,186037.7969,163474.9688,169800.8906,-16492.44922,,,
0.275999999,2,200190.9844,194220.8125,199826.6719,185368.5156,186047.9063,163472.375,169807.25,-16482.57813,,,
0.28,2,200167.7344,194205.5625,199803.1719,185339.2813,186022.75,163448.375,169790.5,-16498.5918,,,
0.284,2,200165.5313,194213.6563,199792.125,185329.2969,186006.4531,163431.4688,169779.75,-16507.09375,,,
0.288,2,200176.2031,194227.2031,199794.9375,185328.5938,186006.5313,163425.0313,169781.7031,-16510.92969,,,
0.291999999,2,200172.4844,194215.8594,199794.75,185333.0313,186008.2656,163419.7813,169779.6719,-16518.14453,,,
0.295999999,2,200165.3281,194202.7188,199796.7813,185341.7188,186014.0156,163417.25,169782.2969,-16515.38281,,,
0.3,2,200165.4531,194209.9531,199797,185331.8125,186013.6094,163414.625,169785.7031,-16508.48828,,,
0.304,2,200170.0625,194221.625,199795.875,185339,186007.2813,163407.9219,169785.2969,-16509.24023,,,
0.308,2,200165.4531,194218.5469,199787.1094,185340.1563,185995.6094,163393.7656,169773.875,-16522.73242,,,
0.312,2,200186.5156,194226.3438,199816.0625,185382.4531,186025.3906,163413.0938,169801.4219,-16507.30859,,,
0.315999999,2,200191.9219,194223.1563,199830.3594,185390.7969,186042.3594,163435.8438,169819.3438,-16490.73242,,,
0.319999999,2,200173.7188,194211.9219,199810.5781,185381.0938,186020.7656,163419.1094,169800.4531,-16500.95313,,,
0.324,2,200168.7031,194219.75,199798.2031,185363.5,186002.1563,163401.7031,169784.5,-16507.81836,,,
0.328,2,200183.2031,194233.6875,199812.9375,185338.8125,186014.8906,163405.4531,169802.1719,-16500.92578,,,
0.332,2,200200.5625,194238.7031,199832.8906,185368.5156,186038.9531,163416.5625,169818.9375,-16487.89063,,,
0.335999999,2,200192.7344,194218.9375,199833.5781,185360.1719,186043.5156,163415.3281,169820.8125,-16488.07813,,,
0.339999999,2,200182.0781,194212.5,199822.875,185320.25,186031.3594,163412.7813,169808.375,-16488.64063,,,
0.344,2,200172.1406,194212.1875,199802.3438,185326.6094,186005.9063,163400.3281,169786.6094,-16501.08594,,,
0.348,2,200190.9688,194234.5469,199815.9844,185370.2813,186013.9844,163402.0469,169796.2188,-16494.4082,,,
0.352,2,200210.7344,194245.6094,199836.1875,185367.7656,186036.0625,163418.1406,169812.0938,-16480.43359,,,
0.355999999,2,200199.9531,194227.7969,199834.2344,185355.5625,186038.7344,163420.9063,169816.25,-16479.92383,,,
0.359999999,2,200198.3594,194232.4844,199836.6406,185360.9688,186039.1406,163422.5313,169814.9219,-16471.09961,,,
0.363999999,2,200201.6094,194250.4531,199832.5625,185348.0156,186029.1719,163418.5625,169789.4531,-16471.44727,,,
0.368,2,200197.2656,194249.7031,199822.7969,185347.4219,186017.3906,163404.1875,169768.2969,-16484.72461,,,
0.372,2,200203.0625,194244.5313,199835,185362.875,186030.7813,163404.2969,169773.0781,-16481.93555,,,
0.376,2,200198.7344,194228.3906,199840.6875,185362.2344,186040.1563,163409.2344,169779.375,-16475.71289,,,
0.379999999,2,200190.2656,194223.5781,199833.2656,185351.125,186030.7188,163406.5313,169774.0156,-16473.70117,,,
0.383999999,3,200181.7031,194225.375,199813.9844,185334.4531,186008.6406,163386.5938,169756.5156,-16484.9668,,,
0.387999999,3,200198.6094,194242.3594,199823.4688,185343.25,186016.0156,163392.4219,169761.5625,-16478.17969,,,
0.391999999,3,200216.4219,194246.625,199847.5,185376.8281,186040.7031,163406.6563,169786.0313,-16464.90234,,,
0.395999999,3,200215.2031,194236.8594,199857.4063,185393.75,186051.9688,163408.75,169803.4844,-16458.06445,,,
0.399999999,3,200209.4688,194236.8281,199849.0938,185380.9844,186043.2969,163409.1875,169794.125,-16451.57227,,,
0.403999999,3,200189,194233.125,199817.7813,185341.125,186009.1563,163386.4375,169758.9375,-16471.04492,,,
0.407999999,3,200177.6094,194228.2031,199801.1094,185323.75,185988.7969,163368.7656,169731.8438,-16491.61719,,,
0.411999999,3,200193.25,194231.8125,199821.5469,185356.25,186009.2344,163385.4688,169747.9063,-16480.94336,,,
0.415999999,3,200210.8594,194234.5469,199849.2813,185380.3125,186038.9219,163405.5625,169776.6875,-16458.19727,,,
0.419999999,3,200200.7188,194227.8438,199840.375,185367.5781,186028.9531,163401.3438,169769,-16459.0293,,,
0.423999999,3,200205.9219,194247.5938,199840.1875,185352.0156,186024.7656,163402.7656,169773.9063,-16452.64648,,,
0.427999999,3,200204.4219,194253.1094,199833.7656,185348.3906,186012.7031,163381.125,169758.8906,-16464.66211,,,
0.431999999,3,200229.0781,194262.9844,199862.5313,185383.2656,186043.3281,163411.4063,169786.7813,-16441.86328,,,
0.435999999,3,200217.5625,194239.375,199857.2969,185378.3281,186043.1719,163420.2031,169792.9531,-16442.9082,,,
0.439999999,3,200204.8281,194228.6563,199845.125,185359.5781,186028.25,163407.1094,169785.2813,-16448.2207,,,
0.443999999,3,200215.1563,194250.4531,199846.4375,185357.25,186022.0625,163412,169781.2813,-16441.21875,,,
0.447999999,3,200212.9063,194248.4531,199840.1094,185363.2188,186013.0781,163397.3594,169767.8438,-16456.18555,,,
0.451999999,3,200218.5156,194236.4531,199854.3438,185388.0313,186030.7969,163405.1875,169783,-16455.00586,,,
0.455999999,3,200206.1406,194213.6094,199849.5469,185387.9844,186030.5625,163405.75,169782.8125,-16457.71484,,,
0.459999999,3,200199.4063,194209.2813,199843.4063,185356.9688,186025.8594,163413.6875,169785.2813,-16454.46875,,,
0.463999999,3,200201.9063,194224.5,199838.1719,185344.2656,186015.0625,163411,169778.1094,-16454.68359,,,
0.467999999,3,200211.2969,194233.2344,199843.7969,185361.75,186015.2656,163405.9375,169775.8906,-16458.89453,,,
0.471999999,3,200221.4375,194235.9531,199855.3906,185381.0156,186028.1719,163418.25,169783.4531,-16452.4043,,,
0.475999999,3,200207.5156,194217.3594,199848.9844,185360,186025.3281,163413.5781,169782.2188,-16456.45508,,,
0.479999999,3,200190,194201.9063,199832.9375,185352.5,186007.3594,163401.6406,169763.4219,-16465.19922,,,
0.483999999,3,200172.9688,194195.5,199804.7813,185327.6094,185972.5781,163369.4375,169737.1563,-16486.97852,,,
0.487999999,3,200193.1094,194217.5469,199817.7031,185354.5156,185979.4688,163371.5781,169750.375,-16477.91211,,,
0.491999999,3,200221.5156,194238.625,199849.3594,185400.9688,186013.125,163403.4688,169781.7813,-16453.53125,,,
0.495999999,3,200195.9844,194211.25,199833.2969,185358.4219,186003.3906,163400.7344,169773.1563,-16466.40625,,,
0.499999999,3,200174.2031,194194.0313,199812.2031,185341.0156,185982.7969,163380.6406,169756.0469,-16481.1582,,,
0.503999999,3,200178.7656,194207.9219,199807.7344,185362.7656,185973.7969,163376.5313,169739.25,-16478.20703,,,
0.507999999,3,200203.5469,194227.0625,199832.8125,185354.5156,185994.6719,163391.4219,169757.4063,-16463.05273,,,
0.511999999,4,200205.1719,194219.75,199844.0156,185323.1875,186006.3906,163394.5625,169770.6094,-16463.1875,,,
0.515999999,4,200178.625,194184.7188,199828.1875,185291.6875,185994.8906,163381.6563,169765.2344,-16479.86914,,,
0.519999999,4,200155.7656,194167.7656,199803.8906,185278.9531,185968.9688,163366.9375,169740.7031,-16493.95117,,,
0.523999999,4,200156.1719,194179.2656,199793.5156,185291.3125,185951.8438,163355.6719,169725.8594,-16497.08984,,,
0.527999999,4,200161.7188,194187.2188,199791.6563,185290.5938,185945.8281,163349.6563,169722.1875,-16503.28516,,,
0.531999999,4,200182.1719,194198.7656,199815.5,185330.2344,185970.3438,163370.9531,169745.5313,-16487.32617,,,
0.535999999,4,200172.5625,194184.3125,199814.9219,185341.125,185973.1563,163380.3438,169748.75,-16485.77148,,,
0.539999999,4,200161.5625,194176.0781,199804.4844,185330.0156,185962.3281,163374.125,169749.5469,-16488.31836,,,
0.543999999,4,200152.1719,194174.3594,199783.9688,185294.5313,185935.4531,163355.9063,169725.1406,-16502.50781,,,
0.547999999,4,200164.75,194185.0938,199791.6094,185312.4531,185936.8906,163353.0156,169724.3906,-16502.56055,,,
0.551999999,4,200177.25,194185.3594,199806.6875,185349.0938,185952.3125,163358.4531,169732.7344,-16499.18164,,,
0.555999999,4,200170.2813,194163.5781,199813.125,185319.8281,185963.75,163357.0625,169743.9219,-16499.26172,,,
0.559999999,4,200164.0625,194157.9219,199808.7969,185324.1406,185960.6563,163351.2656,169741.875,-16494.4082,,,
0.563999999,4,200150.4063,194156.7656,199786.5938,185332.1875,185933.8125,163328.875,169713.9219,-16508.0332,,,
0.567999999,4,200148.2344,194162.5938,199780.0156,185348.9531,185923.3281,163318.5,169700.5938,-16517.68945,,,
0.571999999,4,200153.7344,194170.0938,199787.2031,185332.375,185935.2344,163333.7813,169711.0625,-16510.125,,,
0.575999999,4,200142.0156,194154.4844,199786.1875,185285.3125,185937.5938,163331.6719,169712.0469,-16511.86914,,,
0.579999999,4,200142.9844,194158.7813,199793.6719,185247,185944.75,163337.5938,169728.125,-16500.25391,,,
0.583999999,4,200132.8125,194156.6875,199776.7188,185237.8125,185921.3125,163322.1719,169709.5625,-16512.4043,,,
0.587999999,4,200145.8438,194170.7188,199780.4531,185272.6406,185920.375,163326.3594,169709.2344,-16509.21289,,,
0.591999999,4,200157.1719,194170.75,199794.3906,185305.1875,185936.5,163336.5938,169728.0938,-16503.6875,,,
0.595999999,4,200155.6094,194157.7031,199801.8281,185319.3125,185948.5625,163342.0156,169739.6719,-16499.82617,,,
0.599999999,4,200151,194153.9844,199799.0156,185308.6406,185947.8906,163353.25,169749.7656,-16491.75195,,,
0.603999999,4,200157.625,194171.2813,199793.8281,185310.5781,185935.9063,163355.3438,169742.875,-16485.44922,,,
0.607999999,4,200159.5781,194177.7656,199785.3281,185311.8125,185920.8281,163348.3281,169729.7031,-16494.00586,,,
0.611999999,4,200204.2188,194209.375,199833.2031,185374.4375,185969.0625,163390.5156,169781.3281,-16457.41992,,,
0.615999999,4,200199.6563,194200.2188,199830.7969,185386.9063,185969.4844,163397.8906,169774.5781,-16453.10156,,,
0.619999999,4,200207.6406,194214.9219,199838.7656,185388.1719,185975.9844,163409.3906,169776.0781,-16431.53711,,,
0.623999999,4,200215.2656,194230.5781,199842.3281,185367.4688,185973.4844,163402.9531,169772.1563,-16426.52148,,,
0.627999999,4,200207.5313,194220.9531,199830.875,185361.5938,185958.4844,163377.5313,169756.25,-16448.13867,,,
0.631999999,4,200209.8438,194210.4375,199840.5313,185348.7344,185970.6719,163379.9375,169767.2813,-16451.08984,,,
0.635999999,4,200208.4531,194203.1406,199851,185346.6563,185985.8438,163390.75,169785.1094,-16444.67969,,,
0.639999999,5,200193.7813,194196.5156,199835.4375,185337.5,185971.3906,163378.3125,169772.4844,-16450.15039,,,
0.643999999,5,200179.8906,194194.2969,199812.5625,185332.1719,185943.3125,163355.4063,169746.5938,-16467.47852,,,
0.647999999,5,200175.5938,194192.2813,199803,185337.4531,185929.1406,163342.1563,169731.7188,-16484.24219,,,
0.651999999,5,200188.0625,194194.4531,199821.1094,185340.9063,185949.6406,163353.3906,169753.5781,-16475.4707,,,
0.655999999,5,200179.6406,194180.8594,199824.1406,185341.1563,185955.7188,163360.9063,169762.5625,-16473.70117,,,
0.659999999,5,200191.0625,194198.75,199837.6563,185347.4844,185968.3281,163382.6563,169778.9531,-16449.74805,,,
0.663999999,5,200176.0781,194200.0938,199810.4063,185304.8906,185937.2656,163364.9531,169756.0625,-16462.83789,,,
0.667999999,5,200178.6563,194204.4063,199807.8906,185307.4688,185930.2656,163358,169749.7344,-16467.45117,,,
0.671999999,5,200207.9063,194217.25,199841.8438,185375.4844,185963.5781,163377.2656,169778.8906,-16446.77148,,,
0.675999999,5,200203.4688,194203.9688,199846.2656,185368.3438,185972.5938,163377.7656,169789.9688,-16446.87891,,,
0.679999999,5,200180.375,194188.2344,199824.8906,185318.4844,185952.2656,163372.9375,169772.4219,-16454.28125,,,
0.683999999,5,200177.4688,194196.875,199816.7344,185318.4844,185941.2969,163373.125,169765.9688,-16453.31641,,,
0.687999999,5,200201.9375,194221.7031,199835.1875,185345.5781,185958.0938,163380.6406,169780.9375,-16439.39453,,,
0.691999999,5,200215.6094,194228.8125,199849.2813,185356.2813,185976.8906,163395.7969,169799.4844,-16428.18359,,,
0.695999999,5,200196.5469,194201.4219,199837.7656,185334.7344,185969.5938,163394.2656,169791.7969,-16438,,,
0.699999999,5,200186.8281,194190.8906,199831.5781,185322.6719,185963.5781,163392.3125,169790.0469,-16438.45703,,,
0.703999999,5,200191.4219,194203.8438,199827.3125,185315.6406,185954.0938,163384.2656,169787.7656,-16436.0957,,,
0.707999999,5,200218.8281,194231.0938,199846.2656,185347.125,185967.3906,163398.9375,169794.4688,-16418.15234,,,
0.711999999,5,200244.5781,194244.5625,199876.1719,185376.5781,185996.0938,163420.9531,169818.4219,-16400.66406,,,
0.715999999,5,200236.5625,194225.6406,199877.6563,185377.3281,185998.9063,163421.3125,169823.5,-16404.58008,,,
0.719999999,5,200232.8281,194222.4063,199878.2188,185373.4219,185997.2813,163415.25,169825.8594,-16406.32422,,,
0.723999999,5,200233,194231.2031,199869.5469,185373.5781,185982.5,163405.1094,169811.4531,-16410.85742,,,
0.727999999,5,200254.7656,194254.7813,199881.3594,185399.1094,185988.7188,163418.0625,169811.2656,-16400.07422,,,
0.731999999,5,200264.9063,194257,199891.8906,185409.8906,186001.4063,163431.3906,169826.875,-16395.46094,,,
0.735999999,5,200252.9219,194236.1406,199888.25,185394.8281,186002.2344,163429.5938,169833.7188,-16401.95117,,,
0.739999999,5,200238.9531,194227.875,199873.3594,185385.2813,185987.3281,163417.5156,169824.5938,-16406.56445,,,
0.743999999,5,200233.9844,194240.1094,199857.0781,185392.0938,185970.2656,163411.4844,169811.8594,-16407.66406,,,
0.747999999,5,200247.2813,194259.6563,199863.9688,185401.7188,185976.9688,163421.6563,169818.3281,-16398.78711,,,
0.751999999,5,200258.9531,194261.9844,199879.3906,185406.5156,185996.0938,163428.1719,169836.0469,-16391.00781,,,
0.755999999,5,200244.6563,194244.0156,199874.4688,185375.5625,186001.375,163438.0938,169846.7031,-16388.75586,,,
0.759999999,5,200216.6875,194225.25,199846.4063,185347.125,185979.7813,163432.5938,169831.5469,-16398.54492,,,
0.763999999,5,200206.2031,194224.3125,199827.3125,185345.9219,185958.2188,163420.5313,169816.875,-16407.90625,,,
0.767999999,6,200227.0313,194247.7031,199840.3125,185380.1563,185967.9375,163436.7031,169824.9531,-16394.97852,,,
0.771999999,6,200233.75,194248.3594,199849.4844,185414.375,185978.0156,163436.2656,169828.0625,-16393.28906,,,
0.775999999,6,200241.3125,194247.0781,199866.7344,185422.6563,185999.5313,163453.2188,169852.625,-16377.67773,,,
0.779999999,6,200231.3281,194241.4688,199858.7656,185376.3906,185993.8594,163461.25,169852.6563,-16374.40527,,,
0.783999999,6,200218,194237.4531,199842.4063,185344.0156,185972.0313,163443.7344,169836.1094,-16388.78125,,,
0.787999999,6,200226.0938,194245.1406,199850.2188,185363.5469,185974.375,163444.2188,169840.7188,-16389.56055,,,
0.791999999,6,200255.7969,194263.3594,199885.7813,185399.5156,186009.1875,163473.5469,169863.1406,-16365.66113,,,
0.795999999,6,200245.5469,194243.2656,199885.9219,185399.375,186011.4688,163468.8125,169861.2031,-16370.48926,,,
0.799999999,6,200232.5938,194231.0156,199875.7031,185389.4531,185998.7188,163455.2031,169844.8438,-16376.60449,,,
0.803999999,6,200252.3281,194253.7344,199890.3438,185403.375,186008.1094,163461.9063,169854.8594,-16360.99414,,,
0.807999999,6,200273.6563,194276.125,199905.5156,185421.5156,186020.2344,163467.8906,169863.7031,-16352.84082,,,
0.811999999,6,200280.2031,194276.1875,199913.7031,185413.0156,186030.6406,163471.5625,169871.9063,-16354.12793,,,
0.815999999,6,200250.0313,194239.1094,199887.3594,185382.25,186007.9219,163453.625,169846.9375,-16379.52832,,,
0.819999999,6,200223.5313,194214.2969,199862.5,185359.0469,185981.9531,163435.8906,169825.4844,-16395.11133,,,
0.823999999,6,200230.2344,194227.9844,199865.125,185353.7656,185978.7969,163428.5781,169833.4688,-16392.24219,,,
0.827999999,6,200243.7969,194247.6094,199874.1094,185388.0625,185983.8125,163431.7188,169838.3281,-16384.94727,,,
0.831999999,6,200245.8125,194248.0156,199877.3281,185407.3438,185992.1563,163447.0313,169847.3125,-16381.72754,,,
0.835999999,6,200234.9219,194232.8125,199875.6094,185379.6719,185998.6406,163460.7031,169855.5781,-16378.42871,,,
0.839999999,6,200224.6563,194224.8906,199865.6563,185364.8281,185992.3438,163460.625,169850.4844,-16374.67383,,,
0.843999999,6,200234.2188,194247.1094,199865.0469,185377.625,185989.0938,163461.25,169848.6875,-16364.53516,,,
0.847999999,6,200251.7344,194267.7344,199875.2969,185399.375,185996.7656,163467.8906,169860.6406,-16355.87109,,,
0.851999999,6,200256.8125,194265.4063,199881.625,185407.9688,186006.0781,163475.3281,169869.2344,-16354.4502,,,
0.855999999,6,200236.6094,194238.3594,199869.2656,185389.375,185998.5625,163477.9844,169855.4375,-16361.66504,,,
0.859999999,6,200226.4688,194228.5938,199860.8438,185384.7969,185991.0781,163474.9219,169847.7188,-16358.41992,,,
0.863999999,6,200220.4688,194236.4375,199845.4688,185371.8125,185973.4531,163466.6094,169842.6719,-16362.89844,,,
0.867999999,6,200231.5156,194254.0781,199849.25,185386.2969,185975.7813,163480.7656,169850.4844,-16358.5,,,
0.871999999,6,200232.5156,194251.2969,199852.3125,185407.0781,185979.6719,163487.7969,169846.4375,-16361.10156,,,
0.875999999,6,200231.4375,194238.125,199859.3281,185429.9375,185990.5156,163491.3594,169857.75,-16356.24707,,,
0.879999999,6,200232.9375,194236.4531,199864.25,185415.375,185996.1719,163502.7969,169868.3125,-16345.4375,,,
0.883999999,6,200210.8125,194222.9063,199836.0313,185362.7969,185963.4219,163478.25,169837.5469,-16369.01465,,,
0.887999999,6,200222.2031,194236.7813,199838.0313,185375.4063,185960.875,163467.4688,169827.9531,-16370.24805,,,
0.891999999,6,200246.4375,194251.2031,199860.0781,185418.7188,185983.8281,163473.3594,169839,-16356.9707,,,
0.895999999,7,200252.3281,194248.2344,199872.125,185429.75,186002.9844,163488.6563,169860.9219,-16344.92773,,,
0.899999999,7,200250.1563,194254.4063,199870.2813,185415.2813,186003.0156,163501.5625,169864.5938,-16334.89648,,,
0.903999999,7,200227.6875,194243.625,199843,185363.7656,185968.3906,163470.7656,169827.0313,-16358.04395,,,
0.907999998,7,200228.7031,194245.5156,199836.0313,185350.2969,185955.9375,163455.3906,169810.4844,-16367.67285,,,
0.911999998,7,200245.7031,194252.5469,199857.625,185382.9688,185977.1094,163463.9219,169829.7969,-16358.07129,,,
0.915999998,7,200222.5625,194220.9063,199843,185382.4531,185966.1563,163452.5781,169817.1406,-16372.76953,,,
0.919999999,7,200210.9219,194208.5625,199836.6406,185384.2813,185959.4063,163449.625,169816.7656,-16372.95703,,,
0.923999999,7,200228.0781,194229.5313,199851.6406,185379.6406,185968.25,163451.4063,169829.9688,-16358.04395,,,
0.927999998,7,200243.5625,194248.6563,199865.3438,185357.2656,185979.4688,163453.25,169837.6563,-16352.00879,,,
0.931999998,7,200253.4531,194250.4531,199879.2969,185380.3438,185997.5156,163462.6094,169848.2813,-16347.58301,,,
0.935999998,7,200243.125,194230,199880.9063,185394.4219,186005.2969,163466.125,169849.2656,-16348.89746,,,
0.939999999,7,200244.9844,194234.3594,199893.2969,185391.6563,186019.7031,163473.6563,169870.1875,-16333.2334,,,
0.943999999,7,200241.8906,194239.25,199887.6875,185378.9688,186009.9531,163462.9531,169865.125,-16335.05762,,,
0.947999999,7,200239.0313,194239.1094,199876.2344,185365.3438,185996.0469,163455.9375,169849.8438,-16344.98145,,,
0.951999998,7,200252.7031,194245.5156,199892.2188,185389.6406,186014.2031,163469.5781,169869.4219,-16333.79688,,,
0.955999998,7,200262.4688,194244.2656,199909.0313,185403.0625,186034.1875,163493.4063,169889.9688,-16315.18262,,,
0.959999998,7,200251.6094,194228.1406,199902.5938,185376.8594,186027.375,163491.1563,169891.3281,-16317.0332,,,
0.963999999,7,200261.4531,194245.875,199905.1406,185392.8906,186024.7344,163501.9375,169894.9844,-16308.69141,,,
0.967999999,7,200267.1406,194254.8281,199898.6563,185395.5,186011.9219,163502.3594,169879.8281,-16314.45801,,,
0.971999998,7,200276.3906,194254.8906,199902.2031,185403.6406,186015,163503.4063,169878.7031,-16316.65723,,,
0.975999998,7,200260.2969,194230.1563,199889.0781,185393.75,186003.9063,163492.8594,169866.7656,-16329.34473,,,
0.979999998,7,200262.9063,194231.0938,199897.1875,185396.4844,186010.2813,163497.3438,169877.5156,-16318.29395,,,
0.983999999,7,200272.7969,194252.3125,199899.4531,185403,186008.8594,163494.9531,169874.5156,-16310.5957,,,
0.987999999,7,200278.7813,194266.0469,199899.375,185398.9844,186005.2188,163491.3594,169865.0156,-16314.05566,,,
0.991999999,7,200281.1875,194260.7344,199906.0781,185419.0938,186017.0625,163494.6563,169880.5469,-16315.39648,,,
0.995999998,7,200276.9844,194250.25,199911.9375,185432.5625,186031.0938,163504.1875,169899.0781,-16307.61816,,,
0.999999998,7,200267.7344,194244.7969,199907.9688,185419.4688,186028.625,163503.1406,169903.3125,-16305.0166,,,
1.003999998,7,200258.5313,194247.5625,199892.2656,185409.6875,186008.8281,163492.625,169886.8281,-16312.76855,,,
1.007999999,7,200274.4531,194261.9844,199902.625,185423.3281,186015.375,163502.4219,169890.0156,-16304.23926,,,
1.011999999,7,200305.2031,194278.5625,199936.8281,185430.4219,186052.0781,163533.5781,169922.5,-16278.24805,,,
1.015999998,7,200290.3125,194254.2969,199930.9688,185411.2031,186052.4531,163525.8281,169922.6875,-16283.85449,,,
1.019999998,7,200254.125,194222.6406,199897.1875,185381.3906,186022.1875,163496.2188,169893.9844,-16305.52637,,,
1.023999998,8,200256.0625,194236.9688,199893.2969,185375.5625,186015.7344,163490.9844,169881.2188,-16299.94727,,,
1.027999998,8,200286.75,194267.1719,199920.375,185401.0469,186040.7031,163510.5469,169904.9844,-16277.49707,,,
1.031999998,8,200304.0781,194270.625,199941.4375,185425.7969,186062.5,163526.2031,169922.125,-16269.69238,,,
1.035999998,8,200297.0156,194252.2344,199943.375,185417.8594,186067.1406,163526.9063,169922.5313,-16273.66211,,,
1.039999998,8,200296.7813,194247.8281,199949.5313,185404.9063,186074.3594,163533.125,169936.7344,-16267.43945,,,
1.043999998,8,200298.5469,194256.1406,199939.0156,185410.9219,186062.2031,163527.8438,169927.5625,-16266.58105,,,
1.047999998,8,200302.0938,194265.4844,199933.875,185434.1406,186053.2188,163514.5313,169916.75,-16273.95703,,,
1.051999998,8,200303.5938,194261.9844,199938.75,185415.5781,186058.5938,163516.7344,169922.2813,-16277.76563,,,
1.055999998,8,200280.2813,194233.9688,199916.8906,185383.6875,186042.1406,163517.1094,169905.8125,-16288.78906,,,
1.059999998,8,200267.9375,194226.7813,199900.7969,185380.875,186028.0625,163518.2656,169893.8594,-16286.53613,,,
1.063999998,8,200274.7344,194246.0938,199899.3594,185385.8438,186021.7656,163519.6563,169889.3438,-16277.36328,,,
1.067999998,8,200293.4219,194272,199912.0625,185406.5156,186028.6875,163523.9063,169893.9375,-16268.2168,,,
1.071999998,8,200292.0625,194265.9375,199913.9688,185407.8281,186030.1094,163522.0781,169893.9063,-16279.53613,,,
1.075999998,8,200284.2031,194245.3125,199912.625,185410.0781,186035.5156,163530.4375,169896.8281,-16279.72363,,,
1.079999998,8,200270,194234.4688,199900.0156,185399.1094,186027.3906,163524.75,169888.0625,-16283.39844,,,
1.083999998,8,200257.7188,194235.5938,199887.25,185380.5781,186011.4844,163509.5781,169875.3438,-16293.18848,,,
1.087999998,8,200257.4844,194237.9375,199885.2969,185388.6563,186006.2344,163497.9375,169866.25,-16301.1543,,,
1.091999998,8,200269.9063,194241.1563,199901.2031,185403.2656,186023.7969,163508,169882,-16296.80957,,,
1.095999998,8,200258.5781,194217.4063,199897.2813,185405.2813,186026.5156,163509.875,169886.4219,-16301.61035,,,
1.099999998,8,200258.4688,194215.4063,199903.5625,185402.125,186035.7344,163524.3281,169900.1875,-16286.88477,,,
1.103999998,8,200251.4219,194219.8281,199893.3906,185382.9063,186022.4375,163514.2969,169888.75,-16289.75488,,,
1.107999998,8,200259.4688,194233.4844,199892.5938,185390.2656,186020.5625,163513.4375,169888.2969,-16288.30664,,,
1.111999998,8,200279.3438,194244.2969,199914.9375,185403.9219,186045.8438,163540.6563,169916.5625,-16271.14063,,,
1.115999998,8,200274.7031,194226.5313,199919.0625,185380.2656,186056.0469,163555.8438,169927.9219,-16268.43164,,,
1.119999998,8,200249.8438,194201,199897.4219,185366.7344,186035.7344,163541.2188,169910.0781,-16282.37891,,,
1.123999998,8,200242.1094,194206.4219,199883.2344,185382.0313,186017.9844,163523.875,169892.1875,-16288.44043,,,
1.127999998,8,200254.3125,194225.9219,199884.625,185393.6719,186017.3125,163524.2188,169889.375,-16286.32129,,,
1.131999998,8,200255.9063,194212.6406,199890.5,185387.7969,186026.2656,163524.25,169897.0156,-16294.12695,,,
1.135999998,8,200262.7656,194201.5938,199905.1406,185398.8125,186046.3906,163535.6719,169916.5938,-16285.27539,,,
1.139999998,8,200257.3125,194198.2031,199901.125,185372.3438,186042.25,163537.5469,169916.4688,-16283.15723,,,
1.143999998,8,200263.7813,194217.9219,199902.4063,185385.2188,186035.9219,163538.4688,169910.7969,-16276.85352,,,
1.147999998,8,200280.25,194241.0156,199911.5,185401.6563,186039.5938,163544.0625,169913.4375,-16266.82227,,,
1.151999998,9,200280.125,194235.4688,199912.4688,185368.6719,186040.625,163542.9219,169922.0625,-16269.66504,,,
1.155999998,9,200273.7656,194224.8125,199913.5625,185383.0156,186043.7031,163548.6875,169923.8906,-16266.17871,,,
1.159999998,9,200263.3594,194219.4844,199906.3594,185407.5625,186036.8125,163545.8438,169917.2969,-16264.35449,,,
1.163999998,9,200260.3438,194225.1094,199901.4688,185380.7344,186028.8438,163537.5,169909.6563,-16263.01367,,,
1.167999998,9,200270.1406,194244.5,199903.8281,185368.2656,186032.5938,163547.9063,169910.9688,-16255.6377,,,
1.171999998,9,200283.6094,194248.6406,199918.8281,185401.875,186052.5,163563.625,169927.0625,-16247.53711,,,
1.175999998,9,200267.375,194221.4844,199910.3281,185388.1406,186052.9063,163566.1719,169928.1094,-16254.02832,,,
1.179999998,9,200257.125,194211.1094,199906.625,185373.7656,186051.3438,163569.7188,169935.2969,-16251.96289,,,
1.183999998,9,200255.0938,194219.4844,199900.75,185376.375,186038.9531,163568.1094,169923.8438,-16253.4375,,,
1.187999998,9,200260.2656,194228.3906,199899.8125,185384.0938,186033.5625,163566.9531,169916.1094,-16256.70996,,,
1.191999998,9,200270.3594,194231.6094,199908.4219,185404.75,186043.8594,163579.7969,169920.0625,-16252.12402,,,
1.195999998,9,200258.3125,194208.9375,199903.2969,185401.2344,186043.2656,163573.8125,169921.4844,-16258.58789,,,
1.199999998,9,200247.6719,194194.9375,199896.4219,185387.8438,186037.6875,163569.9844,169919.6563,-16260.65332,,,
1.203999998,9,200245.4063,194204.375,199885.5625,185356.7656,186024.6563,163566.0625,169912.2031,-16261.94043,,,
1.207999998,9,200252.2188,194215.4063,199885.5938,185364.0313,186022.3281,163561.8594,169911.1563,-16265.05176,,,
1.211999998,9,200270.8906,194224.1406,199907.7188,185394.3906,186047.5625,163575.1563,169924.9688,-16252.92871,,,
1.215999998,9,200267.7344,194213.0938,199914.2969,185381.2813,186060.125,163577.1719,169934.2188,-16249.36133,,,
1.219999998,9,200241.8438,194193.5625,199893.9688,185353.1094,186044.6875,163577.4844,169937.2969,-16260.25098,,,
1.223999998,9,200233,194198.2656,199879.7656,185353.6563,186026.4219,163561.7969,169925.6563,-16269.53125,,,
1.227999998,9,200242.9375,194210.6875,199883.0469,185363.4688,186024.5,163560.4844,169921.8281,-16269.61133,,,
1.231999998,9,200261.2031,194220.2344,199903.8906,185371.4844,186047.4531,163588.75,169943.3125,-16255.04688,,,
1.235999998,9,200265.7656,194214.7656,199916.0313,185370.9219,186063.7969,163602.625,169956,-16243.91602,,,
1.239999998,9,200273.5781,194219.4531,199927.7031,185385.8125,186075.8125,163612.2031,169967.9844,-16224.73828,,,
1.243999998,9,200267.2656,194227.0156,199908.7656,185383.0156,186053.1719,163606.9375,169943.4219,-16226.21387,,,
1.247999998,9,200282.5625,194255.6875,199915.5313,185392.1094,186055.4844,163627.1875,169946.7188,-16212.50781,,,
1.251999998,9,200303.5938,194266.9063,199937.3594,185419.2813,186077.125,163634.5469,169962.9219,-16202.12695,,,
1.255999998,9,200310.5938,194259.9531,199953.6875,185424.2656,186099.2188,163645.1563,169982.0469,-16189.92285,,,
1.259999998,9,200288.1719,194240.375,199935.5313,185385.75,186085.6719,163641.5469,169974.375,-16197.6748,,,
1.263999998,9,200287.625,194253.0625,199927.1094,185376.6875,186075.9688,163644.1406,169969.1406,-16195.60938,,,
1.267999998,9,200280.8125,194253.1094,199911.9531,185373.2813,186058.5938,163625.125,169949.5625,-16211.64941,,,
1.271999998,9,200309.2188,194271.0313,199943.125,185420.2188,186093.25,163652.7031,169982.5469,-16189.19922,,,
1.275999998,9,200313.375,194264.4375,199957.7969,185427.1719,186114.0313,163668.4219,170006.0156,-16181.50098,,,
1.279999998,10,200287.5781,194239.2969,199933.6094,185390.7656,186092.6563,163659,169983.1719,-16196.28027,,,
1.283999998,10,200272.7656,194240.9375,199908.6875,185381.2969,186064.0313,163637.5938,169951.2969,-16206.63379,,,
1.287999998,10,200268.4844,194244.5313,199895.9219,185368.6406,186046.2031,163612.2031,169930.5469,-16217.81836,,,
1.291999998,10,200295.5469,194258.1563,199924.8906,185384.3281,186076.0156,163640.625,169966.8125,-16195.63672,,,
1.295999998,10,200290.9531,194245.0156,199923.5938,185376.6406,186082.5156,163655.5625,169979.1719,-16190.99609,,,
1.299999998,10,200260.1563,194220.1563,199894.7188,185351.0156,186058.0313,163640.3594,169954.6875,-16206.76758,,,
1.303999998,10,200259.8438,194230.6563,199889.7031,185352.9219,186049.6875,163626.7344,169947.5781,-16206.63379,,,
1.307999998,10,200273.0938,194247.2188,199901.125,185363.0156,186057.1719,163626.0313,169955.5156,-16204.35352,,,
1.311999998,10,200277.5469,194244.9063,199909.7813,185379.8281,186066.7656,163626.6563,169962.25,-16207.30371,,,
1.315999998,10,200283.25,194237.0938,199925.2344,185392.8125,186087.5625,163639.5781,169983.2969,-16198.58691,,,
1.319999998,10,200265.5,194220.2344,199909.1406,185380.6406,186074.3281,163629.875,169967.6406,-16207.51855,,,
1.323999998,10,200257.6406,194219.75,199896.8906,185355.3594,186056.8125,163615.125,169952.375,-16214.78711,,,
1.327999998,10,200265.5,194232.6719,199900.4219,185354.5156,186054.2969,163608.7656,169950.9844,-16215.08203,,,
1.331999998,10,200277.4688,194239.3594,199914.4063,185374.0938,186068.2656,163614.6875,169957.3594,-16208.51074,,,
1.335999998,10,200279.5313,194230.9063,199922.9844,185380.8438,186080.8438,163620.75,169967.1094,-16199.52539,,,
1.339999998,10,200268.3438,194213.1719,199913.625,185372.1563,186074.25,163613.5313,169963.3281,-16200.00781,,,
1.343999998,10,200266.3594,194222.7031,199903.2344,185376.0156,186060.2813,163606.4375,169949.375,-16198.74805,,,
1.347999998,10,200263.625,194227.0625,199894.5781,185372.9688,186048.7969,163597.9063,169939.9063,-16206.60645,,,
1.351999998,10,200272.875,194230.6563,199905.9844,185382.2969,186063.4375,163613.1406,169955.1406,-16200.03516,,,
1.355999998,10,200271.0469,194224.1406,199912.4375,185384.7656,186076.6875,163621.75,169965.5938,-16195.58301,,,
1.359999998,10,200246.3281,194200.0313,199892.9219,185356.875,186059.9375,163608.7969,169954.6094,-16211.19336,,,
1.363999998,10,200236.9375,194197.8125,199878.9219,185336.0313,186041.2031,163589.9063,169935.8594,-16224.04102,,,
1.367999998,10,200250.8906,194212.5,199887.4688,185354.4219,186045.7344,163589.8281,169939.0469,-16222.05566,,,
1.371999998,10,200270.8125,194222.2656,199906.5625,185391.7344,186067.0313,163606.5156,169958.9688,-16210.57617,,,
1.375999998,10,200257.7188,194197.4844,199901.9219,185367.6563,186065.7813,163602.5469,169959.0625,-16216.07422,,,
1.379999998,10,200235.375,194181.8281,199882.0781,185332.0313,186048.375,163597.7656,169944.3906,-16219.48145,,,
1.383999998,10,200237.0156,194198.7969,199875.9688,185340.9688,186036.6406,163596.4844,169930.4063,-16214.81445,,,
1.387999998,10,200262.7969,194229.3438,199896.7813,185375.2969,186052.6875,163612.0625,169941.25,-16196.06543,,,
1.391999998,10,200281.7344,194244.0469,199915.2656,185402.875,186074.625,163631.5156,169961.5781,-16181.55469,,,
1.395999998,10,200276.1563,194229.7813,199914.6875,185393.7188,186078.4375,163635.8594,169966.3594,-16180.50879,,,
1.399999998,10,200267.5156,194225.25,199910.3281,185369.2813,186075.5469,163645.375,169971.5,-16173.80273,,,
1.403999998,10,200256.8125,194230.2813,199893.3906,185364.9688,186052.9063,163635.125,169953.9531,-16181.87695,,,
1.407999998,11,200269.6094,194246.5156,199900.5,185380.3125,186053.8906,163635.5938,169959.0313,-16178.6582,,,
1.411999998,11,200287.3125,194250.8594,199920.6563,185398.6094,186073.6875,163644.8906,169973.0625,-16171.89844,,,
1.415999998,11,200292.9375,194239.3594,199933.5469,185414.0781,186092.2969,163653.9063,169984.7031,-16163.98633,,,
1.419999998,11,200282.2344,194226.375,199923.7344,185406.4063,186086.5313,163648.1719,169977.8906,-16165.64941,,,
1.423999998,11,200274.1875,194231.2813,199911.0156,185377.7656,186072.0469,163636.7969,169965.7656,-16169.48438,,,
1.427999998,11,200294.2031,194257.6406,199926.0156,185408.4219,186083.5938,163645.1875,169970.8906,-16154.19629,,,
1.431999998,11,200321.9063,194275.8906,199954.8438,185451.1563,186116.4219,163662.2813,169995.6875,-16135.4209,,,
1.435999998,11,200315.1563,194257.9688,199956.5625,185450.2969,186126.6406,163667.9844,170003.1719,-16133.86523,,,
1.439999998,11,200296.0313,194240.7813,199943.7656,185409.875,186117.5781,163666.8281,170001.5625,-16139.55078,,,
1.443999998,11,200274.7813,194231.4688,199917,185368.2344,186086.7031,163645.7813,169977.4531,-16160.25781,,,
1.447999998,11,200269.1719,194233.5625,199901.7969,185346.25,186068.1719,163638.625,169959.1563,-16170.93359,,,
1.451999998,11,200290.5781,194245.8438,199923.6563,185378.8125,186091.7656,163657.9219,169979.1719,-16153.04297,,,
1.455999998,11,200289.2344,194233.8281,199929.1563,185409.6563,186101.7188,163665.6875,169988.125,-16147.94629,,,
1.459999998,11,200266.0313,194210.3906,199908.2031,185370.6563,186081.3906,163653.2969,169966.9219,-16160.2041,,,
1.463999998,11,200265.125,194217.3906,199901.2031,185331.6563,186070.125,163646.8594,169954.25,-16162.16211,,,
1.467999998,11,200270.0313,194222.7188,199903.4219,185342.7656,186071.1875,163640.4219,169973.0313,-16171.20117,,,
1.471999998,11,200283.2031,194225.0625,199921.9844,185368.4844,186093.2188,163652.1875,170007.1719,-16168.81445,,,
1.475999998,11,200293.6094,194222.4844,199940.1563,185379.125,186117.5156,163666.8906,170022.3281,-16153.68652,,,
1.479999998,11,200279.3906,194207.8125,199927.2813,185363.4375,186109.4219,163663.4063,170013.1563,-16155.21582,,,
1.483999998,11,200284.4844,194225.7344,199924.6719,185357.2188,186104.6719,163669.5156,170015.2188,-16145.47852,,,
1.487999998,11,200299.5156,194248.9531,199932.5781,185369.0781,186109.6875,163674.2969,170016.8281,-16134.18652,,,
1.491999998,11,200313.5938,194258.1563,199945.1875,185387.5469,186125.4531,163689.7656,170029.3594,-16122.59961,,,
1.495999998,11,200330.0938,194263.0625,199969.4063,185410.0781,186153.8125,163722.25,170063.3438,-16097.73535,,,
1.499999998,11,200318.9844,194253.4063,199962.0938,185401.7656,186146.9063,163727.6406,170062.75,-16095.375,,,
1.503999998,11,200307.4219,194256.5469,199946.2031,185383.1875,186125.9063,163714.6563,170050.7656,-16102.80469,,,
1.507999998,11,200327.6719,194284.0625,199963.5938,185390.3125,186138.9688,163726.375,170070.3906,-16090.86914,,,
1.511999998,11,200363.3281,194311.6875,200000.6563,185426.9219,186178.2969,163760.7969,170104.8594,-16064.47656,,,
1.515999998,11,200354.3594,194290.2344,199997.1406,185414.2344,186182.4531,163762.1094,170106.5313,-16070.08203,,,
1.519999998,11,200340.7656,194272.4844,199988.6406,185382.5938,186179.4219,163767.2031,170106.6094,-16069.33105,,,
1.523999998,11,200350.5313,194293.4531,199990.875,185395.7656,186181.7813,163785.4375,170112.0469,-16052.91602,,,
1.527999998,11,200358.9219,194313.8438,199989.9375,185409.4063,186178.0781,163788.6563,170108.6406,-16053.18457,,,
1.531999998,11,200366.7813,194320.6563,200001.6719,185415.375,186190.5313,163802.6406,170124.2813,-16051.5752,,,
1.535999998,12,200351.875,194295.3906,199997.7031,185411.4063,186191.7344,163804,170133.4531,-16060.93555,,,
1.539999998,12,200326.6094,194264.9219,199974.75,185389.9375,186173.0313,163794.2344,170125.375,-16072.30859,,,
1.543999997,12,200316.8594,194264.9375,199957.6094,185375.6719,186152.7344,163779.4844,170112.1563,-16078.02148,,,
1.547999997,12,200332.3125,194288.0625,199967,185386.3438,186158.2031,163786.4531,170119.5625,-16069.27734,,,
1.551999997,12,200352.2656,194300.7031,199987.5156,185416.7031,186180.5,163806.1719,170139.1875,-16056.13477,,,
1.555999997,12,200352.2969,194292.1719,199991.9219,185422.6875,186192.2188,163817.875,170150.8594,-16049.375,,,
1.559999998,12,200339.2031,194280.2813,199979.0625,185408.375,186182.5,163814.9219,170143.0781,-16050.36816,,,
1.563999998,12,200325.2031,194284.875,199960.6094,185385.5938,186159.8438,163801.8281,170121.9219,-16058.3877,,,
1.567999997,12,200322.4688,194292.2969,199953.9375,185377.1406,186149,163787.6875,170112.2031,-16068.28516,,,
1.571999997,12,200353.3906,194310.7813,199989.2656,185408.4688,186182.75,163806.9219,170142.1406,-16048.57031,,,
1.575999997,12,200353.5313,194297.3438,199995.4063,185408.0156,186193.6406,163808.2344,170144.0781,-16044.62793,,,
1.579999998,12,200344.0313,194286.1094,199989.4688,185404.6719,186191.1406,163803.8906,170137.6094,-16044.89648,,,
1.583999998,12,200328.9688,194283.0469,199967.9375,185375.7813,186165.9531,163785.875,170112.0781,-16057.85156,,,
1.587999997,12,200346.0938,194305.5313,199978.9063,185392.7344,186172.3906,163791.5,170114.0938,-16048.3291,,,
1.591999997,12,200371.7188,194323.0625,200006.875,185427.4688,186200.9063,163802.3438,170137.875,-16032.34375,,,
1.595999997,12,200356.0469,194294.7344,199999.2656,185406.5469,186198.1406,163781.6406,170131.0469,-16046.98828,,,
1.599999997,12,200340.625,194270.7969,199987.1094,185389.8281,186188.4375,163766,170118.8594,-16056,,,
1.603999998,12,200338.5313,194273.2031,199978.3906,185388.625,186176.6094,163754.75,170103.5781,-16058.79004,,,
1.607999997,12,200343.7188,194280.6406,199975.5,185397.6875,186170.1406,163745.3438,170090.8594,-16062.78613,,,
1.611999997,12,200360.3125,194284.5781,199990.0625,185423.2344,186187.0625,163749.5781,170095.7344,-16056.93945,,,
1.615999997,12,200367.3906,194281.1719,200001.25,185436.0469,186202.1875,163759,170101.8594,-16048.91895,,,
1.619999997,12,200342.9688,194260.0938,199980.4063,185417.8125,186181.4375,163738.5313,170078.5469,-16063.59082,,,
1.623999998,12,200322.6563,194250.8125,199952.75,185396.9688,186149.2188,163712.5469,170047.7031,-16082.25879,,,
1.627999998,12,200336.9219,194267.4688,199960.5313,185416.125,186152.875,163717.4688,170048.9688,-16075.3125,,,
1.631999997,12,200338.0313,194259.8438,199963.6719,185414.1875,186159.7031,163717.875,170052.375,-16079.73828,,,
1.635999997,12,200323.4844,194234.8281,199959.8906,185401.3906,186161.5313,163715.4375,170049.9219,-16089.01855,,,
1.639999997,12,200307.9063,194227.0469,199946.2344,185376.7188,186151.7344,163717.4688,170040.0781,-16091.21777,,,
1.643999997,12,200293.6406,194227.8438,199926.0156,185360.7656,186126.6563,163700.5156,170016.8906,-16102.26855,,,
1.647999998,12,200310.9063,194254.9063,199936.4219,185380.1563,186132.1563,163708.0313,170019.9219,-16089.93066,,,
1.651999997,12,200323.5156,194267.1719,199951.1406,185400.4219,186146.8125,163718.4688,170026.2188,-16082.44727,,,
1.655999997,12,200320.3594,194252.2031,199958.1406,185394.2813,186160.5469,163723.2344,170038.7969,-16079.49707,,,
1.659999997,12,200281,194213.4375,199924.5313,185344.9375,186130.6875,163701.375,170012.5938,-16104.79004,,,
1.663999997,13,200272.2656,194215.375,199911.7969,185341.5313,186113.7813,163692.9063,169999.5313,-16111.3877,,,
1.667999997,13,200297.0469,194248.5313,199932.7656,185368.4531,186126.9844,163709.5313,170013.0469,-16093.57813,,,
1.671999997,13,200306.9375,194258.5625,199942.5156,185387.9531,186135,163715.5156,170017.4688,-16091.67383,,,
1.675999997,13,200286.1563,194230.2813,199927.0938,185377.5469,186125.625,163704.5938,170004.9688,-16107.41797,,,
1.679999997,13,200251.0938,194192.1719,199896.6406,185331.125,186099.9688,163680.5938,169979.9844,-16130.59277,,,
1.683999997,13,200254.2656,194199.9844,199894.4219,185317.125,186095.125,163675.7344,169975.4375,-16125.49609,,,
1.687999997,13,200272.75,194217.8906,199906.2969,185323.6563,186102.7344,163675.4688,169978.0938,-16118.09375,,,
1.691999997,13,200294.1406,194230.7969,199928.1875,185367.4063,186125.0313,163687.2656,169992.7188,-16104.09277,,,
1.695999997,13,200295.0781,194222.2344,199934.4688,185370.9531,186136.8594,163697.2031,170002.125,-16097.03809,,,
1.699999997,13,200275.0469,194198.5625,199921.9063,185352.3594,186125.4844,163688.3438,169997.0156,-16106.50684,,,
1.703999997,13,200274.8906,194211.375,199918.5313,185352.7344,186117.3906,163686.4375,169992.3438,-16104.54883,,,
1.707999997,13,200279.2813,194225.2188,199912.125,185368.0469,186109.0938,163679.4375,169981.75,-16109.53711,,,
1.711999997,13,200281.625,194218.9375,199911.9063,185383.375,186110.3594,163673.9219,169980.1406,-16116.13574,,,
1.715999997,13,200270.0938,194194.3125,199907.375,185373.5313,186111.1563,163668.2344,169981.6094,-16124.02148,,,
1.719999997,13,200254.0156,194174.5313,199894.2031,185360.2188,186100.1563,163658.1406,169972.3125,-16133.78418,,,
1.723999997,13,200243.5313,194176.1563,199877.5469,185343.5625,186079.9063,163643.4219,169954.9531,-16144.16504,,,
1.727999997,13,200250.6875,194194.125,199881.625,185356.0313,186078.0156,163640.2813,169953.4531,-16143.03809,,,
1.731999997,13,200268.3438,194211.8906,199902.4063,185385.1719,186099.8438,163656.3438,169971.0938,-16129.27832,,,
1.735999997,13,200262.8438,194200.75,199904.4688,185386.7031,186106.1406,163662,169974.9375,-16128.82227,,,
1.739999997,13,200243.0469,194178.9219,199891.1719,185374.4844,186094.1875,163654.1719,169967.4844,-16137.99512,,,
1.743999997,13,200243.9844,194188.5313,199885.4531,185364.7344,186084.9063,163649.7188,169960.4844,-16134.18652,,,
1.747999997,13,200241.5469,194198.9063,199876.0938,185351.5,186070.4375,163634.4375,169941.9375,-16145.45215,,,
1.751999997,13,200256.5469,194210.2188,199894.0938,185374.1406,186089.9688,163650.6563,169955.2188,-16135.68848,,,
1.755999997,13,200265.5313,194205.0781,199911.4688,185395.8125,186115,163668.4375,169976.7344,-16120.02441,,,
1.759999997,13,200270.1719,194207.2969,199919.6094,185395.7813,186127.3906,163681.4063,169989.9063,-16102.42969,,,
1.763999997,13,200268.9688,194218.8125,199911.3906,185370.4219,186117.3281,163680.6406,169979.7344,-16097.49414,,,
1.767999997,13,200272.5781,194230.75,199906.5625,185377.5,186108.0156,163676.2813,169966,-16100.87402,,,
1.771999997,13,200296.75,194246.4063,199930.9219,185410.1875,186132.4531,163693.8438,169986.2031,-16084.32422,,,
1.775999997,13,200291.2031,194230.7188,199929.7969,185393.3281,186135.2188,163695.875,169984.1563,-16086.8457,,,
1.779999997,13,200261.375,194197.7031,199908.5,185355.9531,186115.9063,163679.7031,169970.6406,-16104.30664,,,
1.783999997,13,200259.4063,194202.5313,199904.75,185372.4063,186108.3906,163677.4219,169967.5781,-16101.75879,,,
1.787999997,13,200273.8125,194229.75,199910.8125,185379.7969,186110.4844,163682.3906,169968.9063,-16093.92676,,,
1.791999997,14,200295,194246.5156,199932.3906,185399.25,186134.875,163699.5625,169988.8594,-16079.09473,,,
1.795999997,14,200302.0625,194245.875,199947.3438,185410.8906,186154.375,163713.4531,170006.7969,-16066.32715,,,
1.799999997,14,200291.8438,194237.125,199941.5156,185414.8594,186149.8906,163713.6406,170004.0156,-16066.32715,,,
1.803999997,14,200276.6875,194232.25,199922.5781,185393.4531,186126.6875,163694.7344,169981.6094,-16080.19434,,,
1.807999997,14,200278.1875,194240.1875,199919.7344,185342.7656,186119.9531,163687.0313,169978.3906,-16085.18262,,,
1.811999997,14,200288.9219,194248.5469,199924.4844,185372,186125.375,163692.3906,169979.0938,-16081.0791,,,
1.815999997,14,200289.0781,194231.7656,199928.9688,185371.2188,186134.7344,163696.6563,169985.9375,-16079.57715,,,
1.819999997,14,200276.2344,194210.9531,199920.1094,185364.5938,186130.7188,163693.9531,169982.0625,-16083.6543,,,
1.823999997,14,200275.125,194218.3281,199917.5313,185357.375,186123.8438,163688.1563,169977.6094,-16082.44727,,,
1.827999997,14,200278.3438,194234.1719,199913.5938,185356.1719,186114.1875,163679.7344,169967.3906,-16085.12891,,,
1.831999997,14,200290.0469,194243.0781,199921.8281,185366.9531,186123.5469,163685.0781,169973.7344,-16081.50781,,,
1.835999997,14,200285.625,194230.75,199921.5313,185367.1719,186128.1875,163687.625,169973.4531,-16084.32422,,,
1.839999997,14,200279.7188,194221.8906,199921.7969,185359.3125,186131.0625,163694.625,169977.1406,-16077.83398,,,
1.843999997,14,200266.5781,194219.3125,199903.4844,185335.4063,186108.6719,163681.5938,169954.7344,-16085.20996,,,
1.847999997,14,200270.5156,194234.5,199900.3125,185336.2188,186102.0938,163679.0156,169946.0938,-16082.17871,,,
1.851999997,14,200297.4219,194252.0156,199926.4375,185369.6094,186131.0625,163705.7188,169971.2031,-16060.39941,,,
1.855999997,14,200284.4688,194226.8594,199918.9844,185366.2031,186128.1875,163702.1094,169967.1563,-16072.17383,,,
1.859999997,14,200263.375,194204.25,199904.5625,185355.1719,186116.7969,163690.1094,169957.2031,-16084.94141,,,
1.863999997,14,200249.4844,194199.6875,199888.375,185336.5313,186096.625,163677.5938,169941.75,-16095.56348,,,
1.867999997,14,200261.2656,194216.5625,199895.1719,185347.8281,186097.8906,163680.25,169943.5469,-16091.08398,,,
1.871999997,14,200274,194224.1406,199903.8906,185381.2031,186106.0156,163689.4531,169945.3281,-16088.34766,,,
1.875999997,14,200261.1875,194203.3125,199892.7344,185395.9219,186097.0781,163677.4531,169923.25,-16100.23047,,,
1.879999997,14,200265.9063,194205.0469,199905.0313,185409.4063,186111.6406,163691.5938,169937.7031,-16083.25195,,,
1.883999997,14,200261.75,194212.0156,199899.6719,185408.875,186103.5938,163687.6719,169943.4688,-16081.9375,,,
1.887999997,14,200259.5469,194217.25,199892.3281,185377.8438,186094.7656,163678.5781,169939.1875,-16087.0332,,,
1.891999997,14,200267.375,194220.9531,199901.1563,185351.1563,186106.7813,163691.7188,169946.375,-16082.68848,,,
1.895999997,14,200263.2969,194207.9219,199902.8906,185357.0313,186113.0313,163696.7656,169948.6719,-16082.3125,,,
1.899999997,14,200247.3906,194189.3281,199888.9531,185340.9375,186100.1875,163685,169935.1094,-16091.5127,,,
1.903999997,14,200238.7031,194190.8125,199874.3281,185332.9688,186082.4531,163670.7031,169916.625,-16098.48633,,,
1.907999997,14,200245.8438,194206.9219,199875.5938,185331.3125,186079.3281,163664.1563,169913.0625,-16098.00391,,,
1.911999997,14,200264.3438,194216.6094,199896.4219,185355.6406,186097.7031,163671.6563,169926.1406,-16088.58887,,,
1.915999997,14,200268.375,194205.9531,199908.5,185364.4531,186113.625,163682.3125,169940.3906,-16080.14063,,,
1.919999997,15,200270,194202.3594,199914.0313,185361.4219,186123.7656,163690.8438,169951.625,-16066.35352,,,
1.923999997,15,200256.6719,194200.8125,199893.6094,185336.1094,186100.0781,163671.1719,169927.8281,-16077.27051,,,
1.927999997,15,200261.8281,194215.7969,199890.5781,185336.8281,186092.2031,163661.7969,169921.0781,-16079.25488,,,
1.931999997,15,200290.1563,194239.1406,199916.7031,185368.5313,186120.5469,163684.5156,169942.1094,-16056,,,
1.935999997,15,200293.0156,194230.6875,199925.9531,185375.7031,186135.9219,163690.4844,169952.3281,-16049.64355,,,
1.939999997,15,200275.1563,194209.375,199914.2656,185359.6875,186125.75,163678.75,169941.7344,-16058.44141,,,
1.943999997,15,200272.5,194215.1406,199905.8125,185353.9219,186113.5469,163674.2344,169930.5938,-16058.81641,,,
1.947999997,15,200276.4375,194227.7188,199899.1875,185360.9531,186103.1406,163664.875,169919.3281,-16061.60645,,,
1.951999997,15,200298.25,194240.7031,199920.4844,185381.7813,186124.9688,163682.5313,169939.8281,-16045.64746,,,
1.955999997,15,200297.0156,194229.375,199925.3906,185387.5781,186132.8906,163688.1563,169948.0625,-16045.29883,,,
1.959999997,15,200281.4063,194209.9063,199914.7188,185386.375,186122.9063,163676.4375,169938.1563,-16055.06152,,,
1.963999997,15,200283.8438,194221.4063,199912.1406,185378.2969,186115.3906,163676.9531,169928.6875,-16051.5752,,,
1.967999997,15,200292.2969,194234.125,199912.9844,185377.3594,186111.2344,163676,169923.1406,-16050.98438,,,
1.971999997,15,200316.0625,194249.5938,199939.3438,185411.5938,186137.125,163694.25,169946.9531,-16035.61523,,,
1.975999997,15,200303.5313,194229.5625,199934.9688,185380.2656,186138.5938,163695.4844,169945.625,-16042.08008,,,
1.979999997,15,200267.8594,194192.2031,199905.4219,185350.6406,186110.7344,163672.125,169921.0156,-16064.85156,,,
1.983999997,15,200265.2031,194200.7344,199900.9375,185335.3906,186101.7656,163669.7813,169916.9219,-16062.38379,,,
1.987999997,15,200269.5469,194215.8906,199898.4063,185329.2188,186094.3125,163664.75,169910.0781,-16062.70605,,,
1.991999997,15,200293.0781,194236.0781,199919.0156,185358.3125,186115.6719,163681.4063,169927.3594,-16047.04199,,,
1.995999997,15,200281.5469,194216.3438,199912.3125,185356.8125,186114.1875,163674.6875,169918.9375,-16057.55566,,,
1.999999997,15,200268.9844,194202.3594,199906.1719,185344.5313,186110.9219,163675.3906,169915.7656,-16057.63672,,,
2.003999997,15,200268.3125,194209.0781,199903.5313,185341.8438,186106.0156,163676.9531,169915.3125,-16052.08398,,,
2.007999997,15,200282.4219,194237.0938,199909.8594,185358.125,186108.2969,163684.2188,169917.9375,-16044.33301,,,
2.011999997,15,200291.2969,194244.6875,199918.9375,185369.2344,186117.9531,163686.8438,169926.5781,-16044.0918,,,
2.015999997,15,200310.2344,194243.8906,199945.6406,185405.4688,186148.625,163709.3438,169955,-16023.14355,,,
2.019999997,15,200286.8281,194214.3594,199927.1406,185374.6719,186131.2031,163695.6094,169940.6094,-16038.11035,,,
2.023999997,15,200277.3594,194214.3281,199913.9375,185339.8438,186114.8281,163690.0156,169932.3438,-16041.48926,,,
2.027999997,15,200282.5938,194228.4375,199908.3125,185343.9219,186103.9688,163681.2344,169920.9375,-16044.81543,,,
2.031999997,15,200301.2813,194239.9688,199926.1406,185365.0469,186120.9219,163688.875,169934.2656,-16035.29395,,,
2.035999997,15,200307.5313,194232.1094,199940.0938,185376.2656,186138.5156,163700.4375,169950.3438,-16027.97168,,,
2.039999997,15,200294.3281,194215.0469,199930.5781,185364.8906,186130.9844,163695.6094,169943.7656,-16032.87988,,,
2.043999997,15,200292.2656,194222.8906,199922.6406,185357.0313,186118.0781,163687,169931.4531,-16035.24023,,,
2.047999997,16,200286.3125,194224.5,199907.75,185359.4375,186096.5469,163665.0156,169907.5313,-16050.95801,,,
2.051999997,16,200302.1875,194234.8438,199923.0625,185386.3125,186110.4063,163673.2188,169915.2031,-16044.25195,,,
2.055999997,16,200304.3438,194224.4375,199931.5156,185389.1563,186122.5,163678.4219,169922.7188,-16041.91895,,,
2.059999997,16,200307.5625,194221.4844,199939.75,185371.2656,186131.7031,163689.9531,169935.8594,-16030.57324,,,
2.063999997,16,200305.3906,194225.4531,199933.4688,185355.6406,186121.9688,163686.2031,169930.2813,-16028.10547,,,
2.067999997,16,200288.9375,194220.1719,199908.0938,185345.2813,186092.2813,163659.4844,169897.9219,-16049.02637,,,
2.071999997,16,200299.1563,194229.3438,199917.9063,185362.875,186103.8125,163668.3594,169905.3281,-16041.16797,,,
2.075999997,16,200312.9688,194231.7969,199940.6875,185406.1875,186132.5625,163691.0313,169929.5313,-16023.94824,,,
2.079999997,16,200313.6406,194227.3594,199947.25,185414.1406,186143.2188,163703.9844,169939.6875,-16012.3877,,,
2.083999997,16,200288.9688,194212.5,199918.5781,185358.1875,186112.875,163683.4688,169915.0469,-16031.56543,,,
2.087999997,16,200281.625,194212.875,199901.9531,185335.875,186090.0469,163663.4063,169893.2656,-16047.17578,,,
2.091999997,16,200299.1094,194223.2344,199918.5625,185347.7813,186105.7344,163675.9063,169906.6719,-16039.74609,,,
2.095999997,16,200290.4531,194203.8125,199915.9844,185356.4375,186107.7813,163677.4219,169906.7031,-16045.72754,,,
2.099999997,16,200274.0781,194183.9688,199904.8281,185337.8281,186100.8125,163679.7031,169904.2656,-16047.44434,,,
2.103999997,16,200279.125,194199.9063,199904.9531,185345.0469,186098.0938,163681.1563,169904.2656,-16038.19043,,,
2.107999997,16,200278.7031,194212.8594,199895.5156,185321.625,186085.0156,163666.5156,169889.2656,-16045.35254,,,
2.111999997,16,200290.2344,194218.625,199909.0313,185329.6719,186099.3125,163670.5938,169897.9844,-16041.83789,,,
2.115999997,16,200292.3438,194209.2656,199919.9844,185343.7813,186114.625,163677.5625,169909.4375,-16038.11035,,,
2.119999997,16,200268.75,194182.8438,199902.625,185331.4375,186100.5938,163662.9375,169894.9531,-16050.9043,,,
2.123999997,16,200275.3125,194194.5938,199904.2813,185335.8906,186097.7813,163666.1094,169893.6875,-16040.30957,,,
2.127999997,16,200282.8281,194211.9688,199902.7031,185342.7656,186091.2813,163662.4688,169887.4688,-16040.17578,,,
2.131999997,16,200308.0469,194234.0156,199928.4531,185377.2344,186115.75,163680.3594,169908.625,-16023.59961,,,
2.135999997,16,200305.5469,194222.9063,199932.7656,185380.875,186119.0938,163678.75,169906.8594,-16026.38867,,,
2.139999997,16,200291.7031,194206.4688,199921.8906,185367.3594,186107.7031,163670.9375,169895.8906,-16031.8877,,,
2.143999997,16,200288.8906,194211.9219,199913.625,185363.9531,186096.9688,163665.1406,169886.875,-16030.00977,,,
2.147999997,16,200315.4688,194241.8438,199934.25,185390.375,186112.3125,163677.4219,169902.0313,-16010.75195,,,
2.151999997,16,200337.6563,194259.625,199953.8594,185412.9219,186131.8594,163691.625,169915.3125,-15999.1377,,,
2.155999997,16,200327.375,194240.0781,199946.5,185409.9844,186128.9219,163687.9375,169906.9063,-16009.46387,,,
2.159999997,16,200305.4688,194215.5625,199930.1406,185392.4688,186115.9375,163674.6406,169897.875,-16019.79102,,,
2.163999997,16,200312.9531,194231.8125,199932.1875,185395.875,186114.7813,163677.8906,169900.3438,-16007.31836,,,
2.167999997,16,200314,194242.625,199924.7031,185382.5938,186102.5781,163663.7969,169884.8438,-16013.75586,,,
2.171999997,16,200333.1406,194260.1875,199945.5469,185402.3281,186122.3438,163677.6094,169901.2031,-16001.7666,,,
2.175999997,17,200330.5938,194249.9219,199948.5781,185415.2031,186128.8594,163683.1094,169909.1719,-16002.62402,,,
2.179999996,17,200306.8281,194223.5625,199932.9375,185393.3438,186115.6719,163674.6719,169898.6719,-16015.44531,,,
2.183999996,17,200300.7656,194226.2344,199923.8125,185372.0781,186103,163673.8125,169887.4375,-16017.56445,,,
2.187999996,17,200290.3594,194227.6406,199905.8438,185350.6719,186079.5313,163658.3125,169858.4531,-16033.60352,,,
2.191999996,17,200300.9531,194233.875,199917.6406,185353.2969,186090.1563,163660.9531,169865.8281,-16030.33203,,,
2.195999996,17,200307.4219,194226.6875,199932.3125,185373.875,186108.4844,163671.4219,169883.25,-16022.12402,,,
2.199999997,17,200299.5625,194212.0156,199929.0156,185389.6406,186108.75,163674.6094,169885.7813,-16020.08594,,,
2.203999996,17,200289.5938,194211.7344,199913.2656,185358.3906,186089.8906,163661.2031,169867.7031,-16025.8252,,,
2.207999996,17,200291.8438,194219.2344,199906.7813,185333.3125,186077.8125,163651.7344,169854.8281,-16030.03711,,,
2.211999996,17,200299.25,194222.0781,199911.5313,185352.125,186082.0781,163650.2813,169854.375,-16031.96777,,,
2.215999996,17,200306.9688,194215.375,199930.1406,185369.3906,186103.0625,163659.6719,169871.7969,-16024.10938,,,
2.219999997,17,200299.5938,194205.6094,199931.1875,185367.1406,186105.3906,163657.9531,169875.6875,-16021.6416,,,
2.223999996,17,200297.4219,194216.7188,199924.0781,185354.1875,186095.875,163656.5625,169868.5625,-16014.72168,,,
2.227999996,17,200293.2031,194220.3125,199913.5469,185339.9375,186081.9219,163644.1094,169854.3125,-16023.41113,,,
2.231999996,17,200310.7188,194231.8125,199931.3438,185365.2031,186098.0469,163646.9531,169867.9219,-16017.00098,,,
2.235999996,17,200314.4531,194224.875,199939.4219,185382.9063,186108.2031,163650.8438,169874.9688,-16014.39941,,,
2.239999996,17,200290.1719,194197.0625,199923.7344,185363.0313,186094.2031,163635.6406,169864.0781,-16028.4541,,,
2.243999997,17,200292.75,194205.5625,199927.1719,185354.2344,186094.2031,163642.9688,169870.2813,-16018.50293,,,
2.247999996,17,200295.0313,194213.625,199921.7813,185352.4375,186083.2656,163629.9219,169858.0938,-16024.61816,,,
2.251999996,17,200294.0156,194204.8125,199919.3906,185354.4531,186081.6563,163620.1406,169855.1406,-16035.83008,,,
2.255999996,17,200301.5,194196.6875,199935.2969,185363.9219,186101.7969,163633.9531,169874.75,-16026.62988,,,
2.259999996,17,200303.4063,194192.0938,199941.2969,185365.5938,186109.3438,163642.1875,169883.9219,-16016.0625,,,
2.263999997,17,200303.6719,194204.7344,199937.7344,185358.3125,186102.2813,163641.0313,169880.8438,-16009.38379,,,
2.267999996,17,200303.1875,194212.7188,199928.9063,185356.7344,186088.8906,163627.0781,169865.2031,-16015.52637,,,
2.271999996,17,200328.8281,194230.2656,199951.0938,185388.5938,186110.9688,163637.5469,169883.7969,-16000.80078,,,
2.275999996,17,200339.0156,194233.8281,199967,185404.3906,186129.0469,163648.4688,169897.7188,-15990.09863,,,
2.279999996,17,200320.9219,194213.1719,199957.3125,185383.6719,186121.0781,163640.875,169889.8594,-15998.30566,,,
2.283999996,17,200312.7656,194215.5938,199943.6406,185367.25,186105.2656,163635.9688,169876.7188,-16001.98047,,,
2.287999996,17,200301.3906,194220.6875,199921.2344,185359.6875,186076.375,163613.5313,169847.4688,-16017.85938,,,
2.291999996,17,200322.2031,194238.25,199941.5781,185386.9844,186093.8594,163625.5313,169859.4688,-16002.94629,,,
2.295999996,17,200334.8906,194238.3125,199960.4219,185397,186115.7188,163645.5625,169875.9375,-15988.32813,,,
2.299999996,17,200321.1563,194220.1563,199953.2344,185382.8125,186112.0781,163640.3281,169870.9219,-15993.58496,,,
2.303999996,18,200314.4844,194222.0781,199941.1719,185368.7188,186097.5625,163632.2656,169861.3125,-15995.3291,,,
2.307999996,18,200308.0625,194229.3281,199924.2188,185354.8594,186075.75,163615.3906,169837.25,-16005.81641,,,
2.311999996,18,200324.9375,194241.6094,199938.1719,185397.9531,186088.1719,163621.6094,169841.3594,-15998.89648,,,
2.315999996,18,200342.2656,194246.2969,199959.8125,185441.3281,186113.125,163644.7031,169863.4063,-15982.85645,,,
2.319999996,18,200322.5781,194223.4531,199947.1719,185427.4063,186101.8594,163633.6094,169855.625,-15993.55859,,,
2.323999996,18,200299.75,194211.4375,199921.375,185381.0938,186072.2656,163612.8438,169831.7031,-16010.53711,,,
2.327999996,18,200301.0469,194217.0313,199916.9531,185355.3594,186062.9375,163603.5938,169827.1719,-16014.77441,,,
2.331999996,18,200324.375,194236.3281,199939.1875,185375.9063,186085.1406,163616.5625,169847.5781,-16001.84668,,,
2.335999996,18,200317.1406,194223.5781,199937.8906,185364.3281,186089.5625,163617.7969,169851.0781,-16005.87012,,,
2.339999996,18,200297.0781,194199.5781,199925.5625,185344.2656,186080.4531,163609.375,169843.1094,-16013.9707,,,
2.343999996,18,200297.9844,194207.7813,199922.9063,185329.5625,186074.625,163605.2031,169836.6719,-16008.33789,,,
2.347999996,18,200301.0625,194222.4844,199917.5156,185335.0625,186063.5,163594.7344,169821.625,-16009.54492,,,
2.351999996,18,200314.0156,194232.375,199927.4063,185363.0313,186074.625,163598.1094,169826.2656,-16007.31836,,,
2.355999996,18,200318.375,194225.25,199938.6719,185371.1875,186090.9844,163603.9063,169839.375,-16003.91211,,,
2.359999996,18,200314.6719,194211.9375,199940.8125,185364.25,186094.0469,163605.0156,169842.8438,-16000.4248,,,
2.363999996,18,200300.6875,194202.9531,199923.2813,185339.0938,186071.5938,163587.2188,169821.7031,-16011.42188,,,
2.367999996,18,200312.0156,194221.8125,199926.8125,185343.1563,186069.0156,163582.7969,169818.4063,-16007.98926,,,
2.371999996,18,200322.5781,194230.75,199935.3281,185364.2188,186076.875,163584.5469,169821.5625,-16005.11914,,,
2.375999996,18,200330.3281,194222.9063,199952.0625,185379.9844,186096.7031,163594.4219,169839.0469,-15995.81152,,,
2.379999996,18,200321.0781,194207.7813,199950.5625,185367.1094,186097.2188,163598.4375,169839.7031,-15994.87305,,,
2.383999996,18,200303.1563,194199.125,199928.125,185346.2188,186071.5469,163579.5625,169816.6875,-16008.74023,,,
2.387999996,18,200315.1563,194218.8906,199931.8594,185357.9375,186071.3281,163577.375,169816.5,-16002.11523,,,
2.391999996,18,200326.3281,194229.5625,199939.8281,185374.5156,186079.7188,163581.5938,169818.75,-15999.56641,,,
2.395999996,18,200335.125,194231.6563,199955.8594,185406.5938,186099.5781,163596.6406,169834.7031,-15989.50879,,,
2.399999996,18,200318.8281,194214.4688,199946.6094,185388.5781,186091.4531,163593.4219,169832.7031,-15994.60449,,,
2.403999996,18,200307.4219,194214.5469,199933.5313,185357.1875,186074.8125,163584.0313,169821.4531,-15998.35938,,,
2.407999996,18,200304.125,194222.8281,199921.6406,185347.1875,186058.3281,163578.3438,169807.5313,-16003.6709,,,
2.411999996,18,200321.9063,194236.7188,199936.4219,185368,186071.8438,163596.375,169820.1719,-15992.5127,,,
2.415999996,18,200326.25,194223.6406,199947.9219,185374.7344,186088.4375,163604.4219,169837.0469,-15987.41602,,,
2.419999996,18,200318.9063,194206.2344,199946.9375,185366.0938,186092.0156,163607.0156,169845.5781,-15986.12891,,,
2.423999996,18,200309.4844,194206.5781,199933.25,185343.7031,186074.0156,163599.8906,169833.4531,-15992.75391,,,
2.427999996,18,200305.9219,194210.9688,199923.8125,185330.7188,186056.7969,163586.375,169818.4531,-16003.88477,,,
2.431999996,19,200304.875,194206.3125,199921.5938,185336.0313,186055.2031,163584.2813,169814.0313,-16012.62891,,,
2.435999996,19,200321.0469,194206.6563,199945,185374.2188,186083.4531,163605.625,169842.3594,-15997.79688,,,
2.439999996,19,200320.25,194198.0781,199951.0156,185369.75,186091.0781,163610.4219,169855.3594,-15991.49316,,,
2.443999996,19,200314.3906,194202.125,199938.9375,185348.8281,186073.4531,163604.5,169840.3438,-15994.06836,,,
2.447999996,19,200298.9219,194202.0469,199915.3594,185321.625,186044.2344,163592.5313,169814.7188,-16013.21875,,,
2.451999996,19,200306.6406,194210.5469,199923.5469,185337.9063,186052.5781,163596.0313,169825.1563,-16013.78223,,,
2.455999996,19,200323.6719,194217.3906,199945,185370.4375,186078.6563,163610.0781,169844.8281,-15998.92285,,,
2.459999996,19,200313.6719,194201.0313,199943.5313,185359.9063,186079.8281,163611.875,169852.5938,-15998.33301,,,
2.463999996,19,200312.4688,194206.4375,199940.25,185349.2188,186073.0156,163612.125,169851.8281,-15994.06836,,,
2.467999996,19,200327.8906,194231.875,199948.8594,185357.1719,186077.5,163618.1719,169856.5469,-15984.92188,,,
2.471999996,19,200357.3906,194260.8594,199977.1094,185391.875,186104.375,163647.125,169880.8906,-15962.01563,,,
2.475999996,19,200353.3125,194249.125,199975.3594,185392.625,186106.2188,163657.1563,169880.5156,-15962.3916,,,
2.479999996,19,200342.5,194232.8906,199971.5625,185388.25,186105.4531,163656.7813,169881.3281,-15959.70898,,,
2.483999996,19,200338.75,194238.0469,199967.1094,185374.5781,186100.1094,163649.2969,169882.2656,-15955.87402,,,
2.487999996,19,200350.2031,194260.0938,199970.8906,185372.4219,186101.2969,163650.0469,169886.5,-15948.44336,,,
2.491999996,19,200375.7969,194278.6563,199993.1719,185392.0938,186124.2031,163666.1094,169909.4688,-15933.23535,,,
2.495999996,19,200374.8281,194265.0156,199998.4375,185394.2031,186133.6563,163669.6719,169914.6406,-15936.99121,,,
2.499999996,19,200367.1875,194253.9531,200003.2344,185386.6406,186140.6719,163669.2813,169921.125,-15935.78418,,,
2.503999996,19,200366.9375,194262.0156,199999.125,185384.0625,186134.3594,163659.2656,169915.8438,-15934.30859,,,
2.507999996,19,200377.0781,194278.2188,200000.8438,185396.0781,186129.5313,163647.4688,169912.2188,-15933.98633,,,
2.511999996,19,200410.5625,194306.2969,200033.2969,185432.5,186159.5781,163669.5469,169941.5469,-15909.68555,,,
2.515999996,19,200410.3438,194298.4688,200036.1719,185446.4063,186164.5156,163674.5781,169945.3438,-15910.11523,,,
2.519999996,19,200383.4063,194270.125,200013.5938,185412.8438,186142.1875,163658.7031,169922.7969,-15928.91699,,,
2.523999996,19,200368.3125,194260.5156,199996.3438,185379.2656,186119.6094,163641.2969,169903.2969,-15939.78027,,,
2.527999996,19,200357.9844,194258.7188,199976.4063,185368.1094,186095.0156,163613.8125,169878.4844,-15954.50586,,,
2.531999996,19,200372.5469,194274.25,199990.125,185389.2969,186107.5469,163617.0781,169888.8125,-15948.60449,,,
2.535999996,19,200377.9375,194269.2656,200003.7188,185398.7656,186123.25,163630.1094,169901.2344,-15943.61621,,,
2.539999996,19,200366.4531,194251.3906,199998.0313,185398.8438,186119.75,163626.3906,169894.1719,-15945.54688,,,
2.543999996,19,200365.1406,194258.4844,199992.4531,185404.6094,186110.0313,163621.9844,169887.7656,-15942.48926,,,
2.547999996,19,200359.6406,194265.6719,199978.5313,185397.3438,186091.0469,163607.375,169871.1406,-15953.64746,,,
2.551999996,19,200363.4844,194267.5469,199979.25,185388.875,186090.7188,163604.4531,169868.9063,-15958.9043,,,
2.555999996,19,200362.0625,194254.2188,199983.0625,185391.4219,186097.5625,163600.4688,169871.375,-15964.40332,,,
2.559999996,20,200352.7031,194240.5313,199984.0313,185390,186100.4844,163599.8281,169868.2969,-15965.74414,,,
2.563999996,20,200340.7969,194237.3906,199970.7031,185375.75,186084.4688,163585.0469,169853.1406,-15973.79102,,,
2.567999996,20,200339.2031,194245.9531,199962.0938,185373.875,186070.5781,163570,169840.5313,-15980.22754,,,
2.571999996,20,200356.5625,194260.2813,199977.7813,185401.1719,186084.4219,163578.7188,169852.4375,-15971.91309,,,
2.575999996,20,200373.1406,194264.4844,199999.375,185428.5938,186109.6875,163599.5625,169871.4531,-15954.53223,,,
2.579999996,20,200360.75,194245.5469,199995.0313,185418.5938,186107.6406,163594.9531,169867.8125,-15956.78516,,,
2.583999996,20,200339.6875,194233.9844,199971.2344,185380.3125,186081.8906,163571.2188,169846.8281,-15973.38867,,,
2.587999996,20,200340.3594,194247.5156,199964.9531,185372.2344,186070.7969,163561.875,169837.625,-15976.82129,,,
2.591999996,20,200350.125,194256.9688,199973.6719,185381.0156,186078.6563,163563.375,169845.7031,-15974.64941,,,
2.595999996,20,200362.0625,194257.3594,199990.4688,185391.4375,186098.9844,163576.5,169863.1719,-15961.13086,,,
2.599999996,20,200373.4063,194259.1563,200007.7656,185405.2031,186119.0156,163594.125,169886.9375,-15942.43555,,,
2.603999996,20,200355.8438,194251.875,199986.2813,185374.8438,186095.9531,163581.75,169871.4219,-15956.24902,,,
2.607999996,20,200340.2031,194250.4063,199959.8125,185358.9844,186064.9219,163559.1094,169840.9375,-15976.63379,,,
2.611999996,20,200364.7656,194272.0313,199983.3594,185407.0313,186086.0313,163575.0469,169862.5469,-15959.44043,,,
2.615999996,20,200378.0938,194270.125,200003.7969,185435.4531,186112.1563,163590.8281,169890.4688,-15946.16406,,,
2.619999996,20,200362.2188,194244.7656,199994.2188,185407.75,186109.1563,163590.5313,169891.9688,-15949.54395,,,
2.623999996,20,200363.75,194254.6094,199994.0313,185403.1406,186105.6563,163598.5156,169890.2031,-15940.10254,,,
2.627999996,20,200360.7969,194266.875,199983.7031,185390.75,186090.6094,163586.9531,169878.7188,-15948.12207,,,
2.631999996,20,200371.2344,194277.4219,199995.0313,185394.7188,186101.5625,163587.8906,169892.2188,-15946.64648,,,
2.635999996,20,200375.6563,194272.5313,200005.6719,185406.8594,186119.2656,163598.625,169911.5781,-15940.04883,,,
2.639999996,20,200380.9219,194272.6406,200019.0938,185418.7969,186139.1094,163624.1406,169938.5938,-15921.91699,,,
2.643999996,20,200373.7031,194275.7813,200008.5938,185400.4844,186126.75,163627.375,169935.375,-15923.17773,,,
2.647999996,20,200371.4531,194284.4688,199998.8594,185406.1406,186110.2188,163614.8594,169920.4844,-15932.24316,,,
2.651999996,20,200385.3906,194295.9688,200011.5,185433.0469,186120.5781,163622.6875,169925.2344,-15927.49609,,,
2.655999996,20,200385.3906,194283.1875,200017.0469,185413.8594,186131.0156,163634.6406,169931.4844,-15926.66406,,,
2.659999996,20,200363.6094,194255.6563,200002.3281,185358.8281,186121.5625,163628.75,169928,-15934.22852,,,
2.663999996,20,200338.9063,194241.5,199975.3594,185327.0938,186092.7344,163601.9844,169905.0313,-15950.40137,,,
2.667999996,20,200342.0313,194255.6406,199971.125,185339.1719,186083.1875,163594.0156,169899.9375,-15954.29102,,,
2.671999996,20,200361.9219,194269.8281,199990.1719,185367.0938,186101.0781,163602.5625,169918.7969,-15944.15234,,,
2.675999996,20,200351.0156,194247.2344,199986.7188,185362.6406,186100.8125,163593.4531,169914.5625,-15957.58984,,,
2.679999996,20,200334.5938,194227.5313,199977.1094,185355.4219,186094.9375,163585.3281,169912.0313,-15965.95898,,,
2.683999996,20,200337.2813,194234.875,199976.4063,185353.5156,186090.5938,163583.2344,169913.7813,-15957.58984,,,
2.687999996,21,200340.1406,194245.8438,199969.9219,185361.7031,186075.7344,163566.5,169895.3281,-15961.02344,,,
2.691999996,21,200365.2188,194266.5781,199992.9375,185405.6563,186094.5781,163580.5156,169910,-15945.11816,,,
2.695999996,21,200373.9688,194263.125,200007.4688,185421.1094,186112.4219,163591.9219,169929.625,-15939.24414,,,
2.699999996,21,200356.6406,194236.2656,199996.2031,185405.5,186103.375,163571.9063,169916.3594,-15952.68164,,,
2.703999996,21,200357.7188,194243,199994.0938,185409.7969,186097.5625,163559.875,169907.3906,-15948.33691,,,
2.707999995,21,200351.1406,194253.625,199976.9531,185388.5938,186076.375,163547.0781,169890.7656,-15956.73145,,,
2.711999996,21,200368.7344,194268.4531,199993.2344,185399.0313,186089.9688,163549.3594,169900.8281,-15948.6582,,,
2.715999996,21,200385.9063,194269.4688,200016.8125,185426.5313,186116.9531,163565.4531,169920.2188,-15934.46973,,,
2.719999996,21,200363.2344,194240.9375,199999.9375,185404.5781,186104.8594,163553.4844,169909.4844,-15948.01465,,,
2.723999996,21,200365.7031,194248.1719,199999.4219,185394.125,186102.5781,163548.8125,169908.0625,-15939.72656,,,
2.727999996,21,200360.9063,194255.2031,199983.875,185380.875,186081.3281,163524.5469,169880.8906,-15949.24805,,,
2.731999996,21,200384.0313,194276.2813,200005.75,185404.1094,186100.375,163535.9219,169894.875,-15934.30859,,,
2.735999996,21,200386.4219,194271.2969,200015.1406,185405.2031,186114.75,163535.5938,169905.1094,-15932.96777,,,
2.739999996,21,200371.1875,194251.5313,200009.8594,185388.625,186113.3125,163531.1875,169902.8906,-15936.74902,,,
2.743999996,21,200356.8906,194241.9219,199995.75,185365.4844,186096.2188,163512.6094,169886.7969,-15945.09082,,,
2.747999996,21,200354.875,194251.7188,199982.5313,185349.8438,186076.7813,163499.7344,169865.875,-15949.59766,,,
2.751999995,21,200369.8594,194266.5469,199994.3594,185376.3125,186086.25,163505.7344,169877.2188,-15942.08691,,,
2.755999996,21,200372.8125,194257.8906,200000.9063,185391.0625,186096.4688,163507.4531,169883.9844,-15942.19434,,,
2.759999996,21,200352.9688,194231.1406,199985.75,185377.7656,186085.5156,163498.3594,169868.2656,-15951.0459,,,
2.763999996,21,200345.4531,194231.0156,199977.9375,185365.9844,186076.1094,163486.9375,169862.4219,-15950.99219,,,
2.767999996,21,200339.125,194231.7656,199964.2813,185353.3594,186056.6563,163459.6406,169836.6719,-15964.4834,,,
2.771999996,21,200352.0781,194241.0156,199974.5313,185382.0781,186064.25,163454.8125,169834.7656,-15962.12305,,,
2.775999996,21,200363.3438,194238.6094,199993.7344,185410.4063,186085.2031,163462.0156,169858.0938,-15953.70117,,,
2.779999996,21,200348.9688,194216.2656,199989.4531,185390.3125,186082.0781,163453.1094,169865.5781,-15959.70898,,,
2.783999996,21,200326.625,194203.7344,199965.9531,185360.7656,186054.3438,163429.5469,169844.875,-15974.32715,,,
2.787999996,21,200324.2188,194211.2969,199954.3125,185357.6406,186036.8125,163410.8906,169825.6406,-15980.71094,,,
2.791999996,21,200344.4375,194225.1875,199968.9531,185385.6719,186050.5156,163404.2969,169834.5,-15972.42285,,,
2.795999995,21,200352.0781,194220.3125,199977.7031,185398.1719,186064.2188,163399.5,169838.3594,-15967.00488,,,
2.799999996,21,200337.1719,194196.7813,199966.5625,185378.375,186055.0469,163381.7188,169827.5156,-15976.84863,,,
2.803999996,21,200339.6875,194201.8281,199964.9531,185371.4531,186050.3281,163373.7031,169827.5938,-15971.67188,,,
2.807999996,21,200357.3594,194227.1719,199971.8594,185374.2969,186053.0313,163376.5156,169828.6719,-15958.44824,,,
2.811999996,21,200366.375,194236.625,199976.9688,185373.2813,186057.0313,163380.1875,169835.8281,-15956.3291,,,
2.815999996,22,200383.0938,194243.5625,200001.0625,185392.1094,186086.25,163405.7969,169867.9688,-15936.56152,,,
2.819999995,22,200365.25,194220.4375,199992,185376.7969,186079.7031,163404.7031,169857.9688,-15942.73047,,,
2.823999995,22,200357.1563,194221.7031,199983.3281,185357.1875,186069.6406,163408.2656,169853.2656,-15941.01367,,,
2.827999995,22,200360.4844,194239.6719,199981.4531,185356.3281,186065.0781,163405,169856.9219,-15938.25098,,,
2.831999995,22,200378.3438,194261.1563,199995.6094,185388.625,186079.6406,163418.8125,169871,-15925.24316,,,
2.835999995,22,200385.0156,194261.1875,200003.3438,185407.6719,186091.5781,163433.8281,169883.6094,-15918.4834,,,
2.839999995,22,200378.4531,194249.3906,200001.0938,185398.7969,186092.9219,163447,169886.5625,-15914.94336,,,
2.843999995,22,200360.8281,194237.5625,199980.2969,185375.4844,186068.7344,163431.4688,169863.75,-15926.42285,,,
2.847999995,22,200352.1875,194236.7813,199966.5938,185358.3125,186050.6719,163406.9844,169856.5625,-15940.74609,,,
2.851999995,22,200366.375,194254.3438,199981.2969,185378.375,186068.1094,163420.6406,169888.1875,-15933.6377,,,
2.855999995,22,200374.3438,194257.25,199994.2813,185408.9531,186086.8125,163443.4063,169905.5156,-15923.58008,,,
2.859999995,22,200349.5625,194225.9688,199979.125,185401.3125,186072.6719,163429.1094,169889.7813,-15941.28223,,,
2.863999995,22,200352.4063,194228.6719,199983.8906,185409.0938,186072.0781,163432.1875,169893.4688,-15934.49609,,,
2.867999995,22,200345.4063,194232.9688,199967.125,185388.25,186050,163423.0781,169875.1875,-15942.46289,,,
2.871999995,22,200354.1719,194241.2031,199972.8125,185386.9375,186056.6563,163438.4688,169888.0313,-15935.32813,,,
2.875999995,22,200376.3594,194250.7344,199999.2969,185397.8594,186090.0469,163469.75,169923.8594,-15910.16895,,,
2.879999995,22,200359.25,194230.2031,199989.5625,185383.375,186084.5313,163458.4063,169913.3438,-15918.83203,,,
2.883999995,22,200345.8281,194224.7031,199972.4219,185367.8438,186065.5625,163444.2656,169894.25,-15927.49609,,,
2.887999995,22,200350.2031,194238.6094,199969.5156,185370.875,186057.1719,163433.1406,169884.1406,-15929.69531,,,
2.891999995,22,200385.6406,194269.7969,200003.8281,185416.875,186089.1719,163455.2031,169913.9219,-15905.55566,,,
2.895999995,22,200382.6563,194253.9219,200009.3438,185419.5,186096.7344,163456.2031,169924.3438,-15914.37988,,,
2.899999995,22,200351.7344,194217.5469,199985.4844,185382.3281,186074.875,163437.5313,169903.6719,-15937.90234,,,
2.903999995,22,200324.4219,194198.2031,199956.5938,185351.6406,186042.5469,163411.1406,169872.125,-15959.03809,,,
2.907999995,22,200339.0781,194220.6875,199964.0781,185366.25,186044.1094,163403.25,169877.9688,-15947.77344,,,
2.911999995,22,200358.0313,194240.2656,199974.7031,185389.0781,186051.9375,163407.25,169875.5625,-15936.69531,,,
2.915999995,22,200364.7656,194238.5781,199983.6563,185399.1406,186068.4531,163425.2188,169882.9375,-15925.34961,,,
2.919999995,22,200343.8438,194208.0781,199967.8594,185387.5781,186059.6563,163406.7656,169877.0938,-15936.61523,,,
2.923999995,22,200337.0156,194202.8438,199958.2031,185380.3438,186049.4688,163387.0469,169870.25,-15940.93359,,,
2.927999995,22,200346.0938,194219.2656,199960.1563,185371.75,186047.7188,163380.0469,169864.3438,-15939.67285,,,
2.931999995,22,200370,194239.8594,199981.7969,185389.0625,186067.2813,163392.3906,169873.7813,-15928.67578,,,
2.935999995,22,200382.875,194239.9219,200001.8594,185419.2344,186088.1719,163395.9844,169891.0313,-15921.51465,,,
2.939999995,22,200351.0313,194205.4531,199977,185400.4219,186063.9531,163365.2188,169865.9063,-15945.54688,,,
2.943999995,23,200327.625,194196.7813,199953.875,185371.375,186037.8281,163350.8906,169843.9688,-15955.98047,,,
2.947999995,23,200326.9531,194211.7031,199944.7031,185362.2344,186022.9219,163348.9688,169827.5781,-15957.24121,,,
2.951999995,23,200344.9219,194226.9375,199960.0469,185388.8438,186035.3281,163344.8125,169842.4844,-15951.52832,,,
2.955999995,23,200347.7344,194218.1094,199968.5781,185392.6563,186046.0156,163336.3906,169850.75,-15952.14551,,,
2.959999995,23,200335.8594,194197.3281,199966.4375,185376.875,186045.3594,163339.8438,169850.3438,-15952.70898,,,
2.963999995,23,200320.1719,194187.9844,199946.375,185356.7031,186024.4375,163319.4688,169834.5,-15961.3457,,,
2.967999995,23,200326.6563,194207.1094,199940.3906,185364.8125,186014.5,163311.8125,169821.2188,-15958.20703,,,
2.971999995,23,200336.125,194214.7344,199944.0625,185379.9063,186017.2344,163302.6719,169817.2969,-15958.93164,,,
2.975999995,23,200343.6875,194213.125,199951.875,185398.7188,186032.8906,163320.5,169832.6719,-15949.86523,,,
2.979999995,23,200323.5938,194189.625,199934.7031,185379,186020.8438,163313.9375,169819.2813,-15961.29199,,,
2.983999995,23,200309.75,194179.375,199920.5625,185351.1563,186003.4375,163296.3906,169810.5156,-15974.03223,,,
2.987999995,23,200321.1563,194192.0625,199929.2344,185363.8125,186002.125,163280.6563,169814.0313,-15972.31543,,,
2.991999995,23,200338.0781,194204.375,199947.8438,185387.3125,186017.6875,163290.3594,169829.5313,-15962.25684,,,
2.995999995,23,200339.8281,194197.0781,199958.2813,185400.7813,186031.7188,163304.7344,169840.9531,-15958.77051,,,
2.999999995,23,200340.7969,194191.0938,199971.3438,185403.6719,186048.2656,163320.7813,169861.4844,-15947.77344,,,
3.003999995,23,200317.3438,194177.9531,199945.1406,185382.1875,186017.7344,163295.7188,169828.0781,-15967.9707,,,
3.007999995,23,200311.3438,194183,199931.375,185373.9063,186000.3281,163276.2969,169813.6563,-15979.15527,,,
3.011999995,23,200319.8125,194186.2188,199938.6406,185380.3125,186007.1406,163271.8281,169821.9375,-15981.64941,,,
3.015999995,23,200328.5625,194179.1719,199953.3438,185378.7813,186025.8125,163288.1875,169838.5156,-15975.56055,,,
3.019999995,23,200321.6719,194157.6875,199955.0313,185365.875,186031.5781,163293.875,169851.0156,-15975.66797,,,
3.023999995,23,200333.7656,194173.8594,199966.4688,185369.4219,186041.8594,163303.8438,169866.8906,-15958.50195,,,
3.027999995,23,200341,194193.4688,199962.9219,185362.8281,186034.6563,163299.7188,169853.25,-15954.55957,,,
3.031999995,23,200346.7969,194198.4844,199959.9219,185362.6406,186031.1563,163294.1719,169842.3594,-15957.53613,,,
3.035999995,23,200342.9688,194185.9219,199958.9531,185367.1719,186035.125,163300.3594,169845.7813,-15959.41406,,,
3.039999995,23,200327.5156,194162.9375,199952.6406,185362.9844,186032.8594,163295.3438,169844.7656,-15965.90527,,,
3.043999995,23,200315.6094,194155.4219,199939.9688,185349.8125,186018.7656,163285.5,169831.625,-15970.75977,,,
3.047999995,23,200335.2656,194182.3281,199954.2344,185364.3594,186028.2031,163289.0469,169857.9844,-15957.50977,,,
3.051999995,23,200350.7969,194200.4844,199965.6563,185379.375,186037.7969,163300.5469,169876.4688,-15947.7998,,,
3.055999995,23,200356.5625,194199.1719,199975.0469,185400.4219,186050.1875,163312.5625,169882.0469,-15940.42383,,,
3.059999995,23,200347.625,194181.0156,199973.5938,185405.7344,186052.3594,163317.3906,169885.1406,-15938.65332,,,
3.063999995,23,200340.5469,194181.9844,199963.3281,185384.7656,186042.8906,163326.4688,169879.2813,-15933.58398,,,
3.067999995,23,200331.75,194186.4375,199942.1094,185368.375,186018.1406,163313.8281,169850.4063,-15944.74219,,,
3.071999995,24,200333.3594,194184.9531,199939.9375,185362.2031,186013.875,163301.0625,169850.7188,-15955.2832,,,
3.075999995,24,200343.2813,194180.9375,199955.625,185378.75,186031.9531,163316.3438,169872.7656,-15946.7002,,,
3.079999995,24,200341.2656,194172.8594,199961.8281,185389.6719,186044.6406,163332.625,169890.6563,-15936.18652,,,
3.083999995,24,200331.8906,194171.4063,199950.9531,185395.3906,186033.6719,163328.3906,169878.375,-15935.46191,,,
3.087999995,24,200338.5938,194187.7813,199950.7188,185413.7656,186028.8125,163327.5625,169872.5781,-15929.07813,,,
3.091999995,24,200350.2656,194195.2813,199960.4844,185387.2813,186038.6563,163327.9375,169883.7969,-15925.61816,,,
3.095999995,24,200357.6406,194193.1406,199975.4531,185378.8906,186059.5,163333.5625,169907.2031,-15918.4834,,,
3.099999995,24,200341.375,194177.375,199967.125,185372.8281,186055.1875,163334.1563,169900.6406,-15923.55273,,,
3.103999995,24,200316.375,194164.125,199941.3594,185358.2344,186027.0469,163322.2969,169874.3594,-15937.44727,,,
3.107999995,24,200316.3594,194172.5469,199933.125,185362.6406,186013.2031,163307.4219,169861.0781,-15942.08691,,,
3.111999995,24,200318.5625,194177.7188,199930.5781,185348.3906,186009.75,163301.6563,169859.5,-15947.74609,,,
3.115999995,24,200328.0156,194180.4063,199942.7031,185373.3906,186026.7969,163326.1719,169868.1875,-15935.86426,,,
3.119999995,24,200318.1563,194163.2813,199936.5781,185379.9844,186024.1719,163332.4219,169862.875,-15935.62305,,,
3.123999995,24,200316.0625,194160.875,199932.875,185344.7656,186020.2813,163324.0469,169865.3438,-15932.75293,,,
3.127999995,24,200311.2031,194163.375,199922.7344,185323.75,186007.6875,163296.2813,169856.9688,-15943.75,,,
3.131999995,24,200342.2969,194196.2813,199952.4531,185366.9844,186037.8594,163319.2969,169890.9844,-15919.82422,,,
3.135999995,24,200351.6875,194201.5625,199963.6406,185388.9688,186054.1406,163336.25,169900.9375,-15911.58984,,,
3.139999995,24,200326.5469,194169.6719,199947.4219,185363.0938,186041.75,163317.0781,169884.9219,-15927.70996,,,
3.143999995,24,200321.375,194160.1563,199946.1875,185340.0313,186037.8281,163300.3125,169883.25,-15926.61035,,,
3.147999995,24,200343.1719,194187.375,199961.8281,185360.6719,186046.6875,163300.25,169890.1563,-15911.02734,,,
3.151999995,24,200352.4063,194194.5,199968.2656,185360.1875,186049.6875,163303.6094,169886.9531,-15913.30664,,,
3.155999995,24,200354.7656,194189.4844,199973.1406,185372.375,186056.1406,163302.6406,169879.75,-15914.27246,,,
3.159999995,24,200336.7969,194165.8594,199960.5625,185369,186047.6406,163288.8281,169866.8438,-15924.43848,,,
3.163999995,24,200336.8281,194171.6875,199958.5156,185369.7188,186044.4531,163299.8594,169864.8906,-15913.79004,,,
3.167999995,24,200339.3125,194188.8281,199948.5469,185362.6875,186029,163289.3906,169843.75,-15913.52148,,,
3.171999995,24,200328.4219,194179.1719,199932.0469,185350.0625,186007.7656,163256.1094,169817.1719,-15936.50781,,,
3.175999995,24,200331.1094,194173.2188,199943.5313,185367.4063,186022.2188,163270,169833.5781,-15931.89453,,,
3.179999995,24,200319.8125,194155.7031,199950.2344,185372.4219,186033.6719,163276.2031,169853.8281,-15927.41504,,,
3.183999995,24,200300.0469,194144.3281,199933.9844,185352.5,186018.4375,163263.8906,169842.4063,-15933.82617,,,
3.187999995,24,200291.3906,194144.4531,199915.5,185335.0156,185996.5469,163246.8281,169819.125,-15945.17188,,,
3.191999995,24,200308.2813,194160.2031,199926.5156,185351.4844,186005.7188,163255.2031,169827.6563,-15937.07129,,,
3.195999995,24,200310.7031,194145.5313,199932.6719,185363.5781,186013.6094,163258.2188,169829.7188,-15939.67285,,,
3.199999995,25,200306.25,194136.1406,199931.4063,185364.1719,186019.4531,163277.9375,169836.4219,-15933.34277,,,
3.203999995,25,200300.875,194138.75,199922.6875,185358.4844,186010.8438,163269.3281,169834.8906,-15932.43066,,,
3.207999995,25,200294.2031,194145.1875,199906.2188,185357.4375,185988.7969,163249.0313,169812.1719,-15942.32813,,,
3.211999995,25,200300.7188,194156.7969,199904.9531,185392.25,185983.4375,163247.9063,169794.4688,-15945.8418,,,
3.215999995,25,200306.3438,194151.2656,199914.6875,185397.5,185997.6719,163255.5781,169811.5,-15944.92969,,,
3.219999995,25,200292.2656,194128.2344,199910.5156,185337.875,185999.3125,163252.5625,169820.2813,-15949.65039,,,
3.223999995,25,200278.9375,194118.8906,199898.875,185304.4063,185986.5469,163244.125,169812.125,-15951.12598,,,
3.227999995,25,200271.2188,194119.8594,199885.2656,185287.2969,185967.6563,163230.4375,169792.4063,-15961.77441,,,
3.231999995,25,200283.7969,194128.125,199896.3438,185301.9844,185977.1094,163228.0313,169804.2969,-15959.84277,,,
3.235999995,25,200306.75,194139.0156,199924.7031,185328.2969,186011.4063,163258.0625,169850.8594,-15939.27051,,,
3.239999995,25,200307.2031,194130.0781,199931.9219,185340.375,186024.7344,163268.0469,169862.7188,-15930.09766,,,
3.243999995,25,200290.9219,194117.3125,199911.2813,185333.7969,186004.4375,163255.4844,169834.6875,-15938.46582,,,
3.247999995,25,200288.5938,194123.6719,199900.375,185307.8906,185989.3125,163253.4063,169819.9531,-15939.45801,,,
3.251999995,25,200321.9375,194157.3125,199931.1563,185333.9375,186018.375,163274.4219,169861.6719,-15915.9082,,,
3.255999995,25,200349.5938,194178.3906,199962.3594,185368.4531,186056.2031,163308.5469,169896.1875,-15890.37402,,,
3.259999995,25,200338.4063,194155.4219,199960.6875,185362.875,186058.7813,163298.4844,169888.0781,-15893.40527,,,
3.263999995,25,200320.2188,194139.3594,199942.7969,185339.1875,186039.5781,163294.4844,169872.5313,-15901.98828,,,
3.267999995,25,200317.7188,194149.4219,199936.6875,185334.5,186029.2969,163305.0781,169874.3281,-15900.24414,,,
3.271999995,25,200350.0781,194185.3594,199966.0625,185371.1875,186057.4688,163326.5156,169908.7969,-15874.3877,,,
3.275999995,25,200358.7344,194193.9688,199975.7188,185379.0469,186070.9219,163342.6875,169920,-15866.42188,,,
3.279999995,25,200327.1875,194157.7813,199948.4688,185346.7344,186046.9688,163327.7031,169893.0469,-15887.90625,,,
3.283999995,25,200314.6094,194152.1094,199933.3594,185330.6875,186030.7813,163331.1563,169880.3906,-15888.49609,,,
3.287999995,25,200329.7969,194180.375,199939.6406,185343.6406,186032.6563,163349.4688,169888.6406,-15871.86719,,,
3.291999995,25,200339.5313,194193.7344,199943.2656,185367.3281,186034.9063,163343.7656,169888.4844,-15872.37598,,,
3.295999995,25,200340.7344,194189.25,199948.8438,185387.2344,186045.0938,163349.0781,169894.4688,-15872.77832,,,
3.299999995,25,200324.1875,194168.3906,199940.1719,185379.3438,186042.5469,163346.25,169892.3281,-15878.51855,,,
3.303999995,25,200309.2969,194151.5625,199930.2031,185366.1719,186031.2344,163331.4844,169890.0938,-15886.48438,,,
3.307999995,25,200303.5938,194149.5781,199923.2813,185360.1406,186018.5625,163313.5938,169884.25,-15895.92578,,,
3.311999995,25,200322.7188,194166.9063,199942.3281,185393.1875,186035.0938,163317.8281,169897.2813,-15886.75293,,,
3.315999995,25,200330.4375,194169.9688,199953.4531,185409.9844,186052.4219,163337.9219,169911.0781,-15879.48438,,,
3.319999995,25,200310.2344,194145.6719,199940.2344,185380.4219,186044.8281,163336.1719,169905.2813,-15889.43555,,,
3.323999995,25,200307.2344,194145.3125,199938.8125,185353.3281,186042.2344,163329.2031,169901.9531,-15882.35449,,,
3.327999995,26,200300.4219,194146.6094,199927.4375,185343.625,186024.0469,163293.3438,169883.4688,-15896.32813,,,
3.331999995,26,200315.4688,194167.1563,199937.5938,185359.5,186031.1563,163303.2656,169885.8594,-15890.21289,,,
3.335999995,26,200343.2344,194184.2656,199964.75,185394.0156,186062.9531,163323.5313,169903.8281,-15867.33398,,,
3.339999995,26,200326.6563,194156.9375,199952.4375,185373.6406,186057.5938,163292.3906,169901.0469,-15881.68359,,,
3.343999995,26,200317.4844,194152.3438,199945.6406,185356.3281,186051.1875,163291.6719,169903.8906,-15880.93262,,,
3.347999994,26,200320.7813,194169.9063,199939.125,185356.9219,186039.4063,163296.9531,169882.5,-15877.36523,,,
3.351999995,26,200332.3438,194178.25,199947.7969,185364.3594,186045.6875,163292.8281,169886.9844,-15874.95117,,,
3.355999995,26,200341.75,194173.875,199964.6875,185373.4375,186065,163289.4531,169909.1406,-15869.64063,,,
3.359999995,26,200333.0938,194158.5938,199964.375,185372.375,186066.875,163282.7344,169906.4375,-15871.54492,,,
3.363999995,26,200329.3594,194163.6563,199958.25,185359.5781,186059.2656,163289.0781,169897.8281,-15865.91211,,,
3.367999994,26,200339.5781,194182.7813,199958.5781,185366.4375,186055.8594,163300.4375,169897.3438,-15857.06055,,,
3.371999995,26,200343.3125,194187.875,199956.8594,185372.5625,186051.9375,163297.5781,169884.1406,-15861.51367,,,
3.375999995,26,200339.4688,194177.2813,199952.4531,185369.0469,186052.2031,163297.5469,169876.2813,-15868.19238,,,
3.379999995,26,200310.7813,194147.2813,199928.5156,185343.5938,186029.75,163285.1094,169848.125,-15886.75293,,,
3.383999995,26,200285.6719,194125.7656,199903.7031,185320.0938,186003.25,163271.6094,169831.5469,-15901.26367,,,
3.387999994,26,200286.0469,194134.5313,199896.3438,185319.2188,185991.5313,163266.375,169834.5156,-15901.26367,,,
3.391999994,26,200302.6563,194154.3594,199905.6094,185360.0625,185998.0313,163271.5313,169832.375,-15892.00977,,,
3.395999995,26,200317.1406,194157.1719,199923.8906,185391.7344,186019.0781,163285.2344,169855.0938,-15882.19336,,,
3.399999995,26,200290.25,194125.3125,199904.0781,185373.7188,186001.375,163263.5156,169829.9375,-15901.69336,,,
3.403999995,26,200274.8125,194112.1875,199889.3438,185354.2344,185985.2813,163237.5156,169808.8281,-15912.31445,,,
3.407999995,26,200281.4844,194128.875,199890.0781,185341.7969,185983.8281,163250.6406,169813.625,-15905.55566,,,
3.411999994,26,200290.7188,194138.4219,199896.5938,185348.6563,185991.1094,163254.3125,169817.5469,-15901.4248,,,
3.415999995,26,200300,194134,199909.2031,185366.2031,186008.4375,163256.5938,169827.4063,-15895.33594,,,
3.419999995,26,200284.2188,194109.1094,199901.8438,185350.5156,186007.3281,163256.4531,169832.0313,-15900.24414,,,
3.423999995,26,200281.5625,194107.8438,199900.4063,185337.7188,186006.0156,163254.3906,169839.4844,-15894.6123,,,
3.427999995,26,200298.0625,194135.125,199906.5469,185346.25,186006.8281,163256.8594,169832.7031,-15881.25488,,,
3.431999994,26,200305.875,194145.6719,199908.7969,185356.9688,186005.7188,163252,169823.5313,-15884.20508,,,
3.435999994,26,200311.8438,194141.1094,199920.5156,185374.2969,186019.8906,163251.9219,169834.5156,-15885.25098,,,
3.439999995,26,200295.4063,194116.9688,199914.2656,185358.375,186018.1719,163253.6406,169841.875,-15890.99121,,,
3.443999995,26,200278.0313,194100.5469,199897.3125,185333.3125,186000.1406,163235.9375,169830.6875,-15900.83496,,,
3.447999995,26,200290.0469,194118.1406,199900.9844,185342.1719,185999.125,163241.5156,169829.2031,-15889.91797,,,
3.451999995,26,200302.1094,194130.8906,199910.7188,185366.2813,186005.7188,163239.6406,169836.125,-15887.69141,,,
3.455999994,27,200303.0469,194121.7656,199919.5156,185366.625,186019.4219,163238,169849.5156,-15888.1748,,,
3.459999994,27,200299.0781,194107.625,199924.2656,185350.0781,186032.1094,163254.3594,169863.7344,-15879.69922,,,
3.463999994,27,200280.5781,194095.5625,199903.7031,185332.7031,186011.8438,163244.7344,169843.375,-15888.25488,,,
3.467999994,27,200267.4063,194097.1094,199880.9063,185314.7656,185984.6094,163220.0625,169814.1563,-15903.08789,,,
3.471999994,27,200262.7188,194099.9375,199870.8438,185315.0781,185973.3438,163206.625,169805.4219,-15915.80176,,,
3.475999994,27,200273.875,194102.0781,199884.0313,185338.7969,185989.6563,163223.0313,169822.7188,-15907.88867,,,
3.479999994,27,200252.0938,194070.75,199868.4063,185327.25,185977.2344,163206.0313,169811.75,-15924.57227,,,
3.483999994,27,200223.7969,194050.6406,199840.0469,185298.3125,185948.625,163191.125,169792.0156,-15941.60449,,,
3.487999994,27,200219.3594,194059.9375,199827.7031,185288.7969,185930.8281,163188.8594,169781.0938,-15945.49316,,,
3.491999994,27,200225.5625,194068.3125,199827.9219,185300,185928.4219,163184.625,169779.375,-15949.40918,,,
3.495999994,27,200229.3906,194056.7813,199840.8594,185322.3281,185943.7031,163182.9688,169792.2969,-15950.26758,,,
3.499999994,27,200214.3438,194033.2813,199836.1406,185314.3906,185942.6406,163183.5781,169789.7344,-15955.0957,,,
3.503999994,27,200191.0156,194017.7969,199812.5313,185287.2656,185920.2188,163165.4531,169771.75,-15967.75586,,,
3.507999994,27,200194,194031.1875,199807.7813,185284.0469,185913.4844,163155.3438,169773.4219,-15964.64453,,,
3.511999994,27,200203.2188,194040.6094,199810.0156,185296.625,185913.7969,163156,169762.5313,-15961.88184,,,
3.515999994,27,200212.5313,194037.8594,199821.75,185309.6563,185929.3281,163177.2188,169766.125,-15952.52051,,,
3.519999994,27,200213.2188,194026.7031,199833.3125,185309.6406,185946.7188,163184.1406,169792.8594,-15945.03711,,,
3.523999994,27,200198.3906,194014.3438,199818.7188,185289.1406,185933.0313,163163.0313,169780.875,-15954.21094,,,
3.527999994,27,200205.7188,194028.9844,199818.6406,185291.6406,185929.9219,163152.2813,169773.9531,-15951.01855,,,
3.531999994,27,200215.3438,194041.1875,199823.7188,185298.3906,185934.8281,163164.8125,169779,-15946.83496,,,
3.535999994,27,200225.9844,194041.7031,199838.5,185313.1719,185953.9063,163183.5781,169795.7656,-15939.53906,,,
3.539999994,27,200222.3125,194025.9063,199843.7031,185313.5,185962.5156,163183.125,169802.4688,-15938.62695,,,
3.543999994,27,200216.4688,194023.8594,199836.4219,185306.7344,185952.9844,163182.2344,169782.8125,-15933.37012,,,
3.547999994,27,200224.7656,194047.4688,199834.9063,185301.6094,185946.5313,163186.3125,169778.1875,-15924.30371,,,
3.551999994,27,200250.9688,194075.9219,199859.625,185318.7031,185968.0313,163194.0156,169810.1094,-15908.69336,,,
3.555999994,27,200268.9844,194084.4531,199882.7813,185345.0625,185992.125,163208.875,169833.5625,-15896.30176,,,
3.559999994,27,200255.3281,194064.0938,199875,185336.1406,185987.0469,163216.5938,169822.2969,-15897.99121,,,
3.563999994,27,200250.9844,194061.625,199872.375,185325.5938,185985.7188,163219.7656,169828.5469,-15889.75684,,,
3.567999994,27,200255.9844,194076.625,199870.1406,185323.3438,185978.8125,163213.0625,169833.5781,-15886.24316,,,
3.571999994,27,200264.6094,194086.8438,199871.4063,185333.5313,185977.7969,163203.3281,169828.2656,-15890.21289,,,
3.575999994,27,200272.5,194084.9688,199881.4688,185336.5156,185990.4531,163207.9688,169835.375,-15888.3623,,,
3.579999994,27,200259.2188,194063.9063,199875.0469,185323.4219,185988.1875,163214.4531,169830.8438,-15891.23242,,,
3.583999994,28,200240.9063,194052.3281,199854.6094,185299.25,185969.0625,163219.25,169804.4844,-15894.12891,,,
3.587999994,28,200249.4688,194069.8906,199859.5156,185300.0625,185971.6563,163218.5625,169819.7344,-15886.69922,,,
3.591999994,28,200266.4688,194088.9844,199873.3125,185323.7656,185981.7656,163214.2344,169833.7656,-15883.34668,,,
3.595999994,28,200268.8594,194084.2344,199879.2969,185338.3906,185987.0781,163215.6406,169832.6719,-15886.83301,,,
3.599999994,28,200259.2031,194074.75,199879.5625,185328.4844,185990.5469,163233.9844,169834.7031,-15883.2666,,,
3.603999994,28,200237.2813,194062.5156,199858.6094,185305.0156,185969.4531,163222.7969,169816.125,-15893.35156,,,
3.607999994,28,200227.625,194060.6875,199839.625,185291.0781,185945.6406,163199.2969,169787.5781,-15904.45605,,,
3.611999994,28,200239.9063,194073.1406,199845.2031,185307.1094,185949.2813,163189.4844,169792.2969,-15904.64355,,,
3.615999994,28,200257.75,194080.0625,199865.9531,185341.9844,185971.7188,163205.6094,169818.3281,-15893.29785,,,
3.619999994,28,200254.0938,194065.2031,199871.6719,185346.75,185981.4219,163227.25,169831,-15886.35059,,,
3.623999994,28,200246.75,194058.5156,199864.5938,185346.7031,185974.9844,163232.0469,169824.5156,-15884.6875,,,
3.627999994,28,200250.2188,194076.9531,199856.2031,185355.0938,185962.375,163223.5938,169802.1719,-15884.41992,,,
3.631999994,28,200258.5469,194091.8906,199858.6094,185351.4844,185962.9375,163220.1875,169797.4063,-15881.46875,,,
3.635999994,28,200277.1094,194096.0156,199885.2969,185380.3438,185991.7188,163221.7813,169838.9688,-15869.39941,,,
3.639999994,28,200255.125,194062.7031,199873.0469,185324.6563,185985.0156,163217.7813,169834.2031,-15881.46875,,,
3.643999994,28,200238.8594,194047.0156,199860.0313,185273.9063,185975.5469,163222.3438,169828.5469,-15883.69531,,,
3.647999994,28,200235.1094,194056.375,199846,185270.0781,185960.7656,163215.0625,169816.6875,-15885.94824,,,
3.651999994,28,200238.5781,194066,199840.9375,185271.1406,185953.4531,163213.3281,169804,-15889.56934,,,
3.655999994,28,200266.875,194081.2969,199872.4531,185314.0938,185986.25,163244.7031,169833.7188,-15863.9541,,,
3.659999994,28,200270.2188,194067.9844,199881.7813,185327.9063,185998.8594,163250.1563,169849.1406,-15854.3252,,,
3.663999994,28,200250.3438,194046.9063,199860.6406,185310.25,185978.6563,163229.5781,169826.7656,-15865.72461,,,
3.667999994,28,200256.5469,194065.3125,199856.2031,185293.6719,185973.1875,163227.1406,169815.7656,-15859.74316,,,
3.671999994,28,200252.6875,194066.6719,199846.5938,185270.4688,185963.4844,163220.5156,169800.7813,-15870.55273,,,
3.675999994,28,200271.7813,194074.9688,199873.6563,185312.7188,185995.2656,163248.5781,169841.9219,-15854.64746,,,
3.679999994,28,200270,194062.1094,199885.1875,185339.1719,186012,163249.1094,169865.5469,-15850.43555,,,
3.683999994,28,200259.4688,194056.1094,199875.5313,185317.8125,186003.7969,163249.6406,169857.1094,-15849.33594,,,
3.687999994,28,200246.4844,194055.9219,199855.2813,185276.2656,185981.7656,163233.5781,169831.25,-15859.95801,,,
3.691999994,28,200266.8438,194082.1563,199870.7031,185310.4375,185992.3906,163245.1094,169839.1563,-15849.20215,,,
3.695999994,28,200274.2188,194087.25,199881.2188,185345.25,186003.125,163253.6875,169843.4844,-15846.78809,,,
3.699999994,28,200246.4844,194051.5,199864.1563,185313.2813,185989.5469,163225.5,169833.5,-15870.15039,,,
3.703999994,28,200220.3281,194027.8906,199840.9063,185273.875,185965.0625,163211.3906,169811.3438,-15885.57324,,,
3.707999994,28,200219.7656,194039.9531,199830.4688,185270.375,185951.8594,163216.4688,169798.3594,-15882.43457,,,
3.711999994,29,200240.2031,194065.125,199843.5938,185284.0938,185965.3281,163229.9531,169810.5938,-15865.69727,,,
3.715999994,29,200266.0313,194081.3125,199870.4375,185321.4375,185998.8906,163250.2813,169843.9688,-15843.05957,,,
3.719999994,29,200249.8438,194056.6094,199861.3125,185313.7344,185998.7969,163249.7031,169847.7188,-15849.09473,,,
3.723999994,29,200232.8906,194042.5,199844.5625,185294.7188,185986.0156,163242.7188,169840.3125,-15855.85352,,,
3.727999994,29,200228.1719,194045.4375,199832.0625,185285.6563,185967.9063,163227.4688,169823.6094,-15862.96191,,,
3.731999994,29,200245.9531,194068.7344,199842.8594,185334.0469,185973.1563,163237.5938,169816.25,-15853.60059,,,
3.735999994,29,200262.9531,194080.1719,199866.1406,185347.7969,185997.1719,163249.2188,169840.8281,-15842.14746,,,
3.739999994,29,200250.3125,194058.0625,199864.9688,185294.7813,186003.3594,163250.5625,169862.3125,-15845.07129,,,
3.743999994,29,200244.6094,194053.6406,199855.4219,185294.4063,185996.7031,163261.875,169850.5938,-15837.6416,,,
3.747999994,29,200232.3438,194049.375,199831.0156,185274.9219,185969.1875,163244.8438,169818.7188,-15849.76563,,,
3.751999994,29,200249.7813,194069.3281,199842.6719,185286.25,185978.5313,163250.375,169830.3125,-15840.27051,,,
3.755999994,29,200275.3125,194085.0781,199874.9375,185327.3438,186011.1719,163270.8594,169864.2344,-15819.42969,,,
3.759999994,29,200273.3125,194069.9531,199882.2969,185321.8125,186022.7813,163272.9844,169876.875,-15815.56738,,,
3.763999994,29,200238.3594,194043.1719,199847.1563,185260.5469,185991.1875,163250.1875,169843.1563,-15838.63379,,,
3.767999994,29,200223.2031,194038.5938,199823.8281,185244.2656,185966.5938,163231,169815.4844,-15852.68848,,,
3.771999994,29,200243.3125,194054.4219,199840.1563,185276.5938,185981.125,163235.3281,169828.4531,-15843.51563,,,
3.775999994,29,200270.0625,194068.9531,199872.2813,185317.6094,186015.8125,163260.9063,169860.1094,-15823.96289,,,
3.779999994,29,200266.5781,194055.9219,199878.2656,185324.0938,186025.5781,163269.2969,169873.3281,-15821.84375,,,
3.783999994,29,200251.3594,194043.7188,199864.4531,185303.9688,186012.7188,163267.1563,169867.6406,-15825.33008,,,
3.787999994,29,200249.625,194054.25,199856.2969,185299.0625,186001.4531,163258.7969,169860.2656,-15824.98145,,,
3.791999994,29,200258.9531,194068.5781,199860.5625,185319.875,186002.3125,163257.4688,169856.3594,-15822.6748,,,
3.795999994,29,200269.8438,194070.2656,199873.25,185333.1563,186018.8438,163274.75,169868.1563,-15814.62793,,,
3.799999994,29,200261.7656,194053.2031,199873.2344,185323.5625,186023.3125,163276.1719,169872.4531,-15814.68164,,,
3.803999994,29,200256.0313,194045.8906,199868.8281,185306.3438,186018.6719,163268.0469,169873.25,-15811.59766,,,
3.807999994,29,200251.8438,194058.3281,199852.875,185295.6406,186001.3438,163260.2344,169859.5156,-15812.29492,,,
3.811999994,29,200252.0313,194069.7031,199844.125,185309.9844,185991.375,163249.9688,169843.2188,-15818.65137,,,
3.815999994,29,200260.5625,194067.375,199855.9063,185353.7656,186004.3281,163259.2188,169845.625,-15815.51367,,,
3.819999994,29,200262.9844,194054.9844,199870.7813,185323.2813,186025.7344,163288.4531,169870.4063,-15800.09082,,,
3.823999994,29,200238.4375,194027.9688,199848.7344,185267.9063,186007.25,163283.4063,169862.875,-15808.72754,,,
3.827999994,29,200229.7188,194020.5938,199831.5469,185267.0625,185987.8906,163267.1563,169848.3594,-15817.17676,,,
3.831999994,29,200238.7656,194025.3906,199833.2031,185286.1719,185986.4844,163266.1406,169842.4375,-15818.75879,,,
3.835999994,29,200260.1563,194024.4844,199861.1875,185351.0156,186011.3281,163278.0469,169859.2031,-15808.05664,,,
3.839999994,30,200264.7031,194006.4375,199872.2813,185322.7031,186027.125,163288.2969,169878.375,-15801.32422,,,
3.843999994,30,200241.625,193985.9063,199846.0313,185253.6875,186004.4844,163279.5781,169863.0938,-15812.66992,,,
3.847999994,30,200251.5469,194013.9688,199846.1094,185254.2813,186000.7344,163277.5625,169862.3906,-15803.12207,,,
3.851999994,30,200259.4688,194033.2031,199848.1563,185282.3906,185997.2969,163266.5469,169846.8594,-15804.7041,,,
3.855999994,30,200274.2969,194043.7188,199871.7031,185298.3125,186021.9844,163280.4688,169866.7031,-15793.94824,,,
3.859999994,30,200259.3594,194020.9688,199868.2188,185280.6875,186024.2031,163283.9219,169862.125,-15798.21289,,,
3.863999994,30,200251.6875,194016.1406,199864.4844,185275.4063,186025.1406,163285.6719,169870.9688,-15794.51172,,,
3.867999994,30,200268,194046.6719,199873.6875,185288.7656,186032.625,163299.8594,169884.9531,-15777.3457,,,
3.871999994,30,200275.3125,194064.125,199874.5625,185307.5469,186031.2344,163297.9844,169875.5313,-15777.88184,,,
3.875999994,30,200280.2031,194066.8594,199879.8281,185328.0156,186040.6719,163300.2031,169878.4844,-15780.18848,,,
3.879999994,30,200260.8125,194042.3125,199867.8906,185316.6094,186037.0781,163300.5,169879.4531,-15792.125,,,
3.883999994,30,200247.2031,194029.125,199856.1094,185300.5469,186028.3594,163301.4375,169870.9531,-15795.29004,,,
3.887999994,30,200236.75,194030.0313,199835.2969,185289.6563,186004.0625,163288.7031,169840.5625,-15804.30176,,,
3.891999994,30,200255.5781,194051.4375,199847.2969,185322.8594,186013.9844,163289.5781,169853.5313,-15796.44336,,,
3.895999994,30,200271.2656,194059.9688,199869.7656,185339.375,186039.625,163303.0469,169887.625,-15785.58008,,,
3.899999994,30,200257.8594,194038.25,199865.2031,185318.7344,186040.2188,163300.2031,169890.0469,-15789.68359,,,
3.903999994,30,200238.6719,194022.2813,199848.1563,185294.75,186024.4375,163288.2344,169870.625,-15793.84082,,,
3.907999994,30,200244.4219,194041.8438,199842.5625,185299.3594,186016.2656,163281.7969,169857.5625,-15786.19727,,,
3.911999994,30,200248.5469,194052.6406,199837.4219,185288.0469,186011.3594,163274.2344,169853.4375,-15788.95996,,,
3.915999994,30,200268.2656,194064.0781,199860.7031,185294.5313,186039.5469,163298.2188,169882.5938,-15772.19629,,,
3.919999994,30,200254.0469,194040.7656,199855.3906,185289.4063,186038.4219,163300.7188,169881.7813,-15776.94336,,,
3.923999994,30,200250.2969,194037.7344,199854.5625,185293.2813,186038.5469,163309.5156,169879.3125,-15769.00391,,,
3.927999994,30,200229.6094,194028.6719,199826.8281,185257.9219,186008.8281,163284.8125,169845.8906,-15789.41602,,,
3.931999994,30,200245.1719,194047.2031,199838.0313,185278.7344,186016.4219,163282.6563,169853.3438,-15784.1582,,,
3.935999994,30,200279.1875,194071.9063,199877.4688,185316.7656,186058.0313,163318.8906,169896.75,-15756.58496,,,
3.939999994,30,200273.4375,194050.5781,199881.625,185325.2188,186066.125,163321.125,169907.4531,-15758.27539,,,
3.943999994,30,200265.9063,194034.2188,199872.8594,185317.9531,186059.4531,163306.4219,169896.3125,-15760.85059,,,
3.947999994,30,200262.3594,194035.0313,199857.625,185291.4531,186042.5,163291.8594,169882.7969,-15765.75879,,,
3.951999994,30,200279.4531,194058.5469,199867.8125,185305.2344,186050.3281,163309.3438,169891.7656,-15753.74219,,,
3.955999994,30,200298.3281,194071.2344,199890.6875,185337.8281,186074.5,163330.8906,169908.0156,-15737.62207,,,
3.959999994,30,200291.7031,194053.8281,199898.125,185362.9531,186084.5313,163328.125,169917.2656,-15736.44238,,,
3.963999994,30,200266.5938,194034.75,199877.5,185339.7344,186065.8906,163314.0938,169894.9531,-15748.72656,,,
3.967999994,31,200266.3125,194046.4219,199871.6406,185297.0625,186059.7188,163311.125,169889.8594,-15745.85645,,,
3.971999994,31,200282.1563,194068.3438,199880.9219,185311.1406,186066.8438,163322.0313,169902.2969,-15735.95898,,,
3.975999994,31,200291.3281,194072.2188,199891.4688,185331.3125,186076.6719,163332.4219,169910.9844,-15733.54492,,,
3.979999994,31,200270.3594,194040.9531,199879.5313,185324.2813,186067.4063,163323.0781,169904.8438,-15749.04883,,,
3.983999993,31,200251.2813,194024.0781,199861.4063,185300.0938,186051.1875,163316.8281,169890.2813,-15756.71973,,,
3.987999993,31,200235.0625,194018.0469,199837.875,185269.9375,186027.1563,163296.375,169870.8438,-15771.49805,,,
3.991999994,31,200251.2031,194038.0313,199849.25,185310.5938,186036.8594,163305.8125,169881.7813,-15762.94238,,,
3.995999994,31,200267.7813,194049.6875,199868.3438,185340.9063,186057.4375,163318.8438,169901.2813,-15752.91113,,,
3.999999994,31,200248.4375,194022.125,199857.625,185306.7656,186050.3594,163314.0625,169895.3594,-15762.43262,,,
4.003999993,31,200240.0156,194014.9375,199849.5156,185280.5938,186043.1094,163329.2188,169886.0156,-15756.39746,,,
4.007999993,31,200239.8125,194023.9531,199842.5469,185265.6406,186034.6875,163334.1875,169888.3281,-15753.58105,,,
4.011999994,31,200248.8906,194039.9531,199846.9688,185277.75,186039.7656,163327.3125,169897.6875,-15751.62305,,,
4.015999994,31,200271.3281,194057.2031,199876.2031,185305.2031,186072.2656,163341.1094,169923.625,-15733.54492,,,
4.019999994,31,200251.7188,194030.0625,199864.5938,185285.875,186065.0781,163324.6094,169911.125,-15748.13672,,,
4.023999994,31,200247.4219,194022.7969,199861.9688,185284.9844,186063.6875,163320.0313,169907.3906,-15744.13965,,,
4.027999993,31,200252.9219,194037.625,199859.6094,185288.6406,186058.6406,163317.75,169907.6875,-15739.66113,,,
4.031999993,31,200266.3906,194055.2188,199867.3594,185296.3594,186061.8281,163325.2031,169910.6719,-15735.28906,,,
4.035999994,31,200272.2031,194053.7969,199877.2031,185310.5156,186071.5938,163334.7188,169914.5625,-15734.53809,,,
4.039999994,31,200283.6875,194051.1719,199896.6094,185333.3125,186096,163354.7031,169939.4531,-15717.45215,,,
4.043999994,31,200276.1719,194044.7813,199890.8281,185317.2031,186091.875,163350.4219,169938.3438,-15717.2373,,,
4.047999993,31,200260.4063,194043.5313,199866.1406,185307.5156,186064.5625,163332.4375,169908.9219,-15729.3877,,,
4.051999993,31,200267.1875,194057.0156,199865.2813,185324.0625,186061.6719,163321.0156,169903.9688,-15732.36523,,,
4.055999994,31,200283.4219,194067.4531,199887.1563,185356.6563,186086,163333.6563,169923.4063,-15721.18066,,,
4.059999994,31,200276.6563,194051.3281,199894.5781,185347.1563,186100.8594,163346.5781,169950.2656,-15716.19141,,,
4.063999994,31,200263.2188,194037.8438,199882.8906,185346.9688,186093.4844,163341.7969,169941.1094,-15714.95703,,,
4.067999994,31,200251.6875,194042.1875,199860.5469,185325.4063,186070.8438,163337.4531,169910.125,-15716.72754,,,
4.071999993,31,200256.1094,194053.7969,199856.1406,185286.0625,186063.2813,163339.9219,169896.125,-15717.98828,,,
4.075999993,31,200268.0781,194054.4219,199873.3906,185292.8438,186081.7656,163352.6875,169920.4375,-15713.21387,,,
4.079999994,31,200260.625,194035.3125,199878.1094,185294.125,186088.875,163354.5781,169932.8438,-15716.83496,,,
4.083999994,31,200251.4531,194026.5781,199870.5781,185292.6563,186080.2813,163354.625,169925.4219,-15717.2373,,,
4.087999994,31,200254.2656,194035.75,199861.5,185293.1406,186067.0938,163348.8594,169911.3906,-15713.91113,,,
4.091999993,31,200243.0313,194029.125,199837.9375,185283.1094,186039.5938,163316.9688,169877.8906,-15737.24707,,,
4.095999993,32,200268.3125,194040.6875,199865.6563,185329.25,186067.5156,163330.0625,169903.7813,-15720.53613,,,
4.099999993,32,200281.0313,194041.4531,199887.5781,185341.2344,186094.4531,163359.7188,169931.1406,-15700.71484,,,
4.103999993,32,200254.2656,194019.7813,199861.6406,185291.0781,186072.6406,163350.4688,169910.7031,-15713.64355,,,
4.107999993,32,200223.9219,194003.2969,199824.7656,185242.8438,186034.2344,163318.5469,169874.8906,-15739.44629,,,
4.111999993,32,200222.7188,194005.1094,199816.8438,185238.0781,186023.0781,163303.3906,169857.0469,-15749.39746,,,
4.115999993,32,200250.0313,194020.1406,199850.0781,185286.7344,186057.9219,163323.4531,169893.3906,-15729.92383,,,
4.119999993,32,200257.8594,194017.9063,199867.9219,185314.1719,186079.5313,163342.75,169919.4063,-15715.49414,,,
4.123999993,32,200239.9688,194004.4219,199852.3906,185309.2031,186064.625,163335.8281,169901.0156,-15720.34863,,,
4.127999993,32,200232.7813,194011.7656,199837.4688,185285.3281,186048.0469,163336.6563,169891.4688,-15719.46387,,,
4.131999993,32,200229.0469,194019.25,199826.8594,185281.6563,186035.5,163329.7656,169881.4063,-15726.8125,,,
4.135999993,32,200252.4688,194035.2969,199852.5156,185319.9688,186062.5,163348.4063,169908.0625,-15711.41699,,,
4.139999993,32,200243.4531,194017.2656,199851.4219,185322.5313,186064.9688,163349.5781,169910.1875,-15716.03027,,,
4.143999993,32,200231.25,194003.4063,199840.6406,185300.1406,186056.9219,163341.7813,169901.6875,-15718.57813,,,
4.147999993,32,200224.5781,194003.4063,199825.6406,185282.9688,186040.8281,163323.5313,169886.4531,-15723.4873,,,
4.151999993,32,200233.875,194015.0156,199828.7344,185284.75,186043.8906,163328.6094,169890.875,-15720.75098,,,
4.155999993,32,200270.7344,194041.6563,199870.3594,185315.0781,186088.7656,163364.7656,169932.6406,-15689.10059,,,
4.159999993,32,200259.3281,194023.5938,199869.0781,185304.375,186091.6406,163359.9844,169934.4063,-15693.875,,,
4.163999993,32,200240.9531,194007.9531,199852.9531,185317.3125,186076.5625,163354.2969,169917.8906,-15699.53516,,,
4.167999993,32,200240.0781,194017.7031,199845.2813,185335.4688,186063.3594,163351.5469,169902.625,-15695.80664,,,
4.171999993,32,200244.3906,194034.0781,199844.9531,185293.5156,186059.0156,163349.4531,169903.0469,-15695.00195,,,
4.175999993,32,200250.9844,194037.7656,199857.5313,185269.4531,186073.8438,163351.8125,169924.2344,-15692.61426,,,
4.179999993,32,200246.7031,194020.0625,199863.0625,185301.1406,186082.5938,163352.6875,169936.5,-15691.35449,,,
4.183999993,32,200228.7813,194001.25,199844.875,185284.5781,186066.6406,163349.4531,169919.0938,-15697.7373,,,
4.187999993,32,200234.4219,194017.7188,199841.125,185282.7031,186062.9375,163357.7656,169914.6719,-15687.89355,,,
4.191999993,32,200247.75,194034.0781,199847.6875,185295.5469,186069.0469,163367.3125,169921.875,-15681.53711,,,
4.195999993,32,200254.2656,194031.8906,199854.9375,185298.1094,186079.0469,163370.5625,169932.2656,-15684.56836,,,
4.199999993,32,200248.625,194014.375,199856.4688,185301.6406,186083.9844,163369.8281,169933.125,-15687.35742,,,
4.203999993,32,200233.9375,194000.2813,199846.2188,185281.0938,186074.625,163361.7813,169923.5781,-15692.42676,,,
4.207999993,32,200233.9844,194014.2969,199840.6094,185272.625,186065.7031,163353.0156,169913.625,-15692.8291,,,
4.211999993,32,200250.5313,194036.3594,199850.1406,185296.1094,186071.8438,163358.5156,169913,-15683.2002,,,
4.215999993,32,200261,194045.5313,199861.7969,185303.625,186085.5781,163378.2813,169925.9531,-15672.31055,,,
4.219999993,32,200255.5469,194035.7188,199865.4688,185301.5313,186092.7656,163382.0938,169934.8906,-15669.52051,,,
4.223999993,33,200236.5313,194018.7656,199847.2969,185285.5,186077.6875,163367.9531,169918.875,-15676.54785,,,
4.227999993,33,200236.2188,194030.5938,199837.9531,185275.5156,186066.9531,163368.625,169913.4375,-15673.27637,,,
4.231999993,33,200249.7813,194050.2344,199844.3125,185294.9844,186068.9219,163365,169916.3281,-15670.59375,,,
4.235999993,33,200258.6563,194051.3906,199853.6719,185306.9844,186077.0938,163358.0313,169918.4531,-15675.44824,,,
4.239999993,33,200229.7188,194012.8125,199831.0625,185276,186058.6406,163341.7188,169898.7344,-15699.40039,,,
4.243999993,33,200208.9531,193989.5313,199811.4844,185259.9375,186042.9844,163336.0625,169889.2188,-15705.46289,,,
4.247999993,33,200215.6094,194003.1875,199809.25,185256.875,186041.2656,163338.6875,169891.3906,-15696.18164,,,
4.251999993,33,200222.875,194017.2656,199808.7813,185261.0313,186037.6719,163336.7813,169883.625,-15695.29688,,,
4.255999993,33,200239.4844,194025.1563,199829.125,185284.8281,186057.9219,163346.1563,169893.7969,-15681.91309,,,
4.259999993,33,200231.7813,194004.9531,199832.0625,185282.7344,186067.0625,163349.5625,169896.4531,-15680.25,,,
