Time:250Hz,Epoch,Channel 1,Channel 2,Channel 3,Channel 4,Channel 5,Channel 6,Channel 7,Channel 8,Event Id,Event Date,Event Duration
0.0000000000,0,161445.9687500000,162975.8750000000,186361.5937500000,184725.6093750000,168751.9843750000,169520.8437500000,19767.0253906250,177325.7656250000,,,
0.0040000000,0,161457.9843750000,162992.7656250000,186371.7343750000,184732.9843750000,168761.6093750000,169531.0000000000,19771.8535156250,177345.9218750000,,,
0.0079999999,0,161426.5781250000,162952.2656250000,186340.5937500000,184736.0468750000,168731.9218750000,169498.6875000000,19744.2519531250,177316.4062500000,,,
0.0119999999,0,161428.6406250000,162950.1406250000,186345.0781250000,184736.8437500000,168733.2812500000,169492.2187500000,19746.9882812500,177303.3437500000,,,
0.0159999998,0,161419.8906250000,162939.9531250000,186340.1406250000,184722.5000000000,168726.9062500000,169479.6718750000,19743.0468750000,177288.6250000000,,,
0.0199999998,0,161415.9843750000,162945.0000000000,186324.6875000000,184723.7812500000,168714.2968750000,169483.1562500000,19728.5078125000,177292.5937500000,,,
0.0240000000,0,161432.3593750000,162958.4062500000,186347.8125000000,184729.5000000000,168734.1250000000,169494.7656250000,19745.4589843750,177306.8593750000,,,
0.0279999999,0,161429.5468750000,162959.5937500000,186341.3437500000,184745.0625000000,168730.4218750000,169500.9062500000,19734.2480468750,177308.6562500000,,,
0.0319999999,0,161414.0468750000,162943.7968750000,186323.6718750000,184734.7343750000,168711.7500000000,169488.0312500000,19712.2011718750,177290.3593750000,,,
0.0359999998,0,161406.2656250000,162935.6093750000,186315.7812500000,184718.5625000000,168700.4062500000,169477.0937500000,19712.2265625000,177275.0781250000,,,
0.0399999998,0,161423.0312500000,162953.8281250000,186335.9218750000,184730.7031250000,168717.1093750000,169484.8906250000,19729.7949218750,177289.0312500000,,,
0.0440000000,0,161425.6562500000,162960.0781250000,186340.1406250000,184719.4218750000,168721.7187500000,169490.5781250000,19734.7851562500,177300.8281250000,,,
0.0480000000,0,161426.2031250000,162951.9687500000,186345.3750000000,184732.2343750000,168724.4062500000,169483.8750000000,19737.7890625000,177293.6093750000,,,
0.0519999999,0,161415.3281250000,162946.6406250000,186320.3750000000,184742.4062500000,168703.0312500000,169474.0625000000,19717.5390625000,177279.8593750000,,,
0.0559999999,0,161414.4531250000,162950.2031250000,186315.9531250000,184731.5625000000,168697.9062500000,169472.6406250000,19716.1972656250,177277.2500000000,,,
0.0599999998,0,161400.3437500000,162929.5781250000,186307.6250000000,184724.1562500000,168689.5468750000,169458.6093750000,19708.4453125000,177267.4375000000,,,
0.0639999998,0,161393.7968750000,162917.1562500000,186301.3281250000,184721.5000000000,168684.8437500000,169449.3281250000,19701.7929687500,177261.2656250000,,,
0.0680000000,0,161392.9375000000,162915.1718750000,186300.7968750000,184718.7500000000,168683.5000000000,169449.6562500000,19704.5019531250,177257.6406250000,,,
0.0719999999,0,161393.3906250000,162915.9531250000,186301.3750000000,184718.2343750000,168682.1562500000,169450.0312500000,19703.5371093750,177251.3125000000,,,
0.0759999999,0,161412.9218750000,162936.7343750000,186324.3437500000,184720.8906250000,168702.7031250000,169466.9843750000,19720.4082031250,177265.5000000000,,,
0.0799999998,0,161433.5781250000,162961.8125000000,186344.8281250000,184731.2656250000,168723.6250000000,169486.2031250000,19738.1113281250,177292.1093750000,,,
0.0839999998,0,161415.7656250000,162935.7968750000,186329.3281250000,184747.8125000000,168710.9375000000,169468.4062500000,19725.8261718750,177280.0156250000,,,
0.0880000000,0,161427.1406250000,162943.7968750000,186344.9375000000,184762.8593750000,168722.2656250000,169473.5468750000,19732.0488281250,177285.2500000000,,,
0.0919999999,0,161409.7031250000,162931.9062500000,186314.0468750000,184756.4375000000,168695.7656250000,169463.0312500000,19707.2382812500,177269.3125000000,,,
0.0959999999,0,161407.6562500000,162934.9375000000,186304.1718750000,184751.4375000000,168684.6250000000,169462.2812500000,19700.3183593750,177265.4531250000,,,
0.0999999999,0,161390.6093750000,162917.1250000000,186289.3906250000,184704.3906250000,168670.0937500000,169448.6875000000,19689.4023437500,177254.3437500000,,,
0.1039999998,0,161402.9687500000,162930.2187500000,186302.5312500000,184715.5468750000,168683.8593750000,169457.0781250000,19702.8125000000,177264.7187500000,,,
0.1079999998,0,161409.7031250000,162932.9218750000,186309.1093750000,184738.3750000000,168689.4843750000,169458.5312500000,19706.2734375000,177263.3281250000,,,
0.1120000000,0,161418.6093750000,162937.5468750000,186325.5781250000,184746.6875000000,168701.2031250000,169464.1562500000,19716.5449218750,177257.3281250000,,,
0.1159999999,0,161423.5625000000,162944.8593750000,186331.8593750000,184744.7031250000,168704.6093750000,169471.0000000000,19720.4355468750,177257.1875000000,,,
0.1199999999,0,161421.5625000000,162945.7187500000,186330.1562500000,184755.4062500000,168705.7187500000,169473.7343750000,19724.2695312500,177256.0625000000,,,
0.1239999998,0,161423.1718750000,162952.5312500000,186328.1562500000,184735.1875000000,168707.7187500000,169480.0468750000,19728.9648437500,177259.7812500000,,,
0.1279999998,1,161412.5781250000,162933.3281250000,186316.2968750000,184739.1875000000,168696.5937500000,169466.3125000000,19715.0703125000,177243.1875000000,,,
0.1319999998,1,161427.2500000000,162948.0000000000,186332.0625000000,184754.2343750000,168710.1406250000,169479.6406250000,19726.6835937500,177247.9062500000,,,
0.1359999997,1,161432.8750000000,162951.4375000000,186339.6562500000,184757.9531250000,168716.6562500000,169485.6718750000,19734.6777343750,177244.7656250000,,,
0.1399999997,1,161422.3906250000,162941.6406250000,186329.4062500000,184741.8125000000,168708.6562500000,169481.4062500000,19723.7871093750,177235.3593750000,,,
0.1439999996,1,161422.5468750000,162942.6875000000,186330.0625000000,184738.1406250000,168709.2500000000,169478.2500000000,19719.3613281250,177236.0312500000,,,
0.1479999996,1,161441.0625000000,162962.5625000000,186344.9687500000,184757.9062500000,168724.2500000000,169492.0625000000,19732.6933593750,177250.5625000000,,,
0.1519999998,1,161454.6250000000,162976.0781250000,186354.5468750000,184780.6562500000,168733.1250000000,169503.6406250000,19742.9394531250,177266.0312500000,,,
0.1559999997,1,161431.9687500000,162943.2812500000,186335.3125000000,184772.4218750000,168713.0312500000,169475.0468750000,19719.4960937500,177237.9218750000,,,
0.1599999997,1,161440.8125000000,162951.2968750000,186351.5625000000,184768.6875000000,168725.8593750000,169475.2656250000,19728.5625000000,177242.3281250000,,,
0.1639999996,1,161431.7187500000,162946.1250000000,186337.2968750000,184778.6406250000,168715.9843750000,169469.3125000000,19732.0761718750,177247.9531250000,,,
0.1679999996,1,161423.4843750000,162934.7812500000,186323.8125000000,184781.5312500000,168703.8281250000,169456.3281250000,19721.3203125000,177245.4687500000,,,
0.1719999998,1,161429.1406250000,162939.2656250000,186331.5000000000,184759.0000000000,168708.9843750000,169458.3125000000,19722.6074218750,177252.2031250000,,,
0.1759999997,1,161448.5468750000,162960.6562500000,186355.5625000000,184748.2031250000,168727.5781250000,169471.1406250000,19736.4746093750,177272.2656250000,,,
0.1799999997,1,161432.2031250000,162947.9218750000,186337.5625000000,184731.2968750000,168713.3281250000,169463.1718750000,19726.0683593750,177274.7343750000,,,
0.1839999997,1,161414.0468750000,162927.2656250000,186320.0468750000,184734.2187500000,168700.3750000000,169449.3281250000,19709.5722656250,177274.5468750000,,,
0.1879999996,1,161421.6093750000,162935.1562500000,186328.7968750000,184735.7968750000,168708.5781250000,169455.9843750000,19708.9824218750,177289.2343750000,,,
0.1919999996,1,161413.2343750000,162928.6093750000,186319.1718750000,184716.5937500000,168700.4843750000,169449.5156250000,19697.6894531250,177286.9375000000,,,
0.1959999998,1,161395.5625000000,162914.2812500000,186295.1093750000,184699.1093750000,168677.1406250000,169436.0000000000,19680.5234375000,177275.6406250000,,,
0.1999999997,1,161385.7968750000,162904.6093750000,186280.4843750000,184694.2812500000,168663.3125000000,169425.2500000000,19673.2539062500,177275.6406250000,,,
0.2039999997,1,161389.1875000000,162905.0625000000,186289.2031250000,184714.4531250000,168670.1718750000,169423.5468750000,19677.7617187500,177286.2812500000,,,
0.2079999996,1,161402.5156250000,162927.8281250000,186301.2812500000,184737.0156250000,168680.7343750000,169438.2500000000,19685.0839843750,177312.2187500000,,,
0.2119999996,1,161403.8593750000,162930.7500000000,186303.6562500000,184729.2031250000,168681.8750000000,169441.7656250000,19686.7460937500,177318.6093750000,,,
0.2159999998,1,161402.8593750000,162920.7968750000,186314.6562500000,184717.2968750000,168691.8750000000,169442.1718750000,19699.5136718750,177320.1406250000,,,
0.2199999997,1,161372.4687500000,162890.9531250000,186276.0312500000,184729.6875000000,168660.6562500000,169418.4531250000,19669.8222656250,177300.6406250000,,,
0.2239999997,1,161360.7812500000,162885.6875000000,186257.6406250000,184732.9062500000,168643.8906250000,169411.3437500000,19652.2539062500,177298.1718750000,,,
0.2279999997,1,161375.2343750000,162902.0781250000,186273.7812500000,184716.8906250000,168658.8593750000,169428.1406250000,19668.1308593750,177311.8437500000,,,
0.2319999996,1,161381.4062500000,162906.7187500000,186282.8750000000,184713.1875000000,168667.3593750000,169433.1093750000,19674.8632812500,177311.0937500000,,,
0.2359999996,1,161379.3437500000,162898.5625000000,186284.7031250000,184718.0156250000,168668.6250000000,169428.6250000000,19669.0175781250,177301.7343750000,,,
0.2399999998,1,161383.8125000000,162909.2968750000,186285.2968750000,184713.0000000000,168669.8281250000,169434.5468750000,19668.5605468750,177308.7968750000,,,
0.2439999997,1,161372.6562500000,162897.9843750000,186271.6875000000,184710.7812500000,168656.9531250000,169423.6562500000,19658.8242187500,177304.6562500000,,,
0.2479999997,1,161353.5625000000,162865.9843750000,186258.0625000000,184712.6562500000,168643.9375000000,169401.0781250000,19644.9316406250,177276.3593750000,,,
0.2519999996,1,161358.7968750000,162873.0937500000,186263.0468750000,184696.4218750000,168647.9687500000,169402.6562500000,19647.0234375000,177270.8125000000,,,
0.2559999996,2,161371.0000000000,162889.7968750000,186274.4531250000,184691.6562500000,168658.4218750000,169414.2187500000,19668.7226562500,177276.3437500000,,,
0.2599999995,2,161367.9062500000,162891.7812500000,186264.7656250000,184705.2187500000,168652.4218750000,169417.4687500000,19661.1035156250,177279.2656250000,,,
0.2639999995,2,161371.0781250000,162894.1406250000,186270.7187500000,184709.1718750000,168659.0937500000,169420.1718750000,19664.2148437500,177281.3281250000,,,
0.2679999995,2,161377.1093750000,162893.2031250000,186288.9843750000,184699.7812500000,168672.1093750000,169416.7343750000,19672.7714843750,177275.0781250000,,,
0.2719999994,2,161382.7187500000,162901.3281250000,186295.5156250000,184690.0781250000,168677.5781250000,169428.1875000000,19680.5781250000,177270.2500000000,,,
0.2759999994,2,161361.3437500000,162888.5312500000,186261.6093750000,184682.4218750000,168652.5781250000,169427.0625000000,19656.9199218750,177256.0312500000,,,
0.2799999996,2,161365.8281250000,162895.6718750000,186264.4687500000,184682.0781250000,168657.2500000000,169433.1875000000,19656.4648437500,177263.1093750000,,,
0.2839999995,2,161366.9531250000,162897.7968750000,186262.8437500000,184684.1406250000,168656.5156250000,169426.9531250000,19660.1386718750,177269.2500000000,,,
0.2879999995,2,161381.2968750000,162914.7500000000,186278.3437500000,184700.7187500000,168671.3593750000,169437.7343750000,19682.6152343750,177280.3906250000,,,
0.2919999994,2,161389.8593750000,162915.6875000000,186293.7343750000,184709.2031250000,168683.5000000000,169437.4687500000,19695.0605468750,177272.9531250000,,,
0.2959999994,2,161385.5625000000,162909.1093750000,186289.3593750000,184709.7656250000,168679.2656250000,169432.8593750000,19689.0000000000,177259.8437500000,,,
0.2999999996,2,161383.3593750000,162907.5781250000,186288.6406250000,184707.7500000000,168678.7500000000,169438.7343750000,19689.1074218750,177258.5781250000,,,
0.3039999995,2,161380.8125000000,162910.7656250000,186285.7968750000,184695.2187500000,168677.1406250000,169442.1718750000,19684.7890625000,177262.0156250000,,,
0.3079999995,2,161385.5625000000,162916.6250000000,186292.8281250000,184710.2968750000,168682.3281250000,169447.0781250000,19697.5820312500,177263.1718750000,,,
0.3119999995,2,161376.9531250000,162910.0468750000,186282.2812500000,184707.1250000000,168672.3125000000,169442.3750000000,19688.4628906250,177251.0937500000,,,
0.3159999994,2,161364.2343750000,162899.3750000000,186262.7031250000,184703.4531250000,168656.0156250000,169435.0625000000,19673.7636718750,177236.5937500000,,,
0.3199999994,2,161381.3750000000,162918.1718750000,186279.5000000000,184711.6562500000,168672.2187500000,169447.3125000000,19685.6191406250,177250.0781250000,,,
0.3239999996,2,161402.2656250000,162937.5937500000,186302.4843750000,184708.5312500000,168692.7031250000,169461.2187500000,19704.0468750000,177269.9843750000,,,
0.3279999995,2,161386.7343750000,162916.2500000000,186289.7968750000,184715.6562500000,168682.4375000000,169451.7500000000,19699.2460937500,177255.3593750000,,,
0.3319999995,2,161378.1875000000,162897.2500000000,186287.2968750000,184721.1093750000,168678.8593750000,169434.4375000000,19696.4023437500,177231.6562500000,,,
0.3359999994,2,161402.2500000000,162918.3125000000,186318.1406250000,184726.1406250000,168706.2968750000,169447.4218750000,19718.1542968750,177240.3437500000,,,
0.3399999994,2,161412.6250000000,162930.5468750000,186325.0937500000,184730.7031250000,168715.9531250000,169458.6406250000,19718.8515625000,177254.9375000000,,,
0.3439999996,2,161411.9062500000,162929.8750000000,186320.4218750000,184748.5468750000,168710.7031250000,169454.7812500000,19720.5156250000,177257.3750000000,,,
0.3479999995,2,161396.0781250000,162920.0468750000,186297.3593750000,184728.5937500000,168690.6406250000,169446.5937500000,19708.6601562500,177244.7343750000,,,
0.3519999995,2,161403.7968750000,162928.9531250000,186307.3593750000,184733.7656250000,168697.3750000000,169450.8593750000,19715.9023437500,177241.6562500000,,,
0.3559999994,2,161418.2500000000,162944.3593750000,186323.5156250000,184728.1562500000,168709.6875000000,169457.5937500000,19728.1054687500,177244.2812500000,,,
0.3599999994,2,161417.8750000000,162939.2343750000,186327.1562500000,184739.2031250000,168712.2656250000,169455.7187500000,19731.8339843750,177241.5156250000,,,
0.3639999994,2,161413.5937500000,162938.4062500000,186319.1718750000,184737.9687500000,168708.1250000000,169461.4843750000,19728.1601562500,177242.7031250000,,,
0.3679999996,2,161428.8593750000,162952.5156250000,186341.1875000000,184744.6875000000,168728.4531250000,169473.2343750000,19739.5332031250,177252.0937500000,,,
0.3719999995,2,161420.5156250000,162945.5312500000,186328.8750000000,184746.3437500000,168717.7500000000,169468.2187500000,19724.0292968750,177237.9531250000,,,
0.3759999995,2,161420.6406250000,162948.7187500000,186325.4218750000,184744.7031250000,168715.2812500000,169473.6875000000,19735.6152343750,177233.0937500000,,,
0.3799999994,2,161423.8437500000,162956.5000000000,186325.1406250000,184752.0000000000,168715.7187500000,169480.3593750000,19744.6015625000,177238.8125000000,,,
0.3839999994,3,161428.0000000000,162957.7343750000,186330.1093750000,184753.4218750000,168719.9531250000,169480.9218750000,19745.9160156250,177243.2656250000,,,
0.3879999993,3,161436.5781250000,162966.7968750000,186343.3125000000,184745.5468750000,168729.8281250000,169489.6093750000,19753.3457031250,177254.9843750000,,,
0.3919999993,3,161431.0312500000,162959.0312500000,186343.7031250000,184730.1406250000,168729.5000000000,169482.0781250000,19752.0312500000,177245.7812500000,,,
0.3959999993,3,161428.9375000000,162947.0156250000,186340.9687500000,184740.6250000000,168726.1718750000,169470.3906250000,19745.4335937500,177230.4531250000,,,
0.3999999992,3,161431.4062500000,162951.6718750000,186338.0000000000,184741.5468750000,168723.3906250000,169473.3281250000,19738.8613281250,177237.1718750000,,,
0.4039999992,3,161434.1562500000,162961.7343750000,186338.6093750000,184754.6875000000,168726.6406250000,169481.3281250000,19741.0351562500,177253.7812500000,,,
0.4079999994,3,161423.6562500000,162946.6093750000,186330.0625000000,184768.1250000000,168719.5781250000,169474.9218750000,19737.4140625000,177247.4531250000,,,
0.4119999993,3,161417.7187500000,162941.0781250000,186325.6250000000,184756.7187500000,168713.4062500000,169470.6562500000,19734.5703125000,177241.6250000000,,,
0.4159999993,3,161408.6562500000,162924.2968750000,186318.2343750000,184751.7656250000,168705.0937500000,169459.0156250000,19729.3925781250,177226.7968750000,,,
0.4199999992,3,161408.5468750000,162926.9218750000,186316.6718750000,184750.3906250000,168702.9531250000,169462.3437500000,19724.8613281250,177231.9218750000,,,
0.4239999992,3,161410.2187500000,162934.6406250000,186319.2187500000,184747.1250000000,168705.1562500000,169467.5625000000,19725.0742187500,177246.7812500000,,,
0.4279999994,3,161421.7187500000,162938.4218750000,186337.4062500000,184759.5468750000,168719.9218750000,169468.6875000000,19737.8164062500,177256.1406250000,,,
0.4319999993,3,161405.2812500000,162919.4687500000,186319.4843750000,184747.5000000000,168703.1875000000,169458.3750000000,19725.4238281250,177239.0625000000,,,
0.4359999993,3,161393.9843750000,162917.3437500000,186303.3437500000,184731.7031250000,168689.9375000000,169456.8125000000,19717.2167968750,177229.7812500000,,,
0.4399999992,3,161398.8437500000,162923.8125000000,186307.2343750000,184719.5468750000,168695.5781250000,169457.8593750000,19718.1542968750,177234.1718750000,,,
0.4439999992,3,161396.2343750000,162914.6875000000,186305.7031250000,184724.7031250000,168695.5781250000,169448.4375000000,19715.6601562500,177234.7343750000,,,
0.4479999992,3,161388.6406250000,162901.4687500000,186302.4843750000,184720.3750000000,168692.4375000000,169434.5781250000,19714.9902343750,177225.9375000000,,,
0.4519999993,3,161408.3125000000,162921.0156250000,186329.6250000000,184722.7187500000,168713.0937500000,169448.3593750000,19736.5820312500,177235.5156250000,,,
0.4559999993,3,161431.1250000000,162952.5625000000,186347.7031250000,184746.0781250000,168729.5000000000,169473.3281250000,19753.6132812500,177259.5156250000,,,
0.4599999993,3,161399.6093750000,162924.3125000000,186301.4062500000,184751.1250000000,168691.7343750000,169451.7500000000,19712.2265625000,177240.5000000000,,,
0.4639999992,3,161381.5156250000,162899.7812500000,186284.2187500000,184718.2812500000,168678.0625000000,169434.7187500000,19683.9843750000,177227.1406250000,,,
0.4679999992,3,161386.5468750000,162908.0625000000,186288.4843750000,184719.7031250000,168680.4218750000,169440.3906250000,19701.5527343750,177235.8593750000,,,
0.4719999994,3,161393.0937500000,162916.2656250000,186295.2656250000,184721.1250000000,168683.9375000000,169447.9843750000,19722.2324218750,177240.1562500000,,,
0.4759999993,3,161400.5781250000,162921.2031250000,186306.1093750000,184724.3750000000,168692.0312500000,169449.0000000000,19729.0722656250,177239.6718750000,,,
0.4799999993,3,161402.8593750000,162918.6093750000,186313.8593750000,184724.0000000000,168699.8125000000,169448.8750000000,19729.9570312500,177240.5781250000,,,
0.4839999992,3,161406.8593750000,162928.5625000000,186321.2343750000,184706.5468750000,168707.9687500000,169457.2968750000,19730.3593750000,177254.6718750000,,,
0.4879999992,3,161396.9062500000,162915.9843750000,186312.1718750000,184715.2343750000,168702.6250000000,169453.4843750000,19723.8671875000,177246.7812500000,,,
0.4919999992,3,161389.3750000000,162910.5000000000,186298.5625000000,184715.4687500000,168693.0781250000,169450.5625000000,19708.7128906250,177238.1093750000,,,
0.4959999993,3,161388.4375000000,162907.2031250000,186296.3593750000,184724.1093750000,168689.5156250000,169447.6093750000,19714.0253906250,177234.1250000000,,,
0.4999999993,3,161402.1093750000,162925.2031250000,186305.6718750000,184729.2812500000,168695.5781250000,169458.0000000000,19727.3281250000,177255.3906250000,,,
0.5039999993,3,161391.1875000000,162907.5781250000,186293.8750000000,184728.6406250000,168683.5625000000,169447.2656250000,19713.9433593750,177254.2968750000,,,
0.5079999992,3,161391.9218750000,162905.7031250000,186296.6875000000,184720.8906250000,168685.0625000000,169442.5937500000,19711.9316406250,177257.0000000000,,,
0.5119999992,4,161411.8281250000,162928.7656250000,186318.5468750000,184723.2031250000,168704.8750000000,169458.1250000000,19730.9492187500,177270.2500000000,,,
0.5159999991,4,161424.0468750000,162946.3437500000,186330.2500000000,184719.0937500000,168717.7812500000,169472.0156250000,19745.4335937500,177285.0781250000,,,
0.5199999991,4,161415.2343750000,162929.1250000000,186326.0312500000,184731.1562500000,168714.4531250000,169461.3750000000,19742.4824218750,177276.9062500000,,,
0.5239999990,4,161381.3437500000,162895.7812500000,186285.4843750000,184735.5937500000,168683.2031250000,169440.1093750000,19711.3964843750,177258.5625000000,,,
0.5279999990,4,161377.5625000000,162895.5625000000,186283.6875000000,184721.0312500000,168682.1562500000,169435.1093750000,19703.5097656250,177257.1562500000,,,
0.5319999990,4,161388.1562500000,162907.1718750000,186295.7812500000,184718.1562500000,168691.5468750000,169441.5468750000,19707.8007812500,177260.7031250000,,,
0.5359999991,4,161393.0937500000,162911.5468750000,186297.3906250000,184716.0625000000,168690.1250000000,169448.0625000000,19721.3203125000,177263.5468750000,,,
0.5399999991,4,161407.2656250000,162926.3593750000,186310.7187500000,184708.4218750000,168700.6718750000,169458.3437500000,19735.4277343750,177277.2500000000,,,
0.5439999991,4,161417.9375000000,162944.4375000000,186316.4218750000,184704.7500000000,168709.5468750000,169473.2343750000,19741.9453125000,177298.1406250000,,,
0.5479999990,4,161402.7812500000,162923.3281250000,186296.3593750000,184719.0937500000,168692.1718750000,169453.2187500000,19720.8378906250,177281.5468750000,,,
0.5519999990,4,161401.5000000000,162913.0000000000,186302.4531250000,184725.8750000000,168696.2500000000,169444.6406250000,19718.5312500000,177266.5156250000,,,
0.5559999992,4,161412.0156250000,162924.2656250000,186315.8906250000,184717.5625000000,168709.6875000000,169458.3437500000,19734.6777343750,177271.1875000000,,,
0.5599999991,4,161412.4375000000,162924.7187500000,186318.9843750000,184715.5312500000,168712.5468750000,169461.7968750000,19742.8320312500,177272.2812500000,,,
0.5639999991,4,161404.8750000000,162920.3750000000,186311.5156250000,184706.2968750000,168708.4218750000,169458.5312500000,19738.7011718750,177274.4375000000,,,
0.5679999990,4,161409.0312500000,162923.8906250000,186313.4843750000,184717.6250000000,168711.3437500000,169458.6093750000,19740.7929687500,177277.0156250000,,,
0.5719999990,4,161414.2343750000,162930.1093750000,186316.2656250000,184719.0937500000,168712.4218750000,169463.2812500000,19742.9648437500,177273.8906250000,,,
0.5759999990,4,161422.4375000000,162939.0468750000,186325.3593750000,184724.5312500000,168718.7500000000,169473.6093750000,19746.9882812500,177276.5781250000,,,
0.5799999991,4,161422.6875000000,162938.0781250000,186326.4687500000,184732.4218750000,168719.5312500000,169470.3906250000,19746.9082031250,177279.2031250000,,,
0.5839999991,4,161423.7500000000,162937.2968750000,186330.9062500000,184731.1406250000,168722.6406250000,169465.6875000000,19749.0273437500,177279.9062500000,,,
0.5879999991,4,161427.1875000000,162943.0156250000,186333.9687500000,184743.6562500000,168725.2968750000,169468.1250000000,19749.4570312500,177282.1875000000,,,
0.5919999990,4,161418.8281250000,162931.3750000000,186322.0625000000,184756.1562500000,168714.7812500000,169459.8125000000,19742.8847656250,177268.3437500000,,,
0.5959999990,4,161426.6562500000,162938.3125000000,186329.8906250000,184747.3437500000,168723.9218750000,169470.1406250000,19753.7207031250,177270.3906250000,,,
0.5999999992,4,161442.2968750000,162952.0468750000,186354.7812500000,184742.1562500000,168745.2500000000,169485.8906250000,19771.6660156250,177284.2031250000,,,
0.6039999991,4,161444.7031250000,162950.5468750000,186359.1250000000,184734.3750000000,168751.7656250000,169488.1093750000,19777.2714843750,177293.4531250000,,,
0.6079999991,4,161431.8593750000,162945.1562500000,186334.2656250000,184728.9687500000,168734.7656250000,169487.8125000000,19762.2773437500,177292.4062500000,,,
0.6119999990,4,161427.6718750000,162941.2500000000,186324.8593750000,184730.6875000000,168725.1562500000,169486.6718750000,19752.2988281250,177285.6250000000,,,
0.6159999990,4,161430.1093750000,162945.6718750000,186325.7343750000,184730.2031250000,168723.2343750000,169485.4062500000,19751.8710937500,177286.0937500000,,,
0.6199999989,4,161433.0156250000,162941.5156250000,186333.9218750000,184744.7343750000,168729.9531250000,169482.0781250000,19757.5039062500,177287.3593750000,,,
0.6239999991,4,161426.7812500000,162938.8281250000,186323.7812500000,184746.0468750000,168722.8750000000,169479.6406250000,19753.3183593750,177290.2656250000,,,
0.6279999991,4,161424.6875000000,162938.2968750000,186324.4687500000,184740.4375000000,168721.4843750000,169476.7656250000,19752.7558593750,177290.9843750000,,,
0.6319999991,4,161428.9375000000,162944.9218750000,186331.5781250000,184737.9687500000,168726.2812500000,169479.6406250000,19756.1621093750,177292.4062500000,,,
0.6359999990,4,161432.0937500000,162952.2968750000,186333.4375000000,184734.2500000000,168726.2343750000,169483.5468750000,19754.0957031250,177293.7187500000,,,
0.6399999990,5,161432.5468750000,162954.2187500000,186335.0468750000,184729.5781250000,168726.8281250000,169486.7968750000,19752.0039062500,177298.5468750000,,,
0.6439999989,5,161433.2812500000,162955.4843750000,186336.6562500000,184725.3906250000,168729.2343750000,169490.9062500000,19752.2460937500,177302.7812500000,,,
0.6479999989,5,161418.9218750000,162936.5468750000,186323.3750000000,184723.8437500000,168718.6093750000,169479.9375000000,19744.3066406250,177290.1562500000,,,
0.6519999988,5,161412.4843750000,162926.6718750000,186318.6250000000,184728.0781250000,168714.5312500000,169472.7968750000,19743.5019531250,177278.6406250000,,,
0.6559999988,5,161414.1875000000,162924.8750000000,186320.3750000000,184728.2968750000,168714.2187500000,169469.0468750000,19746.8007812500,177267.9218750000,,,
0.6599999988,5,161422.5468750000,162933.3281250000,186330.7187500000,184733.4218750000,168723.1250000000,169475.6875000000,19756.2968750000,177275.5312500000,,,
0.6639999989,5,161421.4531250000,162933.7031250000,186330.1406250000,184736.0156250000,168724.7343750000,169475.7968750000,19754.4179687500,177280.5156250000,,,
0.6679999989,5,161428.2968750000,162944.0625000000,186335.8281250000,184739.4218750000,168732.4062500000,169485.1562500000,19761.3925781250,177289.6093750000,,,
0.6719999989,5,161428.6406250000,162947.5000000000,186332.2031250000,184738.1406250000,168728.9375000000,169489.1562500000,19761.9023437500,177288.9218750000,,,
0.6759999988,5,161424.8750000000,162941.4062500000,186331.2656250000,184733.6562500000,168726.2656250000,169483.1250000000,19760.8828125000,177277.2500000000,,,
0.6799999988,5,161430.2500000000,162950.2812500000,186335.9062500000,184738.0625000000,168731.0000000000,169488.8437500000,19765.2539062500,177283.5312500000,,,
0.6839999990,5,161439.8281250000,162956.9375000000,186348.2656250000,184736.2812500000,168743.3437500000,169496.6718750000,19776.1718750000,177296.4843750000,,,
0.6879999989,5,161422.5468750000,162932.1562500000,186330.8593750000,184735.5312500000,168727.4687500000,169481.2500000000,19761.5527343750,177280.1250000000,,,
0.6919999989,5,161414.2031250000,162928.0781250000,186321.0468750000,184732.5312500000,168717.4843750000,169478.0625000000,19751.9785156250,177270.9531250000,,,
0.6959999988,5,161409.8125000000,162926.5781250000,186316.5312500000,184715.3906250000,168713.7343750000,169473.7031250000,19749.4570312500,177263.2812500000,,,
0.6999999988,5,161403.2656250000,162921.7656250000,186310.1562500000,184714.9687500000,168709.2031250000,169472.0781250000,19743.2343750000,177262.8750000000,,,
0.7039999987,5,161391.4687500000,162907.2343750000,186295.5312500000,184721.4062500000,168696.9687500000,169460.5468750000,19731.6191406250,177255.8437500000,,,
0.7079999989,5,161396.9062500000,162918.8125000000,186300.2343750000,184723.0156250000,168702.0937500000,169472.3437500000,19738.7285156250,177268.1250000000,,,
0.7119999989,5,161405.3906250000,162926.8593750000,186309.8906250000,184733.1250000000,168708.9062500000,169476.9531250000,19746.9355468750,177271.7187500000,,,
0.7159999989,5,161411.5781250000,162933.5937500000,186315.3593750000,184732.4531250000,168712.4687500000,169480.3281250000,19749.1074218750,177272.6093750000,,,
0.7199999988,5,161421.4687500000,162946.5000000000,186326.2500000000,184722.2812500000,168720.5781250000,169485.6718750000,19754.9003906250,177285.2500000000,,,
0.7239999988,5,161414.6093750000,162942.4531250000,186315.4375000000,184715.6093750000,168711.9687500000,169484.5781250000,19748.3574218750,177289.9843750000,,,
0.7279999990,5,161403.8750000000,162929.2343750000,186302.7812500000,184721.6875000000,168702.6250000000,169475.9687500000,19740.0410156250,177280.3906250000,,,
0.7319999989,5,161403.7187500000,162925.2500000000,186305.4062500000,184717.8125000000,168702.3125000000,169469.7187500000,19737.0644531250,177271.0468750000,,,
0.7359999989,5,161409.7031250000,162926.6718750000,186312.0000000000,184725.7968750000,168708.0937500000,169468.9062500000,19741.2226562500,177266.7968750000,,,
0.7399999988,5,161408.1250000000,162923.7343750000,186311.4062500000,184727.2812500000,168709.3593750000,169470.0625000000,19740.2832031250,177267.8281250000,,,
0.7439999988,5,161417.7187500000,162935.8281250000,186320.0468750000,184725.1875000000,168718.5000000000,169479.6406250000,19746.3710937500,177282.4531250000,,,
0.7479999987,5,161412.2031250000,162930.9687500000,186311.7031250000,184734.5625000000,168711.2656250000,169473.2343750000,19740.9531250000,177281.5937500000,,,
0.7519999989,5,161409.5156250000,162924.0468750000,186308.9218750000,184729.3906250000,168710.1718750000,169469.3125000000,19746.3457031250,177272.7500000000,,,
0.7559999989,5,161415.9531250000,162928.7500000000,186316.9687500000,184726.6093750000,168716.6562500000,169476.1562500000,19756.2968750000,177272.0156250000,,,
0.7599999988,5,161424.7187500000,162941.0000000000,186328.4218750000,184731.0781250000,168726.6875000000,169482.7968750000,19760.8027343750,177284.2031250000,,,
0.7639999988,5,161425.6562500000,162945.0000000000,186329.0312500000,184734.7031250000,168729.8281250000,169485.6718750000,19753.2910156250,177296.1093750000,,,
0.7679999988,6,161425.3125000000,162944.4843750000,186328.4531250000,184740.4687500000,168729.5312500000,169487.9531250000,19753.2656250000,177299.5156250000,,,
0.7719999987,6,161436.1718750000,162959.3281250000,186343.5781250000,184731.1562500000,168741.8750000000,169501.7343750000,19775.8222656250,177306.9687500000,,,
0.7759999987,6,161430.2968750000,162948.3437500000,186344.9687500000,184734.8593750000,168739.7812500000,169494.2812500000,19776.7890625000,177296.4062500000,,,
0.7799999986,6,161418.3906250000,162936.7343750000,186329.8437500000,184738.2656250000,168726.7968750000,169485.9375000000,19761.7675781250,177288.9687500000,,,
0.7839999986,6,161419.4687500000,162941.2656250000,186330.6406250000,184729.1562500000,168729.7656250000,169492.7343750000,19760.7226562500,177298.4375000000,,,
0.7879999985,6,161417.5937500000,162944.4062500000,186323.7500000000,184723.2968750000,168723.5468750000,169494.0625000000,19762.5996093750,177302.3281250000,,,
0.7919999987,6,161419.5937500000,162942.4531250000,186322.1406250000,184732.1875000000,168721.1406250000,169491.4375000000,19764.9589843750,177294.7656250000,,,
0.7959999987,6,161412.5781250000,162931.9062500000,186312.9375000000,184721.1875000000,168712.6406250000,169479.6406250000,19758.7910156250,177281.1875000000,,,
0.7999999986,6,161418.4531250000,162938.1562500000,186318.8437500000,184730.1406250000,168720.0625000000,169482.0468750000,19761.2304687500,177286.6875000000,,,
0.8039999986,6,161416.9687500000,162940.5937500000,186320.1250000000,184725.3906250000,168722.4531250000,169484.3281250000,19759.2734375000,177294.2031250000,,,
0.8079999986,6,161424.3125000000,162955.5156250000,186329.0312500000,184719.5781250000,168730.9062500000,169495.1718750000,19766.1933593750,177307.0781250000,,,
0.8119999988,6,161438.1406250000,162964.1562500000,186345.4843750000,184739.4843750000,168742.7812500000,169500.7187500000,19775.7695312500,177310.0312500000,,,
0.8159999987,6,161441.2187500000,162958.4062500000,186351.2968750000,184748.8437500000,168748.2031250000,169498.3281250000,19781.3203125000,177302.1718750000,,,
0.8199999987,6,161438.7968750000,162953.6406250000,186350.5937500000,184733.7343750000,168747.2343750000,169490.9375000000,19777.1367187500,177300.2031250000,,,
0.8239999986,6,161423.6562500000,162942.0468750000,186330.5625000000,184714.5312500000,168730.9843750000,169478.9062500000,19758.9238281250,177295.4687500000,,,
0.8279999986,6,161409.9218750000,162929.2500000000,186310.1250000000,184717.6250000000,168712.8750000000,169471.7500000000,19741.0878906250,177285.0781250000,,,
0.8319999985,6,161413.4375000000,162930.0000000000,186317.2343750000,184724.1406250000,168717.3750000000,169473.8906250000,19751.4140625000,177277.7656250000,,,
0.8359999987,6,161414.7187500000,162928.8281250000,186320.4218750000,184731.5156250000,168719.6562500000,169471.3750000000,19756.0273437500,177270.1093750000,,,
0.8399999987,6,161410.0468750000,162926.8125000000,186311.9531250000,184738.4531250000,168713.8750000000,169470.9687500000,19751.1464843750,177269.4687500000,,,
0.8439999986,6,161412.4375000000,162924.2187500000,186317.3125000000,184744.0312500000,168719.7187500000,169467.9218750000,19756.1074218750,177271.3281250000,,,
0.8479999986,6,161414.5312500000,162924.5937500000,186321.5312500000,184745.4375000000,168724.7343750000,169466.5781250000,19761.5527343750,177272.6875000000,,,
0.8519999986,6,161432.6093750000,162947.3281250000,186340.6718750000,184741.0625000000,168742.1093750000,169484.8125000000,19778.8261718750,177283.7187500000,,,
0.8559999987,6,161445.8281250000,162964.9218750000,186354.9531250000,184741.7031250000,168756.1718750000,169498.3906250000,19791.9433593750,177291.9687500000,,,
0.8599999987,6,161447.5937500000,162970.9375000000,186356.6406250000,184746.2968750000,168757.7812500000,169503.6093750000,19787.7578125000,177300.3750000000,,,
0.8639999987,6,161421.5625000000,162929.8906250000,186334.6406250000,184751.2031250000,168737.9531250000,169475.2187500000,19766.8632812500,177276.6093750000,,,
0.8679999986,6,161400.0468750000,162907.6562500000,186308.6250000000,184733.5000000000,168715.2656250000,169453.7812500000,19751.6562500000,177255.3593750000,,,
0.8719999986,6,161407.1562500000,162921.1250000000,186314.4687500000,184733.1250000000,168718.0781250000,169462.4218750000,19752.9433593750,177259.5937500000,,,
0.8759999985,6,161417.2187500000,162931.1093750000,186331.0000000000,184724.1562500000,168731.3281250000,169472.0000000000,19758.6289062500,177263.4062500000,,,
0.8799999987,6,161429.6562500000,162947.8750000000,186342.2812500000,184727.9218750000,168743.3750000000,169488.8437500000,19776.2519531250,177279.6093750000,,,
0.8839999987,6,161426.1718750000,162963.0156250000,186323.2500000000,184727.9375000000,168730.5000000000,169501.0937500000,19768.9023437500,177298.3281250000,,,
0.8879999986,6,161409.8593750000,162939.4531250000,186310.8437500000,184720.2812500000,168719.3125000000,169486.3125000000,19764.4492187500,177286.1875000000,,,
0.8919999986,6,161410.1562500000,162930.8906250000,186317.7656250000,184728.6093750000,168723.9843750000,169479.7187500000,19770.1894531250,177275.5625000000,,,
0.8959999986,7,161409.0781250000,162929.6562500000,186314.6093750000,184723.8750000000,168721.2656250000,169475.9375000000,19769.1699218750,177268.2343750000,,,
0.8999999985,7,161410.2968750000,162931.9062500000,186312.7812500000,184726.8437500000,168718.6718750000,169477.8750000000,19764.6113281250,177268.8281250000,33029,0.9034796702,0.0000000000
0.9039999985,7,161401.5468750000,162915.8750000000,186307.3125000000,184726.6093750000,168712.7343750000,169465.3125000000,19758.0390625000,177261.3906250000,,,
0.9079999984,7,161422.4218750000,162942.1250000000,186333.7031250000,184709.4375000000,168734.9531250000,169486.4218750000,19775.4199218750,177282.1875000000,,,
0.9119999984,7,161414.6406250000,162944.4375000000,186316.6718750000,184712.7656250000,168720.0312500000,169490.3593750000,19766.5156250000,177282.1562500000,,,
0.9159999983,7,161385.8281250000,162904.8750000000,186283.8906250000,184730.9531250000,168689.1406250000,169456.5781250000,19740.5507812500,177242.2500000000,,,
0.9199999985,7,161397.8125000000,162919.3593750000,186298.3437500000,184728.1875000000,168702.0156250000,169463.8437500000,19748.1152343750,177251.9062500000,,,
0.9239999985,7,161402.8906250000,162919.0625000000,186306.6875000000,184733.5781250000,168711.2187500000,169463.2500000000,19749.5644531250,177259.7656250000,,,
0.9279999984,7,161409.3593750000,162926.5781250000,186316.1875000000,184731.5312500000,168720.9218750000,169470.4062500000,19756.1894531250,177267.8281250000,,,
0.9319999984,7,161414.5312500000,162938.1250000000,186317.6562500000,184743.5625000000,168722.6718750000,169479.4531250000,19765.7382812500,177273.1250000000,,,
0.9359999984,7,161413.8593750000,162940.8906250000,186319.9218750000,184737.9687500000,168723.4218750000,169482.5937500000,19770.8066406250,177271.5312500000,,,
0.9399999985,7,161407.4218750000,162935.0781250000,186320.7812500000,184731.7031250000,168722.8750000000,169481.2812500000,19774.9375000000,177268.3437500000,,,
0.9439999985,7,161401.5000000000,162928.7500000000,186314.4218750000,184733.3437500000,168717.4375000000,169476.5781250000,19771.3437500000,177270.1406250000,,,
0.9479999985,7,161410.6093750000,162936.9531250000,186320.9843750000,184744.1250000000,168723.0937500000,169481.5625000000,19772.9257812500,177279.9531250000,,,
0.9519999984,7,161412.9531250000,162940.1406250000,186320.0468750000,184737.6562500000,168721.0781250000,169483.5312500000,19769.1445312500,177282.0000000000,,,
0.9559999984,7,161411.3906250000,162939.9062500000,186315.9531250000,184738.0781250000,168717.5156250000,169486.1562500000,19767.2929687500,177284.4843750000,,,
0.9599999983,7,161410.2656250000,162937.4375000000,186314.2500000000,184750.7656250000,168716.2812500000,169482.1250000000,19765.8984375000,177288.2187500000,,,
0.9639999985,7,161404.9843750000,162928.8437500000,186311.0312500000,184734.5468750000,168713.9531250000,169475.0312500000,19761.9023437500,177289.1562500000,,,
0.9679999985,7,161403.0156250000,162928.2031250000,186308.2812500000,184710.9687500000,168712.5468750000,169474.2968750000,19761.8476562500,177292.0000000000,,,
0.9719999984,7,161408.7031250000,162933.9218750000,186312.1875000000,184717.9062500000,168717.6250000000,169479.0468750000,19768.7675781250,177293.6406250000,,,
0.9759999984,7,161413.0468750000,162937.2656250000,186318.0156250000,184727.5156250000,168722.8593750000,169483.0156250000,19774.1855468750,177293.5781250000,,,
0.9799999984,7,161408.0625000000,162932.1250000000,186311.7968750000,184722.5000000000,168717.2812500000,169479.5781250000,19767.5078125000,177290.8437500000,,,
0.9839999985,7,161415.3125000000,162940.5937500000,186315.6250000000,184735.8281250000,168721.6406250000,169485.4531250000,19767.9902343750,177302.3750000000,,,
0.9879999985,7,161413.5625000000,162935.8750000000,186316.1093750000,184732.2343750000,168722.0000000000,169479.8593750000,19765.4687500000,177298.8906250000,,,
0.9919999985,7,161412.6250000000,162938.0781250000,186316.1562500000,184710.4375000000,168721.7812500000,169479.6406250000,19762.8945312500,177293.6875000000,,,
0.9959999984,7,161426.9531250000,162953.3125000000,186329.3281250000,184709.4687500000,168732.9375000000,169489.5156250000,19767.9902343750,177298.5937500000,,,
0.9999999984,7,161433.7812500000,162953.6406250000,186345.6718750000,184717.8281250000,168744.7656250000,169489.0312500000,19777.3789062500,177298.3593750000,,,
1.0039999983,7,161428.8593750000,162950.9218750000,186343.1718750000,184726.4687500000,168744.0937500000,169489.0468750000,19784.7011718750,177301.5000000000,,,
1.0079999985,7,161405.5937500000,162924.4062500000,186318.5781250000,184724.2187500000,168723.5468750000,169466.5781250000,19760.5332031250,177280.5468750000,,,
1.0119999985,7,161413.4375000000,162939.0156250000,186319.3593750000,184735.9062500000,168726.6093750000,169476.1562500000,19754.9003906250,177283.2656250000,,,
1.0159999984,7,161410.7812500000,162936.9531250000,186314.2500000000,184730.3906250000,168720.8437500000,169476.5781250000,19763.1347656250,177275.8281250000,,,
1.0199999984,7,161411.5781250000,162935.3750000000,186315.0937500000,184724.3437500000,168720.7031250000,169476.5781250000,19772.8457031250,177273.0156250000,,,
1.0239999983,8,161416.4843750000,162939.8750000000,186319.5625000000,184721.4843750000,168725.9687500000,169480.3281250000,19776.7617187500,177283.2812500000,,,
1.0279999983,8,161424.2187500000,162949.5625000000,186326.0312500000,184737.2500000000,168732.4843750000,169486.9375000000,19781.4550781250,177295.6562500000,,,
1.0319999983,8,161424.1875000000,162952.1093750000,186325.2500000000,184730.9687500000,168731.0312500000,169489.9062500000,19779.7109375000,177296.8281250000,,,
1.0359999982,8,161432.4218750000,162961.9531250000,186330.8125000000,184729.4687500000,168734.5156250000,169497.6875000000,19781.4550781250,177297.5000000000,,,
1.0399999982,8,161441.6250000000,162972.3593750000,186340.5468750000,184742.4062500000,168742.1718750000,169504.2031250000,19786.2558593750,177306.0625000000,,,
1.0439999981,8,161422.1250000000,162949.3906250000,186321.5000000000,184728.2656250000,168724.4687500000,169487.6875000000,19769.0625000000,177292.8281250000,,,
1.0479999983,8,161413.4062500000,162936.5468750000,186315.9531250000,184722.6562500000,168718.6875000000,169480.0468750000,19764.9062500000,177282.0781250000,,,
1.0519999983,8,161410.0468750000,162933.9687500000,186308.4843750000,184718.3906250000,168713.5468750000,169479.1093750000,19765.0410156250,177275.4062500000,,,
1.0559999982,8,161416.5937500000,162936.2812500000,186318.4218750000,184719.1250000000,168723.5156250000,169481.1093750000,19775.5546875000,177268.5625000000,,,
1.0599999982,8,161419.9531250000,162939.4218750000,186326.8593750000,184716.9218750000,168734.3281250000,169483.9531250000,19768.4199218750,177270.8125000000,,,
1.0639999982,8,161417.0000000000,162938.8281250000,186318.7656250000,184728.0312500000,168731.3593750000,169484.5781250000,19746.9882812500,177274.2968750000,,,
1.0679999983,8,161428.9062500000,162963.3125000000,186324.7500000000,184721.7812500000,168735.5468750000,169504.0468750000,19761.2851562500,177292.1875000000,,,
1.0719999983,8,161425.4531250000,162958.0312500000,186321.9843750000,184722.3437500000,168727.3125000000,169502.0312500000,19785.4785156250,177287.1250000000,,,
1.0759999983,8,161394.3906250000,162919.1093750000,186292.8593750000,184714.1250000000,168698.8750000000,169474.7812500000,19772.9531250000,177249.9218750000,,,
1.0799999982,8,161398.9531250000,162926.2187500000,186300.2031250000,184716.7031250000,168705.3125000000,169478.2500000000,19772.9531250000,177252.5000000000,,,
1.0839999982,8,161405.8125000000,162935.0937500000,186310.3750000000,184720.1093750000,168714.5625000000,169482.1093750000,19774.8574218750,177261.3906250000,,,
1.0879999981,8,161407.1875000000,162938.4843750000,186310.5000000000,184722.9218750000,168715.3750000000,169481.0000000000,19767.8300781250,177265.3125000000,,,
1.0919999983,8,161401.1406250000,162934.5312500000,186301.2968750000,184716.6718750000,168707.7187500000,169483.2656250000,19763.8867187500,177258.5781250000,,,
1.0959999983,8,161403.9375000000,162937.6562500000,186306.5000000000,184713.8125000000,168712.4687500000,169492.6406250000,19774.5878906250,177253.9687500000,,,
1.0999999982,8,161426.4687500000,162961.5156250000,186331.3125000000,184731.9218750000,168734.2812500000,169511.1562500000,19791.4335937500,177272.3125000000,,,
1.1039999982,8,161409.3593750000,162942.0000000000,186309.3281250000,184723.2812500000,168718.8281250000,169498.0937500000,19770.8867187500,177264.0312500000,,,
1.1079999981,8,161409.3593750000,162946.4531250000,186303.6093750000,184724.9062500000,168716.5468750000,169505.4687500000,19773.0058593750,177270.8125000000,,,
1.1119999983,8,161405.4687500000,162938.9687500000,186304.3593750000,184714.2968750000,168716.5468750000,169502.2500000000,19780.9179687500,177264.9687500000,,,
1.1159999983,8,161410.3125000000,162941.0781250000,186309.6406250000,184724.8593750000,168720.0312500000,169503.0781250000,19784.2187500000,177259.6875000000,,,
1.1199999982,8,161417.5625000000,162945.4062500000,186318.1718750000,184741.1406250000,168726.5312500000,169506.5625000000,19790.1191406250,177263.8437500000,,,
1.1239999982,8,161417.5625000000,162944.5937500000,186319.2187500000,184739.9375000000,168728.2968750000,169504.8750000000,19785.6386718750,177270.6718750000,,,
1.1279999982,8,161412.8593750000,162936.4375000000,186316.9375000000,184726.5156250000,168726.1562500000,169499.7031250000,19771.9335937500,177269.7343750000,,,
1.1319999981,8,161403.7812500000,162927.7031250000,186303.9375000000,184710.6406250000,168713.4062500000,169492.6406250000,19772.8730468750,177259.0156250000,,,
1.1359999983,8,161405.3281250000,162930.3593750000,186304.2500000000,184712.3281250000,168711.9062500000,169492.1562500000,19778.8535156250,177254.4843750000,,,
1.1399999983,8,161406.3281250000,162931.2343750000,186306.1093750000,184721.7812500000,168712.1250000000,169490.4531250000,19775.5546875000,177257.9375000000,,,
1.1439999982,8,161416.2500000000,162939.9531250000,186317.8281250000,184728.4218750000,168721.7500000000,169494.7187500000,19780.2480468750,177272.8437500000,,,
1.1479999982,8,161445.1562500000,162972.8593750000,186348.1406250000,184731.2968750000,168750.3437500000,169522.0468750000,19804.4414062500,177305.7812500000,,,
1.1519999981,9,161458.6250000000,162988.3125000000,186356.2343750000,184756.2968750000,168760.4062500000,169536.6562500000,19811.6035156250,177323.1093750000,,,
1.1559999981,9,161429.2812500000,162943.9843750000,186328.4687500000,184750.0000000000,168735.8593750000,169504.1875000000,19789.9042968750,177286.6093750000,,,
1.1599999981,9,161411.0937500000,162924.0468750000,186309.7500000000,184715.9531250000,168719.5781250000,169488.1718750000,19774.2929687500,177269.2031250000,,,
1.1639999980,9,161411.1562500000,162931.0468750000,186309.2187500000,184710.5625000000,168719.7343750000,169491.8437500000,19770.0820312500,177280.7656250000,,,
1.1679999980,9,161412.8906250000,162933.5937500000,186311.4687500000,184712.2343750000,168722.5625000000,169492.7343750000,19770.6191406250,177283.4218750000,,,
1.1719999979,9,161413.7031250000,162935.2656250000,186312.0625000000,184716.1718750000,168719.7343750000,169495.1875000000,19773.0332031250,177280.5468750000,,,
1.1759999981,9,161421.3125000000,162949.6093750000,186318.4218750000,184714.7968750000,168723.5781250000,169508.3906250000,19783.7617187500,177288.2500000000,,,
1.1799999981,9,161419.5156250000,162947.6875000000,186317.5312500000,184719.6562500000,168721.8593750000,169506.4531250000,19784.0039062500,177286.1562500000,,,
1.1839999980,9,161431.1093750000,162962.7031250000,186330.2187500000,184732.9531250000,168735.0781250000,169517.7812500000,19793.7402343750,177301.0625000000,,,
1.1879999980,9,161418.0468750000,162941.1093750000,186319.2968750000,184735.5937500000,168725.4218750000,169502.5781250000,19781.9121093750,177288.0312500000,,,
1.1919999979,9,161418.0156250000,162935.4687500000,186319.8906250000,184743.1875000000,168725.6718750000,169494.9218750000,19780.3027343750,177278.0312500000,,,
1.1959999981,9,161429.8750000000,162946.3906250000,186334.7812500000,184748.1093750000,168737.8125000000,169501.6250000000,19790.4140625000,177279.6406250000,,,
1.1999999981,9,161424.2968750000,162942.4531250000,186326.8906250000,184743.2031250000,168731.1875000000,169498.0625000000,19788.4824218750,177275.1562500000,,,
1.2039999980,9,161422.5000000000,162942.7968750000,186325.9843750000,184730.3906250000,168731.2500000000,169497.6875000000,19791.5664062500,177279.5781250000,,,
1.2079999980,9,161424.8593750000,162944.8437500000,186327.0000000000,184727.5625000000,168732.9375000000,169500.8593750000,19790.8164062500,177285.1562500000,,,
1.2119999980,9,161428.3906250000,162946.6093750000,186329.2187500000,184734.4375000000,168732.2343750000,169500.3750000000,19787.0332031250,177284.0625000000,,,
1.2159999979,9,161432.9062500000,162952.1093750000,186331.3437500000,184745.0625000000,168733.0468750000,169505.2031250000,19789.1523437500,177284.1406250000,,,
1.2199999981,9,161440.0625000000,162962.4843750000,186341.0312500000,184738.2656250000,168742.7500000000,169511.5000000000,19797.4687500000,177295.0625000000,,,
1.2239999981,9,161432.6875000000,162951.4062500000,186338.3750000000,184726.5468750000,168742.5625000000,169503.7187500000,19796.0195312500,177295.4062500000,,,
1.2279999980,9,161433.4062500000,162954.2031250000,186336.1093750000,184724.5312500000,168743.4531250000,169505.8750000000,19796.7441406250,177299.1562500000,,,
1.2319999980,9,161447.3593750000,162969.4062500000,186350.3281250000,184725.0468750000,168755.7031250000,169512.8437500000,19802.8593750000,177305.9218750000,,,
1.2359999979,9,161422.5156250000,162939.0781250000,186320.8281250000,184720.7031250000,168732.8593750000,169492.5468750000,19771.0214843750,177278.2656250000,,,
1.2399999981,9,161419.1718750000,162935.2656250000,186317.1250000000,184730.5781250000,168729.1093750000,169487.9218750000,19771.6113281250,177274.5625000000,,,
1.2439999981,9,161422.2500000000,162937.4062500000,186321.3125000000,184730.4687500000,168731.9687500000,169491.3593750000,19787.1953125000,177283.6093750000,,,
1.2479999980,9,161419.9687500000,162935.4531250000,186318.3125000000,184720.1406250000,168729.0468750000,169492.5625000000,19795.0273437500,177285.8125000000,,,
1.2519999980,9,161429.1406250000,162947.5468750000,186329.0312500000,184718.2343750000,168737.4375000000,169500.8593750000,19801.6523437500,177290.9062500000,,,
1.2559999980,9,161443.6875000000,162957.7187500000,186350.6250000000,184711.0000000000,168755.2500000000,169508.2343750000,19816.9140625000,177295.7812500000,,,
1.2599999979,9,161424.0468750000,162932.8281250000,186330.5156250000,184729.6406250000,168737.8437500000,169487.5468750000,19801.3027343750,177275.7187500000,,,
1.2639999981,9,161417.9843750000,162930.5625000000,186321.8437500000,184726.0625000000,168730.4375000000,169485.7343750000,19793.5781250000,177277.7656250000,,,
1.2679999981,9,161425.8437500000,162946.0468750000,186323.8125000000,184728.1562500000,168734.0312500000,169495.5937500000,19794.2500000000,177290.6406250000,,,
1.2719999980,9,161424.9062500000,162943.4375000000,186321.1718750000,184724.4531250000,168731.7343750000,169492.3281250000,19791.7285156250,177285.7031250000,,,
1.2759999980,9,161426.9218750000,162944.5937500000,186322.0312500000,184734.0625000000,168731.4843750000,169493.6406250000,19791.0312500000,177282.1875000000,,,
1.2799999979,10,161431.5625000000,162953.3125000000,186327.4218750000,184730.4062500000,168737.0937500000,169501.8437500000,19796.0468750000,177288.7031250000,,,
1.2839999979,10,161430.7343750000,162949.8281250000,186333.4062500000,184735.5625000000,168740.0781250000,169499.0625000000,19801.1152343750,177290.7656250000,,,
1.2879999978,10,161417.5312500000,162935.3125000000,186323.5156250000,184727.3593750000,168730.5468750000,169490.7656250000,19794.8125000000,177282.2187500000,,,
1.2919999978,10,161415.7343750000,162930.4843750000,186321.5781250000,184733.7968750000,168729.9843750000,169485.9218750000,19793.5781250000,177271.3437500000,,,
1.2959999978,10,161427.8906250000,162945.9843750000,186338.1562500000,184717.9687500000,168742.8593750000,169497.7500000000,19812.3535156250,177277.7031250000,,,
1.2999999977,10,161426.8437500000,162949.8281250000,186329.4375000000,184726.6562500000,168738.0312500000,169504.4218750000,19808.7070312500,177280.8906250000,,,
1.3039999979,10,161433.6875000000,162958.7656250000,186336.5000000000,184735.0312500000,168744.0625000000,169511.1875000000,19806.4804687500,177292.7500000000,,,
1.3079999979,10,161430.7812500000,162954.5156250000,186330.2187500000,184752.2187500000,168738.5156250000,169509.0937500000,19795.5644531250,177293.4531250000,,,
1.3119999978,10,161411.3125000000,162937.6250000000,186306.2656250000,184722.8281250000,168718.2187500000,169494.0937500000,19780.4628906250,177276.5000000000,,,
1.3159999978,10,161403.9843750000,162926.4687500000,186309.4531250000,184708.4375000000,168717.5625000000,169483.3437500000,19783.1445312500,177258.4687500000,,,
1.3199999977,10,161415.2812500000,162936.5468750000,186327.4843750000,184712.6562500000,168731.8437500000,169490.3437500000,19795.4570312500,177261.3906250000,,,
1.3239999979,10,161417.1093750000,162941.0625000000,186330.8125000000,184706.9687500000,168735.8125000000,169494.8750000000,19796.0195312500,177267.4062500000,,,
1.3279999979,10,161404.6093750000,162925.2031250000,186315.3593750000,184713.0625000000,168722.0000000000,169485.6250000000,19783.2792968750,177256.9218750000,,,
1.3319999978,10,161410.0781250000,162930.9375000000,186316.2656250000,184715.8750000000,168720.7343750000,169488.1093750000,19780.6230468750,177257.1875000000,,,
1.3359999978,10,161423.1875000000,162943.7031250000,186324.5625000000,184726.6093750000,168726.7968750000,169498.3593750000,19790.7617187500,177264.7968750000,,,
1.3399999978,10,161430.6250000000,162953.2656250000,186332.6562500000,184734.5625000000,168732.2656250000,169505.5156250000,19796.7441406250,177275.2187500000,,,
1.3439999977,10,161444.0000000000,162968.2031250000,186353.0156250000,184727.4843750000,168750.2656250000,169517.8593750000,19803.8515625000,177295.8125000000,,,
1.3479999979,10,161430.4843750000,162951.4375000000,186340.7812500000,184720.6718750000,168740.9843750000,169505.1406250000,19796.6894531250,177287.1718750000,,,
1.3519999979,10,161412.0156250000,162935.6093750000,186321.5000000000,184715.7343750000,168725.4843750000,169495.2500000000,19786.6054687500,177270.2031250000,,,
1.3559999978,10,161414.5000000000,162939.8750000000,186325.6093750000,184727.1718750000,168730.1718750000,169495.9531250000,19794.1152343750,177266.0937500000,,,
1.3599999978,10,161408.6250000000,162937.8593750000,186320.4062500000,184731.5625000000,168723.7343750000,169491.2031250000,19785.8281250000,177261.6875000000,,,
1.3639999977,10,161410.0781250000,162942.5000000000,186323.0312500000,184736.4687500000,168725.9843750000,169492.5156250000,19793.7929687500,177267.4531250000,,,
1.3679999979,10,161407.7500000000,162936.8125000000,186322.2968750000,184725.4531250000,168726.6562500000,169487.0468750000,19798.7558593750,177267.2500000000,,,
1.3719999979,10,161403.8281250000,162931.4531250000,186314.7968750000,184723.7812500000,168720.0156250000,169483.4687500000,19789.0195312500,177259.4687500000,,,
1.3759999978,10,161420.2656250000,162953.0468750000,186326.3281250000,184733.7968750000,168729.3125000000,169499.9687500000,19797.7636718750,177271.2187500000,,,
1.3799999978,10,161421.7500000000,162944.3750000000,186328.6875000000,184738.5468750000,168731.0312500000,169495.8906250000,19798.0312500000,177269.2500000000,,,
1.3839999977,10,161423.4843750000,162944.2500000000,186333.1093750000,184733.2500000000,168735.6718750000,169496.9843750000,19796.4492187500,177275.0312500000,,,
1.3879999977,10,161439.2656250000,162969.1093750000,186347.7656250000,184733.3593750000,168751.2812500000,169514.9375000000,19807.6074218750,177299.0312500000,,,
1.3919999979,10,161435.9843750000,162960.9843750000,186351.6718750000,184731.0312500000,168755.3906250000,169513.8125000000,19815.7070312500,177295.4687500000,,,
1.3959999979,10,161414.4531250000,162934.0781250000,186327.0781250000,184725.2968750000,168735.8593750000,169495.2968750000,19802.1347656250,177268.5000000000,,,
1.3999999978,10,161416.0000000000,162936.7343750000,186325.9531250000,184714.8281250000,168736.2031250000,169496.8906250000,19800.5253906250,177266.5000000000,,,
1.4039999978,10,161426.5468750000,162949.6718750000,186334.2343750000,184724.6406250000,168747.2031250000,169506.4843750000,19808.3300781250,177283.3906250000,,,
1.4079999977,11,161425.4531250000,162948.4843750000,186333.1875000000,184724.2656250000,168746.3437500000,169505.5468750000,19808.1425781250,177289.2968750000,,,
1.4119999977,11,161435.6406250000,162958.4062500000,186345.3906250000,184732.3906250000,168754.8437500000,169512.3281250000,19816.0019531250,177293.0781250000,,,
1.4159999976,11,161455.1093750000,162975.7031250000,186373.2187500000,184723.0312500000,168774.1093750000,169522.4531250000,19831.5058593750,177300.8281250000,,,
1.4199999976,11,161426.6562500000,162949.9531250000,186332.1718750000,184726.2343750000,168738.6250000000,169505.5468750000,19799.8554687500,177279.7187500000,,,
1.4239999976,11,161417.2343750000,162942.9843750000,186318.5781250000,184716.5468750000,168728.4843750000,169497.6406250000,19788.5898437500,177275.7968750000,,,
1.4279999975,11,161420.5937500000,162944.7812500000,186325.7343750000,184720.0781250000,168734.5468750000,169496.4062500000,19793.7929687500,177278.1406250000,,,
1.4319999977,11,161426.7656250000,162949.4843750000,186334.9843750000,184725.5000000000,168741.6875000000,169498.4062500000,19804.6035156250,177280.7968750000,,,
1.4359999977,11,161424.9687500000,162945.1875000000,186336.5156250000,184726.1250000000,168743.3125000000,169495.9531250000,19803.1015625000,177272.9843750000,,,
1.4399999976,11,161430.6250000000,162954.2500000000,186341.3750000000,184725.7656250000,168749.8125000000,169504.3125000000,19804.7089843750,177279.5312500000,,,
1.4439999976,11,161437.5156250000,162966.9375000000,186347.0937500000,184721.8593750000,168756.0625000000,169515.9218750000,19820.3203125000,177297.6562500000,,,
1.4479999975,11,161434.3750000000,162963.6875000000,186339.6093750000,184726.3281250000,168750.0312500000,169514.5000000000,19814.3925781250,177301.2343750000,,,
1.4519999977,11,161430.6718750000,162959.5156250000,186336.7343750000,184717.5312500000,168745.9218750000,169512.8750000000,19811.0136718750,177294.7968750000,,,
1.4559999977,11,161417.5312500000,162942.9843750000,186326.2968750000,184715.9062500000,168735.4062500000,169504.5625000000,19805.3808593750,177275.2187500000,,,
1.4599999976,11,161421.6406250000,162953.5000000000,186326.9218750000,184728.6406250000,168736.3750000000,169513.3750000000,19800.7675781250,177280.9843750000,,,
1.4639999976,11,161414.8281250000,162945.7500000000,186316.5625000000,184731.6250000000,168726.5000000000,169505.4218750000,19789.4218750000,177279.2656250000,,,
1.4679999975,11,161407.2343750000,162936.6562500000,186307.4375000000,184721.3125000000,168717.1875000000,169494.7343750000,19785.6933593750,177273.3281250000,,,
1.4719999975,11,161403.7812500000,162930.1718750000,186305.1406250000,184717.6250000000,168714.5625000000,169485.5312500000,19783.6015625000,177263.7031250000,,,
1.4759999977,11,161410.3750000000,162934.5625000000,186312.1875000000,184728.9843750000,168720.4687500000,169483.8281250000,19783.7343750000,177257.8593750000,,,
1.4799999977,11,161431.0312500000,162961.8750000000,186334.0468750000,184747.3906250000,168741.1250000000,169503.1406250000,19802.2695312500,177276.9531250000,,,
1.4839999976,11,161419.6250000000,162936.8437500000,186333.9687500000,184757.6562500000,168741.2031250000,169488.2968750000,19803.7167968750,177266.6562500000,,,
1.4879999976,11,161418.6093750000,162935.7656250000,186334.6718750000,184734.5625000000,168742.8906250000,169492.7812500000,19815.0625000000,177268.9375000000,,,
1.4919999975,11,161420.8281250000,162948.0000000000,186330.9687500000,184727.3281250000,168741.2500000000,169502.8437500000,19816.5917968750,177275.3750000000,,,
1.4959999977,11,161430.1718750000,162958.2812500000,186336.8125000000,184722.3437500000,168746.0000000000,169511.5000000000,19817.5039062500,177280.0468750000,,,
1.4999999977,11,161427.0312500000,162951.5937500000,186330.5625000000,184739.1250000000,168740.8750000000,169506.9687500000,19810.3417968750,177279.0000000000,,,
1.5039999976,11,161412.9531250000,162935.0781250000,186315.3281250000,184740.1718750000,168727.4687500000,169489.7031250000,19797.6816406250,177271.4843750000,,,
1.5079999976,11,161410.9687500000,162934.8593750000,186313.7500000000,184727.2812500000,168726.4687500000,169486.8281250000,19797.6816406250,177274.7812500000,,,
1.5119999975,11,161422.5000000000,162945.8593750000,186326.7812500000,184746.4531250000,168738.0937500000,169495.7343750000,19809.3496093750,177280.6875000000,,,
1.5159999975,11,161435.5312500000,162960.4218750000,186342.5000000000,184756.5156250000,168751.4375000000,169506.1875000000,19822.3046875000,177288.1875000000,,,
1.5199999977,11,161445.9375000000,162973.7031250000,186363.5625000000,184719.4218750000,168767.7187500000,169515.6562500000,19837.6464843750,177299.0625000000,,,
1.5239999976,11,161424.4843750000,162950.4687500000,186344.0625000000,184715.4218750000,168753.1406250000,169497.7656250000,19819.4628906250,177286.9375000000,,,
1.5279999976,11,161394.5156250000,162924.1562500000,186308.8593750000,184703.8906250000,168724.6562500000,169482.9375000000,19794.0078125000,177263.7812500000,,,
1.5319999976,11,161398.3593750000,162925.1250000000,186310.7187500000,184714.0000000000,168725.0000000000,169488.1406250000,19795.8847656250,177259.1250000000,,,
1.5359999975,12,161406.4062500000,162931.9062500000,186319.7812500000,184722.2812500000,168730.9218750000,169493.7968750000,19804.9785156250,177258.5000000000,,,
1.5399999975,12,161412.4843750000,162943.1718750000,186323.5937500000,184720.0781250000,168734.2031250000,169502.5156250000,19813.9101562500,177268.4843750000,,,
1.5439999974,12,161402.9218750000,162933.0312500000,186311.5468750000,184711.8750000000,168723.8437500000,169491.5156250000,19801.6250000000,177267.0312500000,,,
1.5479999974,12,161401.5468750000,162931.1250000000,186309.4062500000,184704.8750000000,168722.2656250000,169486.0781250000,19797.0664062500,177267.5156250000,,,
1.5519999973,12,161406.9062500000,162937.7031250000,186312.7343750000,184713.1406250000,168725.0781250000,169486.5781250000,19800.0429687500,177268.8281250000,,,
1.5559999973,12,161416.9375000000,162947.0625000000,186322.3281250000,184719.3125000000,168734.2031250000,169494.0937500000,19810.1542968750,177270.4375000000,,,
1.5599999975,12,161432.0156250000,162964.6250000000,186340.9687500000,184735.2656250000,168751.3437500000,169510.5156250000,19826.0605468750,177283.3593750000,,,
1.5639999975,12,161443.6875000000,162980.4062500000,186360.3437500000,184730.7656250000,168769.0468750000,169521.4843750000,19841.9121093750,177301.3125000000,,,
1.5679999974,12,161409.4375000000,162940.7656250000,186325.0156250000,184732.2968750000,168738.4687500000,169491.5937500000,19815.8671875000,177274.5468750000,,,
1.5719999974,12,161389.1562500000,162918.2343750000,186306.1093750000,184715.4218750000,168718.3437500000,169473.1718750000,19801.1699218750,177249.1875000000,,,
1.5759999973,12,161394.0156250000,162920.1875000000,186311.5781250000,184710.7031250000,168722.5625000000,169476.3125000000,19807.0703125000,177242.4375000000,,,
1.5799999975,12,161393.7968750000,162922.4062500000,186306.3125000000,184714.7187500000,168719.3906250000,169480.6093750000,19806.5878906250,177244.5312500000,,,
1.5839999975,12,161390.6093750000,162919.3593750000,186299.8593750000,184720.2187500000,168714.6718750000,169476.9531250000,19801.0351562500,177246.9218750000,,,
1.5879999974,12,161393.2031250000,162921.8437500000,186303.4218750000,184723.5468750000,168717.5625000000,169478.4062500000,19802.9394531250,177254.9531250000,,,
1.5919999974,12,161389.6875000000,162921.5312500000,186300.7968750000,184717.2656250000,168715.0781250000,169480.5468750000,19800.3105468750,177256.1718750000,,,
1.5959999973,12,161396.9375000000,162934.4531250000,186304.5000000000,184718.3437500000,168718.1562500000,169493.6718750000,19803.6093750000,177262.6875000000,,,
1.5999999973,12,161405.0000000000,162944.1875000000,186312.0000000000,184718.3906250000,168724.2812500000,169501.2031250000,19811.9785156250,177272.1562500000,,,
1.6039999975,12,161405.4843750000,162939.3437500000,186319.2656250000,184709.7812500000,168729.6406250000,169494.6875000000,19815.9746093750,177275.8593750000,,,
1.6079999974,12,161404.5000000000,162934.8593750000,186323.0312500000,184714.7500000000,168731.8906250000,169488.4843750000,19817.3964843750,177273.4218750000,,,
1.6119999974,12,161393.5781250000,162928.4687500000,186307.9062500000,184705.7343750000,168717.7031250000,169479.3125000000,19802.6445312500,177260.1875000000,,,
1.6159999974,12,161391.1093750000,162927.0312500000,186301.2812500000,184702.6250000000,168712.8750000000,169480.4218750000,19798.2734375000,177248.2500000000,,,
1.6199999973,12,161393.1562500000,162926.0156250000,186306.2968750000,184710.1875000000,168719.3593750000,169484.2031250000,19801.8945312500,177242.8125000000,,,
1.6239999975,12,161394.0937500000,162930.2500000000,186307.5312500000,184713.4531250000,168723.6875000000,169489.2968750000,19803.2343750000,177251.6406250000,,,
1.6279999975,12,161398.6718750000,162933.7031250000,186307.7656250000,184723.5156250000,168725.7812500000,169491.0937500000,19807.0703125000,177256.4375000000,,,
1.6319999974,12,161413.2187500000,162950.6562500000,186321.0625000000,184731.4375000000,168734.3906250000,169499.5156250000,19816.4042968750,177264.7187500000,,,
1.6359999974,12,161412.4375000000,162943.7656250000,186323.5312500000,184721.6718750000,168734.8125000000,169496.6093750000,19819.6757812500,177256.0000000000,,,
1.6399999973,12,161395.5468750000,162928.4687500000,186304.2187500000,184704.0000000000,168718.0781250000,169483.9843750000,19807.8750000000,177239.7812500000,,,
1.6439999973,12,161397.8750000000,162930.3593750000,186303.3125000000,184701.7343750000,168718.3437500000,169482.9375000000,19806.2382812500,177244.5781250000,,,
1.6479999975,12,161403.6406250000,162932.2343750000,186310.3750000000,184704.7968750000,168723.7343750000,169480.5781250000,19808.8398437500,177250.8906250000,,,
1.6519999974,12,161413.4375000000,162941.8281250000,186325.3125000000,184707.3437500000,168735.0781250000,169487.7656250000,19817.1562500000,177259.1406250000,,,
1.6559999974,12,161405.1718750000,162939.3125000000,186311.1250000000,184707.3125000000,168724.7812500000,169487.0468750000,19810.1289062500,177255.3906250000,,,
1.6599999974,12,161399.8281250000,162934.9687500000,186304.0156250000,184713.0625000000,168719.3906250000,169484.5468750000,19806.9355468750,177251.5781250000,,,
1.6639999973,13,161401.5781250000,162942.8750000000,186309.3750000000,184715.9531250000,168726.2031250000,169495.5937500000,19806.6679687500,177264.9062500000,,,
1.6679999973,13,161402.3593750000,162939.8281250000,186317.8750000000,184721.3125000000,168734.9218750000,169494.4687500000,19821.5546875000,177269.9218750000,,,
1.6719999972,13,161390.3906250000,162923.5625000000,186307.3906250000,184715.3593750000,168724.6562500000,169486.7656250000,19825.6308593750,177254.8593750000,,,
1.6759999972,13,161397.1562500000,162935.1562500000,186307.9843750000,184696.4218750000,168725.1093750000,169495.8437500000,19828.0449218750,177257.1093750000,,,
1.6799999971,13,161392.6406250000,162925.3906250000,186306.4218750000,184699.1875000000,168722.6718750000,169491.9687500000,19822.5195312500,177250.5312500000,,,
1.6839999971,13,161389.0468750000,162919.2812500000,186303.8750000000,184712.7968750000,168720.5781250000,169486.7656250000,19816.2968750000,177249.5937500000,,,
1.6879999973,13,161386.2343750000,162915.3281250000,186300.9843750000,184710.3437500000,168717.2187500000,169481.0000000000,19810.4492187500,177249.8125000000,,,
1.6919999972,13,161382.9375000000,162914.1718750000,186297.3125000000,184701.4375000000,168713.1406250000,169479.6406250000,19807.0976562500,177247.1875000000,,,
1.6959999972,13,161387.8906250000,162922.6562500000,186299.4531250000,184691.9218750000,168716.3593750000,169485.5625000000,19812.9980468750,177249.4843750000,,,
1.6999999972,13,161401.3593750000,162938.7500000000,186313.4531250000,184692.7031250000,168731.5937500000,169496.2968750000,19824.9062500000,177260.8125000000,,,
1.7039999971,13,161403.0468750000,162943.4375000000,186317.8281250000,184681.8125000000,168737.9062500000,169497.5000000000,19827.9101562500,177270.7031250000,,,
1.7079999973,13,161404.5781250000,162950.5468750000,186321.0156250000,184686.4531250000,168740.7656250000,169499.7031250000,19825.9531250000,177278.7031250000,,,
1.7119999973,13,161406.7968750000,162950.2343750000,186323.3281250000,184701.9843750000,168742.2500000000,169503.7500000000,19827.1054687500,177276.2343750000,,,
1.7159999972,13,161396.7187500000,162928.4687500000,186313.0156250000,184721.5625000000,168730.5312500000,169487.2500000000,19818.0136718750,177250.6718750000,,,
1.7199999972,13,161395.6406250000,162923.4531250000,186314.9218750000,184708.6875000000,168728.4531250000,169478.9062500000,19817.3437500000,177240.0156250000,,,
1.7239999971,13,161405.9687500000,162935.1250000000,186328.6406250000,184696.7500000000,168739.7031250000,169488.3593750000,19826.8105468750,177253.4062500000,,,
1.7279999971,13,161418.1250000000,162949.8750000000,186334.5625000000,184708.8281250000,168748.2812500000,169502.0937500000,19833.8652343750,177269.8437500000,,,
1.7319999973,13,161415.5000000000,162948.8281250000,186326.0625000000,184710.8593750000,168740.3906250000,169501.7187500000,19829.3320312500,177268.5000000000,,,
1.7359999972,13,161411.7187500000,162946.4531250000,186315.2187500000,184710.7031250000,168730.4375000000,169500.0468750000,19826.3007812500,177260.8281250000,,,
1.7399999972,13,161404.3125000000,162931.2343750000,186306.3906250000,184713.0625000000,168723.0156250000,169488.4687500000,19815.4648437500,177247.6093750000,,,
1.7439999972,13,161415.3281250000,162942.6406250000,186316.9062500000,184719.4218750000,168734.6875000000,169494.2812500000,19818.4433593750,177260.9375000000,,,
1.7479999971,13,161417.8281250000,162945.6718750000,186317.8281250000,184716.8906250000,168737.2343750000,169495.4843750000,19826.3828125000,177268.7812500000,,,
1.7519999973,13,161423.4062500000,162951.1406250000,186328.0937500000,184714.1250000000,168747.2656250000,169501.0468750000,19841.4824218750,177271.4062500000,,,
1.7559999973,13,161430.1875000000,162959.6718750000,186341.5625000000,184718.9531250000,168757.2656250000,169509.4062500000,19853.6601562500,177273.0937500000,,,
1.7599999972,13,161422.6875000000,162943.4375000000,186340.1875000000,184722.9218750000,168754.8281250000,169501.5468750000,19855.8066406250,177261.3906250000,,,
1.7639999972,13,161410.0156250000,162931.0000000000,186324.8750000000,184711.0937500000,168742.7812500000,169491.9531250000,19841.8593750000,177258.3906250000,,,
1.7679999971,13,161403.3125000000,162924.5312500000,186317.1562500000,184710.7500000000,168736.1562500000,169485.5625000000,19831.1289062500,177258.3125000000,,,
1.7719999971,13,161420.5625000000,162947.7031250000,186335.9843750000,184716.8125000000,168752.0312500000,169501.5781250000,19837.6210937500,177273.6250000000,,,
1.7759999973,13,161403.8750000000,162926.2812500000,186315.5468750000,184729.1718750000,168732.9843750000,169486.2031250000,19833.1406250000,177255.7656250000,,,
1.7799999972,13,161393.3125000000,162918.1718750000,186305.1093750000,184707.0781250000,168722.7187500000,169480.6093750000,19833.0078125000,177249.1406250000,,,
1.7839999972,13,161395.5937500000,162927.4062500000,186307.4375000000,184703.1093750000,168724.6250000000,169490.1562500000,19831.5312500000,177263.7812500000,,,
1.7879999971,13,161400.4687500000,162935.5312500000,186314.0156250000,184706.9375000000,168731.1093750000,169498.5937500000,19835.9843750000,177275.6875000000,,,
1.7919999971,14,161426.1718750000,162967.8281250000,186344.5468750000,184725.6718750000,168757.0000000000,169522.9062500000,19852.9355468750,177301.1718750000,,,
1.7959999971,14,161401.1718750000,162939.5000000000,186311.7343750000,184723.8750000000,168727.3125000000,169499.8125000000,19822.8144531250,177275.2187500000,,,
1.7999999970,14,161395.4062500000,162935.6093750000,186301.4062500000,184704.4218750000,168716.3125000000,169497.5625000000,19815.9746093750,177265.3125000000,,,
1.8039999970,14,161394.2500000000,162930.5937500000,186303.4531250000,184694.6875000000,168716.9843750000,169493.7187500000,19819.5156250000,177264.7187500000,,,
1.8079999969,14,161384.7343750000,162916.7812500000,186299.3125000000,184684.3906250000,168715.7656250000,169485.8906250000,19822.2519531250,177257.5312500000,,,
1.8119999969,14,161377.6250000000,162908.3906250000,186288.9843750000,184692.0625000000,168710.1093750000,169481.0625000000,19818.3359375000,177245.5937500000,,,
1.8159999971,14,161388.5625000000,162921.5781250000,186299.1250000000,184686.6406250000,168719.9062500000,169492.5156250000,19828.5546875000,177247.4531250000,,,
1.8199999970,14,161395.3750000000,162926.5468750000,186306.6718750000,184699.1093750000,168725.7031250000,169498.1718750000,19833.8925781250,177250.0312500000,,,
1.8239999970,14,161395.2968750000,162928.9531250000,186306.7812500000,184703.2656250000,168726.3906250000,169499.8281250000,19832.0156250000,177257.0781250000,,,
1.8279999970,14,161400.5000000000,162937.2656250000,186311.2500000000,184702.0625000000,168730.9062500000,169506.2656250000,19833.0332031250,177269.3906250000,,,
1.8319999969,14,161404.6875000000,162939.0781250000,186314.2500000000,184702.1718750000,168731.7343750000,169505.9218750000,19831.9335937500,177272.2812500000,,,
1.8359999971,14,161408.2812500000,162942.7656250000,186311.8125000000,184709.0156250000,168727.0312500000,169506.3593750000,19826.9179687500,177270.7343750000,,,
1.8399999971,14,161416.8125000000,162950.3125000000,186319.2968750000,184710.8281250000,168733.1718750000,169510.7812500000,19833.8125000000,177273.0312500000,,,
1.8439999970,14,161418.8281250000,162946.9062500000,186323.2187500000,184712.3906250000,168737.8750000000,169508.9062500000,19837.5937500000,177275.6875000000,,,
1.8479999970,14,161421.7187500000,162947.4375000000,186328.7656250000,184712.3281250000,168745.3906250000,169505.9218750000,19845.4257812500,177277.1718750000,,,
1.8519999969,14,161422.9843750000,162948.8906250000,186329.0312500000,184718.6875000000,168749.2187500000,169509.3593750000,19850.6562500000,177275.0468750000,,,
1.8559999969,14,161420.3437500000,162938.4531250000,186329.5781250000,184729.1562500000,168750.2187500000,169501.3593750000,19851.8359375000,177261.7812500000,,,
1.8599999971,14,161416.5937500000,162931.7187500000,186328.3437500000,184726.0625000000,168749.6406250000,169496.9843750000,19850.5488281250,177253.5156250000,,,
1.8639999970,14,161406.5312500000,162926.4687500000,186319.9218750000,184716.2812500000,168741.7031250000,169494.6562500000,19841.7246093750,177254.3125000000,,,
1.8679999970,14,161408.6093750000,162937.7500000000,186322.7812500000,184715.0937500000,168744.1562500000,169506.0781250000,19841.6699218750,177269.0625000000,,,
1.8719999969,14,161411.8281250000,162948.2500000000,186325.3281250000,184702.9687500000,168744.8125000000,169513.2656250000,19841.5898437500,177278.4375000000,,,
1.8759999969,14,161399.3281250000,162936.7343750000,186306.8750000000,184707.1093750000,168726.3437500000,169503.9062500000,19828.5019531250,177264.7500000000,,,
1.8799999971,14,161396.6093750000,162935.2656250000,186297.8906250000,184717.2656250000,168716.8125000000,169501.5312500000,19823.4316406250,177261.9062500000,,,
1.8839999971,14,161400.4687500000,162935.0781250000,186303.9531250000,184711.3750000000,168720.3281250000,169501.6875000000,19828.8769531250,177269.3125000000,,,
1.8879999970,14,161401.5781250000,162935.6406250000,186300.3906250000,184700.7812500000,168717.5156250000,169500.1562500000,19826.0332031250,177274.7500000000,,,
1.8919999970,14,161405.2031250000,162936.6093750000,186302.4843750000,184701.9843750000,168719.0781250000,169497.7656250000,19826.8378906250,177272.8281250000,,,
1.8959999969,14,161415.2031250000,162943.5000000000,186313.2968750000,184716.9531250000,168729.9843750000,169497.7500000000,19835.5019531250,177269.8750000000,,,
1.8999999969,14,161430.1093750000,162965.6718750000,186327.1562500000,184731.3281250000,168746.0781250000,169512.7968750000,19848.8320312500,177283.8750000000,,,
1.9039999971,14,161426.5937500000,162954.5468750000,186330.5156250000,184716.4687500000,168751.0156250000,169509.8437500000,19853.8203125000,177285.8593750000,,,
1.9079999970,14,161408.8750000000,162930.7031250000,186316.3437500000,184702.4062500000,168738.5468750000,169491.1406250000,19839.9804687500,177271.7812500000,,,
1.9119999970,14,161407.6406250000,162933.9531250000,186315.8593750000,184687.6562500000,168738.4062500000,169497.8281250000,19836.9765625000,177274.3593750000,,,
1.9159999969,14,161416.2656250000,162946.7187500000,186322.8593750000,184696.3750000000,168743.1093750000,169509.9531250000,19839.8203125000,177280.8437500000,,,
1.9199999969,15,161416.2500000000,162949.6875000000,186320.2656250000,184708.2031250000,168737.7968750000,169512.5156250000,19836.1718750000,177284.0625000000,,,
1.9239999969,15,161412.2187500000,162946.8437500000,186314.2500000000,184710.5625000000,168728.2968750000,169509.1718750000,19828.6347656250,177286.7500000000,,,
1.9279999968,15,161403.1250000000,162937.4062500000,186298.9218750000,184721.9843750000,168712.4687500000,169499.1718750000,19814.2578125000,177282.3750000000,,,
1.9319999968,15,161402.7031250000,162937.9375000000,186295.0312500000,184721.1562500000,168708.5781250000,169495.5468750000,19811.2285156250,177279.7656250000,,,
1.9359999967,15,161415.7968750000,162950.2812500000,186313.7968750000,184711.8750000000,168725.4218750000,169502.5937500000,19829.0097656250,177281.0781250000,,,
1.9399999967,15,161409.0781250000,162937.0000000000,186311.4375000000,184716.5468750000,168724.5625000000,169495.4062500000,19830.2167968750,177267.7343750000,,,
1.9439999969,15,161387.4062500000,162911.4375000000,186290.9687500000,184704.6875000000,168709.3125000000,169476.4531250000,19820.5078125000,177246.8281250000,,,
1.9479999968,15,161392.9687500000,162917.4843750000,186297.5468750000,184708.2500000000,168719.7187500000,169482.3437500000,19832.0957031250,177250.8906250000,,,
1.9519999968,15,161404.5781250000,162922.2812500000,186313.5000000000,184713.3750000000,168735.1875000000,169485.7031250000,19840.8652343750,177252.1406250000,,,
1.9559999967,15,161404.5312500000,162921.1250000000,186313.8750000000,184700.9375000000,168736.1875000000,169489.0468750000,19837.3261718750,177246.3281250000,,,
1.9599999967,15,161408.4062500000,162929.9843750000,186320.3125000000,184704.4531250000,168742.3750000000,169497.2031250000,19839.9277343750,177252.7812500000,,,
1.9639999969,15,161402.3750000000,162927.3750000000,186316.6250000000,184718.2343750000,168739.1562500000,169493.4843750000,19835.3144531250,177258.4687500000,,,
1.9679999969,15,161394.0625000000,162925.7343750000,186309.5625000000,184702.9218750000,168733.9375000000,169492.8593750000,19835.4472656250,177262.5781250000,,,
1.9719999968,15,161399.5156250000,162933.8437500000,186313.1562500000,184705.7031250000,168735.2187500000,169495.2187500000,19838.5332031250,177266.8125000000,,,
1.9759999968,15,161400.2343750000,162935.2656250000,186310.7500000000,184719.7343750000,168730.2031250000,169490.5312500000,19836.9765625000,177259.6562500000,,,
1.9799999967,15,161405.0312500000,162944.6562500000,186316.9375000000,184709.2812500000,168731.7031250000,169496.4843750000,19840.9472656250,177265.0156250000,,,
1.9839999967,15,161400.6875000000,162940.0937500000,186304.6250000000,184717.8281250000,168722.4218750000,169495.4843750000,19827.0000000000,177267.9218750000,,,
1.9879999969,15,161393.0781250000,162926.6562500000,186295.0468750000,184716.6250000000,168714.1406250000,169483.6875000000,19821.8222656250,177260.2500000000,,,
1.9919999968,15,161403.1093750000,162933.9687500000,186306.3750000000,184716.2500000000,168723.8750000000,169487.2812500000,19833.4628906250,177261.2968750000,,,
1.9959999968,15,161406.0781250000,162937.3593750000,186308.8437500000,184705.5000000000,168727.3593750000,169489.7187500000,19837.4335937500,177257.2968750000,,,
1.9999999967,15,161407.7187500000,162938.1562500000,186311.4687500000,184708.8437500000,168731.6718750000,169494.2812500000,19843.0664062500,177257.4062500000,,,
2.0039999967,15,161424.7187500000,162955.8906250000,186331.9843750000,184728.9687500000,168751.9218750000,169511.0937500000,19858.2207031250,177279.5312500000,,,
2.0079999969,15,161425.9218750000,162963.2968750000,186332.0937500000,184720.4687500000,168754.3125000000,169516.7812500000,19856.4238281250,177292.6250000000,,,
2.0119999968,15,161419.8906250000,162952.3437500000,186330.9687500000,184723.8437500000,168752.2500000000,169506.8906250000,19855.7519531250,177285.5625000000,,,
2.0159999968,15,161411.6875000000,162941.2968750000,186320.0000000000,184728.8593750000,168740.5000000000,169497.4687500000,19837.5937500000,177271.6718750000,,,
2.0199999968,15,161410.2968750000,162942.4843750000,186312.4843750000,184719.7656250000,168733.6093750000,169497.6406250000,19828.0449218750,177270.2812500000,,,
2.0239999967,15,161409.6718750000,162942.5000000000,186310.7187500000,184712.3125000000,168731.3750000000,169497.4218750000,19831.8808593750,177276.9062500000,,,
2.0279999967,15,161408.5000000000,162939.8281250000,186308.8906250000,184707.8750000000,168727.8125000000,169494.2343750000,19829.8964843750,177279.7187500000,,,
2.0319999969,15,161410.9375000000,162941.8906250000,186311.6093750000,184710.6250000000,168727.2031250000,169498.6875000000,19831.2910156250,177278.3281250000,,,
2.0359999968,15,161424.9843750000,162953.9531250000,186329.5937500000,184710.0000000000,168740.9062500000,169510.9375000000,19847.5722656250,177280.9218750000,,,
2.0399999968,15,161421.7500000000,162949.2968750000,186327.7500000000,184711.2031250000,168740.4531250000,169506.8125000000,19849.8515625000,177273.6093750000,,,
2.0439999967,15,161414.5781250000,162943.8125000000,186321.8437500000,184698.0312500000,168737.7656250000,169503.5312500000,19850.2265625000,177269.7343750000,,,
2.0479999967,16,161403.2031250000,162930.6406250000,186314.7187500000,184718.8750000000,168734.2031250000,169499.8125000000,19847.8925781250,177265.9843750000,,,
2.0519999966,16,161398.3593750000,162927.1562500000,186309.1093750000,184736.8437500000,168733.1562500000,169499.9687500000,19844.9160156250,177262.3906250000,,,
2.0559999966,16,161406.0781250000,162942.8593750000,186310.4687500000,184723.0312500000,168737.0468750000,169511.7968750000,19836.3593750000,177269.4218750000,,,
2.0599999966,16,161398.2187500000,162935.8750000000,186300.7187500000,184700.1250000000,168726.9218750000,169507.2968750000,19822.9492187500,177264.0312500000,,,
2.0639999965,16,161393.3437500000,162930.2656250000,186294.0312500000,184696.1562500000,168719.5781250000,169502.3906250000,19823.9140625000,177265.5781250000,,,
2.0679999965,16,161391.5156250000,162927.7500000000,186292.1562500000,184701.0625000000,168717.0781250000,169498.5156250000,19829.2246093750,177268.0156250000,,,
2.0719999967,16,161393.9843750000,162930.5156250000,186296.2343750000,184707.0312500000,168719.6406250000,169496.1562500000,19834.2148437500,177267.7343750000,,,
2.0759999966,16,161408.6250000000,162947.9531250000,186314.6562500000,184720.0000000000,168734.2187500000,169506.3750000000,19853.6074218750,177274.2187500000,,,
2.0799999966,16,161412.9218750000,162955.3437500000,186317.5000000000,184722.6562500000,168735.0625000000,169511.3750000000,19858.1933593750,177276.9843750000,,,
2.0839999965,16,161393.2031250000,162932.7656250000,186292.4218750000,184719.5781250000,168711.8593750000,169496.7500000000,19838.8535156250,177261.1250000000,,,
2.0879999965,16,161394.3906250000,162930.9218750000,186292.1093750000,184716.0156250000,168709.8906250000,169496.1562500000,19835.7968750000,177261.4218750000,,,
2.0919999967,16,161403.5625000000,162938.7500000000,186300.5468750000,184726.5781250000,168716.4218750000,169503.7031250000,19840.5449218750,177268.0000000000,,,
2.0959999966,16,161412.1406250000,162945.0468750000,186309.8906250000,184715.2031250000,168726.2812500000,169511.0468750000,19847.6250000000,177269.0468750000,,,
2.0999999966,16,161416.5937500000,162946.6093750000,186318.6093750000,184718.1562500000,168737.0625000000,169508.6250000000,19849.3417968750,177270.7343750000,,,
2.1039999966,16,161412.6562500000,162942.6406250000,186317.2343750000,184709.8437500000,168739.9687500000,169508.3437500000,19845.2109375000,177276.5781250000,,,
2.1079999965,16,161412.4062500000,162943.6875000000,186313.2968750000,184712.3906250000,168738.0312500000,169508.2031250000,19837.1113281250,177284.4062500000,,,
2.1119999965,16,161422.7656250000,162955.4531250000,186323.4843750000,184725.3906250000,168746.8593750000,169515.9531250000,19841.6972656250,177293.8281250000,,,
2.1159999967,16,161431.0781250000,162964.0156250000,186338.5625000000,184718.1875000000,168759.3281250000,169522.9062500000,19856.7714843750,177294.9531250000,,,
2.1199999966,16,161436.7343750000,162967.2031250000,186351.7812500000,184706.4531250000,168771.7500000000,169526.6250000000,19871.5781250000,177297.0468750000,,,
2.1239999966,16,161411.7187500000,162943.7968750000,186319.9375000000,184706.2968750000,168747.9531250000,169510.5156250000,19846.7128906250,177282.3437500000,,,
2.1279999965,16,161404.7656250000,162933.8593750000,186314.0625000000,184700.1562500000,168742.5468750000,169506.5156250000,19844.3535156250,177278.7187500000,,,
2.1319999965,16,161399.3437500000,162921.9062500000,186309.7031250000,184702.0000000000,168736.2031250000,169500.4218750000,19845.3730468750,177264.8281250000,,,
2.1359999967,16,161399.7031250000,162924.7187500000,186310.1875000000,184701.0468750000,168733.6093750000,169503.2656250000,19846.7929687500,177255.1718750000,,,
2.1399999966,16,161405.6562500000,162928.4687500000,186318.5000000000,184704.1562500000,168737.7343750000,169505.7656250000,19852.5078125000,177253.2500000000,,,
2.1439999966,16,161393.8437500000,162919.3906250000,186301.3750000000,184704.0781250000,168723.7187500000,169496.9687500000,19838.8535156250,177248.6093750000,,,
2.1479999966,16,161392.7812500000,162925.0625000000,186297.3906250000,184702.5937500000,168719.5781250000,169495.7656250000,19829.0097656250,177254.6093750000,,,
2.1519999965,16,161388.2500000000,162920.5625000000,186290.9218750000,184709.8125000000,168714.4843750000,169490.9843750000,19822.9765625000,177252.4687500000,,,
2.1559999965,16,161392.6406250000,162926.5156250000,186296.3593750000,184709.2500000000,168719.9843750000,169492.8281250000,19816.9941406250,177252.4375000000,,,
2.1599999967,16,161402.5625000000,162934.9375000000,186307.2343750000,184721.0468750000,168731.9218750000,169498.3593750000,19824.4511718750,177259.3125000000,,,
2.1639999966,16,161395.5937500000,162923.5468750000,186302.4843750000,184721.4062500000,168729.4218750000,169492.6718750000,19840.2226562500,177257.5156250000,,,
2.1679999966,16,161404.7343750000,162932.3593750000,186318.2031250000,184721.0468750000,168742.5625000000,169500.3906250000,19854.1699218750,177268.7187500000,,,
2.1719999965,16,161408.0312500000,162937.9218750000,186319.1718750000,184719.1718750000,168743.6093750000,169505.7031250000,19849.7988281250,177272.1562500000,,,
2.1759999965,17,161405.6718750000,162940.6875000000,186310.1250000000,184729.3906250000,168734.2500000000,169506.3593750000,19849.4765625000,177268.4531250000,,,
2.1799999964,17,161401.0937500000,162939.1718750000,186302.6406250000,184723.4062500000,168726.2812500000,169503.5625000000,19847.1699218750,177262.8750000000,,,
2.1839999964,17,161411.3593750000,162949.4531250000,186315.7343750000,184715.7968750000,168737.9218750000,169509.7031250000,19852.3457031250,177273.1718750000,,,
2.1879999964,17,161409.8906250000,162939.2343750000,186319.6250000000,184728.1250000000,168741.9218750000,169501.3593750000,19854.0351562500,177272.9531250000,,,
2.1919999963,17,161402.4062500000,162930.3593750000,186311.4375000000,184720.5156250000,168734.5000000000,169493.0468750000,19844.7011718750,177265.3125000000,,,
2.1959999963,17,161404.5781250000,162932.6562500000,186310.8281250000,184713.1093750000,168732.3437500000,169497.5312500000,19842.6093750000,177260.8593750000,,,
2.1999999965,17,161411.8437500000,162941.5625000000,186316.7812500000,184714.3437500000,168737.5312500000,169506.5625000000,19848.5917968750,177268.2343750000,,,
2.2039999964,17,161406.9062500000,162936.8750000000,186314.2812500000,184709.7656250000,168737.2812500000,169505.2031250000,19851.5410156250,177269.1718750000,,,
2.2079999964,17,161402.5625000000,162934.6406250000,186313.3437500000,184708.9062500000,168737.6093750000,169505.8906250000,19852.8554687500,177272.6406250000,,,
2.2119999963,17,161404.2812500000,162944.0312500000,186311.7343750000,184717.6406250000,168737.8750000000,169513.1875000000,19853.5800781250,177280.0625000000,,,
2.2159999963,17,161404.4218750000,162947.0937500000,186310.9843750000,184708.9531250000,168738.6718750000,169514.1093750000,19860.3925781250,177277.7031250000,,,
2.2199999965,17,161404.5781250000,162944.3750000000,186314.0156250000,184709.9531250000,168742.0781250000,169514.5312500000,19868.0097656250,177275.2343750000,,,
2.2239999964,17,161409.4062500000,162943.9843750000,186320.2656250000,184710.6406250000,168750.5625000000,169518.6718750000,19874.2871093750,177278.3750000000,,,
2.2279999964,17,161410.1250000000,162937.7343750000,186321.1250000000,184710.5156250000,168753.5625000000,169514.7812500000,19871.9531250000,177274.1406250000,,,
2.2319999964,17,161405.2031250000,162927.4062500000,186313.0000000000,184699.4843750000,168748.0156250000,169510.9062500000,19867.7695312500,177266.0937500000,,,
2.2359999963,17,161404.7343750000,162922.5156250000,186313.2343750000,184690.4531250000,168746.8593750000,169507.8750000000,19867.6347656250,177256.7343750000,,,
2.2399999963,17,161404.9062500000,162925.6250000000,186305.5625000000,184696.8281250000,168739.7500000000,169507.8281250000,19857.1464843750,177257.2343750000,,,
2.2439999965,17,161403.6406250000,162926.3281250000,186298.8125000000,184695.8906250000,168733.3125000000,169505.1250000000,19847.6523437500,177265.6562500000,,,
2.2479999964,17,161408.5000000000,162936.0156250000,186303.8750000000,184699.4375000000,168736.5781250000,169512.0468750000,19850.4140625000,177278.5156250000,,,
2.2519999964,17,161409.4375000000,162943.7343750000,186308.0937500000,184710.9062500000,168737.3593750000,169515.0625000000,19853.8203125000,177282.6718750000,,,
2.2559999963,17,161406.2187500000,162942.2656250000,186307.9531250000,184715.8437500000,168734.8750000000,169508.8281250000,19855.5644531250,177273.8125000000,,,
2.2599999963,17,161414.4531250000,162947.9218750000,186324.7187500000,184719.7656250000,168747.6562500000,169512.8437500000,19872.5703125000,177272.3906250000,,,
2.2639999965,17,161428.2656250000,162958.0937500000,186351.8125000000,184701.3593750000,168769.2031250000,169518.0781250000,19891.6406250000,177285.1406250000,,,
2.2679999964,17,161405.8906250000,162925.9218750000,186327.6406250000,184715.5312500000,168749.3593750000,169491.8750000000,19872.5957031250,177266.5156250000,,,
2.2719999964,17,161380.0937500000,162902.0000000000,186293.2343750000,184702.2812500000,168723.2343750000,169474.8593750000,19844.3535156250,177244.7187500000,,,
2.2759999963,17,161392.2343750000,162912.8125000000,186305.6250000000,184689.8593750000,168734.6562500000,169481.8125000000,19840.4902343750,177249.3593750000,,,
2.2799999963,17,161398.0000000000,162919.3906250000,186306.8281250000,184693.3750000000,168734.4687500000,169489.5937500000,19852.8828125000,177255.5468750000,,,
2.2839999963,17,161400.0156250000,162924.4062500000,186307.7187500000,184698.5781250000,168736.0000000000,169497.1562500000,19862.2441406250,177265.8437500000,,,
2.2879999964,17,161396.4531250000,162923.1406250000,186306.7187500000,184698.4375000000,168734.7343750000,169495.8125000000,19860.0429687500,177270.8125000000,,,
2.2919999964,17,161396.4843750000,162925.9843750000,186308.8437500000,184706.6250000000,168735.0625000000,169498.2812500000,19861.8144531250,177271.4218750000,,,
2.2959999964,17,161401.8906250000,162937.2968750000,186314.4687500000,184710.0312500000,168737.6562500000,169505.8906250000,19867.4726562500,177270.5937500000,,,
2.2999999963,17,161406.8593750000,162941.7031250000,186320.5625000000,184716.8906250000,168742.4375000000,169507.5312500000,19875.4941406250,177270.0937500000,,,
2.3039999963,18,161409.5937500000,162943.4218750000,186324.3750000000,184707.2343750000,168747.1562500000,169508.0468750000,19878.6308593750,177274.7031250000,,,
2.3079999962,18,161416.1406250000,162949.0781250000,186335.6093750000,184698.3125000000,168759.2031250000,169514.2343750000,19887.4570312500,177285.6250000000,,,
2.3119999962,18,161408.8906250000,162935.9375000000,186325.8906250000,184706.9218750000,168753.8593750000,169504.8437500000,19868.7871093750,177275.0000000000,,,
2.3159999961,18,161393.7500000000,162916.8593750000,186305.3593750000,184709.4687500000,168736.8281250000,169488.4062500000,19849.0996093750,177250.1250000000,,,
2.3199999961,18,161394.0625000000,162916.1718750000,186305.7031250000,184685.0781250000,168736.4218750000,169486.5625000000,19863.2890625000,177243.1250000000,,,
2.3239999961,18,161393.9843750000,162917.5625000000,186304.7343750000,184682.8906250000,168736.2968750000,169492.8125000000,19871.5781250000,177247.4218750000,,,
2.3279999963,18,161391.3281250000,162919.5781250000,186300.0937500000,184692.5468750000,168734.1718750000,169500.7812500000,19870.0214843750,177254.1875000000,,,
2.3319999962,18,161389.0468750000,162919.5468750000,186299.3437500000,184696.5156250000,168731.5468750000,169501.0468750000,19864.3359375000,177254.1093750000,,,
2.3359999962,18,161394.2812500000,162925.3593750000,186304.7031250000,184707.2968750000,168733.4531250000,169504.4687500000,19865.9179687500,177254.1250000000,,,
2.3399999961,18,161405.5156250000,162937.5468750000,186315.8125000000,184712.7343750000,168742.2968750000,169515.4218750000,19874.2597656250,177263.2187500000,,,
2.3439999961,18,161406.9062500000,162934.2656250000,186318.3906250000,184704.6093750000,168744.5781250000,169508.5781250000,19873.8027343750,177267.7812500000,,,
2.3479999963,18,161392.5937500000,162909.9687500000,186310.0937500000,184700.8281250000,168736.0156250000,169485.7500000000,19865.6230468750,177257.1093750000,,,
2.3519999962,18,161390.4218750000,162910.4218750000,186304.2812500000,184704.5625000000,168732.5156250000,169483.6562500000,19860.8476562500,177258.8281250000,,,
2.3559999962,18,161391.9218750000,162915.7343750000,186298.7500000000,184696.0781250000,168728.7031250000,169486.0000000000,19852.3457031250,177260.0000000000,,,
2.3599999961,18,161398.9531250000,162922.0156250000,186307.9531250000,184705.1250000000,168736.9062500000,169487.4218750000,19859.2929687500,177263.5468750000,,,
2.3639999961,18,161416.9375000000,162946.3593750000,186328.4531250000,184717.6718750000,168755.3125000000,169502.4687500000,19873.3750000000,177287.3906250000,,,
2.3679999961,18,161408.0156250000,162945.1250000000,186314.2031250000,184706.5625000000,168746.1406250000,169503.8593750000,19864.7382812500,177293.9062500000,,,
2.3719999962,18,161395.3593750000,162921.2656250000,186306.2656250000,184701.9531250000,168738.4062500000,169489.1093750000,19860.2578125000,177276.9218750000,,,
2.3759999962,18,161396.1093750000,162917.4843750000,186309.4218750000,184710.0781250000,168739.3750000000,169484.2812500000,19862.5644531250,177264.0312500000,,,
2.3799999962,18,161405.8593750000,162928.0937500000,186322.0625000000,184709.0937500000,168748.6875000000,169493.0781250000,19870.6660156250,177264.2343750000,,,
2.3839999961,18,161414.9062500000,162938.3750000000,186333.9687500000,184701.5468750000,168758.5781250000,169499.3750000000,19879.0332031250,177277.0625000000,,,
2.3879999961,18,161408.6875000000,162937.9218750000,186320.4218750000,184699.7812500000,168749.7343750000,169500.0468750000,19874.6621093750,177280.2500000000,,,
2.3919999963,18,161403.1250000000,162931.5625000000,186314.2500000000,184696.3750000000,168745.4062500000,169495.3593750000,19872.1406250000,177273.8437500000,,,
2.3959999962,18,161410.6093750000,162939.3593750000,186319.6250000000,184694.2031250000,168750.2187500000,169503.3750000000,19877.0761718750,177273.3906250000,,,
2.3999999962,18,161414.0937500000,162943.5000000000,186322.1406250000,184702.1093750000,168750.8750000000,169508.1250000000,19879.6777343750,177273.3593750000,,,
2.4039999961,18,161410.6093750000,162936.5000000000,186321.5781250000,184705.0937500000,168748.8437500000,169504.2343750000,19878.4707031250,177272.0000000000,,,
2.4079999961,18,161402.5625000000,162924.4531250000,186315.9531250000,184691.9218750000,168743.1250000000,169497.7187500000,19877.3164062500,177266.4687500000,,,
2.4119999961,18,161408.8437500000,162929.5468750000,186322.2812500000,184688.1718750000,168749.2656250000,169506.1718750000,19882.9238281250,177266.3906250000,,,
2.4159999962,18,161408.3281250000,162933.5937500000,186317.3437500000,184686.1093750000,168746.2187500000,169510.1875000000,19871.1757812500,177265.6562500000,,,
2.4199999962,18,161410.3750000000,162937.8125000000,186318.0156250000,184696.2968750000,168745.2500000000,169511.5625000000,19872.3554687500,177266.2187500000,,,
2.4239999962,18,161412.4687500000,162939.8750000000,186321.3125000000,184704.5781250000,168747.2812500000,169512.2343750000,19886.0605468750,177272.5625000000,,,
2.4279999961,18,161402.3281250000,162935.8281250000,186309.3750000000,184700.5312500000,168739.0312500000,169505.5468750000,19877.3437500000,177274.0000000000,,,
2.4319999961,19,161397.9531250000,162932.7187500000,186301.6718750000,184696.7812500000,168732.7812500000,169501.0625000000,19871.5781250000,177271.4062500000,,,
2.4359999960,19,161404.7968750000,162938.8750000000,186309.5312500000,184698.7031250000,168737.7968750000,169506.2500000000,19876.5664062500,177271.1093750000,,,
2.4399999960,19,161411.5781250000,162947.0625000000,186316.6406250000,184711.6562500000,168743.5312500000,169508.9531250000,19882.3066406250,177275.0312500000,,,
2.4439999959,19,161408.4687500000,162942.5781250000,186317.4531250000,184714.2343750000,168743.5625000000,169505.6250000000,19882.8691406250,177278.5312500000,,,
2.4479999959,19,161410.2656250000,162937.1875000000,186325.4687500000,184710.0312500000,168750.4843750000,169503.5625000000,19889.0117187500,177283.2031250000,,,
2.4519999959,19,161404.8125000000,162933.3906250000,186316.6718750000,184705.6093750000,168744.7343750000,169503.3750000000,19886.5175781250,177280.4375000000,,,
2.4559999960,19,161396.4218750000,162927.9062500000,186302.7968750000,184706.5937500000,168731.8593750000,169500.4531250000,19875.7890625000,177271.0312500000,,,
2.4599999960,19,161395.3593750000,162926.2187500000,186301.6562500000,184707.3125000000,168729.9062500000,169502.6718750000,19873.9648437500,177267.7343750000,,,
2.4639999960,19,161397.5000000000,162929.0937500000,186306.7812500000,184708.9062500000,168735.0000000000,169505.7968750000,19877.2910156250,177274.5156250000,,,
2.4679999959,19,161395.1406250000,162923.3750000000,186306.9062500000,184709.1093750000,168736.5312500000,169502.6250000000,19879.1152343750,177276.9531250000,,,
2.4719999959,19,161388.8906250000,162914.9843750000,186300.3906250000,184691.8437500000,168732.6406250000,169497.3750000000,19875.4121093750,177271.4843750000,,,
2.4759999961,19,161392.8281250000,162917.9687500000,186303.9375000000,184694.5781250000,168736.4218750000,169499.2656250000,19878.5234375000,177268.0156250000,,,
2.4799999960,19,161398.1406250000,162922.9531250000,186307.6250000000,184697.9843750000,168740.7968750000,169504.1250000000,19883.7011718750,177268.4062500000,,,
2.4839999960,19,161399.3750000000,162923.1718750000,186309.4218750000,184697.7187500000,168742.3750000000,169500.1875000000,19886.3300781250,177270.1718750000,,,
2.4879999959,19,161405.0000000000,162927.0000000000,186317.0781250000,184700.6718750000,168748.5156250000,169503.0000000000,19890.7812500000,177276.8437500000,,,
2.4919999959,19,161410.4062500000,162932.6406250000,186323.4062500000,184693.0000000000,168752.1406250000,169508.2343750000,19896.6015625000,177281.4687500000,,,
2.4959999959,19,161405.8125000000,162930.9218750000,186313.6718750000,184681.7343750000,168742.8281250000,169509.7343750000,19892.6601562500,177275.6875000000,,,
2.4999999960,19,161408.8125000000,162933.5937500000,186317.0781250000,184685.5625000000,168744.8125000000,169512.8437500000,19897.5957031250,177273.7968750000,,,
2.5039999960,19,161410.6875000000,162939.4687500000,186314.7656250000,184701.1250000000,168744.1718750000,169516.2187500000,19894.5644531250,177280.1250000000,,,
2.5079999960,19,161399.9843750000,162928.9062500000,186304.2031250000,184698.0937500000,168735.8125000000,169507.9062500000,19882.8164062500,177277.4062500000,,,
2.5119999959,19,161396.3437500000,162928.7968750000,186302.5937500000,184683.5468750000,168734.6562500000,169506.0312500000,19878.9003906250,177274.9375000000,,,
2.5159999959,19,161398.9687500000,162929.3593750000,186307.1718750000,184688.4687500000,168739.8593750000,169508.4687500000,19884.4511718750,177270.0156250000,,,
2.5199999961,19,161402.8281250000,162931.3125000000,186310.6562500000,184699.9375000000,168741.9843750000,169507.0000000000,19886.8125000000,177266.0312500000,,,
2.5239999960,19,161399.7500000000,162927.1406250000,186307.8750000000,184696.0312500000,168739.2343750000,169504.3906250000,19884.4257812500,177265.9062500000,,,
2.5279999960,19,161398.7343750000,162926.1406250000,186310.3125000000,184700.4531250000,168741.8437500000,169501.4687500000,19883.3515625000,177269.7343750000,,,
2.5319999959,19,161401.4687500000,162927.4843750000,186318.5468750000,184697.2812500000,168747.4218750000,169502.2968750000,19886.8125000000,177270.5468750000,,,
2.5359999959,19,161407.9531250000,162939.4218750000,186319.4531250000,184703.8906250000,168746.8593750000,169513.0312500000,19889.1992187500,177275.0312500000,,,
2.5399999958,19,161398.4062500000,162926.7812500000,186308.2187500000,184699.5937500000,168734.2500000000,169502.8125000000,19880.5097656250,177263.9687500000,,,
2.5439999960,19,161393.2343750000,162923.9375000000,186302.2656250000,184686.7500000000,168728.5625000000,169502.6562500000,19879.9199218750,177264.8281250000,,,
2.5479999960,19,161392.0781250000,162917.6718750000,186304.0156250000,184694.5000000000,168728.7031250000,169498.3593750000,19881.2871093750,177264.7812500000,,,
2.5519999960,19,161388.3750000000,162911.0625000000,186299.0468750000,184702.1718750000,168725.9062500000,169492.9218750000,19879.8125000000,177255.2812500000,,,
2.5559999959,19,161394.6875000000,162923.6718750000,186303.1250000000,184694.0937500000,168730.8125000000,169501.9843750000,19883.5410156250,177258.0156250000,,,
2.5599999959,20,161395.4843750000,162927.2968750000,186305.4062500000,184696.7187500000,168735.6718750000,169506.2187500000,19888.7968750000,177260.4843750000,,,
2.5639999958,20,161399.3437500000,162931.1562500000,186310.3125000000,184711.0937500000,168743.2343750000,169511.2812500000,19894.1621093750,177268.9062500000,,,
2.5679999958,20,161398.9531250000,162924.7968750000,186316.2968750000,184692.5468750000,168748.7656250000,169507.2968750000,19895.6367187500,177272.2656250000,,,
2.5719999957,20,161398.8437500000,162921.7187500000,186317.0937500000,184684.7031250000,168750.0781250000,169506.9687500000,19893.9746093750,177271.5937500000,,,
2.5759999957,20,161400.0937500000,162924.5312500000,186316.6718750000,184685.0625000000,168748.8437500000,169512.0625000000,19895.8515625000,177269.9218750000,,,
2.5799999957,20,161392.5937500000,162912.6718750000,186311.1406250000,184687.2812500000,168742.9218750000,169503.8593750000,19893.4648437500,177258.7187500000,,,
2.5839999958,20,161388.7812500000,162913.3281250000,186303.1250000000,184694.7656250000,168737.2031250000,169501.6250000000,19885.7128906250,177260.9375000000,,,
2.5879999958,20,161393.1250000000,162924.0000000000,186308.0937500000,184693.0000000000,168741.4062500000,169509.7031250000,19890.2714843750,177275.4218750000,,,
2.5919999958,20,161392.8906250000,162925.8750000000,186305.3750000000,184694.9531250000,168737.0156250000,169508.9531250000,19889.6015625000,177275.3750000000,,,
2.5959999957,20,161403.3750000000,162941.3437500000,186313.6093750000,184697.7656250000,168739.9687500000,169518.0781250000,19897.6210937500,177281.1875000000,,,
2.5999999957,20,161406.2343750000,162944.6562500000,186314.6562500000,184693.4531250000,168738.9218750000,169520.7031250000,19901.1347656250,177282.7968750000,,,
2.6039999959,20,161403.5937500000,162944.1718750000,186310.9843750000,184703.8906250000,168734.3906250000,169521.0781250000,19897.3261718750,177285.1406250000,,,
2.6079999958,20,161402.1718750000,162940.5468750000,186309.8593750000,184708.4218750000,168735.1875000000,169518.7968750000,19895.2343750000,177287.0156250000,,,
2.6119999958,20,161401.0937500000,162936.5156250000,186310.9843750000,184696.9687500000,168738.9531250000,169513.3750000000,19896.5761718750,177283.2656250000,,,
2.6159999957,20,161388.9375000000,162921.8437500000,186298.4062500000,184681.7343750000,168730.7187500000,169503.6718750000,19881.7968750000,177264.9687500000,,,
2.6199999957,20,161393.9843750000,162924.1875000000,186309.8593750000,184677.3906250000,168741.5468750000,169505.5156250000,19883.0566406250,177259.4062500000,,,
2.6239999956,20,161403.8593750000,162939.0937500000,186318.8906250000,184686.2343750000,168749.2187500000,169516.2031250000,19900.3574218750,177271.2656250000,,,
2.6279999958,20,161396.0156250000,162933.0625000000,186310.2343750000,184692.6406250000,168742.7031250000,169510.9062500000,19903.7636718750,177272.5625000000,,,
2.6319999958,20,161390.5312500000,162928.3906250000,186304.2031250000,184687.2500000000,168736.7968750000,169507.6093750000,19901.6718750000,177267.1875000000,,,
2.6359999957,20,161382.4531250000,162924.1562500000,186289.4687500000,184700.9375000000,168722.1250000000,169504.8750000000,19886.5976562500,177256.3281250000,,,
2.6399999957,20,161383.6875000000,162922.5781250000,186289.9062500000,184707.7500000000,168720.5781250000,169504.0468750000,19880.9921875000,177250.6093750000,,,
2.6439999957,20,161386.2812500000,162921.5312500000,186292.7968750000,184715.4218750000,168722.7656250000,169504.2656250000,19885.5781250000,177251.9062500000,,,
2.6479999959,20,161386.9531250000,162921.7656250000,186297.6562500000,184679.1250000000,168726.9062500000,169506.5468750000,19886.4375000000,177258.0156250000,,,
2.6519999958,20,161386.0781250000,162914.8750000000,186297.2500000000,184677.6562500000,168726.8750000000,169502.0625000000,19883.8085937500,177255.6562500000,,,
2.6559999958,20,161387.1718750000,162912.1406250000,186298.9218750000,184681.2187500000,168728.4062500000,169499.0781250000,19885.3105468750,177248.0156250000,,,
2.6599999957,20,161398.7031250000,162924.7500000000,186306.8750000000,184697.1875000000,168736.1562500000,169507.5625000000,19890.2714843750,177253.8125000000,,,
2.6639999957,20,161397.7656250000,162930.5468750000,186300.9843750000,184688.2812500000,168734.0312500000,169511.4687500000,19881.2070312500,177263.4062500000,,,
2.6679999956,20,161397.7656250000,162930.2968750000,186304.7656250000,184679.2031250000,168738.3281250000,169510.1093750000,19889.8691406250,177268.7500000000,,,
2.6719999958,20,161404.8437500000,162938.5000000000,186315.0937500000,184683.9843750000,168749.2968750000,169518.1250000000,19904.9707031250,177278.2187500000,,,
2.6759999958,20,161405.8437500000,162938.8750000000,186308.4843750000,184693.0000000000,168744.7187500000,169518.6718750000,19899.5000000000,177278.2968750000,,,
2.6799999957,20,161397.4375000000,162927.1562500000,186295.9062500000,184693.9687500000,168733.1718750000,169504.5625000000,19891.4257812500,177266.0312500000,,,
2.6839999957,20,161391.1875000000,162921.2343750000,186289.9062500000,184686.1875000000,168725.7968750000,169498.7812500000,19885.6582031250,177263.2500000000,,,
2.6879999957,21,161396.8281250000,162933.2812500000,186295.0312500000,184696.9062500000,168730.3593750000,169510.7812500000,19889.8164062500,177277.5781250000,,,
2.6919999956,21,161389.7187500000,162926.4843750000,186291.8593750000,184695.0000000000,168724.5625000000,169507.5312500000,19884.9082031250,177272.9531250000,,,
2.6959999956,21,161387.5937500000,162924.5625000000,186293.1406250000,184695.0312500000,168722.8593750000,169504.7656250000,19883.9960937500,177265.7968750000,,,
2.6999999955,21,161390.6250000000,162929.2031250000,186298.1562500000,184686.9062500000,168728.3437500000,169509.4375000000,19890.0312500000,177266.3593750000,,,
2.7039999955,21,161395.1875000000,162931.8750000000,186302.0312500000,184696.5625000000,168733.7187500000,169511.3750000000,19895.0996093750,177272.2656250000,,,
2.7079999954,21,161393.7500000000,162924.1250000000,186302.9375000000,184698.1718750000,168737.4687500000,169505.8906250000,19897.5410156250,177271.5312500000,,,
2.7119999956,21,161397.0156250000,162923.2187500000,186309.3750000000,184693.0781250000,168742.9375000000,169503.0468750000,19896.4687500000,177270.2500000000,,,
2.7159999956,21,161404.3593750000,162933.8593750000,186313.0468750000,184689.7031250000,168747.5625000000,169509.4843750000,19901.1894531250,177272.5781250000,,,
2.7199999955,21,161409.7031250000,162937.8906250000,186319.1093750000,184683.6562500000,168752.5468750000,169513.5156250000,19909.3964843750,177271.6250000000,,,
2.7239999955,21,161392.2343750000,162913.8906250000,186302.9375000000,184701.9218750000,168740.8437500000,169502.4062500000,19903.6835937500,177256.3750000000,,,
2.7279999955,21,161383.8750000000,162906.2968750000,186295.7968750000,184694.3593750000,168734.9687500000,169496.5312500000,19897.6757812500,177253.0000000000,,,
2.7319999957,21,161385.7500000000,162906.6093750000,186298.5937500000,184694.6093750000,168735.6250000000,169496.2343750000,19897.7285156250,177252.5781250000,,,
2.7359999956,21,161396.2656250000,162918.4687500000,186305.0781250000,184701.7187500000,168738.3593750000,169505.5781250000,19902.9589843750,177258.6093750000,,,
2.7399999956,21,161406.2656250000,162928.3125000000,186314.8125000000,184696.8906250000,168743.0000000000,169511.8750000000,19908.6464843750,177264.6406250000,,,
2.7439999955,21,161408.5781250000,162932.5781250000,186317.3437500000,184684.0625000000,168744.6562500000,169515.0468750000,19907.4648437500,177273.3281250000,,,
2.7479999955,21,161412.9687500000,162942.3125000000,186317.8281250000,184687.4687500000,168748.2812500000,169522.3125000000,19907.2500000000,177287.1250000000,,,
2.7519999954,21,161412.7031250000,162944.4687500000,186316.7500000000,184687.0468750000,168750.3437500000,169522.5468750000,19905.9628906250,177291.2500000000,,,
2.7559999956,21,161413.7187500000,162940.4062500000,186321.0156250000,184695.2187500000,168755.0156250000,169519.6875000000,19911.3007812500,177283.7343750000,,,
2.7599999956,21,161398.6250000000,162922.7031250000,186304.5937500000,184701.1250000000,168741.0156250000,169504.8437500000,19895.5839843750,177261.3750000000,,,
2.7639999955,21,161399.5625000000,162922.7343750000,186305.6406250000,184702.2812500000,168741.5781250000,169501.6562500000,19892.9277343750,177261.0781250000,,,
2.7679999955,21,161393.6562500000,162919.8437500000,186301.4062500000,184682.1093750000,168737.2031250000,169501.9062500000,19889.7636718750,177263.2812500000,,,
2.7719999955,21,161395.2187500000,162923.6718750000,186304.5937500000,184681.8593750000,168739.2187500000,169507.4218750000,19893.2500000000,177264.8906250000,,,
2.7759999956,21,161396.1562500000,162929.4218750000,186300.8437500000,184694.5312500000,168736.0000000000,169513.3593750000,19898.1855468750,177263.5468750000,,,
2.7799999956,21,161393.3437500000,162930.9375000000,186298.6250000000,184689.7187500000,168733.5781250000,169514.3750000000,19901.9941406250,177259.0156250000,,,
2.7839999956,21,161406.5937500000,162949.5781250000,186316.0468750000,184681.0000000000,168748.8906250000,169528.7187500000,19915.7539062500,177276.0468750000,,,
2.7879999955,21,161395.2656250000,162929.3125000000,186306.2343750000,184683.9531250000,168740.8750000000,169515.0937500000,19908.8867187500,177269.1718750000,,,
2.7919999955,21,161385.0781250000,162917.2968750000,186294.1406250000,184692.3593750000,168729.9375000000,169505.4218750000,19897.0585937500,177259.8125000000,,,
2.7959999954,21,161391.2500000000,162919.9687500000,186302.7187500000,184692.2656250000,168736.1250000000,169509.7656250000,19897.3808593750,177256.2812500000,,,
2.7999999956,21,161395.6718750000,162923.0000000000,186306.1875000000,184682.7031250000,168740.1562500000,169513.6562500000,19901.5371093750,177251.9531250000,,,
2.8039999956,21,161393.0937500000,162918.4218750000,186304.5468750000,184675.7187500000,168739.8281250000,169511.8281250000,19910.3359375000,177251.1562500000,,,
2.8079999955,21,161388.1562500000,162915.0625000000,186298.5937500000,184678.0781250000,168737.1718750000,169512.0468750000,19908.7265625000,177252.5781250000,,,
2.8119999955,21,161393.7968750000,162922.5781250000,186305.8125000000,184686.5000000000,168744.2031250000,169519.0156250000,19912.3730468750,177258.8750000000,,,
2.8159999955,22,161406.8906250000,162934.3437500000,186318.6875000000,184693.3750000000,168754.8437500000,169527.7500000000,19921.7070312500,177263.8125000000,,,
2.8199999954,22,161408.2031250000,162936.4375000000,186319.4531250000,184696.8593750000,168754.6406250000,169527.9218750000,19921.4667968750,177262.7343750000,,,
2.8239999954,22,161402.2968750000,162930.1093750000,186313.1562500000,184698.5937500000,168749.6250000000,169523.7656250000,19917.4960937500,177260.9375000000,,,
2.8279999953,22,161396.4843750000,162926.4687500000,186308.0937500000,184693.8750000000,168744.1562500000,169521.2968750000,19911.7578125000,177263.0312500000,,,
2.8319999953,22,161402.8281250000,162935.6875000000,186313.6875000000,184693.4218750000,168747.6875000000,169527.3281250000,19915.8867187500,177272.3125000000,,,
2.8359999952,22,161398.8125000000,162931.5937500000,186308.9531250000,184697.5312500000,168740.8281250000,169524.1875000000,19911.0859375000,177266.9218750000,,,
2.8399999954,22,161395.1406250000,162925.9531250000,186305.9375000000,184697.3125000000,168735.3281250000,169517.7187500000,19907.3320312500,177257.4062500000,,,
2.8439999954,22,161394.5468750000,162925.7656250000,186305.5468750000,184697.9843750000,168734.7031250000,169512.7031250000,19904.1386718750,177256.1093750000,,,
2.8479999953,22,161392.9062500000,162926.0156250000,186301.8906250000,184699.8281250000,168733.7500000000,169511.5000000000,19903.2812500000,177260.2500000000,,,
2.8519999953,22,161395.0312500000,162929.3125000000,186302.6093750000,184706.6250000000,168736.2031250000,169512.9218750000,19904.7304687500,177265.3750000000,,,
2.8559999953,22,161404.7656250000,162939.6406250000,186312.6718750000,184712.4375000000,168746.7187500000,169521.7500000000,19916.1015625000,177271.1875000000,,,
2.8599999954,22,161402.1093750000,162937.0000000000,186314.2812500000,184693.6875000000,168747.8750000000,169521.1093750000,19920.9296875000,177265.1562500000,,,
2.8639999954,22,161391.0312500000,162927.8125000000,186301.2500000000,184682.9687500000,168739.6406250000,169518.2656250000,19915.2968750000,177262.2812500000,,,
2.8679999954,22,161388.4062500000,162925.9531250000,186297.9687500000,184674.6562500000,168739.8281250000,169520.2500000000,19912.3476562500,177267.1718750000,,,
2.8719999953,22,161384.7500000000,162922.8750000000,186295.7031250000,184670.8750000000,168738.5468750000,169517.0312500000,19911.9453125000,177265.0156250000,,,
2.8759999953,22,161386.9062500000,162920.6406250000,186298.5625000000,184677.1406250000,168739.0468750000,169518.0781250000,19914.6796875000,177258.8750000000,,,
2.8799999952,22,161385.1562500000,162915.8906250000,186297.3281250000,184681.9375000000,168735.0781250000,169515.8750000000,19912.4277343750,177251.5312500000,,,
2.8839999954,22,161387.1406250000,162918.8125000000,186297.8750000000,184679.1875000000,168733.3437500000,169516.4687500000,19908.9140625000,177253.2968750000,,,
2.8879999954,22,161388.0000000000,162919.7031250000,186299.3750000000,184676.9062500000,168733.9375000000,169514.1562500000,19904.5156250000,177255.6093750000,,,
2.8919999953,22,161393.5312500000,162927.4218750000,186305.0781250000,184685.7031250000,168737.8750000000,169514.7968750000,19903.7636718750,177261.3125000000,,,
2.8959999953,22,161393.2031250000,162923.1718750000,186306.8750000000,184697.1562500000,168738.2812500000,169508.3437500000,19902.3417968750,177254.5312500000,,,
2.8999999953,22,161384.5468750000,162911.5312500000,186298.3281250000,184694.2031250000,168732.4062500000,169498.4062500000,19896.3066406250,177240.0156250000,,,
2.9039999954,22,161374.8281250000,162904.0625000000,186286.0937500000,184697.0781250000,168723.4218750000,169491.0625000000,19888.3671875000,177233.3750000000,,,
2.9079999954,22,161378.2968750000,162910.7968750000,186288.5312500000,184698.0156250000,168726.5781250000,169498.7656250000,19895.2617187500,177242.7031250000,,,
2.9119999954,22,161388.3281250000,162923.2187500000,186297.6250000000,184708.4218750000,168734.5781250000,169510.4062500000,19905.4277343750,177254.9375000000,,,
2.9159999953,22,161393.3437500000,162930.1093750000,186302.3281250000,184712.0625000000,168738.3593750000,169517.3281250000,19910.7910156250,177257.5156250000,,,
2.9199999953,22,161401.5156250000,162935.6875000000,186315.1406250000,184711.7968750000,168748.0937500000,169521.1875000000,19923.4238281250,177259.0625000000,,,
2.9239999952,22,161410.5000000000,162945.1093750000,186322.8593750000,184705.2187500000,168754.6875000000,169526.7031250000,19928.7089843750,177270.4687500000,,,
2.9279999954,22,161387.6875000000,162923.1093750000,186292.0781250000,184702.1406250000,168728.3750000000,169508.8437500000,19904.0585937500,177258.4531250000,,,
2.9319999954,22,161382.7968750000,162915.0312500000,186288.2187500000,184699.1093750000,168723.5781250000,169503.0468750000,19900.8671875000,177251.9062500000,,,
2.9359999953,22,161379.2812500000,162911.7187500000,186286.1406250000,184684.4062500000,168720.1718750000,169502.5156250000,19898.2109375000,177244.8437500000,,,
2.9399999953,22,161379.5781250000,162913.1093750000,186287.6562500000,184691.3125000000,168720.5937500000,169506.4843750000,19900.8144531250,177242.4687500000,,,
2.9439999952,23,161384.7343750000,162918.0468750000,186292.7187500000,184691.6875000000,168727.3281250000,169511.4531250000,19905.3203125000,177249.8125000000,,,
2.9479999952,23,161382.9843750000,162915.5781250000,186290.2500000000,184680.4687500000,168726.7656250000,169508.9531250000,19901.7792968750,177253.0312500000,,,
2.9519999952,23,161386.4687500000,162916.6250000000,186294.0000000000,184682.7812500000,168731.0625000000,169510.8281250000,19907.7597656250,177254.5000000000,,,
2.9559999951,23,161395.2187500000,162927.5937500000,186304.3593750000,184686.0156250000,168740.9843750000,169520.0000000000,19917.5781250000,177257.4062500000,,,
2.9599999951,23,161400.5781250000,162936.6562500000,186306.3125000000,184706.5625000000,168743.2031250000,169526.5000000000,19921.7343750000,177260.2656250000,,,
