Time:250Hz,Epoch,Channel 1,Channel 2,Channel 3,Channel 4,Channel 5,Channel 6,Channel 7,Channel 8,Event Id,Event Date,Event Duration
0.0000000000,0,204886.5468750000,193040.1406250000,203257.0000000000,189308.5625000000,187750.6406250000,163570.6250000000,171204.1875000000,-77226.4687500000,,,
0.0040000000,0,204917.4687500000,193045.0156250000,203309.4843750000,189317.0781250000,187794.4687500000,163590.7343750000,171255.6406250000,-77214.9375000000,,,
0.0079999999,0,204872.5781250000,192997.6718750000,203264.2968750000,189286.2187500000,187753.9375000000,163556.3750000000,171223.5000000000,-77254.9296875000,,,
0.0119999999,0,204887.7187500000,193036.3593750000,203275.2812500000,189273.5156250000,187770.2343750000,163582.5625000000,171220.4687500000,-77218.2343750000,,,
0.0159999998,0,204894.4375000000,193045.5000000000,203286.2812500000,189293.7343750000,187777.2187500000,163584.1406250000,171219.7968750000,-77209.8671875000,,,
0.0199999998,0,204859.0468750000,192987.0625000000,203247.5312500000,189326.7812500000,187745.5625000000,163539.3281250000,171225.5156250000,-77260.8281250000,,,
0.0240000000,0,204872.0000000000,193006.4218750000,203242.6250000000,189339.0625000000,187745.7031250000,163572.6093750000,171237.5625000000,-77243.0156250000,,,
0.0279999999,0,204869.2656250000,192994.7031250000,203252.3593750000,189352.6875000000,187757.7343750000,163578.7500000000,171240.4062500000,-77240.2265625000,,,
0.0319999999,0,204918.3906250000,193059.5625000000,203306.8906250000,189318.8750000000,187808.2968750000,163634.2656250000,171290.4218750000,-77178.4296875000,,,
0.0359999998,0,204951.0781250000,193093.2968750000,203351.8593750000,189317.5312500000,187841.5625000000,163651.3593750000,171325.1875000000,-77150.1875000000,,,
0.0399999998,0,204924.7656250000,193069.4843750000,203319.6562500000,189330.2656250000,187815.4375000000,163621.5000000000,171311.7968750000,-77183.2343750000,,,
0.0440000000,0,204914.8437500000,193051.5625000000,203298.2500000000,189360.7343750000,187802.4531250000,163630.7031250000,171292.7343750000,-77196.8593750000,,,
0.0480000000,0,204902.1875000000,193042.3906250000,203286.6406250000,189356.2812500000,187799.5312500000,163644.4843750000,171292.6250000000,-77198.8984375000,,,
0.0519999999,0,204885.3593750000,193020.7187500000,203280.9531250000,189313.7187500000,187792.0937500000,163624.4843750000,171291.3593750000,-77211.0468750000,,,
0.0559999999,0,204876.1406250000,193028.8437500000,203255.9843750000,189308.7812500000,187768.9843750000,163617.0000000000,171265.3437500000,-77213.7812500000,,,
0.0599999998,0,204884.2656250000,193047.4375000000,203255.9218750000,189316.8593750000,187773.5937500000,163632.9843750000,171275.1093750000,-77205.2812500000,,,
0.0639999998,0,204935.7656250000,193096.0156250000,203314.7656250000,189321.1406250000,187829.4843750000,163690.6250000000,171337.2812500000,-77159.6250000000,,,
0.0680000000,0,204992.9531250000,193143.5937500000,203396.7343750000,189332.7812500000,187897.9687500000,163728.1250000000,171404.1562500000,-77109.7656250000,,,
0.0719999999,0,204904.6718750000,193052.2656250000,203297.2031250000,189348.5937500000,187817.5781250000,163674.6718750000,171318.7812500000,-77177.1406250000,,,
0.0759999999,0,204925.1718750000,193086.4375000000,203316.2187500000,189330.4062500000,187834.6093750000,163686.3906250000,171310.5468750000,-77158.3671875000,,,
0.0799999998,0,204899.5312500000,193044.1875000000,203282.7500000000,189326.6718750000,187798.7187500000,163644.4375000000,171315.3750000000,-77201.1484375000,,,
0.0839999998,0,204905.4531250000,193042.2500000000,203285.9375000000,189381.1718750000,187805.0312500000,163653.0937500000,171341.2500000000,-77197.6640625000,,,
0.0880000000,0,204957.5468750000,193090.2187500000,203352.0468750000,189382.9218750000,187867.8437500000,163704.6250000000,171391.8593750000,-77148.1718750000,,,
0.0919999999,0,204970.0625000000,193124.8125000000,203356.5625000000,189350.1093750000,187875.8437500000,163738.9531250000,171391.2812500000,-77116.9531250000,,,
0.0959999999,0,204966.6875000000,193120.2812500000,203362.4843750000,189355.2968750000,187873.4062500000,163713.1562500000,171379.5781250000,-77127.4375000000,,,
0.0999999999,0,204965.5625000000,193088.5468750000,203373.6718750000,189378.2812500000,187880.9062500000,163665.3593750000,171374.4062500000,-77158.9296875000,,,
0.1039999998,0,204968.4843750000,193113.1406250000,203342.8593750000,189391.4218750000,187860.9062500000,163680.3281250000,171373.0156250000,-77146.5937500000,,,
0.1079999998,0,204950.7812500000,193085.7031250000,203339.4687500000,189390.4843750000,187859.8281250000,163686.0156250000,171372.5781250000,-77156.7578125000,,,
0.1120000000,0,204918.5468750000,193045.6875000000,203313.4062500000,189347.4531250000,187834.9687500000,163670.4062500000,171354.9375000000,-77176.6875000000,,,
0.1159999999,0,204963.8750000000,193111.3281250000,203361.7656250000,189331.4687500000,187867.7656250000,163700.3906250000,171386.8281250000,-77129.6640625000,,,
0.1199999999,0,204967.4062500000,193095.0468750000,203376.5625000000,189371.4687500000,187876.3437500000,163673.2187500000,171384.0312500000,-77146.7500000000,,,
0.1239999998,0,204945.7656250000,193068.4375000000,203336.1250000000,189401.8750000000,187858.8281250000,163667.9062500000,171311.5625000000,-77168.6406250000,,,
0.1279999998,1,204935.1718750000,193059.1562500000,203328.0156250000,189367.8437500000,187859.8593750000,163667.2968750000,171340.0937500000,-77172.6328125000,,,
0.1319999998,1,204962.9687500000,193102.7343750000,203356.3750000000,189346.7968750000,187874.1718750000,163705.1406250000,171425.3593750000,-77129.0000000000,,,
0.1359999997,1,204955.0156250000,193105.6093750000,203337.2500000000,189358.5156250000,187848.7968750000,163691.3281250000,171381.9375000000,-77136.9609375000,,,
0.1399999997,1,204983.5937500000,193120.7656250000,203387.8125000000,189383.1562500000,187884.8281250000,163680.6718750000,171400.5000000000,-77132.7500000000,,,
0.1439999996,1,204957.2187500000,193110.1250000000,203333.6250000000,189375.0000000000,187849.9531250000,163681.7500000000,171360.9375000000,-77151.4453125000,,,
0.1479999996,1,204901.3750000000,193038.6875000000,203281.5312500000,189336.8593750000,187804.8437500000,163642.4062500000,171308.6875000000,-77206.0312500000,,,
0.1519999998,1,204884.5625000000,193027.3750000000,203268.8437500000,189323.0000000000,187790.7812500000,163635.2968750000,171299.2500000000,-77208.4453125000,,,
0.1559999997,1,204968.9687500000,193129.2968750000,203365.2031250000,189327.5625000000,187868.2812500000,163691.5937500000,171357.8593750000,-77124.7031250000,,,
0.1599999997,1,204937.6718750000,193094.6093750000,203315.7968750000,189385.3125000000,187827.7968750000,163653.4843750000,171318.5937500000,-77162.5234375000,,,
0.1639999996,1,204932.4062500000,193073.5781250000,203313.8281250000,189364.6250000000,187827.0468750000,163636.8437500000,171314.8281250000,-77182.9375000000,,,
0.1679999996,1,204902.3906250000,193027.2343750000,203291.4375000000,189363.0781250000,187816.1875000000,163612.6562500000,171307.9687500000,-77210.6718750000,,,
0.1719999998,1,204907.0156250000,193035.5781250000,203287.0937500000,189372.2500000000,187816.2968750000,163633.9218750000,171311.2656250000,-77191.7578125000,,,
0.1759999997,1,204951.2343750000,193105.5000000000,203336.1250000000,189379.1562500000,187854.7031250000,163681.1250000000,171336.2031250000,-77140.1250000000,,,
0.1799999997,1,204992.5468750000,193158.7968750000,203386.5781250000,189393.0312500000,187890.7031250000,163703.3125000000,171371.0000000000,-77108.2109375000,,,
0.1839999997,1,204972.8125000000,193114.6250000000,203362.9375000000,189420.2500000000,187872.7812500000,163678.1562500000,171363.9687500000,-77144.2812500000,,,
0.1879999996,1,204910.9531250000,193046.1406250000,203296.5781250000,189385.5781250000,187820.8593750000,163643.2031250000,171306.6562500000,-77194.3046875000,,,
0.1919999996,1,204928.5156250000,193077.9531250000,203317.7968750000,189359.6875000000,187840.9375000000,163656.1875000000,171317.9218750000,-77163.7343750000,,,
0.1959999998,1,204885.7187500000,193014.7343750000,203278.0312500000,189358.7500000000,187795.0781250000,163586.2343750000,171285.9218750000,-77217.2968750000,,,
0.1999999997,1,204913.9843750000,193049.6562500000,203304.7187500000,189353.1406250000,187811.5781250000,163594.5000000000,171297.2968750000,-77200.5859375000,,,
0.2039999997,1,204987.2656250000,193135.1093750000,203379.1406250000,189359.8281250000,187882.7031250000,163672.3906250000,171350.8281250000,-77130.4687500000,,,
0.2079999996,1,204936.5156250000,193077.3437500000,203323.6250000000,189357.4062500000,187842.2031250000,163647.0156250000,171300.2343750000,-77172.7968750000,,,
0.2119999996,1,204943.3593750000,193072.0781250000,203336.7968750000,189391.2812500000,187853.9218750000,163645.4062500000,171319.8281250000,-77166.7890625000,,,
0.2159999998,1,204940.7812500000,193061.6250000000,203338.2343750000,189388.2343750000,187848.8906250000,163631.3750000000,171331.1406250000,-77173.4921875000,,,
0.2199999997,1,204997.0781250000,193148.4687500000,203380.3750000000,189370.9062500000,187883.6250000000,163684.0312500000,171347.2812500000,-77114.7500000000,,,
0.2239999997,1,204939.5156250000,193057.9531250000,203329.0937500000,189405.5000000000,187841.9843750000,163626.7656250000,171301.6406250000,-77186.9843750000,,,
0.2279999997,1,204903.0468750000,193017.2656250000,203291.3750000000,189364.0312500000,187811.3593750000,163604.9531250000,171273.6406250000,-77214.5078125000,,,
0.2319999996,1,204917.6562500000,193056.4687500000,203302.6406250000,189318.4062500000,187820.9375000000,163621.2343750000,171290.0468750000,-77184.0859375000,,,
0.2359999996,1,204912.3281250000,193054.7343750000,203304.8437500000,189334.8281250000,187813.0781250000,163591.5468750000,171282.6718750000,-77191.4921875000,,,
0.2399999998,1,204888.5625000000,193031.8750000000,203271.2968750000,189319.5312500000,187780.4843750000,163554.9375000000,171243.1406250000,-77225.4765625000,,,
0.2439999997,1,204889.9218750000,193025.1718750000,203270.7343750000,189342.4687500000,187784.5937500000,163557.5000000000,171244.3906250000,-77230.8359375000,,,
0.2479999997,1,204944.6093750000,193084.8750000000,203339.2031250000,189346.9843750000,187847.5468750000,163601.7968750000,171290.6718750000,-77176.0156250000,,,
0.2519999996,1,204905.5312500000,193044.7031250000,203303.5625000000,189319.1562500000,187815.1875000000,163573.8750000000,171261.3750000000,-77203.7500000000,,,
0.2559999996,2,204858.2812500000,192975.1250000000,203258.6875000000,189315.1406250000,187769.8437500000,163522.9375000000,171216.0000000000,-77256.3203125000,,,
0.2599999995,2,204850.7656250000,193001.3593750000,203216.9218750000,189296.0156250000,187733.2187500000,163533.2656250000,171189.9531250000,-77251.2500000000,,,
0.2639999995,2,204887.1406250000,193029.0000000000,203265.7656250000,189323.2968750000,187773.0781250000,163560.0781250000,171239.4375000000,-77226.9531250000,,,
0.2679999995,2,204878.1718750000,193000.8906250000,203266.8437500000,189325.0312500000,187777.5156250000,163560.9687500000,171243.3750000000,-77232.6640625000,,,
0.2719999994,2,204902.7656250000,193029.1093750000,203302.8593750000,189333.3593750000,187810.7968750000,163585.8906250000,171273.6562500000,-77198.8125000000,,,
0.2759999994,2,204829.5781250000,192965.3281250000,203202.2500000000,189309.2343750000,187723.9218750000,163542.5156250000,171185.3281250000,-77255.7031250000,,,
0.2799999996,2,204847.9218750000,192975.0156250000,203222.6406250000,189314.4687500000,187733.7968750000,163547.5312500000,171191.4218750000,-77249.7734375000,,,
0.2839999995,2,204884.0312500000,192971.4531250000,203277.2500000000,189337.6093750000,187777.9375000000,163556.5156250000,171229.4531250000,-77241.4609375000,,,
0.2879999995,2,204942.6093750000,193023.7500000000,203351.2812500000,189335.6875000000,187848.3750000000,163628.3750000000,171293.1562500000,-77178.6171875000,,,
0.2919999994,2,204797.0468750000,192862.8437500000,203186.0000000000,189295.2031250000,187703.7812500000,163519.4687500000,171151.0312500000,-77306.2890625000,,,
0.2959999994,2,204778.5000000000,192848.3906250000,203165.5625000000,189253.5000000000,187681.1406250000,163488.1718750000,171124.5625000000,-77328.5234375000,,,
0.2999999996,2,204843.5000000000,192916.8125000000,203237.9218750000,189275.1406250000,187738.4062500000,163521.2500000000,171183.9375000000,-77282.7421875000,,,
0.3039999995,2,204887.8281250000,192973.1875000000,203274.0312500000,189323.1562500000,187770.7500000000,163568.9375000000,171208.7187500000,-77241.9687500000,,,
0.3079999995,2,204842.5625000000,192938.9062500000,203224.7343750000,189266.6718750000,187734.5625000000,163550.8281250000,171175.4843750000,-77272.7343750000,,,
0.3119999995,2,204798.6718750000,192873.0937500000,203209.7656250000,189232.7656250000,187714.7968750000,163487.0781250000,171159.3125000000,-77327.4296875000,,,
0.3159999994,2,204757.1093750000,192850.8281250000,203159.4687500000,189186.4531250000,187669.5000000000,163450.8437500000,171092.7968750000,-77360.7109375000,,,
0.3199999994,2,204797.8437500000,192934.6250000000,203171.7812500000,189225.6562500000,187686.1250000000,163504.7812500000,171106.9687500000,-77310.1562500000,,,
0.3239999996,2,204820.1093750000,192938.0468750000,203200.7031250000,189285.6875000000,187707.3437500000,163519.4531250000,171168.2500000000,-77299.2890625000,,,
0.3279999995,2,204809.5625000000,192895.8593750000,203212.5312500000,189288.8750000000,187717.3750000000,163498.7187500000,171182.2968750000,-77316.7812500000,,,
0.3319999995,2,204889.8437500000,192989.5468750000,203302.5468750000,189300.2031250000,187796.2343750000,163578.0312500000,171242.6562500000,-77228.7187500000,,,
0.3359999994,2,204853.9062500000,192969.8125000000,203259.5468750000,189294.3593750000,187755.8437500000,163559.4062500000,171205.2031250000,-77250.1484375000,,,
0.3399999994,2,204814.3437500000,192927.0781250000,203195.1718750000,189302.1093750000,187700.5781250000,163525.8906250000,171145.8281250000,-77289.8203125000,,,
0.3439999996,2,204848.4531250000,192950.2500000000,203240.2343750000,189328.9218750000,187740.8906250000,163561.8281250000,171170.8750000000,-77264.7968750000,,,
0.3479999995,2,204857.5468750000,192938.7187500000,203263.5468750000,189329.6562500000,187765.8906250000,163577.2500000000,171202.7187500000,-77263.5390625000,,,
0.3519999995,2,204818.9843750000,192906.0781250000,203214.2187500000,189319.0312500000,187725.6562500000,163553.6250000000,171197.9218750000,-77288.9062500000,,,
0.3559999994,2,204830.2968750000,192932.3906250000,203226.7968750000,189282.8125000000,187729.2500000000,163557.2656250000,171194.2343750000,-77275.0937500000,,,
0.3599999994,2,204882.0156250000,192997.7343750000,203274.6250000000,189320.5312500000,187772.2500000000,163600.2656250000,171218.4531250000,-77227.0859375000,,,
0.3639999994,2,204944.7500000000,193095.8437500000,203317.1250000000,189341.9687500000,187824.6406250000,163682.2500000000,171262.4531250000,-77153.3203125000,,,
0.3679999996,2,204891.4843750000,193002.2187500000,203291.8593750000,189367.3125000000,187802.5625000000,163613.8593750000,171247.8281250000,-77220.7265625000,,,
0.3719999995,2,204899.5000000000,193018.4687500000,203306.2187500000,189341.0468750000,187812.1406250000,163615.8125000000,171254.7500000000,-77205.9453125000,,,
0.3759999995,2,204913.5000000000,193044.3437500000,203319.0625000000,189324.0468750000,187820.7812500000,163617.7031250000,171259.4375000000,-77192.3750000000,,,
0.3799999994,2,204867.7656250000,192996.4375000000,203257.6718750000,189337.1562500000,187773.6406250000,163580.9218750000,171195.6093750000,-77239.6640625000,,,
0.3839999994,3,204977.9062500000,193106.8437500000,203367.7656250000,189380.1093750000,187873.2031250000,163670.0468750000,171310.8125000000,-77145.5156250000,,,
0.3879999993,3,204946.6250000000,193075.5937500000,203336.3593750000,189367.1718750000,187844.7187500000,163647.0937500000,171305.0468750000,-77176.9296875000,,,
0.3919999993,3,204866.2656250000,192977.4531250000,203264.3750000000,189348.0000000000,187777.4218750000,163590.3437500000,171240.2968750000,-77246.9296875000,,,
0.3959999993,3,204886.2500000000,193018.0625000000,203279.6406250000,189307.5156250000,187784.6406250000,163606.7812500000,171233.6093750000,-77222.8437500000,,,
0.3999999992,3,204880.6406250000,193019.8906250000,203265.2812500000,189331.0781250000,187769.8125000000,163591.8125000000,171220.7968750000,-77235.7734375000,,,
0.4039999992,3,204900.5781250000,193029.0000000000,203289.5781250000,189386.0625000000,187791.8906250000,163606.4843750000,171239.0625000000,-77229.9843750000,,,
0.4079999994,3,204960.7656250000,193091.2656250000,203364.4375000000,189373.6718750000,187863.8750000000,163668.7968750000,171308.9375000000,-77168.8281250000,,,
0.4119999993,3,204876.4062500000,193014.5468750000,203260.8906250000,189363.0156250000,187782.1562500000,163631.1562500000,171238.7656250000,-77224.9140625000,,,
0.4159999993,3,204894.3281250000,193054.0937500000,203276.2343750000,189325.7343750000,187795.3125000000,163646.8281250000,171248.0937500000,-77195.1093750000,,,
0.4199999992,3,204906.4687500000,193067.5000000000,203298.7656250000,189313.3125000000,187805.5625000000,163645.1875000000,171258.9843750000,-77194.4687500000,,,
0.4239999992,3,204893.5781250000,193021.2812500000,203298.2968750000,189356.8437500000,187809.3437500000,163631.6093750000,171269.6718750000,-77224.5390625000,,,
0.4279999994,3,204938.3593750000,193073.2343750000,203344.5468750000,189371.4062500000,187859.2031250000,163684.2656250000,171324.7031250000,-77176.0390625000,,,
0.4319999993,3,204980.4218750000,193141.4531250000,203374.4531250000,189396.6562500000,187890.5937500000,163734.2656250000,171347.1875000000,-77117.4062500000,,,
0.4359999993,3,204877.9843750000,193035.8750000000,203266.0156250000,189326.3281250000,187791.7031250000,163651.2187500000,171263.6093750000,-77210.3750000000,,,
0.4399999992,3,204914.5000000000,193069.9062500000,203313.0312500000,189327.1250000000,187828.0468750000,163667.4218750000,171289.6718750000,-77187.8437500000,,,
0.4439999992,3,204979.4531250000,193130.2343750000,203392.5000000000,189362.8593750000,187900.1875000000,163722.4843750000,171351.8437500000,-77138.3281250000,,,
0.4479999992,3,204873.0000000000,193010.2031250000,203268.5781250000,189371.4687500000,187806.1875000000,163653.0781250000,171263.8437500000,-77233.4687500000,,,
0.4519999993,3,204937.7812500000,193092.2031250000,203338.4062500000,189362.6875000000,187873.2968750000,163732.0312500000,171334.6562500000,-77153.7812500000,,,
0.4559999993,3,204940.4843750000,193119.4531250000,203329.7343750000,189353.0468750000,187860.4218750000,163745.0937500000,171323.7968750000,-77139.3203125000,,,
0.4599999993,3,204932.4375000000,193089.2031250000,203327.3750000000,189392.9843750000,187846.8906250000,163702.5937500000,171345.0625000000,-77169.4687500000,,,
0.4639999992,3,204994.2343750000,193139.6250000000,203393.6250000000,189397.3437500000,187908.7031250000,163752.4531250000,171407.9062500000,-77122.0781250000,,,
0.4679999992,3,205009.5312500000,193154.9687500000,203419.7031250000,189389.6250000000,187937.1250000000,163762.9843750000,171421.4218750000,-77104.9375000000,,,
0.4719999994,3,204943.0312500000,193102.5468750000,203334.5156250000,189355.0781250000,187868.7656250000,163729.3906250000,171351.6250000000,-77145.4921875000,,,
0.4759999993,3,204939.2968750000,193086.4375000000,203338.5156250000,189365.4843750000,187867.1250000000,163722.9687500000,171353.9062500000,-77152.3593750000,,,
0.4799999993,3,204975.6250000000,193145.3125000000,203363.7968750000,189338.5312500000,187886.5625000000,163771.5156250000,171366.9531250000,-77115.4531250000,,,
0.4839999992,3,205032.4843750000,193185.2656250000,203440.1875000000,189410.9218750000,187952.5781250000,163808.5937500000,171434.3750000000,-77077.9296875000,,,
0.4879999992,3,204985.2500000000,193126.6718750000,203379.9687500000,189413.9843750000,187903.6250000000,163779.3750000000,171384.0000000000,-77121.9453125000,,,
0.4919999992,3,204943.5156250000,193084.7187500000,203338.7187500000,189390.9687500000,187865.0625000000,163754.5937500000,171343.5781250000,-77155.1718750000,,,
0.4959999993,3,204938.0468750000,193082.3906250000,203330.7343750000,189366.9843750000,187847.2500000000,163730.1093750000,171326.9531250000,-77163.3281250000,,,
0.4999999993,3,204965.0000000000,193127.4218750000,203352.0468750000,189377.9062500000,187859.3750000000,163750.3906250000,171326.2343750000,-77138.3828125000,,,
0.5039999993,3,205026.2031250000,193177.5156250000,203430.5312500000,189408.7812500000,187930.5000000000,163793.8906250000,171392.2656250000,-77091.7421875000,,,
0.5079999992,3,205003.7343750000,193144.0937500000,203423.4218750000,189405.8593750000,187936.0000000000,163789.2812500000,171387.7812500000,-77107.1328125000,,,
0.5119999992,4,205027.3906250000,193180.0937500000,203439.4062500000,189405.1250000000,187949.4375000000,163819.5000000000,171410.8281250000,-77072.8593750000,,,
0.5159999991,4,204927.6562500000,193078.0625000000,203327.5937500000,189389.4062500000,187839.4375000000,163721.7656250000,171330.1250000000,-77167.1875000000,,,
0.5199999991,4,204905.7031250000,193073.4218750000,203282.0468750000,189370.6093750000,187803.0156250000,163698.0781250000,171276.7187500000,-77184.9453125000,,,
0.5239999990,4,204915.7031250000,193065.9218750000,203299.7812500000,189386.2656250000,187818.2500000000,163700.3593750000,171290.7500000000,-77192.6171875000,,,
0.5279999990,4,204991.4687500000,193160.0937500000,203388.4843750000,189384.4531250000,187898.4843750000,163784.0937500000,171361.2031250000,-77109.7656250000,,,
0.5319999990,4,205006.7031250000,193142.2187500000,203439.3593750000,189421.9687500000,187937.5312500000,163777.8281250000,171399.3750000000,-77107.8046875000,,,
0.5359999991,4,204918.8593750000,193064.9218750000,203321.3125000000,189386.5625000000,187838.8281250000,163709.9843750000,171310.1093750000,-77178.4296875000,,,
0.5399999991,4,204923.1875000000,193082.6562500000,203318.6875000000,189378.0937500000,187830.4531250000,163699.5000000000,171289.0781250000,-77180.4921875000,,,
0.5439999991,4,204964.0000000000,193113.3906250000,203367.6093750000,189397.3750000000,187878.3125000000,163729.2968750000,171343.7187500000,-77153.9687500000,,,
0.5479999990,4,204976.8750000000,193139.1718750000,203369.0781250000,189391.2343750000,187883.9687500000,163752.2656250000,171336.8281250000,-77136.1015625000,,,
0.5519999990,4,204969.3437500000,193136.8593750000,203362.8593750000,189399.0625000000,187878.9531250000,163756.0156250000,171333.2031250000,-77132.8281250000,,,
0.5559999992,4,204959.1718750000,193122.0000000000,203369.3593750000,189378.3593750000,187875.8125000000,163726.5937500000,171338.8906250000,-77144.8750000000,,,
0.5599999991,4,204936.4062500000,193113.6093750000,203325.5000000000,189358.5937500000,187841.0781250000,163703.3906250000,171292.1406250000,-77169.8984375000,,,
0.5639999991,4,204959.4531250000,193126.6093750000,203343.2343750000,189374.6562500000,187862.4218750000,163725.3593750000,171321.4843750000,-77159.6562500000,,,
0.5679999990,4,205012.0781250000,193171.8906250000,203409.4843750000,189384.1250000000,187920.4375000000,163762.5312500000,171372.4531250000,-77114.6171875000,,,
0.5719999990,4,204943.4843750000,193096.8125000000,203348.4375000000,189354.9375000000,187862.3437500000,163707.2343750000,171312.9843750000,-77172.4765625000,,,
0.5759999990,4,204927.8750000000,193085.3125000000,203319.6250000000,189325.7812500000,187836.0937500000,163687.9375000000,171287.6093750000,-77182.8515625000,,,
0.5799999991,4,204961.0625000000,193118.8906250000,203351.1406250000,189385.3906250000,187864.5156250000,163693.3125000000,171304.6093750000,-77162.2578125000,,,
0.5839999991,4,204937.5000000000,193100.0625000000,203313.7031250000,189375.5937500000,187836.5781250000,163693.0625000000,171279.5312500000,-77183.2343750000,,,
0.5879999991,4,204951.1406250000,193106.2343750000,203342.3906250000,189333.2500000000,187864.1718750000,163713.2968750000,171313.6250000000,-77170.5468750000,,,
0.5919999990,4,204978.9218750000,193142.3281250000,203375.0468750000,189327.5781250000,187894.4843750000,163746.8906250000,171352.1718750000,-77131.0625000000,,,
0.5959999990,4,204985.5937500000,193153.5468750000,203379.0937500000,189351.5937500000,187893.7031250000,163741.3437500000,171346.3750000000,-77120.8125000000,,,
0.5999999992,4,204953.9687500000,193124.0312500000,203336.3125000000,189366.6875000000,187850.5781250000,163702.4531250000,171304.6093750000,-77158.2890625000,,,
0.6039999991,4,204971.3281250000,193128.5156250000,203362.8125000000,189353.6562500000,187873.3125000000,163716.0468750000,171323.6093750000,-77157.7265625000,,,
0.6079999991,4,204995.1250000000,193151.3750000000,203396.0625000000,189369.7812500000,187905.2343750000,163733.3593750000,171350.1875000000,-77138.9218750000,,,
0.6119999990,4,204938.3593750000,193087.3750000000,203340.0625000000,189357.1718750000,187858.9218750000,163686.0156250000,171316.8437500000,-77187.9218750000,,,
0.6159999990,4,204905.5312500000,193067.5468750000,203293.7187500000,189343.0625000000,187816.5937500000,163664.3437500000,171277.6250000000,-77207.0468750000,,,
0.6199999989,4,204944.8906250000,193125.3593750000,203325.2656250000,189363.3437500000,187843.0625000000,163699.2031250000,171293.7968750000,-77168.1328125000,,,
0.6239999991,4,205006.3906250000,193178.5156250000,203395.3750000000,189379.7031250000,187911.6250000000,163755.7812500000,171352.4062500000,-77118.9140625000,,,
0.6279999991,4,204995.3125000000,193138.2812500000,203412.5625000000,189375.5468750000,187925.1406250000,163735.0156250000,171377.9218750000,-77144.4218750000,,,
0.6319999991,4,204920.6875000000,193073.2968750000,203313.3281250000,189361.4375000000,187842.1250000000,163686.0156250000,171303.7031250000,-77200.7187500000,,,
0.6359999990,4,204923.4062500000,193101.3125000000,203302.1093750000,189340.9687500000,187829.1093750000,163697.8906250000,171290.3437500000,-77182.9609375000,,,
0.6399999990,5,205000.6250000000,193183.8281250000,203397.3281250000,189350.7343750000,187908.9375000000,163754.5625000000,171367.2656250000,-77116.7109375000,,,
0.6439999989,5,204983.1875000000,193137.4687500000,203389.7656250000,189396.6718750000,187906.2343750000,163727.2968750000,171373.2812500000,-77157.2656250000,,,
0.6479999989,5,204890.1875000000,193042.6093750000,203283.0937500000,189350.0937500000,187817.7656250000,163672.0937500000,171298.4687500000,-77235.7187500000,,,
0.6519999988,5,204940.5312500000,193107.1875000000,203342.9375000000,189336.7656250000,187870.3906250000,163728.8437500000,171347.9375000000,-77172.4765625000,,,
0.6559999988,5,204981.1406250000,193163.0937500000,203384.6093750000,189345.0781250000,187905.3437500000,163771.3593750000,171374.9062500000,-77124.2734375000,,,
0.6599999988,5,204931.2031250000,193099.6562500000,203330.8593750000,189325.0312500000,187853.0468750000,163712.3437500000,171336.3437500000,-77183.5000000000,,,
0.6639999989,5,204935.0937500000,193109.6093750000,203317.9062500000,189365.2968750000,187850.2187500000,163730.8125000000,171336.0468750000,-77179.6328125000,,,
0.6679999989,5,205003.7343750000,193181.1093750000,203400.4375000000,189375.8593750000,187925.3281250000,163804.1562500000,171397.7187500000,-77110.9218750000,,,
0.6719999989,5,204963.4218750000,193098.0000000000,203391.1406250000,189343.9218750000,187912.0156250000,163745.1250000000,171396.1562500000,-77161.9843750000,,,
0.6759999988,5,204974.2500000000,193158.7187500000,203369.1093750000,189334.8593750000,187901.5312500000,163782.0937500000,171392.7187500000,-77120.1718750000,,,
0.6799999988,5,204961.1093750000,193149.4843750000,203352.8593750000,189345.2343750000,187881.8750000000,163770.1875000000,171386.9375000000,-77136.8281250000,,,
0.6839999990,5,204997.2187500000,193165.0000000000,203412.6718750000,189372.1875000000,187933.1093750000,163798.6875000000,171416.0625000000,-77117.8671875000,,,
0.6879999989,5,204963.3437500000,193124.0625000000,203363.8281250000,189401.0468750000,187903.8125000000,163774.3437500000,171365.5312500000,-77151.0468750000,,,
0.6919999989,5,204934.0468750000,193095.5468750000,203318.9218750000,189380.0781250000,187857.3593750000,163759.7187500000,171375.0156250000,-77168.3671875000,,,
0.6959999988,5,204961.6718750000,193139.2656250000,203343.8125000000,189374.3906250000,187870.4218750000,163779.2187500000,171395.0781250000,-77136.5312500000,,,
0.6999999988,5,204957.3593750000,193142.3593750000,203342.1562500000,189352.8281250000,187870.6093750000,163769.9375000000,171389.9375000000,-77143.6406250000,,,
0.7039999987,5,204962.5000000000,193134.3125000000,203353.9531250000,189369.7968750000,187886.5468750000,163779.9375000000,171401.5781250000,-77149.7812500000,,,
0.7079999989,5,204963.5468750000,193125.9687500000,203356.6093750000,189385.7656250000,187895.9843750000,163787.0781250000,171403.0781250000,-77151.7656250000,,,
0.7119999989,5,205035.4375000000,193211.1562500000,203444.7187500000,189384.9375000000,187969.0468750000,163841.5781250000,171461.6093750000,-77077.6562500000,,,
0.7159999989,5,204964.4375000000,193134.5312500000,203371.3125000000,189394.4531250000,187900.4062500000,163775.9218750000,171396.3750000000,-77142.5156250000,,,
0.7199999988,5,204953.8906250000,193149.8750000000,203338.5312500000,189347.7343750000,187873.9375000000,163776.6718750000,171352.7812500000,-77142.9453125000,,,
0.7239999988,5,204956.5468750000,193125.0625000000,203352.3281250000,189366.6718750000,187885.8906250000,163747.1406250000,171368.0000000000,-77167.2187500000,,,
0.7279999990,5,204930.1875000000,193079.6250000000,203327.5312500000,189395.5468750000,187869.4843750000,163725.4687500000,171362.9843750000,-77196.1875000000,,,
0.7319999989,5,204971.5468750000,193139.4375000000,203363.3125000000,189365.1562500000,187900.1093750000,163780.5000000000,171393.4531250000,-77140.7734375000,,,
0.7359999989,5,205017.3593750000,193204.5625000000,203418.7812500000,189337.8593750000,187935.6718750000,163802.1250000000,171420.4843750000,-77094.9062500000,,,
0.7399999988,5,204901.3750000000,193069.1093750000,203299.6406250000,189303.5781250000,187824.9375000000,163695.2187500000,171320.8125000000,-77217.6953125000,,,
0.7439999988,5,204946.9218750000,193105.2968750000,203352.9843750000,189353.1406250000,187875.8437500000,163724.7500000000,171343.6406250000,-77187.2500000000,,,
0.7479999987,5,204984.2656250000,193168.3437500000,203366.0312500000,189357.5781250000,187899.2031250000,163780.8593750000,171376.1250000000,-77133.4218750000,,,
0.7519999989,5,204950.6562500000,193124.0312500000,203344.0312500000,189362.9375000000,187874.3593750000,163748.2656250000,171367.6406250000,-77164.0000000000,,,
0.7559999989,5,204954.2656250000,193110.5937500000,203362.8593750000,189350.6562500000,187881.5468750000,163725.2031250000,171375.1250000000,-77170.8359375000,,,
0.7599999988,5,204922.7500000000,193102.3593750000,203305.2500000000,189329.9218750000,187831.6562500000,163707.8125000000,171318.5000000000,-77194.4687500000,,,
0.7639999988,5,204943.8125000000,193121.3593750000,203328.0781250000,189342.2812500000,187853.0625000000,163725.0937500000,171327.3125000000,-77182.0000000000,,,
0.7679999988,6,205017.5156250000,193184.1718750000,203420.3906250000,189371.3125000000,187938.1406250000,163780.5625000000,171401.1718750000,-77117.9687500000,,,
0.7719999987,6,204981.2343750000,193128.8125000000,203401.5937500000,189346.4375000000,187919.2968750000,163738.8593750000,171385.7500000000,-77156.8906250000,,,
0.7759999987,6,204913.0156250000,193081.0937500000,203299.9062500000,189343.2968750000,187831.3125000000,163689.5000000000,171306.7343750000,-77205.9765625000,,,
0.7799999986,6,204921.0312500000,193108.6718750000,203299.6093750000,189327.4531250000,187823.2343750000,163685.9375000000,171292.9687500000,-77202.0312500000,,,
0.7839999986,6,204938.6093750000,193091.8281250000,203329.9218750000,189378.2187500000,187846.2343750000,163679.6093750000,171317.0625000000,-77212.0625000000,,,
0.7879999985,6,204967.5156250000,193123.0937500000,203363.1562500000,189404.5312500000,187879.7812500000,163716.3281250000,171342.7812500000,-77179.6640625000,,,
0.7919999987,6,204985.1093750000,193147.1250000000,203387.6250000000,189391.3750000000,187900.1875000000,163729.7343750000,171360.7187500000,-77157.1875000000,,,
0.7959999987,6,204934.7187500000,193115.2343750000,203316.0781250000,189337.1406250000,187838.6406250000,163696.9218750000,171304.3437500000,-77189.8593750000,,,
0.7999999986,6,204979.6250000000,193172.5625000000,203364.1718750000,189362.0468750000,187874.3906250000,163724.8437500000,171323.2031250000,-77148.7109375000,,,
0.8039999986,6,204975.9375000000,193131.9843750000,203367.9062500000,189406.9531250000,187877.3906250000,163695.9687500000,171323.2812500000,-77181.4062500000,,,
0.8079999986,6,204915.4375000000,193055.1250000000,203308.9218750000,189369.4843750000,187832.9531250000,163646.7656250000,171277.7343750000,-77244.7578125000,,,
0.8119999988,6,204919.0000000000,193076.4843750000,203307.2812500000,189345.4531250000,187835.7656250000,163669.1875000000,171273.0781250000,-77224.1875000000,,,
0.8159999987,6,204948.0156250000,193114.0937500000,203342.7500000000,189342.3437500000,187858.5937500000,163691.2968750000,171297.0000000000,-77193.1015625000,,,
0.8199999987,6,204983.6875000000,193164.9218750000,203380.4375000000,189346.1718750000,187886.4531250000,163718.5156250000,171328.1093750000,-77160.4843750000,,,
0.8239999986,6,204943.4375000000,193101.8906250000,203342.9375000000,189365.4062500000,187854.6718750000,163672.8906250000,171303.9218750000,-77215.2031250000,,,
0.8279999986,6,204972.9062500000,193138.2500000000,203376.2968750000,189380.0468750000,187887.4062500000,163704.3125000000,171327.3593750000,-77184.5468750000,,,
0.8319999985,6,204922.2187500000,193085.6562500000,203314.6093750000,189370.5468750000,187839.8437500000,163674.0468750000,171281.8906250000,-77222.6875000000,,,
0.8359999987,6,204924.7187500000,193088.8437500000,203307.8750000000,189358.5156250000,187834.6718750000,163671.1718750000,171279.8906250000,-77216.8359375000,,,
0.8399999987,6,204982.8437500000,193153.5937500000,203368.1718750000,189366.7500000000,187879.1406250000,163702.1875000000,171323.1250000000,-77168.2890625000,,,
0.8439999986,6,205003.6718750000,193165.4531250000,203393.7812500000,189403.4687500000,187900.2187500000,163710.5312500000,171333.2031250000,-77164.2421875000,,,
0.8479999986,6,204971.9218750000,193119.1875000000,203365.7656250000,189404.9687500000,187881.9062500000,163701.8593750000,171314.6718750000,-77196.8828125000,,,
0.8519999986,6,204998.5468750000,193150.6406250000,203412.4062500000,189379.0312500000,187923.1875000000,163736.2500000000,171353.2187500000,-77160.9375000000,,,
0.8559999987,6,204974.3593750000,193149.4843750000,203371.8437500000,189339.5781250000,187889.2031250000,163730.9375000000,171316.4375000000,-77167.4296875000,,,
0.8599999987,6,204942.2343750000,193117.0937500000,203327.8281250000,189344.9375000000,187844.1875000000,163683.3906250000,171261.7187500000,-77208.3906250000,,,
0.8639999987,6,204945.6406250000,193108.9843750000,203337.7812500000,189381.4375000000,187849.2031250000,163683.5937500000,171264.4843750000,-77219.2500000000,,,
0.8679999986,6,204944.9375000000,193107.5156250000,203340.5468750000,189361.7343750000,187858.4062500000,163691.1562500000,171281.1718750000,-77219.3593750000,,,
0.8719999986,6,204960.5156250000,193124.3906250000,203363.2656250000,189366.2031250000,187879.6718750000,163712.0625000000,171309.2812500000,-77194.2265625000,,,
0.8759999985,6,204904.5468750000,193069.7968750000,203301.8437500000,189356.6875000000,187821.6562500000,163662.4687500000,171249.6562500000,-77242.7187500000,,,
0.8799999987,6,204891.4531250000,193064.3593750000,203286.5468750000,189351.7812500000,187797.9218750000,163648.8593750000,171221.1093750000,-77260.3203125000,,,
0.8839999987,6,204933.7031250000,193114.9375000000,203318.7343750000,189381.9218750000,187832.3125000000,163690.5937500000,171250.4843750000,-77224.9375000000,,,
0.8879999986,6,204949.2031250000,193119.8750000000,203348.1406250000,189377.4218750000,187861.2968750000,163704.8437500000,171276.0000000000,-77212.2812500000,,,
0.8919999986,6,204937.4062500000,193098.3437500000,203344.7031250000,189397.9375000000,187865.9375000000,163705.6250000000,171265.9843750000,-77215.5000000000,,,
0.8959999986,7,204933.7187500000,193095.3125000000,203344.2500000000,189376.6406250000,187860.7968750000,163688.9687500000,171273.1250000000,-77217.9140625000,,,
0.8999999985,7,204933.2968750000,193115.0312500000,203330.7343750000,189349.4218750000,187842.4531250000,163687.4062500000,171269.5781250000,-77214.7187500000,,,
0.9039999985,7,204991.0937500000,193201.2343750000,203369.4531250000,189398.3437500000,187884.2812500000,163760.3593750000,171294.8437500000,-77150.5625000000,,,
0.9079999984,7,204923.9687500000,193090.4375000000,203316.1406250000,189381.8125000000,187838.0468750000,163680.7031250000,171249.5468750000,-77233.7656250000,,,
0.9119999984,7,204918.7812500000,193071.3593750000,203311.1250000000,189389.0625000000,187834.6875000000,163665.8906250000,171256.9531250000,-77238.3203125000,,,
0.9159999983,7,204925.2812500000,193084.9062500000,203317.7968750000,189369.0468750000,187833.7500000000,163673.7500000000,171261.4062500000,-77229.0156250000,,,
0.9199999985,7,204983.9062500000,193160.8593750000,203387.4531250000,189353.6562500000,187894.1250000000,163723.3437500000,171310.7031250000,-77173.3906250000,,,
0.9239999985,7,204937.5312500000,193103.6250000000,203332.7656250000,189348.8750000000,187848.6093750000,163698.0312500000,171252.8437500000,-77225.5859375000,,,
0.9279999984,7,204932.3593750000,193121.5781250000,203308.4687500000,189353.7656250000,187836.0937500000,163722.5781250000,171232.1875000000,-77215.3359375000,,,
0.9319999984,7,204961.0625000000,193127.8750000000,203360.6406250000,189366.8750000000,187880.0000000000,163726.4375000000,171292.6718750000,-77196.1328125000,,,
0.9359999984,7,204943.9687500000,193110.0625000000,203338.7187500000,189357.4375000000,187853.4218750000,163702.1250000000,171273.0468750000,-77211.1015625000,,,
0.9399999985,7,204939.2031250000,193125.8125000000,203327.3281250000,189346.3281250000,187834.0468750000,163700.0625000000,171244.3906250000,-77215.0937500000,,,
0.9439999985,7,204952.9375000000,193124.3281250000,203350.7343750000,189362.3750000000,187855.0000000000,163707.3281250000,171263.6250000000,-77215.0703125000,,,
0.9479999985,7,204949.8437500000,193122.6718750000,203338.3281250000,189369.4531250000,187853.3281250000,163714.0625000000,171244.2968750000,-77213.9921875000,,,
0.9519999984,7,204936.3593750000,193109.2812500000,203330.8906250000,189352.0468750000,187851.0781250000,163702.9843750000,171238.8437500000,-77220.7265625000,,,
0.9559999984,7,204933.7031250000,193103.5937500000,203336.3906250000,189340.5625000000,187841.7187500000,163688.2968750000,171254.4062500000,-77224.2968750000,,,
0.9599999983,7,204909.8281250000,193088.9218750000,203292.2187500000,189369.5937500000,187803.5468750000,163660.2031250000,171217.8750000000,-77245.9921875000,,,
0.9639999985,7,204933.4062500000,193108.9687500000,203321.5625000000,189375.2968750000,187835.9062500000,163686.4687500000,171248.0937500000,-77231.0546875000,,,
0.9679999985,7,204933.9375000000,193095.0937500000,203339.6875000000,189356.3437500000,187851.1875000000,163694.5156250000,171254.3437500000,-77238.6718750000,33029,0.9716643137,0.0000000000
0.9719999984,7,204931.9531250000,193103.4375000000,203339.3437500000,189349.6406250000,187851.1562500000,163704.9218750000,171252.4375000000,-77229.6328125000,,,
0.9759999984,7,204874.6093750000,193054.0312500000,203267.7500000000,189329.0625000000,187789.2343750000,163668.1718750000,171190.4062500000,-77269.3828125000,,,
0.9799999984,7,204857.9531250000,193039.5000000000,203238.0000000000,189309.5312500000,187762.4687500000,163639.4218750000,171158.3750000000,-77289.4453125000,,,
0.9839999985,7,204900.8125000000,193075.5156250000,203286.5000000000,189315.7343750000,187802.9062500000,163670.4062500000,171198.4531250000,-77264.0156250000,,,
0.9879999985,7,204960.1718750000,193143.7812500000,203352.3437500000,189357.5781250000,187867.4375000000,163733.0781250000,171256.2812500000,-77201.2812500000,,,
0.9919999985,7,204927.1875000000,193089.0156250000,203332.8750000000,189350.1093750000,187854.8125000000,163702.3125000000,171249.3125000000,-77230.9765625000,,,
0.9959999984,7,204897.2812500000,193051.8593750000,203297.1562500000,189348.3750000000,187818.7812500000,163663.9062500000,171215.1562500000,-77261.0703125000,,,
0.9999999984,7,204867.7968750000,193036.7656250000,203255.3281250000,189307.7343750000,187775.0156250000,163631.4843750000,171171.8437500000,-77290.8125000000,,,
1.0039999983,7,204928.1406250000,193099.0468750000,203325.5781250000,189332.8750000000,187831.7187500000,163676.3281250000,171217.1718750000,-77245.2421875000,,,
1.0079999985,7,204958.5625000000,193130.5781250000,203356.8750000000,189340.2656250000,187872.2968750000,163725.2031250000,171252.2500000000,-77209.3046875000,,,
1.0119999985,7,204890.0312500000,193048.7968750000,203281.5312500000,189355.5000000000,187809.2656250000,163665.5937500000,171193.1406250000,-77269.8671875000,,,
1.0159999984,7,204889.1718750000,193041.2968750000,203288.5625000000,189356.9531250000,187809.1250000000,163638.6250000000,171198.0156250000,-77273.4296875000,,,
1.0199999984,7,204927.0156250000,193092.4687500000,203320.5312500000,189330.4062500000,187831.2656250000,163659.2656250000,171213.2031250000,-77241.0625000000,,,
1.0239999983,8,204972.1093750000,193150.4843750000,203360.7500000000,189353.7031250000,187872.0781250000,163704.6250000000,171242.8750000000,-77199.5078125000,,,
1.0279999983,8,204964.3281250000,193107.7343750000,203374.0468750000,189371.8437500000,187888.5000000000,163696.3125000000,171266.2812500000,-77220.0546875000,,,
1.0319999983,8,204914.5468750000,193066.3750000000,203302.9375000000,189335.6250000000,187831.0781250000,163670.1875000000,171207.5156250000,-77251.1406250000,,,
1.0359999982,8,204892.2656250000,193053.3281250000,203284.2968750000,189330.5937500000,187806.4531250000,163648.0000000000,171185.8125000000,-77267.6093750000,,,
1.0399999982,8,204927.5312500000,193109.0937500000,203323.9218750000,189321.5468750000,187830.8125000000,163680.6250000000,171201.9375000000,-77234.0078125000,,,
1.0439999981,8,204990.5156250000,193149.6875000000,203404.5156250000,189352.4218750000,187901.8906250000,163715.1718750000,171275.9687500000,-77197.6328125000,,,
1.0479999983,8,204911.0312500000,193056.3125000000,203297.6250000000,189389.7031250000,187822.1406250000,163668.3593750000,171189.9687500000,-77269.3281250000,,,
1.0519999983,8,204909.3437500000,193059.2343750000,203295.2656250000,189374.9531250000,187825.8437500000,163679.9218750000,171174.3593750000,-77257.5312500000,,,
1.0559999982,8,204913.9843750000,193076.5156250000,203300.7968750000,189326.8281250000,187822.0937500000,163681.2656250000,171180.1562500000,-77244.6562500000,,,
1.0599999982,8,204963.7343750000,193142.8437500000,203354.2031250000,189336.3281250000,187859.5312500000,163719.4062500000,171226.0781250000,-77200.5312500000,,,
1.0639999982,8,204962.3437500000,193128.3593750000,203349.8593750000,189376.8593750000,187860.0468750000,163704.7656250000,171235.8125000000,-77217.1875000000,,,
1.0679999983,8,204976.9687500000,193135.6718750000,203371.2656250000,189397.8281250000,187887.9375000000,163720.6093750000,171259.9531250000,-77201.5781250000,,,
1.0719999983,8,204933.1093750000,193089.4687500000,203325.3125000000,189386.7500000000,187856.3437500000,163707.6250000000,171229.8593750000,-77231.8593750000,,,
1.0759999983,8,204921.3281250000,193092.7656250000,203311.9531250000,189338.7187500000,187836.9687500000,163700.1406250000,171206.5781250000,-77236.3906250000,,,
1.0799999982,8,204971.7812500000,193150.0781250000,203360.3906250000,189355.1093750000,187869.8593750000,163728.8125000000,171230.4218750000,-77195.1953125000,,,
1.0839999982,8,204938.8281250000,193101.4843750000,203328.9375000000,189366.3750000000,187849.5468750000,163697.7656250000,171215.4531250000,-77233.8203125000,,,
1.0879999981,8,204956.2500000000,193100.5625000000,203354.7343750000,189375.7500000000,187878.7656250000,163703.5468750000,171245.2343750000,-77228.6640625000,,,
1.0919999983,8,204959.2656250000,193111.5312500000,203352.8281250000,189369.3281250000,187876.4062500000,163717.6875000000,171231.1406250000,-77217.2968750000,,,
1.0959999983,8,204945.1562500000,193117.1406250000,203331.0312500000,189366.3750000000,187853.3906250000,163704.7656250000,171204.7031250000,-77217.7500000000,,,
1.0999999982,8,204949.2031250000,193108.7812500000,203334.8281250000,189381.6250000000,187849.4218750000,163696.0781250000,171201.8906250000,-77225.5546875000,,,
1.1039999982,8,204979.9375000000,193108.7500000000,203375.4375000000,189439.9687500000,187887.0468750000,163702.6718750000,171242.2812500000,-77216.3046875000,,,
1.1079999981,8,204996.0000000000,193129.5156250000,203387.2656250000,189442.2812500000,187905.2656250000,163722.8125000000,171254.8906250000,-77198.4687500000,,,
1.1119999983,8,205007.6406250000,193159.5468750000,203396.6875000000,189394.5000000000,187913.7656250000,163749.0156250000,171252.2812500000,-77171.4296875000,,,
1.1159999983,8,204973.3906250000,193139.6718750000,203362.3281250000,189363.9218750000,187877.0937500000,163719.2656250000,171218.6562500000,-77195.3515625000,,,
1.1199999982,8,204917.4375000000,193074.6875000000,203308.0625000000,189349.6562500000,187822.0937500000,163660.9843750000,171169.3750000000,-77258.9765625000,,,
1.1239999982,8,204956.7187500000,193103.3593750000,203346.7968750000,189383.1562500000,187859.1562500000,163684.8281250000,171196.2031250000,-77233.0625000000,,,
1.1279999982,8,204999.2031250000,193150.8906250000,203386.8125000000,189381.8750000000,187905.6718750000,163739.4687500000,171240.9375000000,-77185.8593750000,,,
1.1319999981,8,204999.1406250000,193169.2812500000,203385.6406250000,189373.6406250000,187906.2031250000,163755.0781250000,171234.7187500000,-77172.3906250000,,,
1.1359999983,8,204927.9843750000,193063.2812500000,203330.1875000000,189369.9843750000,187846.9843750000,163666.7343750000,171180.6718750000,-77256.6718750000,,,
1.1399999983,8,204919.3437500000,193078.2500000000,203299.7031250000,189343.5156250000,187824.2031250000,163670.4218750000,171159.6718750000,-77254.4687500000,,,
1.1439999982,8,204988.5468750000,193151.6875000000,203371.6093750000,189382.4375000000,187887.7812500000,163728.3906250000,171218.0312500000,-77196.8593750000,,,
1.1479999982,8,205021.6718750000,193185.3750000000,203411.4062500000,189405.3750000000,187929.3281250000,163770.3125000000,171244.2343750000,-77166.8984375000,,,
1.1519999981,9,204968.7031250000,193134.0937500000,203351.3281250000,189387.9062500000,187879.4531250000,163748.3437500000,171200.8906250000,-77202.2187500000,,,
1.1559999981,9,204933.4375000000,193089.1093750000,203322.7656250000,189365.1875000000,187843.3906250000,163699.8750000000,171171.8125000000,-77238.9375000000,,,
1.1599999981,9,204965.8906250000,193136.5937500000,203354.6250000000,189347.2656250000,187863.6875000000,163710.0781250000,171185.2500000000,-77212.9765625000,,,
1.1639999980,9,205020.9218750000,193192.8906250000,203414.3125000000,189413.1406250000,187918.8281250000,163752.7968750000,171228.6562500000,-77171.6718750000,,,
1.1679999980,9,204946.3593750000,193093.7500000000,203341.9218750000,189410.9531250000,187867.2500000000,163702.2343750000,171175.5781250000,-77246.1796875000,,,
1.1719999979,9,204970.0937500000,193127.9062500000,203360.0937500000,189397.1406250000,187884.9531250000,163729.6718750000,171187.9375000000,-77213.2734375000,,,
1.1759999981,9,204983.2968750000,193150.2187500000,203368.2812500000,189394.4843750000,187879.7031250000,163723.2968750000,171195.8281250000,-77199.3750000000,,,
1.1799999981,9,204963.3125000000,193128.2812500000,203355.1406250000,189366.5312500000,187858.1875000000,163702.7031250000,171178.8125000000,-77224.0234375000,,,
1.1839999980,9,204984.0156250000,193149.2968750000,203370.8750000000,189346.8437500000,187878.5156250000,163723.6718750000,171189.3906250000,-77209.9218750000,,,
1.1879999980,9,205004.5625000000,193160.9375000000,203391.4218750000,189410.3593750000,187903.8906250000,163743.2812500000,171209.5312500000,-77192.3515625000,,,
1.1919999979,9,204955.9062500000,193088.9843750000,203346.8750000000,189412.6093750000,187868.6718750000,163703.2656250000,171180.8593750000,-77237.4140625000,,,
1.1959999981,9,204919.9687500000,193075.8437500000,203303.3125000000,189314.8750000000,187828.5000000000,163685.0000000000,171143.2500000000,-77255.1171875000,,,
1.1999999981,9,204934.1875000000,193094.3750000000,203321.8750000000,189333.0781250000,187836.5468750000,163691.1406250000,171149.7187500000,-77246.2656250000,,,
1.2039999980,9,204973.4687500000,193118.3593750000,203363.1875000000,189406.9218750000,187872.5468750000,163709.7187500000,171181.4218750000,-77225.0703125000,,,
1.2079999980,9,205013.0156250000,193153.1093750000,203407.6562500000,189426.2968750000,187917.1406250000,163739.6562500000,171219.0468750000,-77193.2343750000,,,
1.2119999980,9,205006.4375000000,193154.8593750000,203407.3125000000,189409.5468750000,187921.2500000000,163747.2187500000,171222.6250000000,-77188.0546875000,,,
1.2159999979,9,204971.2031250000,193120.4375000000,203369.2968750000,189355.4843750000,187881.1562500000,163719.1875000000,171184.9843750000,-77216.3046875000,,,
1.2199999981,9,204981.5000000000,193156.7343750000,203356.3437500000,189360.2500000000,187866.2031250000,163724.7187500000,171161.4375000000,-77201.0937500000,,,
1.2239999981,9,205009.0625000000,193173.1250000000,203396.8437500000,189411.0625000000,187899.2500000000,163738.5000000000,171188.9531250000,-77192.0000000000,,,
1.2279999980,9,205018.5625000000,193173.9531250000,203416.9375000000,189413.3593750000,187918.5625000000,163750.0625000000,171198.4843750000,-77192.3203125000,,,
1.2319999980,9,204933.0781250000,193077.4531250000,203325.7187500000,189395.5312500000,187846.0468750000,163692.8281250000,171133.3593750000,-77265.1484375000,,,
1.2359999979,9,204917.3906250000,193068.8906250000,203308.8750000000,189341.0000000000,187827.3750000000,163675.2812500000,171116.5156250000,-77272.7343750000,,,
1.2399999981,9,204973.0000000000,193140.1093750000,203363.0312500000,189349.4218750000,187869.0000000000,163710.9062500000,171148.7500000000,-77221.6953125000,,,
1.2439999981,9,205022.4843750000,193210.2187500000,203404.3906250000,189377.7968750000,187906.3437500000,163763.1718750000,171175.1406250000,-77177.4062500000,,,
1.2479999980,9,204912.8281250000,193060.5781250000,203304.9531250000,189357.9687500000,187822.0625000000,163670.7968750000,171102.7812500000,-77292.4531250000,,,
1.2519999980,9,204924.0937500000,193071.8125000000,203318.9218750000,189354.9375000000,187840.7500000000,163687.5468750000,171116.2968750000,-77269.1953125000,,,
1.2559999980,9,204935.8125000000,193091.8281250000,203325.9218750000,189333.3593750000,187843.4062500000,163711.6562500000,171120.8281250000,-77247.3593750000,,,
1.2599999979,9,204965.5156250000,193130.0781250000,203351.1875000000,189359.5625000000,187862.9062500000,163726.7812500000,171142.7656250000,-77221.3984375000,,,
1.2639999981,9,204987.7187500000,193154.1875000000,203374.9531250000,189375.2187500000,187884.3125000000,163741.3750000000,171155.1093750000,-77208.7890625000,,,
1.2679999981,9,204981.2500000000,193130.2812500000,203378.9531250000,189386.4843750000,187892.3593750000,163741.6406250000,171160.8437500000,-77219.7109375000,,,
1.2719999980,9,205017.9687500000,193171.6718750000,203427.6875000000,189356.8437500000,187936.5937500000,163776.2187500000,171200.0000000000,-77178.7812500000,,,
1.2759999980,9,204997.4843750000,193165.9062500000,203398.0000000000,189341.9375000000,187911.1875000000,163773.9062500000,171182.5156250000,-77185.0312500000,,,
1.2799999979,10,204931.3437500000,193086.8125000000,203320.3437500000,189359.6406250000,187840.5156250000,163722.5156250000,171119.5625000000,-77250.6093750000,,,
1.2839999979,10,204967.3125000000,193113.3437500000,203350.6875000000,189390.3437500000,187870.4531250000,163744.0625000000,171149.3906250000,-77231.1875000000,,,
1.2879999978,10,204990.1562500000,193145.3906250000,203375.3125000000,189385.8750000000,187898.3125000000,163772.8906250000,171178.6093750000,-77206.9375000000,,,
1.2919999978,10,204976.1250000000,193128.2031250000,203370.5937500000,189377.9843750000,187895.6875000000,163763.8437500000,171180.1562500000,-77214.1328125000,,,
1.2959999978,10,204954.2656250000,193107.9218750000,203348.0312500000,189342.2812500000,187869.2656250000,163750.5937500000,171153.2031250000,-77230.6484375000,,,
1.2999999977,10,204968.5625000000,193151.7500000000,203350.6562500000,189309.3750000000,187865.3593750000,163780.0000000000,171139.5468750000,-77208.3125000000,,,
1.3039999979,10,205020.1718750000,193205.9218750000,203407.0312500000,189345.8437500000,187918.1718750000,163829.3437500000,171196.1250000000,-77162.7656250000,,,
1.3079999979,10,205000.0312500000,193146.0312500000,203399.0781250000,189412.2031250000,187917.8125000000,163809.2031250000,171203.0937500000,-77197.8984375000,,,
1.3119999978,10,205005.6406250000,193152.6093750000,203407.5156250000,189383.7968750000,187925.2500000000,163820.5312500000,171211.4375000000,-77187.5234375000,,,
1.3159999978,10,204978.8437500000,193133.3750000000,203379.0625000000,189398.0781250000,187896.6875000000,163797.7500000000,171183.4843750000,-77205.7343750000,,,
1.3199999977,10,204994.7968750000,193173.9531250000,203380.6718750000,189362.4843750000,187898.3906250000,163818.3281250000,171177.7656250000,-77179.1250000000,,,
1.3239999979,10,205021.3593750000,193188.1093750000,203414.5000000000,189375.9531250000,187931.3281250000,163833.3125000000,171208.3281250000,-77168.1562500000,,,
1.3279999979,10,204987.1250000000,193136.0000000000,203380.0625000000,189401.1093750000,187909.3906250000,163812.2656250000,171199.3125000000,-77206.6484375000,,,
1.3319999978,10,205014.3281250000,193157.2968750000,203407.5781250000,189395.1562500000,187937.0000000000,163828.8906250000,171222.4375000000,-77180.0390625000,,,
1.3359999978,10,205033.3125000000,193189.7031250000,203426.4375000000,189377.9062500000,187951.6875000000,163846.5156250000,171233.4843750000,-77150.1875000000,,,
1.3399999978,10,205077.1093750000,193246.2968750000,203472.8281250000,189406.2031250000,187984.9531250000,163874.8437500000,171258.2343750000,-77112.3125000000,,,
1.3439999977,10,205018.3437500000,193170.5468750000,203406.9843750000,189421.0625000000,187927.5000000000,163815.4218750000,171203.7812500000,-77183.2031250000,,,
1.3479999979,10,205035.4843750000,193178.2968750000,203426.4843750000,189407.9218750000,187949.9531250000,163837.1562500000,171223.5312500000,-77170.4375000000,,,
1.3519999979,10,205013.3125000000,193145.5156250000,203414.7968750000,189401.5312500000,187939.4375000000,163823.2031250000,171214.6562500000,-77190.8984375000,,,
1.3559999978,10,205023.2812500000,193170.6562500000,203425.9531250000,189371.1250000000,187943.3281250000,163820.0156250000,171219.7500000000,-77175.9062500000,,,
1.3599999978,10,205030.7343750000,193206.9218750000,203414.8125000000,189380.0156250000,187931.3593750000,163827.7656250000,171203.7812500000,-77163.8671875000,,,
1.3639999977,10,204992.8906250000,193140.8750000000,203381.3125000000,189425.7812500000,187900.4687500000,163781.7968750000,171176.8906250000,-77218.4218750000,,,
1.3679999979,10,205048.6875000000,193192.5468750000,203439.0312500000,189444.1250000000,187952.0156250000,163818.9687500000,171210.7656250000,-77173.5234375000,,,
1.3719999979,10,205054.9687500000,193230.2343750000,203435.6093750000,189389.0625000000,187955.9375000000,163859.4375000000,171208.2968750000,-77140.9062500000,,,
1.3759999978,10,204965.3437500000,193114.0625000000,203358.2031250000,189360.7968750000,187882.2812500000,163769.7500000000,171146.3125000000,-77230.1718750000,,,
1.3799999978,10,204938.9531250000,193076.7031250000,203325.8750000000,189364.0937500000,187844.6718750000,163711.2500000000,171107.9062500000,-77266.3281250000,,,
1.3839999977,10,205009.0156250000,193173.4218750000,203383.4843750000,189366.9062500000,187899.4375000000,163780.7812500000,171148.9687500000,-77195.7031250000,,,
1.3879999977,10,205019.3125000000,193190.7968750000,203397.9687500000,189378.5156250000,187915.3750000000,163801.8281250000,171162.8125000000,-77186.5859375000,,,
1.3919999979,10,205001.6406250000,193141.1562500000,203404.1093750000,189380.7968750000,187916.9843750000,163779.3593750000,171163.0156250000,-77212.8671875000,,,
1.3959999979,10,204967.5781250000,193108.4843750000,203358.5781250000,189359.3750000000,187875.1718750000,163747.8125000000,171120.4843750000,-77240.1718750000,,,
1.3999999978,10,204995.5312500000,193135.4687500000,203387.0000000000,189368.2812500000,187888.8750000000,163736.5781250000,171122.7656250000,-77227.5390625000,,,
1.4039999978,10,205048.5781250000,193210.7031250000,203431.4531250000,189422.5625000000,187929.6250000000,163787.3750000000,171146.9218750000,-77178.0781250000,,,
1.4079999977,11,205039.3750000000,193179.1250000000,203431.6093750000,189447.6406250000,187939.5468750000,163783.4531250000,171156.0937500000,-77193.4218750000,,,
1.4119999977,11,205007.3750000000,193132.5937500000,203405.5625000000,189404.2656250000,187925.2187500000,163748.5000000000,171148.1093750000,-77222.0703125000,,,
1.4159999976,11,205014.7812500000,193153.4843750000,203414.5156250000,189350.4843750000,187932.1093750000,163753.9843750000,171154.0625000000,-77201.7890625000,,,
1.4199999976,11,204997.1406250000,193146.1093750000,203380.5156250000,189379.1875000000,187898.0781250000,163728.7968750000,171113.0000000000,-77217.9140625000,,,
1.4239999976,11,205019.5781250000,193156.8750000000,203408.3281250000,189403.7031250000,187918.1875000000,163738.6875000000,171123.5937500000,-77211.0156250000,,,
1.4279999975,11,205040.4218750000,193169.6562500000,203434.7500000000,189409.9218750000,187948.3125000000,163770.0156250000,171152.7500000000,-77195.9687500000,,,
1.4319999977,11,205020.3906250000,193158.3906250000,203407.8125000000,189394.4843750000,187930.2812500000,163764.9687500000,171140.1406250000,-77206.1328125000,,,
1.4359999977,11,205004.4218750000,193147.9843750000,203385.7187500000,189373.5312500000,187905.9062500000,163742.4218750000,171114.5312500000,-77217.6171875000,,,
1.4399999976,11,205003.7812500000,193146.9375000000,203387.8593750000,189366.4218750000,187894.4531250000,163718.8750000000,171094.7500000000,-77227.2734375000,,,
1.4439999976,11,205049.3281250000,193198.4375000000,203430.2187500000,189430.7187500000,187932.1406250000,163762.0000000000,171125.4687500000,-77190.6640625000,,,
1.4479999975,11,205067.7343750000,193214.0781250000,203457.8906250000,189407.8593750000,187967.2187500000,163796.1093750000,171161.0625000000,-77171.2968750000,,,
1.4519999977,11,205010.5937500000,193135.4843750000,203412.7031250000,189386.4062500000,187926.6093750000,163747.6562500000,171117.6562500000,-77225.8203125000,,,
1.4559999977,11,204961.9375000000,193100.5156250000,203341.7031250000,189357.8437500000,187860.6250000000,163703.2343750000,171044.5000000000,-77257.3437500000,,,
1.4599999976,11,204981.7656250000,193126.5625000000,203365.6562500000,189355.4843750000,187871.4687500000,163690.7656250000,171058.5468750000,-77246.0781250000,,,
1.4639999976,11,205047.7187500000,193209.0937500000,203430.9375000000,189365.2187500000,187928.0312500000,163755.8906250000,171114.1718750000,-77185.3750000000,,,
1.4679999975,11,205033.0000000000,193184.6562500000,203416.7812500000,189386.0625000000,187921.3906250000,163757.5000000000,171109.3750000000,-77204.5000000000,,,
1.4719999975,11,204943.1406250000,193068.2187500000,203335.1562500000,189380.0156250000,187847.5625000000,163681.2343750000,171035.8593750000,-77292.6093750000,,,
1.4759999977,11,204986.5937500000,193133.7187500000,203370.8281250000,189387.4218750000,187875.4687500000,163719.5468750000,171051.6250000000,-77239.5000000000,,,
1.4799999977,11,204980.4531250000,193129.9687500000,203364.2343750000,189335.0156250000,187863.3437500000,163703.2031250000,171042.5937500000,-77256.3437500000,,,
1.4839999976,11,204973.2812500000,193133.8593750000,203358.6562500000,189310.0937500000,187853.9531250000,163696.5312500000,171030.0156250000,-77270.2421875000,,,
1.4879999976,11,204984.5000000000,193135.2500000000,203379.0312500000,189364.8750000000,187879.7031250000,163712.9687500000,171061.0468750000,-77258.3828125000,,,
1.4919999975,11,204980.7187500000,193133.5000000000,203368.9218750000,189394.4531250000,187876.7812500000,163723.7500000000,171056.2343750000,-77248.8671875000,,,
1.4959999977,11,205010.4843750000,193175.9687500000,203397.5781250000,189404.6250000000,187894.6406250000,163742.4218750000,171059.2656250000,-77214.2109375000,,,
1.4999999977,11,204998.3906250000,193167.7031250000,203391.8906250000,189348.9062500000,187879.5468750000,163722.2500000000,171044.1406250000,-77231.9687500000,,,
1.5039999976,11,204939.0156250000,193097.9687500000,203330.5937500000,189376.8593750000,187827.6406250000,163680.2656250000,171004.0937500000,-77293.2812500000,,,
1.5079999976,11,204971.4375000000,193132.1093750000,203350.2031250000,189413.9062500000,187852.5000000000,163715.2500000000,171017.4218750000,-77266.5390625000,,,
1.5119999975,11,204963.2500000000,193109.8750000000,203352.1093750000,189375.4843750000,187858.6406250000,163692.8593750000,171028.5937500000,-77277.2656250000,,,
1.5159999975,11,204966.1562500000,193124.9218750000,203353.0156250000,189347.5156250000,187857.9687500000,163706.8281250000,171027.4062500000,-77262.7578125000,,,
1.5199999977,11,204998.0468750000,193166.6562500000,203382.0937500000,189354.9375000000,187880.2968750000,163726.4531250000,171042.9062500000,-77234.2500000000,,,
1.5239999976,11,204988.4218750000,193140.5625000000,203378.3437500000,189371.8750000000,187875.0312500000,163702.5625000000,171039.4843750000,-77260.6640625000,,,
1.5279999976,11,204993.7812500000,193134.1250000000,203385.1562500000,189392.5000000000,187886.6250000000,163716.4218750000,171041.5625000000,-77260.1328125000,,,
1.5319999976,11,205019.3437500000,193162.0468750000,203412.5312500000,189408.1250000000,187918.0312500000,163753.1250000000,171067.1875000000,-77225.7968750000,,,
1.5359999975,12,205022.0000000000,193186.0312500000,203405.8906250000,189368.7812500000,187912.5625000000,163763.7187500000,171063.8906250000,-77207.1796875000,,,
1.5399999975,12,204981.4375000000,193142.8906250000,203364.9531250000,189382.0312500000,187870.9843750000,163711.2812500000,171031.7031250000,-77247.6875000000,,,
1.5439999974,12,204983.1093750000,193132.8281250000,203367.5625000000,189374.7968750000,187869.9687500000,163693.2031250000,171030.5468750000,-77263.1093750000,,,
1.5479999974,12,205015.2968750000,193160.1875000000,203400.4062500000,189399.6875000000,187900.8593750000,163719.3281250000,171051.3593750000,-77240.9531250000,,,
1.5519999973,12,205025.9062500000,193170.9218750000,203421.4218750000,189362.7968750000,187919.4218750000,163730.8281250000,171070.2656250000,-77227.5390625000,,,
1.5559999973,12,204994.6718750000,193149.2187500000,203381.2656250000,189348.5625000000,187887.1250000000,163715.6562500000,171043.9843750000,-77243.1796875000,,,
1.5599999975,12,204985.0312500000,193148.0468750000,203366.8125000000,189361.6718750000,187868.3593750000,163690.6718750000,171027.1875000000,-77252.6718750000,,,
1.5639999975,12,204984.1562500000,193130.5312500000,203370.7812500000,189396.4843750000,187869.4531250000,163661.7187500000,171024.6718750000,-77272.8437500000,,,
1.5679999974,12,204999.4687500000,193155.2656250000,203384.7031250000,189396.2031250000,187887.2968750000,163715.1718750000,171036.4218750000,-77251.1718750000,,,
1.5719999974,12,204991.2343750000,193145.0625000000,203383.8437500000,189367.9062500000,187887.5937500000,163734.4062500000,171034.1718750000,-77251.9765625000,,,
1.5759999973,12,204988.8125000000,193156.0625000000,203381.3125000000,189331.0156250000,187880.4218750000,163738.4531250000,171023.6718750000,-77242.7734375000,,,
1.5799999975,12,204959.1250000000,193134.8437500000,203343.2031250000,189341.2968750000,187840.4375000000,163703.3906250000,170984.0312500000,-77271.3437500000,,,
1.5839999975,12,204967.2812500000,193127.9062500000,203355.3593750000,189386.0000000000,187850.1406250000,163690.5468750000,170994.5781250000,-77279.5234375000,,,
1.5879999974,12,205006.5468750000,193161.7187500000,203399.3906250000,189405.7968750000,187893.4843750000,163740.1093750000,171034.5156250000,-77246.3125000000,,,
1.5919999974,12,204970.3437500000,193121.1718750000,203368.3125000000,189338.8281250000,187870.8437500000,163732.0312500000,171023.8593750000,-77270.4296875000,,,
1.5959999973,12,204966.0468750000,193137.7656250000,203352.5312500000,189288.3750000000,187856.3437500000,163741.2187500000,171012.8750000000,-77257.2031250000,,,
1.5999999973,12,204996.7343750000,193179.1250000000,203378.5468750000,189313.9843750000,187873.7968750000,163759.2968750000,171022.1250000000,-77230.2500000000,,,
1.6039999975,12,204984.6093750000,193145.5781250000,203372.5781250000,189341.5000000000,187868.2187500000,163740.8125000000,171015.1718750000,-77258.4375000000,,,
1.6079999974,12,205010.2968750000,193162.0781250000,203397.3593750000,189392.3593750000,187899.9531250000,163766.0000000000,171044.1718750000,-77238.2187500000,,,
1.6119999974,12,205011.7968750000,193181.6562500000,203390.7031250000,189369.5156250000,187902.9062500000,163797.9375000000,171047.5468750000,-77217.3515625000,,,
1.6159999974,12,204984.3437500000,193147.5937500000,203370.2343750000,189331.5312500000,187879.0312500000,163757.9687500000,171027.1406250000,-77245.5390625000,,,
1.6199999973,12,204948.7968750000,193111.7343750000,203330.7031250000,189313.0468750000,187834.8750000000,163721.2031250000,170979.9843750000,-77281.3984375000,,,
1.6239999975,12,204995.7656250000,193157.8125000000,203372.6718750000,189345.4218750000,187875.2031250000,163769.2656250000,171022.3906250000,-77240.7343750000,,,
1.6279999975,12,205075.0468750000,193251.2031250000,203449.3125000000,189374.8750000000,187952.5468750000,163848.5468750000,171097.1250000000,-77160.4296875000,,,
1.6319999974,12,205041.3281250000,193202.2500000000,203438.5468750000,189385.4062500000,187944.8750000000,163835.4843750000,171097.3125000000,-77189.4296875000,,,
1.6359999974,12,204982.2500000000,193133.1093750000,203380.4062500000,189347.4375000000,187891.7187500000,163766.7500000000,171051.6250000000,-77245.9687500000,,,
1.6399999973,12,205004.4531250000,193168.0312500000,203387.9218750000,189322.0312500000,187895.5781250000,163774.5781250000,171048.8906250000,-77223.7890625000,,,
1.6439999973,12,205032.5937500000,193199.4375000000,203416.5000000000,189313.0468750000,187918.0312500000,163804.8906250000,171061.8750000000,-77202.5390625000,,,
1.6479999975,12,205030.3906250000,193187.5312500000,203413.4687500000,189340.1718750000,187923.3437500000,163815.5937500000,171074.3437500000,-77208.7421875000,,,
1.6519999974,12,205035.4375000000,193178.8281250000,203414.3281250000,189370.5781250000,187933.4531250000,163807.8437500000,171089.5000000000,-77200.0468750000,,,
1.6559999974,12,205053.9687500000,193198.2812500000,203431.5781250000,189372.5937500000,187944.2968750000,163823.0468750000,171098.7812500000,-77175.6093750000,,,
1.6599999974,12,205057.4062500000,193219.8750000000,203431.9218750000,189337.9843750000,187931.9531250000,163818.0000000000,171081.1875000000,-77173.9531250000,,,
1.6639999973,13,205099.9218750000,193270.2187500000,203484.9062500000,189364.0937500000,187974.2500000000,163851.0468750000,171115.0156250000,-77142.3515625000,,,
1.6679999973,13,205086.2656250000,193255.5781250000,203471.0312500000,189371.0156250000,187974.0156250000,163850.4375000000,171118.3593750000,-77156.1640625000,,,
1.6719999972,13,205051.7500000000,193191.3281250000,203443.7343750000,189405.9843750000,187950.3437500000,163801.1093750000,171087.5937500000,-77195.9687500000,,,
1.6759999972,13,205039.8281250000,193192.6718750000,203433.8906250000,189368.5937500000,187935.4062500000,163800.5937500000,171069.7343750000,-77198.8437500000,,,
1.6799999971,13,205018.4531250000,193171.1093750000,203415.7812500000,189338.3437500000,187910.0312500000,163763.6406250000,171048.1875000000,-77232.8281250000,,,
1.6839999971,13,205051.2343750000,193214.1875000000,203445.2031250000,189374.3437500000,187934.3906250000,163792.0468750000,171067.5625000000,-77207.3437500000,,,
1.6879999973,13,205040.9375000000,193193.8750000000,203444.2968750000,189371.9218750000,187937.6875000000,163792.5781250000,171076.4375000000,-77219.4140625000,,,
1.6919999972,13,205005.3906250000,193173.5000000000,203401.8906250000,189347.4531250000,187906.5781250000,163781.0468750000,171048.0312500000,-77232.1796875000,,,
1.6959999972,13,204973.0937500000,193129.4218750000,203373.2500000000,189347.4062500000,187874.5781250000,163720.5625000000,171005.8750000000,-77268.0156250000,,,
1.6999999972,13,204966.0468750000,193126.1250000000,203363.7500000000,189317.3906250000,187855.7031250000,163710.5781250000,170979.6093750000,-77281.7500000000,,,
1.7039999971,13,204958.3437500000,193125.4062500000,203350.1250000000,189336.6250000000,187844.2187500000,163716.6718750000,170970.1406250000,-77292.5312500000,,,
1.7079999973,13,205005.9375000000,193169.3125000000,203396.3593750000,189339.3125000000,187897.5937500000,163751.7812500000,171015.4375000000,-77250.9843750000,,,
1.7119999973,13,205036.8906250000,193196.3281250000,203431.7343750000,189309.8593750000,187938.1406250000,163777.7968750000,171048.8125000000,-77214.2890625000,,,
1.7159999972,13,204985.2812500000,193138.0156250000,203384.6406250000,189321.4218750000,187893.2187500000,163723.0312500000,171004.9062500000,-77257.5312500000,,,
1.7199999972,13,204984.3906250000,193141.6406250000,203375.8750000000,189310.5468750000,187878.3125000000,163707.0156250000,170984.5156250000,-77262.1406250000,,,
1.7239999971,13,205038.7812500000,193201.2343750000,203422.3750000000,189333.0312500000,187916.3437500000,163743.9218750000,171009.1406250000,-77222.9296875000,,,
1.7279999971,13,205070.8593750000,193236.1562500000,203456.6562500000,189370.4218750000,187953.8906250000,163788.3906250000,171044.1093750000,-77190.7421875000,,,
1.7319999973,13,205028.4687500000,193174.0312500000,203420.3437500000,189350.6562500000,187925.0781250000,163758.0312500000,171016.9218750000,-77231.2968750000,,,
1.7359999972,13,205037.2812500000,193188.8906250000,203427.7187500000,189295.6718750000,187926.8750000000,163763.4687500000,171016.3281250000,-77216.6484375000,,,
1.7399999972,13,205006.6562500000,193173.0937500000,203388.2031250000,189333.1718750000,187883.5156250000,163718.5156250000,170971.0781250000,-77245.2187500000,,,
1.7439999972,13,205007.6718750000,193167.2500000000,203389.8125000000,189337.0312500000,187880.2968750000,163688.3437500000,170960.0781250000,-77258.9531250000,,,
1.7479999971,13,205044.1562500000,193191.2031250000,203426.3750000000,189372.9218750000,187914.4843750000,163726.8281250000,170984.5468750000,-77238.0312500000,,,
1.7519999973,13,205023.3125000000,193162.2656250000,203412.1406250000,189364.3906250000,187903.0625000000,163718.5000000000,170975.2968750000,-77254.9296875000,,,
1.7559999973,13,205020.5468750000,193176.1562500000,203409.7968750000,189328.1406250000,187898.3906250000,163720.3125000000,170973.0156250000,-77241.0859375000,,,
1.7599999972,13,205021.4843750000,193180.2500000000,203413.6093750000,189330.2343750000,187891.8593750000,163689.4687500000,170962.9218750000,-77246.3125000000,,,
1.7639999972,13,205038.0625000000,193186.1250000000,203430.8593750000,189383.4531250000,187904.9687500000,163695.3125000000,170962.4375000000,-77243.0468750000,,,
1.7679999971,13,205044.0156250000,193186.5625000000,203438.7656250000,189390.1562500000,187914.7031250000,163705.5156250000,170966.0625000000,-77248.7265625000,,,
1.7719999971,13,205072.6875000000,193224.2500000000,203463.9218750000,189379.6406250000,187943.6250000000,163746.5781250000,170992.4531250000,-77213.5156250000,,,
1.7759999973,13,205053.3281250000,193211.6875000000,203449.1718750000,189349.6562500000,187929.8281250000,163729.9531250000,170986.2031250000,-77224.2109375000,,,
1.7799999972,13,204988.8125000000,193144.9843750000,203378.9843750000,189314.3125000000,187862.1875000000,163657.2812500000,170922.5625000000,-77287.5937500000,,,
1.7839999972,13,204982.1093750000,193133.2343750000,203368.1406250000,189353.0468750000,187850.3593750000,163642.0000000000,170904.9687500000,-77303.7187500000,,,
1.7879999971,13,205034.7343750000,193169.8437500000,203426.8593750000,189413.3593750000,187909.4687500000,163690.6562500000,170957.4218750000,-77261.8984375000,,,
1.7919999971,14,205035.5937500000,193181.0625000000,203428.6250000000,189353.3593750000,187912.4531250000,163706.3906250000,170955.9218750000,-77251.8437500000,,,
1.7959999971,14,205021.9375000000,193185.4375000000,203401.2187500000,189337.4062500000,187889.6250000000,163715.0312500000,170935.8125000000,-77247.7343750000,,,
1.7999999970,14,205013.2031250000,193188.4843750000,203389.3906250000,189302.8593750000,187873.1875000000,163700.8437500000,170920.1250000000,-77252.4296875000,,,
1.8039999970,14,205000.4062500000,193158.3125000000,203381.3437500000,189281.7500000000,187865.6406250000,163669.3750000000,170923.4218750000,-77280.4062500000,,,
1.8079999969,14,205005.0156250000,193156.7812500000,203382.3281250000,189329.9218750000,187874.1250000000,163683.2187500000,170929.9687500000,-77275.8750000000,,,
1.8119999969,14,205007.6718750000,193152.9531250000,203388.0000000000,189333.8906250000,187881.0625000000,163690.1406250000,170927.3125000000,-77274.0781250000,,,
1.8159999971,14,204985.5468750000,193136.0468750000,203368.1406250000,189300.7656250000,187858.7812500000,163664.0937500000,170906.2031250000,-77292.4531250000,,,
1.8199999970,14,204992.8437500000,193156.7343750000,203374.4843750000,189273.8281250000,187857.0156250000,163665.1718750000,170898.8750000000,-77281.2656250000,,,
1.8239999970,14,205013.8906250000,193179.4062500000,203396.7343750000,189271.9218750000,187875.4687500000,163673.6250000000,170919.2656250000,-77273.5937500000,,,
1.8279999970,14,204985.7343750000,193129.0312500000,203371.7187500000,189306.3437500000,187860.0468750000,163653.9375000000,170908.2031250000,-77312.0312500000,,,
1.8319999969,14,204970.3125000000,193121.7812500000,203351.5156250000,189302.9375000000,187843.7031250000,163636.5312500000,170881.7656250000,-77317.5546875000,,,
1.8359999971,14,204973.3125000000,193128.2968750000,203358.2187500000,189291.1875000000,187844.1562500000,163646.9843750000,170880.4218750000,-77308.7031250000,,,
1.8399999971,14,204976.2187500000,193132.7031250000,203365.7343750000,189269.5156250000,187841.3125000000,163625.6562500000,170882.1093750000,-77313.3203125000,,,
1.8439999970,14,204985.7656250000,193150.4062500000,203372.1718750000,189280.9218750000,187846.9218750000,163641.2187500000,170884.9062500000,-77307.0703125000,,,
1.8479999970,14,204962.3437500000,193109.1250000000,203345.9062500000,189347.1875000000,187827.5937500000,163621.6093750000,170858.1093750000,-77337.4609375000,,,
1.8519999969,14,204963.4687500000,193099.2812500000,203354.9531250000,189357.5468750000,187839.3593750000,163612.9531250000,170871.0312500000,-77332.8437500000,,,
1.8559999969,14,204963.4687500000,193112.2656250000,203350.9062500000,189349.8437500000,187832.8750000000,163607.7187500000,170859.8281250000,-77321.7421875000,,,
1.8599999971,14,204974.0156250000,193135.5937500000,203356.8281250000,189317.6875000000,187831.1875000000,163611.9218750000,170852.3906250000,-77311.1171875000,,,
1.8639999970,14,204982.9375000000,193142.2812500000,203369.4062500000,189322.1875000000,187837.2656250000,163616.2812500000,170855.5781250000,-77314.3359375000,,,
1.8679999970,14,204998.0781250000,193156.2812500000,203382.2343750000,189369.6406250000,187858.4062500000,163642.5000000000,170877.9531250000,-77297.6250000000,,,
1.8719999969,14,205002.2343750000,193147.6875000000,203386.5468750000,189382.4687500000,187872.5156250000,163625.2812500000,170892.1718750000,-77290.5156250000,,,
1.8759999969,14,205003.9687500000,193145.2343750000,203392.1718750000,189371.7343750000,187875.6250000000,163616.6718750000,170889.2968750000,-77285.5312500000,,,
1.8799999971,14,204976.0781250000,193124.9531250000,203361.7656250000,189312.1875000000,187839.3593750000,163595.5468750000,170848.9843750000,-77314.0390625000,,,
1.8839999971,14,204978.7656250000,193135.5156250000,203365.6562500000,189274.2656250000,187839.4375000000,163607.7968750000,170845.2343750000,-77313.2656250000,,,
1.8879999970,14,205018.5312500000,193177.8125000000,203407.3281250000,189311.2500000000,187884.3906250000,163657.0781250000,170877.1718750000,-77273.8906250000,,,
1.8919999970,14,204973.1875000000,193121.4687500000,203367.4218750000,189273.2968750000,187850.7031250000,163613.4531250000,170851.0468750000,-77316.6171875000,,,
1.8959999969,14,204964.7812500000,193109.0156250000,203360.5781250000,189253.2343750000,187842.5781250000,163604.5312500000,170848.6718750000,-77320.1015625000,,,
1.8999999969,14,204979.4843750000,193139.3593750000,203369.2968750000,189262.5468750000,187844.8906250000,163614.5625000000,170853.5000000000,-77301.3046875000,,,
1.9039999971,14,205020.3906250000,193190.4218750000,203407.7968750000,189295.6875000000,187875.8125000000,163654.6562500000,170878.5781250000,-77268.3906250000,,,
1.9079999970,14,205029.2656250000,193198.6875000000,203414.6875000000,189321.1406250000,187887.9843750000,163668.7187500000,170889.2500000000,-77265.4921875000,,,
1.9119999970,14,204965.9375000000,193101.2187500000,203369.6718750000,189293.2031250000,187845.7500000000,163602.2812500000,170847.9375000000,-77337.0000000000,,,
1.9159999969,14,204985.8750000000,193130.2812500000,203384.7500000000,189305.4375000000,187856.1562500000,163625.0468750000,170857.3593750000,-77307.4140625000,,,
1.9199999969,15,204984.4531250000,193146.3281250000,203370.9687500000,189298.4843750000,187834.4843750000,163615.5312500000,170831.8125000000,-77304.2500000000,,,
1.9239999969,15,205000.0312500000,193173.1562500000,203382.6562500000,189308.2187500000,187839.1406250000,163625.0781250000,170833.7031250000,-77302.3750000000,,,
1.9279999968,15,205015.1093750000,193170.3593750000,203411.4843750000,189324.4531250000,187869.5937500000,163646.0937500000,170864.4062500000,-77298.4296875000,,,
1.9319999968,15,204979.7031250000,193128.8125000000,203378.4531250000,189316.9062500000,187844.7500000000,163603.0000000000,170845.5312500000,-77327.5625000000,,,
1.9359999967,15,204992.0156250000,193136.8906250000,203382.6093750000,189340.4843750000,187845.5000000000,163625.4531250000,170834.5625000000,-77309.1640625000,,,
1.9399999967,15,204970.8750000000,193119.9062500000,203362.7031250000,189274.1562500000,187817.0156250000,163610.3437500000,170801.6250000000,-77332.0156250000,,,
1.9439999969,15,205013.4375000000,193166.2500000000,203413.6406250000,189293.7968750000,187860.7656250000,163626.7343750000,170851.1250000000,-77302.1093750000,,,
1.9479999968,15,205061.2031250000,193228.2187500000,203448.3750000000,189365.8125000000,187903.8750000000,163674.7968750000,170892.4375000000,-77252.7500000000,,,
1.9519999968,15,205017.1718750000,193151.8750000000,203419.4531250000,189355.4218750000,187881.0937500000,163621.2968750000,170869.2343750000,-77302.0000000000,,,
1.9559999967,15,204990.2968750000,193123.9843750000,203388.5625000000,189368.0625000000,187855.1093750000,163604.1562500000,170838.8437500000,-77318.2031250000,,,
1.9599999967,15,204996.4687500000,193147.9843750000,203382.9062500000,189340.2968750000,187843.2031250000,163601.8750000000,170817.3437500000,-77311.0078125000,,,
1.9639999969,15,205010.6718750000,193161.1406250000,203402.4218750000,189326.3750000000,187855.7187500000,163600.7187500000,170832.6718750000,-77308.8359375000,,,
1.9679999969,15,205031.4062500000,193172.6093750000,203425.7031250000,189345.8281250000,187878.7031250000,163622.0468750000,170854.9687500000,-77298.1640625000,,,
1.9719999968,15,205064.4531250000,193216.5156250000,203461.1718750000,189341.8750000000,187920.3906250000,163661.3125000000,170890.5625000000,-77252.0000000000,,,
1.9759999968,15,205036.5312500000,193192.4843750000,203427.2031250000,189356.7968750000,187889.0156250000,163635.4062500000,170860.5781250000,-77270.6953125000,,,
1.9799999967,15,204982.2968750000,193126.2656250000,203370.8593750000,189317.8281250000,187828.3593750000,163565.6093750000,170796.4218750000,-77332.6796875000,,,
1.9839999967,15,204969.3750000000,193106.8125000000,203350.4375000000,189322.3750000000,187803.5781250000,163545.0156250000,170766.5156250000,-77361.4062500000,,,
1.9879999969,15,205012.0000000000,193145.3906250000,203396.5468750000,189331.1718750000,187851.3750000000,163600.3437500000,170810.7187500000,-77322.7343750000,,,
1.9919999968,15,205082.0781250000,193222.3437500000,203470.8281250000,189356.3593750000,187923.7187500000,163666.1093750000,170865.5937500000,-77246.4218750000,,,
1.9959999968,15,205095.8437500000,193233.5781250000,203488.1562500000,189411.9687500000,187941.4218750000,163677.3437500000,170886.0781250000,-77223.6796875000,,,
1.9999999967,15,205044.0937500000,193203.8125000000,203424.4531250000,189344.1406250000,187878.4218750000,163623.4687500000,170821.0156250000,-77265.9531250000,,,
2.0039999967,15,205009.4218750000,193147.3125000000,203386.4062500000,189337.7968750000,187835.7656250000,163558.3593750000,170777.1875000000,-77329.0859375000,,,
2.0079999969,15,205024.8593750000,193143.5156250000,203413.1250000000,189328.1718750000,187862.8281250000,163591.4375000000,170808.0000000000,-77320.1875000000,,,
2.0119999968,15,205046.9375000000,193173.7187500000,203435.6875000000,189351.6718750000,187885.0937500000,163620.9687500000,170823.2343750000,-77290.3593750000,,,
2.0159999968,15,205038.9218750000,193180.6250000000,203428.0156250000,189308.8593750000,187876.2656250000,163613.3281250000,170811.1093750000,-77288.4296875000,,,
2.0199999968,15,204995.6562500000,193142.7031250000,203380.8906250000,189265.3906250000,187829.7031250000,163576.6250000000,170766.0312500000,-77326.6250000000,,,
2.0239999967,15,204988.3593750000,193145.9843750000,203361.3281250000,189266.7812500000,187812.5937500000,163564.1562500000,170742.8437500000,-77333.6250000000,,,
2.0279999967,15,205052.4687500000,193209.2187500000,203428.7968750000,189339.4062500000,187876.0468750000,163585.5937500000,170797.9375000000,-77283.6015625000,,,
2.0319999969,15,205057.2187500000,193182.2968750000,203452.3750000000,189364.9531250000,187899.4687500000,163591.3281250000,170820.3750000000,-77286.9531250000,,,
2.0359999968,15,205004.2968750000,193138.0468750000,203390.0625000000,189332.2187500000,187847.1718750000,163569.1250000000,170777.9687500000,-77319.4843750000,,,
2.0399999968,15,204994.3750000000,193152.7031250000,203365.8125000000,189310.7968750000,187822.3593750000,163554.5781250000,170747.4687500000,-77320.1562500000,,,
2.0439999967,15,205006.5937500000,193179.7812500000,203381.7968750000,189293.3281250000,187830.1875000000,163551.4218750000,170748.0625000000,-77310.6328125000,,,
2.0479999967,16,205024.0937500000,193195.2031250000,203394.6718750000,189332.1406250000,187847.7031250000,163571.8281250000,170764.0937500000,-77299.1796875000,,,
2.0519999966,16,205022.6875000000,193182.4843750000,203401.4843750000,189340.8281250000,187855.7968750000,163566.5781250000,170776.6250000000,-77299.9843750000,,,
2.0559999966,16,205012.2812500000,193150.1093750000,203403.4218750000,189327.1250000000,187854.3750000000,163554.0000000000,170778.1718750000,-77316.0781250000,,,
2.0599999966,16,204976.2656250000,193118.2500000000,203360.1875000000,189306.6562500000,187809.0312500000,163508.5625000000,170729.3125000000,-77356.1250000000,,,
2.0639999965,16,204975.1718750000,193128.5156250000,203348.7031250000,189296.4687500000,187798.0625000000,163518.5156250000,170712.4062500000,-77356.3671875000,,,
2.0679999965,16,204999.3906250000,193147.0781250000,203376.7343750000,189298.8281250000,187826.3281250000,163537.6562500000,170734.1875000000,-77341.0000000000,,,
2.0719999967,16,204999.8125000000,193153.1406250000,203383.9375000000,189297.7031250000,187837.1093750000,163538.1718750000,170741.7812500000,-77333.0312500000,,,
2.0759999966,16,205037.2812500000,193194.4218750000,203423.1093750000,189330.4531250000,187878.9531250000,163585.4531250000,170785.3593750000,-77282.6562500000,,,
2.0799999966,16,205025.3750000000,193183.9375000000,203401.2500000000,189328.2500000000,187854.3281250000,163576.5781250000,170765.3750000000,-77296.6328125000,,,
2.0839999965,16,205032.7031250000,193186.1250000000,203410.6093750000,189324.7656250000,187856.9375000000,163574.2187500000,170764.2343750000,-77301.9453125000,,,
2.0879999965,16,205067.3281250000,193206.8593750000,203456.2812500000,189350.9531250000,187902.6093750000,163596.0312500000,170802.0468750000,-77279.3906250000,,,
2.0919999967,16,205059.9531250000,193201.7187500000,203445.5312500000,189354.9687500000,187902.2656250000,163593.8281250000,170796.7656250000,-77278.3671875000,,,
2.0959999966,16,205069.2343750000,193221.1093750000,203446.6250000000,189308.7500000000,187904.9687500000,163618.0156250000,170802.6875000000,-77253.3437500000,,,
2.0999999966,16,205052.7343750000,193204.5781250000,203435.0625000000,189300.1250000000,187888.0468750000,163608.0937500000,170793.2500000000,-77266.3828125000,,,
2.1039999966,16,205054.0156250000,193207.5625000000,203437.7187500000,189309.0312500000,187890.8906250000,163593.5000000000,170793.2031250000,-77272.6250000000,,,
2.1079999965,16,205057.7968750000,193205.8125000000,203441.8593750000,189333.4375000000,187901.0781250000,163590.7343750000,170802.0468750000,-77278.7968750000,,,
2.1119999965,16,205069.0937500000,193209.6875000000,203449.9218750000,189351.6718750000,187917.5937500000,163615.7343750000,170813.8281250000,-77266.1875000000,,,
2.1159999967,16,205051.9062500000,193188.8906250000,203438.3593750000,189310.9843750000,187904.8281250000,163611.1250000000,170799.9531250000,-77275.7656250000,,,
2.1199999966,16,205037.9531250000,193186.4218750000,203418.5781250000,189313.7187500000,187879.0312500000,163590.5781250000,170771.7656250000,-77287.4843750000,,,
2.1239999966,16,205039.3750000000,193185.5156250000,203419.3750000000,189318.2187500000,187871.4375000000,163569.7656250000,170759.9375000000,-77304.6796875000,,,
2.1279999965,16,205054.4843750000,193187.8750000000,203445.4531250000,189337.2187500000,187898.0000000000,163585.4531250000,170783.4531250000,-77299.4218750000,,,
2.1319999965,16,205024.8437500000,193164.4531250000,203417.6406250000,189285.0156250000,187882.8906250000,163579.5000000000,170771.5312500000,-77313.9062500000,,,
2.1359999967,16,205041.4687500000,193198.9531250000,203424.5468750000,189286.2187500000,187890.0625000000,163582.0781250000,170771.0156250000,-77283.7343750000,,,
2.1399999966,16,205049.0312500000,193204.9375000000,203432.5937500000,189321.3593750000,187887.7187500000,163563.4843750000,170759.6093750000,-77282.3906250000,,,
2.1439999966,16,205046.2500000000,193188.9218750000,203431.7187500000,189328.7656250000,187884.1250000000,163574.7812500000,170751.4062500000,-77295.9609375000,,,
2.1479999966,16,205104.3906250000,193255.6875000000,203484.6093750000,189361.1875000000,187940.3437500000,163637.5937500000,170806.7968750000,-77238.0781250000,,,
2.1519999965,16,205113.3281250000,193264.9062500000,203497.4218750000,189374.3906250000,187954.1406250000,163642.5312500000,170817.2812500000,-77229.9843750000,,,
2.1559999965,16,205029.4531250000,193165.1875000000,203418.7031250000,189328.1406250000,187883.7187500000,163589.6093750000,170755.5156250000,-77301.4375000000,,,
2.1599999967,16,205015.4843750000,193163.0625000000,203400.2812500000,189296.9218750000,187859.6875000000,163570.0312500000,170726.7812500000,-77309.0781250000,,,
2.1639999966,16,205039.1406250000,193188.2031250000,203418.8437500000,189302.2968750000,187869.8593750000,163544.0156250000,170723.8593750000,-77303.5781250000,,,
2.1679999966,16,205068.1093750000,193214.0312500000,203442.3125000000,189350.5468750000,187894.0312500000,163562.8437500000,170744.3593750000,-77283.7343750000,,,
2.1719999965,16,205097.2343750000,193245.0937500000,203482.5156250000,189334.3125000000,187933.3125000000,163613.5312500000,170785.4687500000,-77245.5390625000,,,
2.1759999965,17,205071.4843750000,193217.0312500000,203469.2656250000,189322.1406250000,187916.5000000000,163615.8750000000,170767.4531250000,-77260.9062500000,,,
2.1799999964,17,205020.8125000000,193194.4218750000,203392.9531250000,189316.7500000000,187845.9375000000,163548.6875000000,170691.1875000000,-77299.8515625000,,,
2.1839999964,17,205085.3750000000,193283.5000000000,203446.7656250000,189359.0468750000,187893.1875000000,163546.2187500000,170723.2656250000,-77249.3984375000,,,
2.1879999964,17,205043.7500000000,193179.9062500000,203428.5781250000,189342.6875000000,187877.4687500000,163553.0625000000,170715.0625000000,-77313.6406250000,,,
2.1919999963,17,205016.2812500000,193135.4062500000,203411.2812500000,189340.6718750000,187862.1875000000,163541.3593750000,170698.8906250000,-77343.3281250000,,,
2.1959999963,17,205022.1250000000,193151.8593750000,203417.9062500000,189319.8906250000,187867.2031250000,163539.6093750000,170703.5312500000,-77325.7656250000,,,
2.1999999965,17,205059.8750000000,193220.6718750000,203448.0781250000,189295.3750000000,187889.7343750000,163560.0781250000,170716.4375000000,-77279.0156250000,,,
2.2039999964,17,205034.8437500000,193190.3750000000,203424.0156250000,189305.3437500000,187863.1718750000,163514.3281250000,170683.8750000000,-77316.3515625000,,,
2.2079999964,17,205064.0000000000,193211.3125000000,203447.4375000000,189333.5625000000,187890.9687500000,163546.9062500000,170703.3437500000,-77294.1953125000,,,
2.2119999963,17,205042.4843750000,193176.9531250000,203425.1406250000,189331.3593750000,187876.7031250000,163539.4062500000,170684.6406250000,-77316.1093750000,,,
2.2159999963,17,205024.1718750000,193159.4218750000,203414.8906250000,189323.2656250000,187865.0000000000,163517.8125000000,170677.9687500000,-77329.0859375000,,,
2.2199999965,17,205039.1562500000,193195.8437500000,203425.8906250000,189307.7656250000,187869.3437500000,163525.5312500000,170677.7031250000,-77305.9921875000,,,
2.2239999964,17,205051.9531250000,193222.6406250000,203428.5156250000,189302.6406250000,187872.2656250000,163527.2187500000,170673.4843750000,-77294.0078125000,,,
2.2279999964,17,205053.8125000000,193202.0625000000,203433.0781250000,189357.0937500000,187882.9687500000,163515.7500000000,170680.1093750000,-77307.8750000000,,,
2.2319999964,17,205039.7812500000,193174.9687500000,203427.6406250000,189356.1562500000,187880.6093750000,163503.1718750000,170674.5937500000,-77326.5156250000,,,
2.2359999963,17,205043.8593750000,193203.2500000000,203426.3750000000,189297.7031250000,187880.0312500000,163512.0156250000,170674.0312500000,-77306.5546875000,,,
2.2399999963,17,204991.4218750000,193131.3906250000,203383.4687500000,189264.9062500000,187832.1250000000,163469.1562500000,170628.6718750000,-77358.1640625000,,,
2.2439999965,17,205021.3281250000,193171.4062500000,203410.6093750000,189294.6250000000,187848.3750000000,163476.2031250000,170627.9687500000,-77334.9921875000,,,
2.2479999964,17,205066.2812500000,193207.8593750000,203457.2812500000,189343.8437500000,187897.3750000000,163518.4843750000,170676.2812500000,-77300.1718750000,,,
2.2519999964,17,205050.9375000000,193172.7187500000,203444.5625000000,189348.8593750000,187893.1406250000,163500.5312500000,170676.1250000000,-77319.4296875000,,,
2.2559999963,17,205021.2656250000,193144.6875000000,203412.8125000000,189324.7968750000,187863.3125000000,163487.1250000000,170644.0937500000,-77337.9375000000,,,
2.2599999963,17,205032.5312500000,193173.6093750000,203419.1093750000,189300.1406250000,187864.1718750000,163496.7812500000,170641.5781250000,-77321.6093750000,,,
2.2639999965,17,205043.3281250000,193182.6406250000,203431.7187500000,189305.6718750000,187871.2187500000,163486.9375000000,170644.4687500000,-77321.9843750000,,,
2.2679999964,17,205064.3281250000,193192.6250000000,203457.7343750000,189348.3125000000,187900.1406250000,163510.2812500000,170673.4687500000,-77313.3984375000,,,
2.2719999964,17,205050.1093750000,193185.1406250000,203445.6875000000,189324.5000000000,187894.0000000000,163503.0625000000,170667.8593750000,-77318.3906250000,,,
2.2759999963,17,205045.7343750000,193184.3125000000,203444.6093750000,189312.1406250000,187893.7500000000,163508.1250000000,170670.3437500000,-77311.7890625000,,,
2.2799999963,17,205038.7031250000,193185.9218750000,203433.6406250000,189300.5000000000,187875.0312500000,163487.9062500000,170652.7812500000,-77322.2500000000,,,
2.2839999963,17,205029.4218750000,193167.5156250000,203420.2031250000,189326.7343750000,187859.8750000000,163481.6875000000,170642.4531250000,-77343.3593750000,,,
2.2879999964,17,205046.7500000000,193194.1562500000,203430.2343750000,189349.8281250000,187873.3125000000,163505.9843750000,170648.7812500000,-77325.2500000000,,,
2.2919999964,17,205079.0000000000,193220.5156250000,203468.5156250000,189329.6250000000,187912.0000000000,163522.2656250000,170680.8593750000,-77293.8203125000,,,
2.2959999964,17,205050.1875000000,193177.9218750000,203443.5468750000,189298.3281250000,187891.4531250000,163524.5468750000,170674.1875000000,-77315.2500000000,,,
2.2999999963,17,205035.6250000000,193187.3437500000,203419.9062500000,189289.2031250000,187867.7187500000,163524.1875000000,170648.2187500000,-77315.4609375000,,,
2.3039999963,18,205034.4687500000,193183.4531250000,203420.9375000000,189305.5312500000,187869.6093750000,163515.0781250000,170654.7343750000,-77320.4531250000,,,
2.3079999962,18,205066.5000000000,193208.2343750000,203457.3281250000,189343.8437500000,187907.3750000000,163526.8437500000,170685.1093750000,-77298.0000000000,,,
2.3119999962,18,205073.1406250000,193217.5937500000,203464.7812500000,189351.4062500000,187918.2656250000,163532.1406250000,170688.9375000000,-77289.6875000000,,,
2.3159999961,18,205079.0781250000,193224.0312500000,203474.2500000000,189341.2968750000,187929.0312500000,163546.8125000000,170707.9062500000,-77278.6640625000,,,
2.3199999961,18,205072.6406250000,193242.1406250000,203466.2343750000,189323.9687500000,187912.9687500000,163531.1718750000,170692.1562500000,-77279.5781250000,,,
2.3239999961,18,205059.5937500000,193217.5625000000,203457.6718750000,189321.5781250000,187898.7968750000,163522.2031250000,170674.5625000000,-77300.3593750000,,,
2.3279999963,18,205029.8281250000,193165.5781250000,203414.3125000000,189349.4375000000,187867.1562500000,163519.1562500000,170644.0625000000,-77337.7500000000,,,
2.3319999962,18,205047.0156250000,193182.7500000000,203435.8750000000,189365.2656250000,187886.9218750000,163520.8750000000,170655.9687500000,-77324.9062500000,,,
2.3359999962,18,205040.7656250000,193188.8125000000,203437.4843750000,189313.1875000000,187885.7656250000,163533.9062500000,170653.9375000000,-77315.4375000000,,,
2.3399999961,18,205065.7968750000,193236.6562500000,203451.0000000000,189287.2187500000,187892.7343750000,163535.3281250000,170649.7500000000,-77284.6953125000,,,
2.3439999961,18,205008.0468750000,193165.0000000000,203393.3593750000,189289.9218750000,187838.6406250000,163451.3125000000,170602.1718750000,-77356.8515625000,,,
2.3479999963,18,205053.1875000000,193211.6718750000,203433.0000000000,189360.3593750000,187879.7031250000,163486.1406250000,170623.5468750000,-77315.0078125000,,,
2.3519999962,18,205087.1406250000,193218.0781250000,203476.2968750000,189375.0000000000,187920.7968750000,163515.5312500000,170651.2343750000,-77300.5781250000,,,
2.3559999962,18,205060.1406250000,193202.8750000000,203450.2187500000,189317.5312500000,187894.3437500000,163492.8437500000,170622.0937500000,-77317.0156250000,,,
2.3599999961,18,205025.2500000000,193165.4531250000,203418.1718750000,189272.0625000000,187860.8125000000,163463.0625000000,170593.5937500000,-77344.8359375000,,,
2.3639999961,18,205018.6406250000,193159.6093750000,203406.6875000000,189296.0625000000,187849.7968750000,163446.0312500000,170588.7812500000,-77353.1484375000,,,
2.3679999961,18,205068.4218750000,193192.1718750000,203458.2343750000,189354.7031250000,187900.9218750000,163470.6093750000,170631.3281250000,-77323.7812500000,,,
2.3719999962,18,205061.7812500000,193178.4843750000,203456.8750000000,189323.3750000000,187901.3437500000,163474.7031250000,170620.7812500000,-77331.1250000000,,,
2.3759999962,18,205050.0000000000,193168.4218750000,203450.8437500000,189280.6718750000,187891.4218750000,163455.9062500000,170607.6718750000,-77338.3984375000,,,
2.3799999962,18,205032.0000000000,193161.1562500000,203426.1406250000,189267.6718750000,187863.3906250000,163428.7031250000,170584.5781250000,-77351.2968750000,,,
2.3839999961,18,205060.1406250000,193208.2343750000,203440.5468750000,189287.7031250000,187869.5312500000,163438.4687500000,170578.7343750000,-77325.1171875000,,,
2.3879999961,18,205097.6875000000,193258.1250000000,203474.8750000000,189319.7500000000,187900.9375000000,163452.2031250000,170593.9843750000,-77289.6328125000,,,
2.3919999963,18,205042.8125000000,193165.2968750000,203429.9375000000,189304.2500000000,187865.3593750000,163417.3125000000,170564.1562500000,-77357.2500000000,,,
2.3959999962,18,205048.6562500000,193165.9531250000,203445.1250000000,189327.1250000000,187877.1562500000,163413.9843750000,170574.5156250000,-77353.6328125000,,,
2.3999999962,18,205052.5000000000,193181.6562500000,203441.8281250000,189317.2031250000,187872.9687500000,163409.5625000000,170570.5000000000,-77342.1250000000,,,
2.4039999961,18,205049.1718750000,193188.0156250000,203440.6250000000,189286.8906250000,187865.1406250000,163407.5156250000,170550.3281250000,-77347.3828125000,,,
2.4079999961,18,205035.5156250000,193181.9531250000,203425.2187500000,189308.3281250000,187853.9843750000,163395.0781250000,170535.4843750000,-77360.2578125000,,,
2.4119999961,18,205015.8750000000,193156.5781250000,203409.2187500000,189306.5000000000,187845.4843750000,163375.2187500000,170528.3281250000,-77377.3437500000,,,
2.4159999962,18,205018.6718750000,193154.3125000000,203413.0156250000,189296.0156250000,187849.0156250000,163370.1875000000,170529.4531250000,-77377.7968750000,,,
2.4199999962,18,205015.2187500000,193147.7187500000,203407.3906250000,189280.1875000000,187836.6718750000,163341.1406250000,170515.4531250000,-77389.4375000000,,,
2.4239999962,18,205010.5937500000,193161.9687500000,203396.3437500000,189268.4218750000,187822.2500000000,163356.6875000000,170494.6093750000,-77385.6015625000,,,
2.4279999961,18,205026.2343750000,193161.3437500000,203418.1093750000,189312.7812500000,187842.2031250000,163365.2187500000,170507.4375000000,-77382.0625000000,,,
2.4319999961,19,205025.9687500000,193169.5000000000,203418.1718750000,189341.6406250000,187845.0156250000,163334.0781250000,170508.9375000000,-77381.2343750000,,,
2.4359999960,19,205011.2656250000,193145.9218750000,203409.9687500000,189317.1562500000,187834.8281250000,163334.7187500000,170496.7031250000,-77390.7031250000,,,
2.4399999960,19,205015.8281250000,193139.2968750000,203412.0781250000,189317.3906250000,187833.0781250000,163341.4843750000,170498.1250000000,-77384.0234375000,,,
2.4439999959,19,205039.1875000000,193176.8281250000,203423.7500000000,189331.7968750000,187844.0625000000,163343.0625000000,170501.5000000000,-77364.1171875000,,,
2.4479999959,19,205038.8906250000,193177.7031250000,203423.0312500000,189289.5000000000,187848.1562500000,163336.3906250000,170499.0156250000,-77372.5703125000,,,
2.4519999959,19,205030.8437500000,193150.4843750000,203426.2968750000,189281.5312500000,187855.0781250000,163314.6562500000,170500.9218750000,-77387.6718750000,,,
2.4559999960,19,205031.4687500000,193162.3593750000,203425.8125000000,189306.9375000000,187856.3437500000,163317.2031250000,170494.8750000000,-77369.7500000000,,,
2.4599999960,19,205030.8437500000,193168.1093750000,203420.2343750000,189273.6250000000,187839.5781250000,163297.6250000000,170467.9843750000,-77373.2343750000,,,
2.4639999960,19,204988.0156250000,193121.4687500000,203374.3437500000,189238.5156250000,187793.5156250000,163264.6406250000,170433.2968750000,-77424.1484375000,,,
2.4679999959,19,205014.1875000000,193159.2812500000,203392.9843750000,189265.1093750000,187819.6406250000,163324.4843750000,170459.6406250000,-77393.4375000000,,,
2.4719999959,19,205033.5312500000,193168.2656250000,203423.8281250000,189282.6093750000,187852.9531250000,163320.4062500000,170497.6718750000,-77375.6015625000,,,
2.4759999961,19,205029.2656250000,193156.5781250000,203423.2656250000,189298.7187500000,187851.6250000000,163317.8750000000,170487.6718750000,-77377.3437500000,,,
2.4799999960,19,205016.0937500000,193151.0781250000,203401.4531250000,189253.2031250000,187823.3750000000,163305.2656250000,170452.3750000000,-77389.6015625000,,,
2.4839999960,19,205017.2812500000,193159.2812500000,203404.4062500000,189237.3281250000,187817.5000000000,163299.0781250000,170453.0156250000,-77394.3984375000,,,
2.4879999959,19,205018.1875000000,193154.9687500000,203399.0937500000,189266.7500000000,187815.6562500000,163308.6562500000,170452.4687500000,-77399.2812500000,,,
2.4919999959,19,205034.2812500000,193166.8437500000,203412.0312500000,189291.2968750000,187832.1718750000,163307.6406250000,170466.1562500000,-77387.6718750000,,,
2.4959999959,19,205029.1250000000,193169.8750000000,203408.3750000000,189279.9218750000,187828.0468750000,163284.6718750000,170458.2656250000,-77384.3984375000,,,
2.4999999960,19,205013.8750000000,193148.3125000000,203393.5468750000,189255.2968750000,187805.2968750000,163264.8750000000,170429.8125000000,-77410.7109375000,,,
2.5039999960,19,205030.1250000000,193161.9375000000,203404.2500000000,189296.7187500000,187813.3437500000,163272.6250000000,170436.5625000000,-77408.2109375000,,,
2.5079999960,19,205041.4218750000,193166.7343750000,203415.5156250000,189326.4375000000,187828.0468750000,163285.4843750000,170450.3281250000,-77404.6484375000,,,
2.5119999959,19,205045.8750000000,193177.7343750000,203426.5625000000,189291.6093750000,187843.6718750000,163305.3281250000,170471.6875000000,-77389.4140625000,,,
2.5159999959,19,205012.6093750000,193146.4062500000,203397.9531250000,189292.6093750000,187818.8750000000,163278.2968750000,170455.7812500000,-77409.9296875000,,,
2.5199999961,19,204977.8281250000,193106.2500000000,203364.4218750000,189280.2968750000,187781.3125000000,163240.7656250000,170423.1250000000,-77447.5625000000,,,
2.5239999960,19,204989.1718750000,193127.8437500000,203373.5937500000,189294.2187500000,187784.5937500000,163259.6250000000,170422.5156250000,-77437.1562500000,,,
2.5279999960,19,205014.0312500000,193144.3437500000,203399.5625000000,189304.8593750000,187809.0000000000,163269.2031250000,170438.4218750000,-77427.5000000000,,,
2.5319999959,19,205045.7031250000,193176.9843750000,203432.0625000000,189302.7812500000,187841.0000000000,163295.4062500000,170462.7500000000,-77395.2343750000,,,
2.5359999959,19,205005.3125000000,193135.6562500000,203388.2968750000,189295.9062500000,187803.0937500000,163263.6718750000,170429.1718750000,-77423.5859375000,,,
2.5399999958,19,204980.2812500000,193108.1562500000,203360.2343750000,189285.9062500000,187772.0625000000,163245.8906250000,170396.8125000000,-77441.5000000000,,,
2.5439999960,19,205017.4687500000,193148.7343750000,203399.5312500000,189293.6250000000,187803.7656250000,163275.8437500000,170432.7656250000,-77412.4218750000,,,
2.5479999960,19,205018.2343750000,193136.5937500000,203408.7031250000,189280.5156250000,187811.4375000000,163274.5937500000,170439.5000000000,-77430.6640625000,,,
2.5519999960,19,205024.0937500000,193156.1250000000,203403.9843750000,189261.6250000000,187816.3750000000,163298.6718750000,170440.7031250000,-77414.9218750000,,,
2.5559999959,19,205004.1406250000,193130.3125000000,203393.0937500000,189249.6093750000,187805.7187500000,163275.0937500000,170433.8281250000,-77428.8671875000,,,
2.5599999959,20,204973.0937500000,193093.8125000000,203360.1250000000,189235.1562500000,187771.9843750000,163237.9687500000,170399.9375000000,-77457.2968750000,,,
2.5639999958,20,204985.4843750000,193110.9218750000,203365.1093750000,189227.9687500000,187772.3906250000,163233.3281250000,170399.3125000000,-77454.8046875000,,,
2.5679999958,20,205036.5937500000,193159.9531250000,203418.6718750000,189258.6250000000,187824.4218750000,163272.7031250000,170448.3750000000,-77413.8203125000,,,
2.5719999957,20,205039.1875000000,193159.7343750000,203423.0781250000,189258.2812500000,187832.8125000000,163281.1093750000,170459.6875000000,-77408.4531250000,,,
2.5759999957,20,205011.0468750000,193131.7968750000,203394.1093750000,189216.2812500000,187804.2187500000,163287.4375000000,170428.3281250000,-77423.9062500000,,,
2.5799999957,20,204984.0781250000,193110.1718750000,203367.6875000000,189241.2187500000,187770.4531250000,163238.4375000000,170395.2031250000,-77449.0937500000,,,
2.5839999958,20,205001.3906250000,193132.8593750000,203381.5625000000,189277.1875000000,187778.2343750000,163222.9531250000,170402.3437500000,-77436.7031250000,,,
2.5879999958,20,205022.7500000000,193131.4062500000,203404.5156250000,189301.1093750000,187799.2968750000,163252.7500000000,170423.3437500000,-77436.1875000000,,,
2.5919999958,20,205003.9218750000,193093.1406250000,203397.5156250000,189282.6875000000,187798.7500000000,163246.9375000000,170429.4843750000,-77458.7734375000,,,
2.5959999957,20,205008.1875000000,193112.2031250000,203403.2500000000,189281.9843750000,187808.3750000000,163265.0156250000,170433.9687500000,-77437.7734375000,,,
2.5999999957,20,204985.2031250000,193109.8281250000,203366.4531250000,189239.0156250000,187769.2500000000,163249.9843750000,170388.9843750000,-77452.3125000000,,,
2.6039999959,20,204979.6250000000,193111.1093750000,203357.0156250000,189231.7968750000,187755.1718750000,163233.2812500000,170374.9062500000,-77464.5156250000,,,
2.6079999958,20,205009.5468750000,193128.1718750000,203391.7968750000,189304.0156250000,187790.0156250000,163244.7031250000,170413.1562500000,-77447.5078125000,,,
2.6119999958,20,205003.8906250000,193115.5156250000,203392.7187500000,189285.8437500000,187795.2656250000,163230.2187500000,170418.6718750000,-77452.9296875000,,,
2.6159999957,20,204981.7656250000,193085.7968750000,203369.8437500000,189261.6250000000,187777.2187500000,163225.7656250000,170411.8437500000,-77469.5546875000,,,
2.6199999957,20,204962.9375000000,193064.7656250000,203354.5000000000,189244.5156250000,187754.7656250000,163199.0312500000,170393.2031250000,-77490.2343750000,,,
2.6239999956,20,204980.0156250000,193101.4531250000,203366.5156250000,189210.1093750000,187759.6406250000,163210.8906250000,170392.0156250000,-77471.4843750000,,,
2.6279999958,20,204981.7968750000,193095.7656250000,203366.5937500000,189251.8437500000,187765.1250000000,163203.5625000000,170402.0000000000,-77477.2031250000,,,
2.6319999958,20,204985.1718750000,193094.9062500000,203370.9687500000,189266.3281250000,187774.8750000000,163204.1250000000,170406.4687500000,-77471.2500000000,,,
2.6359999957,20,204982.5937500000,193089.7812500000,203370.7968750000,189251.0937500000,187772.3906250000,163208.0937500000,170398.1562500000,-77471.4609375000,,,
2.6399999957,20,204981.2343750000,193092.7031250000,203366.4375000000,189227.1562500000,187762.9218750000,163212.2812500000,170386.1718750000,-77470.2265625000,,,
2.6439999957,20,204978.1406250000,193098.4531250000,203352.2656250000,189240.0156250000,187746.1875000000,163202.2812500000,170372.5937500000,-77477.3046875000,,,
2.6479999959,20,205020.9218750000,193132.8593750000,203401.6718750000,189249.0156250000,187796.8281250000,163243.2812500000,170424.5781250000,-77443.6718750000,,,
2.6519999958,20,205005.7968750000,193110.7343750000,203391.0468750000,189258.0312500000,187795.1093750000,163243.8750000000,170422.7812500000,-77457.7031250000,,,
2.6559999958,20,204983.1093750000,193085.3906250000,203365.7031250000,189233.3281250000,187774.1093750000,163208.3906250000,170398.1093750000,-77472.0546875000,,,
2.6599999957,20,205011.8281250000,193142.4375000000,203379.9531250000,189242.1562500000,187781.3125000000,163207.6406250000,170392.4218750000,-77432.1093750000,,,
2.6639999957,20,204992.4375000000,193105.7656250000,203368.8437500000,189219.4375000000,187765.8437500000,163205.7343750000,170389.5000000000,-77469.7734375000,,,
2.6679999956,20,205015.5937500000,193125.5468750000,203392.9843750000,189220.7812500000,187790.5468750000,163241.7500000000,170417.5781250000,-77451.8515625000,,,
2.6719999958,20,204989.5937500000,193087.5937500000,203375.0468750000,189232.7968750000,187778.2343750000,163223.3281250000,170406.1562500000,-77472.4531250000,,,
2.6759999958,20,204991.3593750000,193085.3125000000,203378.7343750000,189245.2656250000,187782.8281250000,163210.5312500000,170418.0625000000,-77467.3593750000,,,
2.6799999957,20,204985.0625000000,193090.8125000000,203364.8750000000,189233.4062500000,187760.6718750000,163198.7343750000,170391.7187500000,-77471.5390625000,,,
2.6839999957,20,204990.4843750000,193111.0000000000,203358.3593750000,189218.5468750000,187748.2500000000,163194.6875000000,170367.8593750000,-77469.4765625000,,,
2.6879999957,21,205025.7812500000,193141.0156250000,203396.1718750000,189241.1875000000,187787.4062500000,163241.1875000000,170405.6718750000,-77441.9296875000,,,
2.6919999956,21,205007.4843750000,193104.4843750000,203395.4843750000,189243.7656250000,187793.5156250000,163230.3906250000,170427.7187500000,-77461.3750000000,,,
2.6959999956,21,204995.2500000000,193099.4687500000,203384.9843750000,189241.0312500000,187787.9375000000,163224.6250000000,170423.1093750000,-77456.9218750000,,,
2.6999999955,21,204991.9062500000,193112.6093750000,203373.7187500000,189234.1093750000,187770.7968750000,163192.6250000000,170398.9687500000,-77455.5546875000,,,
2.7039999955,21,204984.3906250000,193105.3437500000,203363.1875000000,189229.1406250000,187754.0156250000,163162.2500000000,170381.1875000000,-77480.9531250000,,,
2.7079999954,21,205006.7656250000,193100.6250000000,203398.5312500000,189256.0781250000,187788.1250000000,163200.6093750000,170421.6250000000,-77473.4453125000,,,
2.7119999956,21,204999.4687500000,193107.0312500000,203390.3281250000,189229.0937500000,187787.8906250000,163210.2656250000,170430.4218750000,-77470.0937500000,,,
2.7159999956,21,204972.4531250000,193059.6093750000,203368.5468750000,189183.6250000000,187769.0000000000,163193.3750000000,170423.1250000000,-77497.6406250000,,,
2.7199999955,21,204988.4375000000,193082.9531250000,203384.1875000000,189193.2343750000,187775.3593750000,163190.3437500000,170424.3437500000,-77477.8203125000,,,
2.7239999955,21,205016.1718750000,193123.8750000000,203404.3281250000,189224.7968750000,187789.1562500000,163199.0625000000,170432.5468750000,-77454.0234375000,,,
2.7279999955,21,205012.5000000000,193105.6875000000,203399.5625000000,189267.1250000000,187787.9687500000,163197.2656250000,170434.3125000000,-77469.1562500000,,,
2.7319999957,21,204999.4687500000,193091.0937500000,203387.3281250000,189235.6093750000,187781.2343750000,163195.6718750000,170434.2031250000,-77476.9062500000,,,
2.7359999956,21,205004.3437500000,193107.0937500000,203394.1093750000,189222.4375000000,187790.2187500000,163217.6718750000,170442.2812500000,-77453.2500000000,,,
2.7399999956,21,205016.8437500000,193134.3125000000,203400.8906250000,189231.0000000000,187792.8593750000,163218.7656250000,170441.5781250000,-77431.7890625000,,,
2.7439999955,21,205005.1718750000,193126.5625000000,203381.3437500000,189226.7812500000,187767.6093750000,163171.0312500000,170407.6093750000,-77457.0546875000,,,
2.7479999955,21,205034.3593750000,193134.6093750000,203411.0312500000,189253.0468750000,187793.0937500000,163183.0156250000,170423.7812500000,-77454.5390625000,,,
2.7519999954,21,205034.2031250000,193123.4687500000,203417.1718750000,189271.0156250000,187802.4843750000,163189.4843750000,170441.9062500000,-77459.6015625000,,,
2.7559999956,21,205014.6406250000,193095.7187500000,203403.0937500000,189232.5000000000,187792.9843750000,163202.9687500000,170438.4218750000,-77465.0781250000,,,
2.7599999956,21,204999.8750000000,193083.0000000000,203390.3281250000,189190.3437500000,187775.6875000000,163181.7343750000,170421.7031250000,-77476.7968750000,,,
2.7639999955,21,204999.2031250000,193081.6875000000,203386.5468750000,189240.4687500000,187763.0468750000,163163.6718750000,170408.5625000000,-77489.0312500000,,,
2.7679999955,21,205044.3125000000,193135.0937500000,203422.9375000000,189286.8437500000,187796.5312500000,163195.9687500000,170432.4375000000,-77448.7656250000,,,
2.7719999955,21,205061.3750000000,193144.5781250000,203449.4218750000,189290.5781250000,187825.4687500000,163225.8281250000,170453.2031250000,-77427.9843750000,,,
2.7759999956,21,205052.9531250000,193136.4531250000,203439.8437500000,189291.4218750000,187822.0625000000,163202.2812500000,170458.2343750000,-77428.9453125000,,,
2.7799999956,21,205020.3906250000,193117.4375000000,203399.7968750000,189248.0625000000,187783.4687500000,163183.9062500000,170430.7812500000,-77451.8828125000,,,
2.7839999956,21,205005.2031250000,193094.0781250000,203384.5625000000,189218.9218750000,187763.5937500000,163169.8750000000,170406.0937500000,-77478.0078125000,,,
2.7879999955,21,205064.6718750000,193172.1093750000,203438.6406250000,189265.5937500000,187813.3437500000,163227.3750000000,170444.7968750000,-77417.1718750000,,,
2.7919999955,21,205114.5312500000,193236.0000000000,203486.6250000000,189308.5156250000,187863.9062500000,163263.3750000000,170489.4687500000,-77357.7656250000,,,
2.7959999954,21,205074.0625000000,193166.2343750000,203453.6562500000,189314.3281250000,187833.0781250000,163200.7187500000,170476.4218750000,-77414.5703125000,,,
2.7999999956,21,205035.5625000000,193111.9687500000,203418.3906250000,189279.3906250000,187797.0625000000,163184.2187500000,170453.9843750000,-77454.2656250000,,,
2.8039999956,21,205003.8593750000,193083.2343750000,203382.7968750000,189248.5937500000,187763.4218750000,163159.0625000000,170422.6718750000,-77483.6640625000,,,
2.8079999955,21,205038.0312500000,193128.5156250000,203412.5312500000,189281.0000000000,187792.1875000000,163195.7343750000,170445.3125000000,-77445.0156250000,,,
2.8119999955,21,205069.3125000000,193183.3437500000,203441.1875000000,189288.9687500000,187820.1250000000,163222.3906250000,170461.1093750000,-77397.1875000000,,,
2.8159999955,22,205012.6406250000,193100.4843750000,203396.1250000000,189240.9218750000,187776.2187500000,163151.9843750000,170430.4843750000,-77476.0468750000,,,
2.8199999954,22,204967.9531250000,193043.9218750000,203358.5156250000,189185.1093750000,187738.4843750000,163133.4843750000,170409.5312500000,-77523.2265625000,,,
2.8239999954,22,204976.1250000000,193066.9843750000,203357.7656250000,189191.7031250000,187732.5625000000,163142.1875000000,170395.2968750000,-77511.3750000000,,,
2.8279999953,22,205008.3906250000,193106.8437500000,203382.5000000000,189219.5781250000,187758.9218750000,163169.8281250000,170408.7812500000,-77481.6250000000,,,
2.8319999953,22,205072.6406250000,193196.1562500000,203443.6718750000,189273.3750000000,187820.7968750000,163210.5937500000,170442.3593750000,-77399.6015625000,,,
2.8359999952,22,205060.2500000000,193168.6718750000,203438.9531250000,189265.2812500000,187815.7812500000,163193.6875000000,170436.5468750000,-77415.3203125000,,,
2.8399999954,22,205007.3750000000,193091.3906250000,203391.2343750000,189218.7656250000,187764.6093750000,163158.1250000000,170393.4062500000,-77483.5000000000,,,
2.8439999954,22,204977.7656250000,193056.4687500000,203370.8281250000,189243.8437500000,187738.2968750000,163126.5625000000,170374.7656250000,-77515.1015625000,,,
2.8479999953,22,204987.7500000000,193068.8593750000,203372.1718750000,189247.4062500000,187741.9375000000,163124.6562500000,170378.2031250000,-77512.3671875000,,,
2.8519999953,22,205003.1718750000,193078.7656250000,203392.0781250000,189259.2656250000,187761.9843750000,163149.2187500000,170390.9687500000,-77496.7578125000,,,
2.8559999953,22,205013.6250000000,193080.9687500000,203405.2656250000,189273.4375000000,187776.4843750000,163163.2500000000,170400.9531250000,-77481.1171875000,,,
2.8599999954,22,204996.7343750000,193080.6093750000,203377.0312500000,189232.0937500000,187747.3125000000,163109.8125000000,170364.9843750000,-77494.2890625000,,,
2.8639999954,22,205013.4062500000,193109.7656250000,203388.6718750000,189230.2187500000,187754.0937500000,163118.0468750000,170371.0156250000,-77476.6875000000,,,
2.8679999954,22,205046.6250000000,193139.5468750000,203417.9218750000,189267.9375000000,187783.9687500000,163161.0000000000,170395.7968750000,-77457.3515625000,,,
2.8719999953,22,205058.7968750000,193137.1562500000,203434.4843750000,189258.6718750000,187803.3906250000,163192.9687500000,170408.5625000000,-77446.6250000000,,,
2.8759999953,22,205028.6718750000,193088.8281250000,203419.3750000000,189253.1875000000,187789.3906250000,163152.7812500000,170402.2968750000,-77478.5156250000,,,
2.8799999952,22,205021.6406250000,193118.4062500000,203396.3593750000,189232.5000000000,187771.1562500000,163157.4843750000,170386.6562500000,-77462.2890625000,,,
2.8839999954,22,205001.3750000000,193099.2031250000,203370.4531250000,189231.7031250000,187741.6406250000,163121.7500000000,170352.7812500000,-77495.2812500000,,,
2.8879999954,22,205014.0781250000,193091.5312500000,203385.9375000000,189243.1562500000,187755.8593750000,163134.6875000000,170367.2656250000,-77501.5781250000,,,
2.8919999953,22,205059.7343750000,193135.9531250000,203436.4062500000,189287.0625000000,187808.1406250000,163167.8593750000,170419.4062500000,-77450.9921875000,,,
2.8959999953,22,205048.2812500000,193124.8906250000,203434.7656250000,189278.8281250000,187807.7656250000,163157.0000000000,170422.2187500000,-77448.4765625000,,,
2.8999999953,22,205004.3750000000,193095.6875000000,203383.0312500000,189228.3750000000,187757.5781250000,163126.0156250000,170379.9687500000,-77480.3671875000,,,
2.9039999954,22,204997.2968750000,193095.6406250000,203369.1406250000,189202.7031250000,187738.3750000000,163129.2187500000,170366.9375000000,-77490.3437500000,,,
2.9079999954,22,205025.7812500000,193116.7187500000,203401.6406250000,189256.4062500000,187766.8906250000,163146.8281250000,170394.8281250000,-77475.9687500000,,,
2.9119999954,22,205054.6718750000,193156.7656250000,203430.3750000000,189285.7656250000,187800.5781250000,163202.9531250000,170421.8437500000,-77430.3984375000,,,
2.9159999953,22,205046.9375000000,193149.9531250000,203424.5468750000,189276.8437500000,187796.0468750000,163181.5937500000,170419.5312500000,-77435.3593750000,,,
2.9199999953,22,205022.2187500000,193113.8125000000,203400.3281250000,189258.9531250000,187766.1562500000,163139.0000000000,170392.5312500000,-77480.5546875000,,,
2.9239999952,22,204995.0156250000,193058.6250000000,203379.5468750000,189226.8125000000,187741.6718750000,163092.3125000000,170370.5000000000,-77531.0312500000,,,
2.9279999954,22,205017.5937500000,193084.3750000000,203400.8125000000,189265.1406250000,187763.4218750000,163129.1093750000,170389.8750000000,-77504.8828125000,,,
2.9319999954,22,205046.8906250000,193135.5937500000,203426.0312500000,189292.3125000000,187789.9062500000,163173.0468750000,170414.8906250000,-77460.7890625000,,,
2.9359999953,22,205016.5000000000,193100.9375000000,203403.5000000000,189232.6406250000,187768.4375000000,163147.3125000000,170401.8281250000,-77487.3359375000,,,
2.9399999953,22,204973.9531250000,193039.7968750000,203366.5312500000,189202.7500000000,187729.0937500000,163090.3125000000,170370.2343750000,-77536.9609375000,,,
2.9439999952,23,204973.9843750000,193055.0312500000,203360.7187500000,189199.8593750000,187719.5781250000,163088.0156250000,170359.4218750000,-77537.0390625000,,,
