Time:250Hz,Epoch,Channel 1,Channel 2,Channel 3,Channel 4,Channel 5,Channel 6,Channel 7,Channel 8,Event Id,Event Date,Event Duration
0.0000000000,0,175791.9687500000,193096.1718750000,164598.4531250000,162787.3125000000,130955.3593750000,119440.1015625000,132724.7031250000,148216.6406250000,,,
0.0040000000,0,175640.4843750000,184803.2031250000,164350.3750000000,162458.0468750000,130606.5625000000,119102.5156250000,132378.6406250000,147730.9687500000,,,
0.0079999999,0,175381.7031250000,196022.2656250000,163794.9687500000,161574.6562500000,129794.8203125000,118328.0312500000,131483.3593750000,151175.9218750000,,,
0.0119999999,0,175412.8437500000,208681.9843750000,163809.8437500000,161540.0000000000,129811.8515625000,118358.4687500000,131455.4062500000,153068.2656250000,,,
0.0159999998,0,175658.0312500000,207004.7656250000,164269.6093750000,162208.8906250000,130451.9062500000,118972.3984375000,132137.2500000000,151423.1406250000,,,
0.0199999998,0,175805.8437500000,192958.0156250000,164620.3906250000,162797.0937500000,130965.5546875000,119460.1093750000,132713.5156250000,148205.7812500000,,,
0.0240000000,0,175617.5468750000,184607.8593750000,164330.3281250000,162451.9843750000,130585.4062500000,119100.0468750000,132327.3906250000,147664.9531250000,,,
0.0279999999,0,175353.9687500000,195914.9375000000,163766.6875000000,161563.8750000000,129767.0859375000,118314.3515625000,131432.8437500000,151129.1718750000,,,
0.0319999999,0,175376.5000000000,208757.9375000000,163770.9531250000,161523.6406250000,129776.1796875000,118323.7109375000,131405.5156250000,153057.6562500000,,,
0.0359999998,0,175609.3750000000,207171.6875000000,164212.7656250000,162199.2656250000,130401.9375000000,118926.5390625000,132070.3593750000,151403.2031250000,,,
0.0399999998,0,175761.6406250000,192987.2187500000,164575.0312500000,162790.5625000000,130928.4062500000,119427.1953125000,132670.1250000000,148146.6250000000,,,
0.0440000000,0,175596.9062500000,184306.4843750000,164319.4218750000,162454.5312500000,130576.3359375000,119092.8046875000,132325.6718750000,147582.4218750000,,,
0.0480000000,0,175337.3437500000,195530.2812500000,163749.7656250000,161566.4843750000,129749.4375000000,118300.0000000000,131420.9062500000,151057.9218750000,,,
0.0519999999,0,175354.1562500000,208648.8281250000,163743.4375000000,161490.4375000000,129745.0937500000,118291.6328125000,131381.4062500000,153012.5312500000,,,
0.0559999999,0,175570.6093750000,207293.0468750000,164172.3750000000,162136.4687500000,130355.6406250000,118876.9921875000,132029.1875000000,151355.2187500000,,,
0.0599999998,0,175715.7187500000,193199.1093750000,164529.5156250000,162738.5468750000,130878.4375000000,119375.1640625000,132618.3281250000,148068.3906250000,,,
0.0639999998,0,175561.0937500000,184618.5937500000,164280.3906250000,162404.4531250000,130536.9062500000,119062.8984375000,132285.9843750000,147481.2500000000,,,
0.0680000000,0,175331.8437500000,196058.0781250000,163735.3125000000,161536.3281250000,129736.2187500000,118286.9921875000,131409.3281250000,150998.2968750000,,,
0.0719999999,0,175371.3750000000,209328.3906250000,163746.8906250000,161499.4687500000,129749.0390625000,118290.4218750000,131378.3906250000,153017.1250000000,,,
0.0759999999,0,175600.9687500000,207935.4062500000,164193.1875000000,162159.1093750000,130380.0781250000,118895.1796875000,132043.5625000000,151382.1875000000,,,
0.0799999998,0,175763.3281250000,193570.4375000000,164582.2968750000,162784.4687500000,130938.0859375000,119420.4921875000,132662.5000000000,148090.4375000000,,,
0.0839999998,0,175616.1562500000,184405.7031250000,164341.0312500000,162486.1718750000,130610.1875000000,119112.8437500000,132340.7812500000,147483.1562500000,,,
0.0880000000,0,175348.9218750000,195422.1875000000,163748.9687500000,161566.6093750000,129758.9843750000,118306.9453125000,131417.2343750000,150991.7031250000,,,
0.0919999999,0,175370.5937500000,208708.4531250000,163740.3281250000,161502.2031250000,129743.0546875000,118297.3671875000,131361.0156250000,153029.6406250000,,,
0.0959999999,0,175591.9843750000,207377.3750000000,164179.4843750000,162162.8906250000,130361.3281250000,118884.0781250000,132020.2500000000,151389.7968750000,,,
0.0999999999,0,175751.4531250000,192864.7500000000,164563.3125000000,162783.0937500000,130911.6953125000,119420.1953125000,132637.0781250000,148074.0000000000,,,
0.1039999998,0,175616.7500000000,183443.6718750000,164339.8593750000,162481.7812500000,130599.7265625000,119127.6718750000,132335.5937500000,147443.6718750000,,,
0.1079999998,0,175364.1093750000,194425.1250000000,163767.2031250000,161572.3750000000,129761.6406250000,118316.5781250000,131428.0156250000,150978.5937500000,,,
0.1120000000,0,175382.4062500000,207942.1406250000,163755.1093750000,161491.0468750000,129741.4453125000,118285.7812500000,131368.7343750000,153063.2500000000,,,
0.1159999999,0,175590.5937500000,206696.1562500000,164180.1093750000,162136.1250000000,130352.1328125000,118869.0859375000,132024.1406250000,151422.3593750000,,,
0.1199999999,0,175752.3281250000,191941.3906250000,164572.9375000000,162775.1875000000,130917.9687500000,119421.7500000000,132654.2968750000,148076.1093750000,,,
0.1239999998,0,175610.9062500000,182212.6250000000,164350.1250000000,162490.4375000000,130609.8125000000,119123.5703125000,132353.5156250000,147396.0625000000,,,
0.1279999998,1,175336.9062500000,193352.9062500000,163745.2343750000,161555.5000000000,129742.8437500000,118298.2265625000,131411.0937500000,150937.7343750000,,,
0.1319999998,1,175345.3593750000,207370.4531250000,163719.5468750000,161467.2343750000,129710.0625000000,118246.6796875000,131332.0781250000,153055.2656250000,,,
0.1359999997,1,175574.5000000000,206537.9843750000,164170.2031250000,162117.1093750000,130343.1953125000,118855.0000000000,132001.4687500000,151448.5625000000,,,
0.1399999997,1,175759.8750000000,191902.4531250000,164588.7968750000,162774.7031250000,130936.3984375000,119432.1562500000,132652.7656250000,148097.8437500000,,,
0.1439999996,1,175623.1250000000,182009.0937500000,164366.7500000000,162507.1250000000,130632.8515625000,119124.3984375000,132351.0156250000,147380.3281250000,,,
0.1479999996,1,175359.6093750000,193146.7343750000,163763.8437500000,161583.9062500000,129766.5234375000,118279.6406250000,131410.5000000000,150931.8906250000,,,
0.1519999998,1,175351.3750000000,207423.5468750000,163717.4687500000,161471.8281250000,129709.4765625000,118245.2265625000,131325.6718750000,153078.0156250000,,,
0.1559999997,1,175556.2656250000,206921.6406250000,164141.9843750000,162100.1250000000,130317.4531250000,118853.4687500000,131979.5000000000,151484.0312500000,,,
0.1599999997,1,175737.5781250000,192457.5312500000,164560.8750000000,162791.4375000000,130912.7656250000,119414.2656250000,132633.2500000000,148104.3281250000,,,
0.1639999996,1,175615.6406250000,182428.0000000000,164355.2187500000,162531.8281250000,130626.2500000000,119136.8750000000,132340.5000000000,147357.8750000000,,,
0.1679999996,1,175348.9062500000,193408.0312500000,163747.2968750000,161556.9531250000,129751.4765625000,118324.7812500000,131399.6093750000,150926.1718750000,,,
0.1719999998,1,175335.3593750000,207721.4062500000,163691.0000000000,161405.8593750000,129679.8593750000,118264.9921875000,131294.6875000000,153099.5468750000,,,
0.1759999997,1,175563.9687500000,207335.8906250000,164143.7656250000,162045.1093750000,130310.0703125000,118870.7968750000,131964.0625000000,151527.1562500000,,,
0.1799999997,1,175731.3281250000,193016.3281250000,164550.6250000000,162718.4843750000,130893.2109375000,119438.7265625000,132611.8906250000,148134.0781250000,,,
0.1839999997,1,175582.5468750000,182972.1093750000,164324.2968750000,162462.3281250000,130591.7890625000,119149.8046875000,132294.7812500000,147336.1718750000,,,
0.1879999996,1,175330.0156250000,193754.5468750000,163739.5468750000,161546.6875000000,129739.4062500000,118324.2187500000,131360.9687500000,150883.1562500000,,,
0.1919999996,1,175331.0156250000,208001.2031250000,163681.6093750000,161433.5468750000,129667.8750000000,118264.0546875000,131272.0468750000,153095.4687500000,,,
0.1959999998,1,175554.7343750000,207587.6718750000,164127.2343750000,162083.7656250000,130293.6328125000,118859.7734375000,131932.8906250000,151538.9531250000,,,
0.1999999997,1,175734.8750000000,193236.2031250000,164547.5937500000,162743.1875000000,130890.5312500000,119435.1875000000,132597.7343750000,148172.3281250000,,,
0.2039999997,1,175605.0781250000,183100.4375000000,164346.3437500000,162497.4375000000,130614.3437500000,119172.6015625000,132329.3281250000,147363.0000000000,,,
0.2079999996,1,175338.4687500000,193842.2812500000,163741.5937500000,161582.6718750000,129744.5000000000,118340.3671875000,131384.8125000000,150866.8437500000,,,
0.2119999996,1,175335.5937500000,208385.3593750000,163693.4687500000,161455.8593750000,129676.3750000000,118258.9609375000,131273.3125000000,153096.6562500000,,,
0.2159999998,1,175554.1250000000,208340.3750000000,164128.8125000000,162092.1875000000,130292.2343750000,118849.2109375000,131930.2656250000,151555.8593750000,,,
0.2199999997,1,175734.1250000000,194228.4062500000,164544.3750000000,162756.1406250000,130884.0937500000,119422.8750000000,132589.2031250000,148190.1406250000,,,
0.2239999997,1,175616.2968750000,183999.1875000000,164353.5625000000,162507.9531250000,130619.5234375000,119161.2578125000,132336.7187500000,147369.8593750000,,,
0.2279999997,1,175343.4375000000,194410.3125000000,163748.8593750000,161568.1875000000,129751.5859375000,118329.3671875000,131398.7812500000,150839.4375000000,,,
0.2319999996,1,175338.4687500000,208798.8125000000,163693.9218750000,161429.6875000000,129678.8984375000,118259.1250000000,131278.5625000000,153092.4843750000,,,
0.2359999996,1,175556.6093750000,208643.2812500000,164122.7500000000,162065.8750000000,130289.3125000000,118849.0468750000,131923.1562500000,151588.3906250000,,,
0.2399999998,1,175750.7500000000,194392.6406250000,164549.2500000000,162749.1718750000,130893.6953125000,119435.7265625000,132596.4218750000,148235.6875000000,,,
0.2439999997,1,175629.9375000000,183927.5000000000,164360.7187500000,162532.0468750000,130633.5234375000,119181.7734375000,132351.2812500000,147367.3125000000,,,
0.2479999997,1,175348.8750000000,194121.2812500000,163754.2968750000,161592.8750000000,129762.8750000000,118356.6171875000,131401.2187500000,150817.6562500000,,,
0.2519999996,1,175330.7656250000,208478.8281250000,163688.4218750000,161419.7656250000,129674.6328125000,118255.5781250000,131256.2968750000,153088.2031250000,,,
0.2559999996,2,175548.4062500000,208503.7187500000,164105.8281250000,162054.0156250000,130271.8515625000,118815.3046875000,131903.0937500000,151634.0156250000,,,
0.2599999995,2,175733.1093750000,194427.6406250000,164525.9531250000,162703.7343750000,130867.5703125000,119404.3437500000,132564.6562500000,148285.8906250000,,,
0.2639999995,2,175617.4218750000,183861.8125000000,164360.0468750000,162473.8750000000,130630.9218750000,119177.6406250000,132332.7812500000,147368.9062500000,,,
0.2679999995,2,175333.4531250000,193858.5000000000,163748.1875000000,161580.2031250000,129757.8046875000,118334.7890625000,131398.9687500000,150763.8437500000,,,
0.2719999994,2,175333.9687500000,208224.0781250000,163691.5312500000,161437.1093750000,129675.8359375000,118254.1875000000,131265.8593750000,153060.5781250000,,,
0.2759999994,2,175551.0312500000,208383.5781250000,164106.3437500000,162049.4062500000,130267.3750000000,118816.1093750000,131896.4687500000,151633.1093750000,,,
0.2799999996,2,175738.9687500000,194436.8750000000,164527.0156250000,162736.1093750000,130864.3515625000,119392.8359375000,132565.0625000000,148304.0312500000,,,
0.2839999995,2,175622.7343750000,183813.1718750000,164352.9687500000,162533.5937500000,130623.8671875000,119177.3515625000,132341.0937500000,147363.8906250000,,,
0.2879999995,2,175336.6718750000,193643.6562500000,163745.1562500000,161604.8906250000,129752.0937500000,118343.3671875000,131396.3750000000,150724.3125000000,,,
0.2919999994,2,175316.3906250000,208007.0468750000,163671.5312500000,161434.3437500000,129650.8671875000,118243.8828125000,131249.3593750000,153017.2031250000,,,
0.2959999994,2,175538.3750000000,208265.4531250000,164099.1562500000,162049.6562500000,130251.4687500000,118808.2734375000,131885.7343750000,151627.1250000000,,,
0.2999999996,2,175728.9375000000,194419.5156250000,164519.4843750000,162726.7187500000,130851.1328125000,119375.9921875000,132556.1875000000,148329.6406250000,,,
0.3039999995,2,175604.0625000000,183717.2812500000,164340.2343750000,162517.5000000000,130611.2031250000,119149.8593750000,132326.3750000000,147341.8125000000,,,
0.3079999995,2,175317.8750000000,193336.2812500000,163733.3593750000,161597.9062500000,129740.9062500000,118338.2734375000,131390.5156250000,150639.9062500000,,,
0.3119999995,2,175286.0000000000,207685.0312500000,163641.3593750000,161409.8125000000,129620.3203125000,118213.3359375000,131230.3437500000,152933.6562500000,,,
0.3159999994,2,175523.6250000000,208091.2968750000,164078.0781250000,162048.2031250000,130230.0078125000,118784.2421875000,131865.4062500000,151585.3281250000,,,
0.3199999994,2,175724.6875000000,194375.7968750000,164509.5000000000,162737.8750000000,130841.8984375000,119383.8281250000,132544.7812500000,148301.1875000000,,,
0.3239999996,2,175626.2187500000,183555.9843750000,164358.3593750000,162546.4531250000,130633.6015625000,119201.5156250000,132346.5156250000,147301.4218750000,,,
0.3279999995,2,175342.9531250000,193015.9218750000,163759.8281250000,161616.3593750000,129774.0859375000,118352.5390625000,131419.8906250000,150604.8750000000,,,
0.3319999995,2,175317.5156250000,207439.7656250000,163676.5781250000,161446.6875000000,129659.0234375000,118231.1484375000,131252.7343750000,152950.7968750000,,,
0.3359999994,2,175556.0781250000,208030.6562500000,164111.6250000000,162090.6406250000,130263.9140625000,118807.7421875000,131886.6250000000,151646.9218750000,,,
0.3399999994,2,175746.2656250000,194442.5781250000,164536.1718750000,162749.1406250000,130869.5000000000,119402.2812500000,132557.8125000000,148360.2187500000,,,
0.3439999996,2,175606.0468750000,183510.7656250000,164348.7343750000,162459.7812500000,130629.5546875000,119180.0546875000,132340.3125000000,147281.8281250000,,,
0.3479999995,2,175300.7343750000,192780.7187500000,163724.7500000000,161522.5468750000,129742.2500000000,118326.5546875000,131385.1875000000,150526.0000000000,,,
0.3519999995,2,175300.7343750000,207220.7343750000,163660.2031250000,161393.1718750000,129639.3593750000,118215.5390625000,131230.2343750000,152915.9531250000,,,
0.3559999994,2,175526.1406250000,208025.0312500000,164075.9531250000,162005.4687500000,130224.1093750000,118765.0390625000,131844.7343750000,151654.2031250000,,,
0.3599999994,2,175720.2812500000,194621.0312500000,164505.6875000000,162685.6562500000,130837.0468750000,119372.1328125000,132526.0937500000,148386.8750000000,,,
0.3639999994,2,175606.0156250000,183554.0156250000,164348.5937500000,162524.0781250000,130628.0234375000,119168.5781250000,132332.0000000000,147270.1718750000,,,
0.3679999996,2,175339.0000000000,192639.3125000000,163767.1562500000,161619.4218750000,129784.4375000000,118365.4687500000,131421.3437500000,150520.5156250000,,,
0.3719999995,2,175337.4687500000,207098.1875000000,163701.8906250000,161430.0625000000,129681.4687500000,118255.2031250000,131271.7187500000,152943.4687500000,,,
0.3759999995,2,175532.1250000000,207957.4843750000,164089.2812500000,162023.5781250000,130236.3125000000,118789.2578125000,131855.2187500000,151678.5156250000,,,
0.3799999994,2,175710.4062500000,194629.4843750000,164499.6406250000,162704.4375000000,130829.5390625000,119375.0781250000,132513.1093750000,148421.4843750000,,,
0.3839999994,3,175592.8437500000,183606.1875000000,164340.3125000000,162524.3750000000,130624.4296875000,119187.2500000000,132326.6093750000,147303.6718750000,,,
0.3879999993,3,175319.5000000000,192503.6718750000,163749.2343750000,161614.6250000000,129774.4921875000,118346.3750000000,131409.5937500000,150493.6250000000,,,
0.3919999993,3,175309.6875000000,206951.2500000000,163669.2812500000,161426.2968750000,129653.8437500000,118212.6406250000,131237.8281250000,152906.3125000000,,,
0.3959999993,3,175533.1718750000,207892.0468750000,164088.0000000000,162020.7656250000,130239.8828125000,118790.4140625000,131856.9062500000,151690.9843750000,,,
0.3999999992,3,175709.8750000000,194660.1875000000,164501.8593750000,162676.4843750000,130835.8437500000,119379.3984375000,132525.7656250000,148452.4062500000,,,
0.4039999992,3,175597.0000000000,183667.7968750000,164345.5156250000,162513.4843750000,130634.1640625000,119199.5546875000,132335.4062500000,147319.0937500000,,,
0.4079999994,3,175326.5937500000,192377.2500000000,163756.7343750000,161615.5312500000,129785.8906250000,118376.0625000000,131412.0000000000,150465.6406250000,,,
0.4119999993,3,175291.0156250000,206823.9375000000,163649.3125000000,161389.1093750000,129634.7968750000,118213.8750000000,131207.0000000000,152885.9687500000,,,
0.4159999993,3,175513.7500000000,207891.9843750000,164063.6093750000,161979.1406250000,130214.6406250000,118776.2265625000,131819.9218750000,151691.0312500000,,,
0.4199999992,3,175729.1562500000,194793.9218750000,164515.1093750000,162674.4218750000,130844.5859375000,119388.8437500000,132517.0000000000,148491.0781250000,,,
0.4239999992,3,175609.6875000000,183706.3437500000,164358.5781250000,162531.5937500000,130641.7812500000,119189.8515625000,132342.2031250000,147298.5781250000,,,
0.4279999994,3,175338.6875000000,192216.8125000000,163770.1250000000,161652.0937500000,129793.9375000000,118364.5859375000,131431.3125000000,150371.9218750000,,,
0.4319999993,3,175311.8593750000,206666.8906250000,163665.2187500000,161461.0937500000,129642.9531250000,118203.1718750000,131227.7343750000,152789.7500000000,,,
0.4359999993,3,175515.3125000000,208028.0312500000,164057.2343750000,162029.9375000000,130197.9296875000,118738.7578125000,131813.7500000000,151610.0156250000,,,
0.4399999992,3,175701.2031250000,195417.9218750000,164480.5312500000,162675.5625000000,130803.3828125000,119327.0156250000,132489.2343750000,148393.7968750000,,,
0.4439999992,3,175599.6406250000,184554.9687500000,164349.3281250000,162496.3437500000,130630.3281250000,119175.6562500000,132332.4843750000,147200.7031250000,,,
0.4479999992,3,175323.5781250000,192872.5781250000,163759.9531250000,161624.7656250000,129785.0859375000,118364.8515625000,131421.9531250000,150291.4531250000,,,
0.4519999993,3,175282.4687500000,207088.3125000000,163640.6562500000,161386.7656250000,129622.2500000000,118192.8984375000,131199.8125000000,152754.2656250000,,,
0.4559999993,3,175493.2343750000,208258.2968750000,164043.3125000000,161939.4375000000,130188.8359375000,118719.0156250000,131788.0468750000,151638.1406250000,,,
0.4599999993,3,175685.3906250000,195404.6406250000,164466.1875000000,162644.4375000000,130794.3437500000,119318.7812500000,132466.2812500000,148450.6875000000,,,
0.4639999992,3,175592.8750000000,184327.4062500000,164344.4062500000,162519.5468750000,130633.0937500000,119176.7031250000,132326.2343750000,147224.7343750000,,,
0.4679999992,3,175325.4531250000,192705.8593750000,163766.0156250000,161615.9687500000,129795.2500000000,118375.3125000000,131432.5312500000,150287.5781250000,,,
0.4719999994,3,175303.0156250000,207195.6875000000,163661.5000000000,161411.1718750000,129639.8203125000,118210.1718750000,131229.4531250000,152794.3437500000,,,
0.4759999993,3,175508.0937500000,208688.3125000000,164051.1875000000,161990.0781250000,130189.6953125000,118730.6796875000,131804.1718750000,151709.1093750000,,,
0.4799999993,3,175691.6562500000,196092.7343750000,164470.8281250000,162653.0156250000,130793.7812500000,119319.3437500000,132475.4218750000,148525.6250000000,,,
0.4839999992,3,175597.5468750000,184741.6718750000,164348.3281250000,162521.9375000000,130636.0156250000,119191.2187500000,132340.2343750000,147267.8906250000,,,
0.4879999992,3,175337.5625000000,192417.7812500000,163773.4531250000,161630.5000000000,129804.6953125000,118393.5000000000,131447.5937500000,150317.6406250000,,,
0.4919999992,3,175315.0000000000,206590.9531250000,163671.6562500000,161408.3593750000,129648.5625000000,118226.6640625000,131236.6406250000,152839.5625000000,,,
0.4959999993,3,175513.3437500000,208126.8906250000,164057.2812500000,161980.0781250000,130192.4609375000,118746.4218750000,131804.1250000000,151763.0312500000,,,
0.4999999993,3,175678.5468750000,195598.2656250000,164457.7343750000,162636.4062500000,130776.8281250000,119314.8125000000,132458.0625000000,148547.3281250000,,,
0.5039999993,3,175601.8125000000,184327.4843750000,164357.9843750000,162538.0312500000,130642.3984375000,119198.2968750000,132346.8906250000,147250.4531250000,,,
0.5079999992,3,175350.3281250000,192065.4531250000,163794.8281250000,161660.0625000000,129824.3828125000,118412.7343750000,131464.1718750000,150273.2968750000,,,
0.5119999992,4,175315.2187500000,206301.0937500000,163674.4843750000,161428.9062500000,129649.8515625000,118229.4062500000,131234.2812500000,152827.1093750000,,,
0.5159999991,4,175508.1250000000,207862.7500000000,164047.8906250000,161976.0156250000,130181.2187500000,118735.3203125000,131789.8437500000,151785.5000000000,,,
0.5199999991,4,175699.8125000000,195326.3437500000,164475.1250000000,162658.6406250000,130793.0859375000,119336.4296875000,132468.7656250000,148608.2343750000,,,
0.5239999990,4,175605.8906250000,183909.4687500000,164364.4843750000,162544.6250000000,130651.9765625000,119205.3515625000,132352.1718750000,147268.1562500000,,,
0.5279999990,4,175333.7968750000,191635.5000000000,163781.0937500000,161651.2343750000,129818.2656250000,118401.2812500000,131459.1875000000,150251.8906250000,,,
0.5319999990,4,175302.7187500000,206175.9375000000,163657.6562500000,161402.1406250000,129641.4765625000,118223.7734375000,131225.4531250000,152839.0000000000,,,
0.5359999991,4,175511.5781250000,208070.4687500000,164051.2812500000,161960.3125000000,130189.2421875000,118743.4453125000,131795.5156250000,151827.6093750000,,,
0.5399999991,4,175707.4843750000,195781.6250000000,164484.5625000000,162653.2812500000,130803.5234375000,119345.1250000000,132473.6250000000,148648.6406250000,,,
0.5439999991,4,175614.9843750000,184410.6093750000,164374.1093750000,162560.2343750000,130665.0625000000,119223.3203125000,132356.8125000000,147297.2343750000,,,
0.5479999990,4,175339.9218750000,191855.9375000000,163786.0000000000,161670.9218750000,129828.9140625000,118416.6171875000,131464.8437500000,150262.0625000000,,,
0.5519999990,4,175298.4531250000,206202.7343750000,163652.0781250000,161409.5156250000,129640.6718750000,118213.8984375000,131224.4375000000,152862.2187500000,,,
0.5559999992,4,175496.5312500000,208075.8593750000,164034.0625000000,161956.4218750000,130178.8593750000,118721.2421875000,131785.7656250000,151865.1718750000,,,
0.5599999991,4,175692.7343750000,195800.3750000000,164473.1406250000,162640.6406250000,130801.9140625000,119325.8593750000,132473.0625000000,148681.3906250000,,,
0.5639999991,4,175606.6562500000,184330.3906250000,164371.1093750000,162547.9531250000,130674.3203125000,119214.0937500000,132367.2187500000,147286.3906250000,,,
0.5679999990,4,175332.9218750000,191728.9687500000,163777.5312500000,161642.7656250000,129832.3750000000,118410.6953125000,131468.2031250000,150232.9062500000,,,
0.5719999990,4,175295.2656250000,206190.6093750000,163640.0156250000,161376.2343750000,129636.0625000000,118214.4062500000,131215.1562500000,152860.3437500000,,,
0.5759999990,4,175504.9843750000,208221.6093750000,164029.2500000000,161938.0937500000,130177.1953125000,118728.4296875000,131765.7031250000,151897.4375000000,,,
0.5799999991,4,175700.5156250000,196045.8750000000,164465.6718750000,162636.0312500000,130796.6562500000,119320.0156250000,132436.3125000000,148713.5156250000,,,
0.5839999991,4,175600.2500000000,184424.9062500000,164355.0937500000,162541.5468750000,130663.9921875000,119197.6250000000,132345.0625000000,147266.6718750000,,,
0.5879999991,4,175319.2343750000,191588.2343750000,163762.4531250000,161642.7343750000,129823.5234375000,118397.2265625000,131471.1250000000,150190.0781250000,,,
0.5919999990,4,175286.1093750000,206053.5937500000,163629.7343750000,161378.5000000000,129629.6484375000,118201.9609375000,131230.8281250000,152856.1875000000,,,
0.5959999990,4,175482.6406250000,208284.3906250000,164003.3906250000,161915.7500000000,130154.6406250000,118688.5156250000,131776.4843750000,151927.2812500000,,,
0.5999999992,4,175685.8125000000,196264.9375000000,164455.9062500000,162623.9843750000,130791.9843750000,119293.8125000000,132485.4843750000,148747.1718750000,,,
0.6039999991,4,175605.7812500000,184414.9843750000,164371.8750000000,162555.6562500000,130684.9921875000,119198.8906250000,132416.6250000000,147260.3750000000,,,
0.6079999991,4,175334.9218750000,191341.5781250000,163784.6406250000,161659.5156250000,129842.7812500000,118392.0234375000,131522.4375000000,150177.1718750000,,,
0.6119999990,4,175296.2812500000,205763.8906250000,163645.6406250000,161362.6562500000,129635.8984375000,118177.6093750000,131264.3437500000,152861.4218750000,,,
0.6159999990,4,175506.0468750000,208031.2187500000,164037.1093750000,161905.1250000000,130177.7890625000,118682.5312500000,131833.6250000000,151954.6406250000,,,
0.6199999989,4,175715.2656250000,196032.8750000000,164492.9062500000,162631.5781250000,130822.1640625000,119298.3984375000,132553.7343750000,148783.4218750000,,,
0.6239999991,4,175631.5000000000,184263.5937500000,164404.6562500000,162562.8593750000,130714.8203125000,119194.9687500000,132472.4375000000,147281.1406250000,,,
0.6279999991,4,175348.9062500000,191277.0937500000,163807.2812500000,161673.0937500000,129866.2187500000,118380.0390625000,131566.2031250000,150148.2343750000,,,
0.6319999991,4,175304.1562500000,205913.6093750000,163656.5937500000,161385.0781250000,129653.3906250000,118162.8593750000,131305.0937500000,152846.8750000000,,,
0.6359999990,4,175497.7187500000,208264.0625000000,164028.4531250000,161912.2656250000,130177.0859375000,118654.7734375000,131853.3593750000,151942.8750000000,,,
0.6399999990,5,175690.0312500000,196202.6250000000,164466.9843750000,162603.5781250000,130801.6406250000,119262.3515625000,132547.3281250000,148761.0468750000,,,
0.6439999989,5,175604.4687500000,184235.1406250000,164378.6718750000,162549.7968750000,130695.1875000000,119183.0390625000,132471.3437500000,147242.7031250000,,,
0.6479999989,5,175352.3593750000,190987.3437500000,163816.1875000000,161690.2031250000,129879.9296875000,118411.4453125000,131599.0937500000,150124.0312500000,,,
0.6519999988,5,175317.2812500000,205708.6406250000,163673.4843750000,161405.3906250000,129667.8203125000,118194.6171875000,131323.8906250000,152863.7500000000,,,
0.6559999988,5,175512.1406250000,208373.0937500000,164045.6718750000,161933.8125000000,130189.8281250000,118677.5156250000,131852.0000000000,151995.7343750000,,,
0.6599999988,5,175712.9531250000,196574.4062500000,164497.0625000000,162631.5000000000,130832.3828125000,119287.8593750000,132565.1406250000,148820.1875000000,,,
0.6639999989,5,175668.3593750000,184524.7656250000,164453.2031250000,162621.3281250000,130775.4921875000,119251.0546875000,132549.9531250000,147285.4218750000,,,
0.6679999989,5,175395.0156250000,191043.9531250000,163863.0312500000,161744.0156250000,129932.8984375000,118450.3359375000,131651.2343750000,150131.6562500000,,,
0.6719999989,5,175326.6718750000,205678.0937500000,163680.9687500000,161416.1875000000,129678.4140625000,118191.1562500000,131335.7500000000,152873.7656250000,,,
0.6759999988,5,175513.5156250000,208347.7968750000,164041.6718750000,161927.8750000000,130187.4687500000,118669.1250000000,131860.6093750000,152019.1250000000,,,
0.6799999988,5,175729.6093750000,196569.5312500000,164503.8906250000,162640.7343750000,130834.3125000000,119299.4687500000,132571.0625000000,148864.6875000000,,,
0.6839999990,5,175675.1718750000,184538.2812500000,164451.9687500000,162611.3906250000,130765.1406250000,119253.7109375000,132529.4218750000,147307.3750000000,,,
0.6879999989,5,175415.1250000000,191015.6093750000,163884.8906250000,161746.6406250000,129944.2734375000,118460.0156250000,131652.0625000000,150126.1562500000,,,
0.6919999989,5,175347.4531250000,205709.1562500000,163704.1718750000,161439.1250000000,129695.7968750000,118206.2812500000,131344.0156250000,152879.7343750000,,,
0.6959999988,5,175524.3437500000,208416.8906250000,164054.8750000000,161959.3125000000,130197.9062500000,118684.4375000000,131863.2031250000,152043.2656250000,,,
0.6999999988,5,175725.6250000000,196587.3125000000,164508.7031250000,162661.1406250000,130838.2812500000,119295.4453125000,132565.6250000000,148879.1718750000,,,
0.7039999987,5,175661.0625000000,184377.2500000000,164451.0312500000,162622.0937500000,130767.8750000000,119240.4921875000,132521.4687500000,147279.9062500000,,,
0.7079999989,5,175385.9687500000,190702.0312500000,163859.4375000000,161732.9843750000,129930.1406250000,118449.3203125000,131626.9062500000,150067.0468750000,,,
0.7119999989,5,175324.5156250000,205541.2968750000,163677.6406250000,161414.5312500000,129674.7421875000,118197.5078125000,131316.1093750000,152863.8593750000,,,
0.7159999989,5,175516.0312500000,208476.9531250000,164045.0781250000,161939.1093750000,130189.6718750000,118683.1015625000,131851.8281250000,152070.9687500000,,,
0.7199999988,5,175734.3125000000,196795.4218750000,164516.4531250000,162671.5937500000,130846.8359375000,119312.1015625000,132572.9687500000,148921.4218750000,,,
0.7239999988,5,175669.8281250000,184521.3906250000,164460.3125000000,162652.5000000000,130778.4687500000,119255.9921875000,132534.3437500000,147284.0000000000,,,
0.7279999990,5,175393.4531250000,190639.7187500000,163869.6875000000,161770.3750000000,129939.3125000000,118461.9218750000,131635.4843750000,150039.5937500000,,,
0.7319999989,5,175328.4687500000,205438.8125000000,163681.8593750000,161439.9375000000,129677.0156250000,118199.4921875000,131311.4843750000,152856.0000000000,,,
0.7359999989,5,175513.4843750000,208424.8125000000,164044.2187500000,161952.0937500000,130187.9765625000,118668.7500000000,131845.9062500000,152075.7968750000,,,
0.7399999988,5,175712.7187500000,196792.5000000000,164494.0781250000,162648.3125000000,130827.1484375000,119280.0234375000,132549.7968750000,148918.2968750000,,,
0.7439999988,5,175653.8125000000,184470.5625000000,164444.5937500000,162630.6406250000,130767.7421875000,119238.3125000000,132517.9687500000,147258.0937500000,,,
0.7479999987,5,175398.4375000000,190501.1875000000,163873.6562500000,161766.4843750000,129948.4609375000,118464.0390625000,131639.8593750000,150010.0937500000,,,
0.7519999989,5,175338.3281250000,205362.8593750000,163686.0625000000,161427.3750000000,129684.2343750000,118200.0625000000,131314.4843750000,152863.1562500000,,,
0.7559999989,5,175530.6718750000,208476.3593750000,164052.5625000000,161943.4843750000,130197.3437500000,118675.3984375000,131834.9375000000,152119.9531250000,,,
0.7599999988,5,175727.3906250000,196916.3125000000,164502.8281250000,162656.3906250000,130838.6796875000,119286.3515625000,132530.9375000000,148966.5312500000,,,
0.7639999988,5,175672.2187500000,184504.7031250000,164462.7812500000,162684.2812500000,130790.7812500000,119257.2265625000,132524.9843750000,147284.7812500000,,,
0.7679999988,6,175409.8906250000,190371.5781250000,163885.2968750000,161787.2968750000,129965.6796875000,118481.9296875000,131652.9687500000,150006.9375000000,,,
0.7719999987,6,175332.2500000000,205263.6875000000,163677.7187500000,161379.8281250000,129680.2343750000,118200.4921875000,131311.8593750000,152867.8593750000,,,
0.7759999987,6,175519.6250000000,208514.4531250000,164037.6562500000,161905.4218750000,130183.0468750000,118664.3203125000,131824.9062500000,152143.1250000000,,,
0.7799999986,6,175734.4375000000,197073.6250000000,164508.4531250000,162647.1718750000,130840.3750000000,119293.0625000000,132541.0625000000,149011.2500000000,,,
0.7839999986,6,175676.0312500000,184651.3437500000,164464.6562500000,162647.8437500000,130792.7890625000,119258.7265625000,132520.8906250000,147303.5312500000,,,
0.7879999985,6,175411.0156250000,190373.9375000000,163887.7656250000,161758.4375000000,129969.6171875000,118476.9687500000,131637.9843750000,149985.1562500000,,,
0.7919999987,6,175357.8906250000,205286.4062500000,163704.9218750000,161408.6250000000,129702.5546875000,118214.9453125000,131319.9531250000,152883.5781250000,,,
0.7959999987,6,175544.5468750000,208656.1718750000,164063.3437500000,161908.4531250000,130202.6484375000,118681.9687500000,131823.9062500000,152189.3906250000,,,
0.7999999986,6,175739.4531250000,197317.4375000000,164506.8437500000,162626.3281250000,130837.7421875000,119303.5468750000,132531.9375000000,149051.0468750000,,,
0.8039999986,6,175679.3281250000,184853.2031250000,164462.9687500000,162633.1718750000,130792.5468750000,119273.0234375000,132536.9843750000,147308.9218750000,,,
0.8079999986,6,175418.3437500000,190382.7968750000,163891.6250000000,161778.4531250000,129974.7968750000,118493.9218750000,131670.1406250000,149952.2968750000,,,
0.8119999988,6,175361.4531250000,205170.6250000000,163704.8437500000,161419.4687500000,129703.0390625000,118219.1562500000,131335.1562500000,152862.7031250000,,,
0.8159999987,6,175552.7500000000,208480.8437500000,164060.5312500000,161943.3281250000,130202.2500000000,118687.0390625000,131842.4687500000,152211.0312500000,,,
0.8199999987,6,175767.4843750000,197000.3906250000,164531.7187500000,162663.1562500000,130857.8359375000,119309.2578125000,132566.1562500000,149104.3750000000,,,
0.8239999986,6,175704.3437500000,184175.6562500000,164494.3437500000,162647.5937500000,130819.3750000000,119294.7500000000,132568.6250000000,147330.8906250000,,,
0.8279999986,6,175431.6406250000,189570.6406250000,163906.5937500000,161788.3437500000,129989.5781250000,118529.2968750000,131690.6875000000,149942.0781250000,,,
0.8319999985,6,175362.6093750000,204800.0156250000,163699.1562500000,161439.4218750000,129696.7890625000,118240.9609375000,131332.0468750000,152864.5625000000,,,
0.8359999987,6,175549.2031250000,208701.9062500000,164054.7656250000,161939.4062500000,130194.2812500000,118700.1328125000,131843.8750000000,152235.5781250000,,,
0.8399999987,6,175753.2968750000,197665.5625000000,164518.3750000000,162659.7968750000,130848.0156250000,119319.5078125000,132563.1875000000,149123.5000000000,,,
0.8439999986,6,175700.1718750000,184944.6093750000,164493.1718750000,162678.3593750000,130824.9531250000,119305.3984375000,132570.4843750000,147317.8281250000,,,
0.8479999986,6,175429.3906250000,190001.5937500000,163907.2187500000,161815.3906250000,129997.9453125000,118522.9687500000,131688.1875000000,149899.0781250000,,,
0.8519999986,6,175352.9062500000,204839.6875000000,163685.1562500000,161435.9375000000,129686.8593750000,118222.9140625000,131313.5156250000,152845.2968750000,,,
0.8559999987,6,175531.3125000000,208570.3750000000,164034.7187500000,161918.4375000000,130171.5390625000,118670.5468750000,131803.2656250000,152237.1093750000,,,
0.8599999987,6,175732.6406250000,197510.8125000000,164493.9687500000,162631.5625000000,130818.4062500000,119291.6406250000,132519.9218750000,149130.9218750000,,,
0.8639999987,6,175688.4218750000,184802.2656250000,164474.0937500000,162672.7500000000,130803.7890625000,119288.3671875000,132558.5625000000,147306.7500000000,,,
0.8679999986,6,175432.5937500000,190024.0156250000,163901.6093750000,161819.7343750000,129990.4062500000,118514.7109375000,131695.1406250000,149869.3281250000,,,
0.8719999986,6,175359.4218750000,205167.0468750000,163683.6718750000,161411.2031250000,129683.4531250000,118217.6015625000,131318.3906250000,152840.8281250000,,,
0.8759999985,6,175545.0000000000,209040.6718750000,164032.6406250000,161894.9062500000,130169.2031250000,118681.4062500000,131811.2812500000,152279.9687500000,,,
0.8799999987,6,175758.1250000000,197904.8906250000,164508.6250000000,162640.8281250000,130831.4921875000,119307.2500000000,132538.4531250000,149192.9687500000,,,
0.8839999987,6,175718.5937500000,184759.9687500000,164505.9375000000,162688.5781250000,130835.3828125000,119316.1796875000,132582.1718750000,147329.6250000000,,,
0.8879999986,6,175461.2812500000,189533.9218750000,163935.2500000000,161835.2343750000,130024.7656250000,118555.8281250000,131718.4218750000,149870.3750000000,,,
0.8919999986,6,175369.5625000000,204685.7812500000,163692.4687500000,161423.1718750000,129693.2421875000,118235.9218750000,131323.6875000000,152854.6875000000,,,
0.8959999986,7,175535.5312500000,208829.2656250000,164023.7500000000,161904.6718750000,130160.4843750000,118664.9140625000,131808.1093750000,152295.4687500000,,,
0.8999999985,7,175740.3906250000,197992.3593750000,164490.6250000000,162630.9375000000,130814.8906250000,119286.7265625000,132527.9687500000,149205.3750000000,,,
0.9039999985,7,175699.3281250000,185026.4687500000,164487.1406250000,162664.7343750000,130822.4531250000,119306.3125000000,132574.2656250000,147312.3281250000,,,
0.9079999984,7,175443.3437500000,189848.6093750000,163919.0468750000,161814.1562500000,130016.8281250000,118546.8437500000,131709.7343750000,149829.5625000000,,,
0.9119999984,7,175368.7968750000,204992.9687500000,163694.8906250000,161421.5000000000,129697.8593750000,118235.1406250000,131325.9531250000,152848.8593750000,,,
0.9159999983,7,175542.5781250000,209172.0781250000,164033.2500000000,161891.5000000000,130167.7812500000,118671.6171875000,131811.4375000000,152350.2187500000,,,
0.9199999985,7,175754.4218750000,198400.7187500000,164507.5781250000,162622.6718750000,130832.9140625000,119303.5468750000,132544.0312500000,149299.8437500000,,,
0.9239999985,7,175709.7656250000,184915.1093750000,164505.7500000000,162696.4687500000,130847.1875000000,119326.7500000000,132600.7656250000,147309.2968750000,,,
0.9279999984,7,175440.9062500000,189518.3750000000,163925.4062500000,161843.8906250000,130024.1484375000,118550.4062500000,131722.4375000000,149786.7500000000,,,
0.9319999984,7,175353.7812500000,204845.3437500000,163686.6875000000,161429.1718750000,129685.7109375000,118224.0390625000,131313.1406250000,152812.6875000000,,,
0.9359999984,7,175526.8437500000,209268.5000000000,164017.3437500000,161896.5781250000,130146.7812500000,118659.3046875000,131795.9375000000,152327.0468750000,,,
0.9399999985,7,175741.2500000000,198636.7343750000,164490.3281250000,162629.5625000000,130808.8281250000,119289.4921875000,132528.7187500000,149271.1250000000,,,
0.9439999985,7,175701.5000000000,185332.2500000000,164491.9843750000,162699.8906250000,130826.3203125000,119316.5546875000,132583.2500000000,147293.2812500000,,,
0.9479999985,7,175431.2187500000,189701.2656250000,163914.7500000000,161843.7968750000,130008.9453125000,118542.2031250000,131713.7343750000,149745.8750000000,,,
0.9519999984,7,175337.6093750000,204834.0000000000,163665.9531250000,161409.9687500000,129662.0546875000,118206.5234375000,131299.1406250000,152795.0312500000,,,
0.9559999984,7,175517.1875000000,209102.2500000000,164009.6250000000,161880.5312500000,130140.2890625000,118652.2812500000,131789.7187500000,152305.0156250000,,,
0.9599999983,7,175739.8125000000,198263.1250000000,164496.3125000000,162619.0000000000,130816.5312500000,119293.7031250000,132532.5000000000,149232.1718750000,,,
0.9639999985,7,175713.5000000000,185197.9687500000,164512.5625000000,162691.9375000000,130846.2500000000,119325.9687500000,132592.0937500000,147312.2968750000,,,
0.9679999985,7,175447.7968750000,189614.3437500000,163943.9531250000,161852.6718750000,130040.3203125000,118564.8906250000,131728.5625000000,149734.0468750000,,,
0.9719999984,7,175356.0156250000,204840.8906250000,163696.5781250000,161427.0312500000,129690.4062500000,118221.8359375000,131317.8593750000,152796.1875000000,,,
0.9759999984,7,175541.5156250000,209197.0468750000,164037.5625000000,161904.7500000000,130163.8906250000,118665.0703125000,131807.9062500000,152338.0156250000,,,
0.9799999984,7,175761.0000000000,198354.5000000000,164513.1562500000,162644.2968750000,130831.4140625000,119299.5781250000,132539.5000000000,149268.5781250000,,,
0.9839999985,7,175719.6718750000,185145.8906250000,164510.7968750000,162704.1562500000,130846.2734375000,119324.6015625000,132590.8906250000,147321.3750000000,,,
0.9879999985,7,175452.3281250000,189321.1406250000,163943.5625000000,161856.1250000000,130044.4843750000,118569.0234375000,131740.5781250000,149711.2656250000,,,
0.9919999985,7,175373.5312500000,204585.8906250000,163707.6093750000,161433.7656250000,129707.3515625000,118240.0546875000,131339.2656250000,152800.7968750000,,,
0.9959999984,7,175544.4687500000,209176.0468750000,164034.7031250000,161891.6718750000,130166.9765625000,118667.0859375000,131809.7031250000,152366.2812500000,,,
0.9999999984,7,175754.2968750000,198616.0156250000,164503.7656250000,162615.7031250000,130826.2109375000,119298.8828125000,132536.6562500000,149312.6093750000,,,
1.0039999983,7,175719.3437500000,185381.4843750000,164516.2031250000,162683.7187500000,130856.8984375000,119336.5625000000,132603.4218750000,147325.5468750000,,,
1.0079999985,7,175457.3750000000,189366.5000000000,163952.6250000000,161849.2343750000,130058.0000000000,118584.7968750000,131753.0156250000,149693.4843750000,,,
1.0119999985,7,175365.1562500000,204547.4531250000,163695.9687500000,161429.2343750000,129693.9140625000,118232.4062500000,131323.7343750000,152793.4843750000,,,
1.0159999984,7,175533.5468750000,209213.5625000000,164018.2031250000,161885.1562500000,130144.2031250000,118651.6328125000,131780.4062500000,152392.8906250000,,,
1.0199999984,7,175750.2968750000,198750.7968750000,164499.0625000000,162616.0781250000,130816.6640625000,119291.1562500000,132519.5937500000,149357.3750000000,,,
1.0239999983,8,175728.6562500000,185375.0468750000,164528.7656250000,162715.1875000000,130870.0390625000,119348.5781250000,132616.1875000000,147327.0781250000,,,
1.0279999983,8,175463.1718750000,189245.0468750000,163962.7656250000,161883.0781250000,130068.4843750000,118589.2734375000,131768.9531250000,149659.1250000000,,,
1.0319999983,8,175373.8125000000,204485.4531250000,163709.3437500000,161450.6875000000,129705.2343750000,118228.5468750000,131333.0156250000,152782.4218750000,,,
1.0359999982,8,175542.5312500000,209283.9531250000,164030.8437500000,161898.7187500000,130155.5234375000,118647.2109375000,131771.8281250000,152414.7187500000,,,
1.0399999982,8,175748.7187500000,198960.9218750000,164499.1562500000,162593.9531250000,130816.3906250000,119287.8593750000,132498.1875000000,149400.3281250000,,,
1.0439999981,8,175719.3437500000,185479.9062500000,164523.6093750000,162698.2343750000,130865.6953125000,119349.1484375000,132597.0000000000,147336.3437500000,,,
1.0479999983,8,175457.7500000000,189161.7968750000,163961.0937500000,161876.7812500000,130065.6171875000,118591.3125000000,131761.3593750000,149640.2812500000,,,
1.0519999983,8,175361.9375000000,204405.7031250000,163697.6250000000,161444.4687500000,129690.4062500000,118223.1015625000,131326.0937500000,152777.5781250000,,,
1.0559999982,8,175521.7500000000,209355.6718750000,164009.5156250000,161884.8281250000,130132.5937500000,118631.3281250000,131776.6250000000,152431.8125000000,,,
1.0599999982,8,175734.5000000000,199151.6093750000,164486.3906250000,162596.2031250000,130803.8984375000,119265.7812500000,132505.8125000000,149424.4687500000,,,
1.0639999982,8,175711.4218750000,185665.8281250000,164520.7187500000,162702.9218750000,130865.1015625000,119333.4843750000,132601.3281250000,147346.0000000000,,,
1.0679999983,8,175468.1562500000,189163.5625000000,163983.0156250000,161923.8750000000,130093.3515625000,118603.8671875000,131779.6562500000,149629.4687500000,,,
1.0719999983,8,175372.5937500000,204349.6718750000,163714.7343750000,161490.3281250000,129713.5781250000,118230.3671875000,131334.2968750000,152771.8593750000,,,
1.0759999983,8,175534.8593750000,209321.6562500000,164024.3125000000,161907.6875000000,130151.0156250000,118634.7656250000,131777.4375000000,152438.1406250000,,,
1.0799999982,8,175742.8906250000,199109.2343750000,164490.8125000000,162604.2031250000,130813.3125000000,119270.7734375000,132504.6562500000,149428.8906250000,,,
1.0839999982,8,175723.7656250000,185547.4375000000,164529.4843750000,162712.6875000000,130881.5703125000,119352.2031250000,132613.7968750000,147336.7968750000,,,
1.0879999981,8,175465.6093750000,188903.1718750000,163975.6406250000,161905.8906250000,130092.5703125000,118607.0312500000,131782.4687500000,149580.9375000000,,,
1.0919999983,8,175368.7031250000,204142.9062500000,163706.5312500000,161451.7812500000,129704.5937500000,118224.9765625000,131327.8906250000,152746.0312500000,,,
1.0959999983,8,175539.2343750000,209250.0468750000,164024.4062500000,161880.1093750000,130149.1406250000,118639.0312500000,131773.1718750000,152449.4843750000,,,
1.0999999982,8,175763.2968750000,199132.7500000000,164511.2187500000,162598.7187500000,130828.8125000000,119293.5156250000,132513.7031250000,149469.0156250000,,,
1.1039999982,8,175753.0781250000,185545.0312500000,164563.9062500000,162741.8281250000,130906.4375000000,119377.7656250000,132641.6718750000,147366.9062500000,,,
1.1079999981,8,175479.2343750000,188782.0468750000,163989.3750000000,161948.0781250000,130100.5156250000,118619.4531250000,131794.0937500000,149565.8750000000,,,
1.1119999983,8,175378.3281250000,204082.7656250000,163710.0937500000,161476.4062500000,129703.9453125000,118229.6953125000,131329.9843750000,152738.1718750000,,,
1.1159999983,8,175541.1093750000,209343.4687500000,164017.6718750000,161870.8593750000,130137.0468750000,118630.7109375000,131769.9218750000,152458.8125000000,,,
1.1199999982,8,175769.0937500000,199339.7656250000,164507.2500000000,162597.9218750000,130818.8359375000,119283.1093750000,132510.8593750000,149479.8750000000,,,
1.1239999982,8,175756.4843750000,185709.2812500000,164557.1718750000,162736.8281250000,130901.5546875000,119376.3125000000,132629.6406250000,147348.7500000000,,,
1.1279999982,8,175502.0312500000,188746.6406250000,164014.9062500000,161928.5000000000,130126.9609375000,118640.5078125000,131815.2968750000,149534.2968750000,,,
1.1319999981,8,175396.6406250000,203957.7031250000,163732.2500000000,161448.1093750000,129723.7421875000,118244.4765625000,131337.1718750000,152722.7500000000,,,
1.1359999983,8,175553.3125000000,209266.7031250000,164033.0312500000,161885.3906250000,130147.6093750000,118632.1328125000,131760.2968750000,152460.7812500000,,,
1.1399999983,8,175764.3437500000,199335.0937500000,164503.5156250000,162594.3593750000,130809.9062500000,119272.5937500000,132510.9375000000,149480.4375000000,,,
1.1439999982,8,175747.2031250000,185686.7031250000,164551.5000000000,162718.9375000000,130892.0312500000,119377.5781250000,132645.2812500000,147327.1875000000,,,
1.1479999982,8,175488.8281250000,188633.1406250000,164004.7656250000,161936.2656250000,130119.0234375000,118645.7343750000,131819.9687500000,149478.5625000000,,,
1.1519999981,9,175389.1093750000,203892.6562500000,163724.6406250000,161438.5625000000,129719.4765625000,118247.0546875000,131340.9531250000,152698.2656250000,,,
1.1559999981,9,175543.7968750000,209330.2187500000,164019.2031250000,161843.8125000000,130136.6953125000,118631.4140625000,131773.3593750000,152487.5156250000,,,
1.1599999981,9,175771.5312500000,199592.7812500000,164509.3750000000,162591.7500000000,130820.9296875000,119289.4140625000,132524.1093750000,149562.7812500000,33029,1.1638698066,0.0000000000
1.1639999980,9,175779.8281250000,185617.0937500000,164591.3906250000,162747.5937500000,130945.6250000000,119423.0390625000,132682.3593750000,147353.8281250000,,,
1.1679999980,9,175498.0000000000,188309.3906250000,164019.8593750000,161933.6406250000,130145.3828125000,118658.2890625000,131839.6875000000,149454.9375000000,,,
1.1719999979,9,175385.8906250000,203665.8125000000,163721.4687500000,161445.1562500000,129722.7500000000,118241.9296875000,131353.0468750000,152679.7812500000,,,
1.1759999981,9,175552.0468750000,209331.3437500000,164028.0937500000,161858.3593750000,130149.8906250000,118632.1875000000,131779.6093750000,152496.9687500000,,,
1.1799999981,9,175778.7031250000,199683.8125000000,164516.5625000000,162587.5625000000,130832.3281250000,119285.2031250000,132520.9687500000,149563.2187500000,,,
1.1839999980,9,175758.1562500000,185861.5781250000,164567.7812500000,162723.4218750000,130922.6093750000,119391.0937500000,132655.0000000000,147345.2343750000,,,
1.1879999980,9,175497.0156250000,188432.2968750000,164019.6250000000,161923.9687500000,130143.5625000000,118663.8437500000,131836.0312500000,149436.1093750000,,,
1.1919999979,9,175396.8281250000,203696.4687500000,163733.8281250000,161433.3593750000,129727.6562500000,118264.7812500000,131350.1250000000,152699.7343750000,,,
1.1959999981,9,175540.6250000000,209320.0781250000,164016.0781250000,161849.3125000000,130131.5703125000,118639.5156250000,131746.2343750000,152520.7187500000,,,
1.1999999981,9,175759.3906250000,199569.3281250000,164497.8437500000,162598.2968750000,130808.7500000000,119280.5078125000,132493.6562500000,149568.1250000000,,,
1.2039999980,9,175741.6093750000,185778.1406250000,164553.3593750000,162735.4062500000,130901.8515625000,119381.4140625000,132643.8437500000,147351.0156250000,,,
1.2079999980,9,175487.7031250000,188290.4531250000,164013.7187500000,161947.5937500000,130134.4687500000,118666.3906250000,131835.1250000000,149411.4218750000,,,
1.2119999980,9,175382.1093750000,203651.8125000000,163718.3125000000,161447.3125000000,129709.7109375000,118250.8046875000,131337.8125000000,152679.1562500000,,,
1.2159999979,9,175537.5468750000,209414.8125000000,164014.5312500000,161855.6718750000,130128.7031250000,118632.7265625000,131757.1718750000,152519.7343750000,,,
1.2199999981,9,175768.7500000000,199721.8437500000,164507.7031250000,162596.0156250000,130818.4062500000,119295.1250000000,132510.3750000000,149582.0937500000,,,
1.2239999981,9,175759.6250000000,185848.4843750000,164578.7031250000,162751.5781250000,130926.2343750000,119403.1093750000,132668.2500000000,147350.2500000000,,,
1.2279999980,9,175479.9062500000,188133.1093750000,164011.9062500000,161945.3593750000,130139.2968750000,118672.8515625000,131846.1718750000,149362.9531250000,,,
1.2319999980,9,175358.7656250000,203464.1718750000,163700.2031250000,161425.9062500000,129695.2578125000,118241.8984375000,131339.7500000000,152634.5781250000,,,
1.2359999979,9,175519.5156250000,209338.5000000000,163997.9218750000,161842.6875000000,130106.4375000000,118624.2812500000,131760.0468750000,152513.3437500000,,,
1.2399999981,9,175744.9062500000,199726.8906250000,164481.9062500000,162594.1406250000,130783.8046875000,119280.0781250000,132493.3906250000,149592.8750000000,,,
1.2439999981,9,175748.7656250000,185644.7500000000,164566.6875000000,162783.2656250000,130909.6015625000,119396.2187500000,132651.0312500000,147337.3281250000,,,
1.2479999980,9,175489.5000000000,187713.0312500000,164023.7031250000,162000.2500000000,130144.8203125000,118676.1484375000,131841.2656250000,149337.1250000000,,,
1.2519999980,9,175356.7656250000,203129.9062500000,163690.0937500000,161450.2031250000,129683.9687500000,118244.2656250000,131319.2343750000,152632.9531250000,,,
1.2559999980,9,175498.9218750000,209282.4375000000,163972.7968750000,161799.2968750000,130085.5703125000,118612.3984375000,131738.2656250000,152538.0000000000,,,
1.2599999979,9,175740.4531250000,199983.5937500000,164482.7656250000,162544.2187500000,130790.9921875000,119284.2656250000,132513.1875000000,149649.3593750000,,,
1.2639999981,9,175753.0781250000,185992.8281250000,164582.8593750000,162745.0156250000,130935.4296875000,119422.9296875000,132702.4687500000,147361.4687500000,,,
1.2679999981,9,175477.9375000000,187989.9687500000,164011.7656250000,161963.5000000000,130146.3750000000,118685.5390625000,131872.3750000000,149318.0312500000,,,
1.2719999980,9,175354.0000000000,203311.2812500000,163686.6250000000,161433.8906250000,129684.4765625000,118240.4296875000,131342.5625000000,152629.2500000000,,,
1.2759999980,9,175517.3125000000,209376.5625000000,163986.6093750000,161836.5000000000,130095.6328125000,118618.0546875000,131753.3906250000,152572.4375000000,,,
1.2799999979,10,175747.7187500000,199969.6875000000,164483.6406250000,162572.0156250000,130787.3203125000,119275.1718750000,132503.0156250000,149680.5312500000,,,
1.2839999979,10,175738.2031250000,185833.7656250000,164561.7500000000,162736.0000000000,130912.2031250000,119397.7187500000,132676.0312500000,147358.9218750000,,,
1.2879999978,10,175480.8437500000,187689.3125000000,164027.8593750000,161965.3750000000,130157.7500000000,118683.4765625000,131885.5000000000,149286.1406250000,,,
1.2919999978,10,175360.1406250000,203118.1718750000,163703.0468750000,161438.0468750000,129697.1640625000,118242.4687500000,131356.5937500000,152614.7343750000,,,
1.2959999978,10,175518.5312500000,209401.7187500000,163988.6718750000,161835.1562500000,130096.7578125000,118617.3828125000,131756.9687500000,152589.2812500000,,,
1.2999999977,10,175738.5156250000,200115.9687500000,164468.8437500000,162560.6875000000,130774.8984375000,119270.2890625000,132498.8906250000,149696.8750000000,,,
1.3039999979,10,175742.6718750000,185968.1406250000,164560.2812500000,162745.9843750000,130915.1796875000,119409.7343750000,132682.5625000000,147370.6093750000,,,
1.3079999979,10,175485.0000000000,187646.2656250000,164023.1718750000,161976.4531250000,130159.1171875000,118692.0312500000,131885.1406250000,149264.6562500000,,,
1.3119999978,10,175364.9687500000,203076.4531250000,163699.6875000000,161442.6406250000,129693.0546875000,118242.1171875000,131352.8906250000,152602.5312500000,,,
1.3159999978,10,175511.0937500000,209515.0468750000,163981.3750000000,161820.3281250000,130084.2578125000,118599.6796875000,131748.1875000000,152592.1718750000,,,
1.3199999977,10,175736.6406250000,200365.5000000000,164472.9687500000,162553.0156250000,130771.6250000000,119249.2343750000,132494.6562500000,149715.2656250000,,,
1.3239999979,10,175756.8593750000,186210.9375000000,164579.5625000000,162746.7031250000,130933.5000000000,119412.1796875000,132700.2500000000,147384.8281250000,,,
1.3279999979,10,175513.1562500000,187723.2968750000,164059.2968750000,161979.2968750000,130196.3984375000,118714.9375000000,131926.5625000000,149263.0000000000,,,
1.3319999978,10,175392.2968750000,203095.5000000000,163733.2968750000,161448.8906250000,129727.3671875000,118254.7500000000,131394.7031250000,152613.4531250000,,,
1.3359999978,10,175530.6562500000,209621.0000000000,163995.8125000000,161826.0312500000,130102.5234375000,118609.3671875000,131776.0312500000,152628.8125000000,,,
1.3399999978,10,175757.6250000000,200615.3437500000,164487.4531250000,162578.1718750000,130788.8515625000,119272.7031250000,132523.7812500000,149775.0781250000,,,
1.3439999977,10,175774.6718750000,186394.5937500000,164595.9531250000,162785.0000000000,130949.1640625000,119439.2421875000,132730.5468750000,147409.3437500000,,,
1.3479999979,10,175529.0937500000,187715.1718750000,164072.0312500000,162020.9531250000,130208.1484375000,118742.0234375000,131949.0937500000,149252.0000000000,,,
1.3519999979,10,175401.7343750000,203038.3750000000,163733.0312500000,161465.6250000000,129728.3046875000,118280.6562500000,131393.7656250000,152619.1562500000,,,
1.3559999978,10,175520.5625000000,209633.9218750000,163982.1875000000,161816.3281250000,130087.9062500000,118606.4375000000,131759.6718750000,152636.1875000000,,,
1.3599999978,10,175742.5156250000,200726.6562500000,164472.5156250000,162555.2968750000,130770.7421875000,119254.4921875000,132510.5625000000,149787.7656250000,,,
1.3639999977,10,175773.3906250000,186512.5468750000,164599.6562500000,162781.0156250000,130950.4531250000,119425.8046875000,132721.4062500000,147411.4375000000,,,
1.3679999979,10,175512.2812500000,187716.3281250000,164059.4218750000,162020.6875000000,130201.1484375000,118723.5703125000,131912.9843750000,149202.0000000000,,,
1.3719999979,10,175377.0312500000,203027.0468750000,163713.5625000000,161458.8437500000,129711.2968750000,118247.8593750000,131374.0781250000,152569.8437500000,,,
1.3759999978,10,175531.8593750000,209727.6406250000,163993.5781250000,161824.1562500000,130098.8515625000,118606.5781250000,131773.9687500000,152655.7500000000,,,
1.3799999978,10,175780.6562500000,200858.0312500000,164508.0000000000,162582.3906250000,130806.9765625000,119283.5937500000,132539.9218750000,149853.0781250000,,,
1.3839999977,10,175801.5000000000,186508.3906250000,164624.2500000000,162808.4218750000,130980.2812500000,119460.2187500000,132754.6406250000,147469.0468750000,,,
1.3879999977,10,175534.7500000000,187441.0312500000,164085.6093750000,162043.7812500000,130228.7500000000,118748.5703125000,131962.2812500000,149230.1718750000,,,
1.3919999979,10,175385.4843750000,202723.4843750000,163721.7343750000,161456.1250000000,129721.2187500000,118255.6875000000,131382.5312500000,152590.6562500000,,,
1.3959999979,10,175511.3437500000,209595.8906250000,163969.0312500000,161792.8281250000,130080.5859375000,118590.9609375000,131741.5625000000,152681.6250000000,,,
1.3999999978,10,175741.6875000000,200918.6718750000,164466.2187500000,162533.2812500000,130773.2890625000,119252.4531250000,132492.4218750000,149877.5156250000,,,
1.4039999978,10,175760.1875000000,186654.3906250000,164585.1406250000,162766.6250000000,130948.7890625000,119425.4531250000,132716.4375000000,147465.2656250000,,,
1.4079999977,11,175526.0312500000,187468.5937500000,164083.9375000000,162034.1718750000,130234.3828125000,118741.8906250000,131966.2031250000,149201.0156250000,,,
1.4119999977,11,175405.0468750000,202683.8906250000,163747.6250000000,161462.2656250000,129748.2812500000,118270.2500000000,131411.7968750000,152593.9843750000,,,
1.4159999976,11,175550.1718750000,209561.9843750000,164009.2656250000,161814.6406250000,130117.3046875000,118617.4921875000,131777.1093750000,152722.0781250000,,,
1.4199999976,11,175769.6406250000,200930.5000000000,164494.4062500000,162551.4375000000,130798.2890625000,119260.8984375000,132512.5937500000,149919.8750000000,,,
1.4239999976,11,175787.7968750000,186625.1250000000,164617.4687500000,162784.2812500000,130983.2578125000,119440.9062500000,132735.5937500000,147483.5937500000,,,
1.4279999975,11,175540.5781250000,187373.8906250000,164100.8750000000,162053.4531250000,130257.4765625000,118760.0234375000,131974.5781250000,149177.6250000000,,,
1.4319999977,11,175413.2187500000,202647.8437500000,163754.1406250000,161483.9375000000,129758.8515625000,118278.0546875000,131417.0000000000,152575.1406250000,,,
1.4359999977,11,175538.6406250000,209645.0781250000,163995.4843750000,161822.0625000000,130104.6171875000,118603.5156250000,131760.8593750000,152715.7812500000,,,
1.4399999976,11,175761.5312500000,201104.8437500000,164484.8750000000,162545.7187500000,130786.4375000000,119264.9218750000,132500.7656250000,149941.8906250000,,,
1.4439999976,11,175796.8593750000,186763.4218750000,164624.5781250000,162795.8750000000,130985.3203125000,119467.8359375000,132739.0781250000,147511.8906250000,,,
1.4479999975,11,175537.7500000000,187311.3125000000,164092.1250000000,162068.5937500000,130244.2265625000,118775.1015625000,131963.3125000000,149156.4375000000,,,
1.4519999977,11,175397.1875000000,202557.7656250000,163734.6875000000,161489.0156250000,129732.4062500000,118271.2187500000,131387.3281250000,152538.1562500000,,,
1.4559999977,11,175536.9531250000,209696.9531250000,163995.6718750000,161817.6406250000,130095.1250000000,118595.0937500000,131742.2343750000,152702.2812500000,,,
1.4599999976,11,175760.4375000000,201305.7187500000,164482.1406250000,162525.4531250000,130777.3984375000,119237.5937500000,132481.6406250000,149942.0781250000,,,
1.4639999976,11,175779.9531250000,186961.7968750000,164605.0937500000,162767.2500000000,130965.2031250000,119424.9687500000,132720.2343750000,147481.6562500000,,,
1.4679999975,11,175529.2500000000,187329.5000000000,164089.5000000000,162032.3750000000,130243.2890625000,118747.2578125000,131967.6718750000,149095.1406250000,,,
1.4719999975,11,175392.0312500000,202460.5625000000,163725.4062500000,161463.0781250000,129726.4218750000,118252.5234375000,131386.5000000000,152492.4531250000,,,
1.4759999977,11,175535.0156250000,209642.2968750000,163982.5781250000,161800.5468750000,130085.3046875000,118586.0000000000,131746.0468750000,152704.1406250000,,,
1.4799999977,11,175773.4687500000,201355.2812500000,164481.0937500000,162544.0625000000,130778.1171875000,119248.8281250000,132496.6093750000,149981.4843750000,,,
1.4839999976,11,175805.4218750000,187047.1406250000,164621.4843750000,162808.6875000000,130982.9062500000,119459.4609375000,132747.6718750000,147519.4843750000,,,
1.4879999976,11,175552.4218750000,187327.1718750000,164112.3750000000,162108.8750000000,130268.5546875000,118788.9921875000,131995.6562500000,149091.7656250000,,,
1.4919999975,11,175410.4062500000,202470.5781250000,163750.5781250000,161508.6406250000,129750.9921875000,118288.8906250000,131405.9687500000,152492.7500000000,,,
1.4959999977,11,175537.2812500000,209831.3906250000,163994.1406250000,161779.1562500000,130095.0390625000,118607.0078125000,131747.9062500000,152736.4531250000,,,
1.4999999977,11,175750.5156250000,201777.0000000000,164469.7500000000,162485.1093750000,130766.1328125000,119245.6640625000,132482.0781250000,150034.5781250000,,,
1.5039999976,11,175771.9062500000,187357.1250000000,164605.7187500000,162758.5312500000,130972.4218750000,119443.0234375000,132733.6718750000,147510.8125000000,,,
1.5079999976,11,175521.4531250000,187352.7812500000,164096.9218750000,162043.9687500000,130262.5468750000,118775.9843750000,131984.3125000000,149049.0312500000,,,
1.5119999975,11,175374.6250000000,202371.1718750000,163720.1562500000,161453.7656250000,129728.0859375000,118265.9375000000,131385.3750000000,152457.3125000000,,,
1.5159999975,11,175517.9843750000,209782.0625000000,163969.0625000000,161788.1562500000,130072.1875000000,118586.9921875000,131728.6875000000,152738.8750000000,,,
1.5199999977,11,175753.0000000000,201902.4531250000,164460.5000000000,162517.8593750000,130753.5000000000,119238.3437500000,132464.8281250000,150083.7812500000,,,
1.5239999976,11,175789.6093750000,187385.6875000000,164614.2656250000,162791.5468750000,130978.4765625000,119467.8359375000,132734.4375000000,147543.7812500000,,,
1.5279999976,11,175536.9218750000,187193.7031250000,164105.4062500000,162075.7187500000,130267.3437500000,118799.4531250000,131988.0156250000,149039.8906250000,,,
1.5319999976,11,175387.9062500000,202213.9687500000,163724.4531250000,161472.0156250000,129724.3593750000,118271.5937500000,131378.3750000000,152446.0781250000,,,
1.5359999975,12,175520.5937500000,209781.9843750000,163960.1875000000,161786.7343750000,130055.8515625000,118581.4453125000,131703.9375000000,152749.2031250000,,,
1.5399999975,12,175755.0468750000,202050.6406250000,164455.4531250000,162509.6562500000,130745.7187500000,119240.5390625000,132452.5468750000,150119.4843750000,,,
1.5439999974,12,175789.0000000000,187471.2343750000,164613.7031250000,162802.9687500000,130983.3906250000,119472.9296875000,132740.9062500000,147552.8437500000,,,
1.5479999974,12,175530.3593750000,187071.0156250000,164103.2500000000,162081.9218750000,130274.3437500000,118805.3515625000,132000.9375000000,149009.4218750000,,,
1.5519999973,12,175384.9218750000,202015.8593750000,163727.9062500000,161461.8906250000,129735.5468750000,118286.3984375000,131394.4687500000,152425.6718750000,,,
1.5559999973,12,175517.9843750000,209630.2968750000,163969.1250000000,161767.8906250000,130070.0703125000,118586.9921875000,131718.3750000000,152740.4218750000,,,
1.5599999975,12,175744.2343750000,201850.5312500000,164454.1406250000,162505.8593750000,130749.1250000000,119233.6484375000,132454.7187500000,150083.3437500000,,,
1.5639999975,12,175772.6406250000,187439.8437500000,164597.4843750000,162791.1406250000,130969.9218750000,119458.5000000000,132721.5937500000,147542.2812500000,,,
1.5679999974,12,175528.0000000000,186998.2500000000,164105.5937500000,162088.0781250000,130277.8359375000,118803.0468750000,131996.4375000000,148975.3750000000,,,
1.5719999974,12,175382.9062500000,201939.6250000000,163728.2812500000,161466.5625000000,129732.5703125000,118274.4062500000,131391.4531250000,152400.9843750000,,,
1.5759999973,12,175510.0000000000,209611.0468750000,163961.1562500000,161769.0156250000,130056.7890625000,118568.0312500000,131718.0781250000,152726.9843750000,,,
1.5799999975,12,175748.0937500000,201831.7968750000,164461.1718750000,162500.3437500000,130751.5390625000,119227.4765625000,132463.7500000000,150071.3281250000,,,
1.5839999975,12,175790.5000000000,187489.1406250000,164623.3906250000,162779.8593750000,130987.0078125000,119453.0234375000,132746.2187500000,147544.7500000000,,,
1.5879999974,12,175551.5156250000,186964.1250000000,164137.2656250000,162094.8437500000,130304.7890625000,118806.6406250000,132035.1406250000,148955.8750000000,,,
1.5919999974,12,175399.8906250000,201870.7031250000,163743.4062500000,161471.0156250000,129748.8515625000,118275.7500000000,131410.1250000000,152393.6406250000,,,
1.5959999973,12,175524.0000000000,209642.7187500000,163970.7031250000,161765.5000000000,130070.5000000000,118564.6484375000,131718.0000000000,152758.1875000000,,,
1.5999999973,12,175760.5156250000,202015.1406250000,164464.4218750000,162496.6406250000,130759.9375000000,119224.3125000000,132463.1093750000,150137.2656250000,,,
1.6039999975,12,175798.3906250000,187546.2812500000,164620.7656250000,162780.5781250000,130993.7656250000,119463.2187500000,132743.9062500000,147570.0312500000,,,
1.6079999974,12,175563.3125000000,186779.4375000000,164138.7968750000,162101.7343750000,130315.5703125000,118826.7578125000,132032.2343750000,148942.9218750000,,,
1.6119999974,12,175415.1250000000,201670.6562500000,163752.5312500000,161478.7656250000,129757.2734375000,118291.1718750000,131413.5937500000,152391.3281250000,,,
1.6159999974,12,175540.9218750000,209607.3750000000,163976.8906250000,161769.2187500000,130069.6640625000,118584.0703125000,131723.7812500000,152793.4843750000,,,
1.6199999973,12,175760.1875000000,202255.9687500000,164449.9531250000,162481.5156250000,130734.9921875000,119224.7968750000,132445.6718750000,150203.9687500000,,,
1.6239999975,12,175782.7187500000,187622.6875000000,164599.9531250000,162788.5781250000,130968.3671875000,119460.7265625000,132739.1562500000,147555.2812500000,,,
1.6279999975,12,175537.4062500000,186663.7812500000,164111.4843750000,162103.1093750000,130284.4843750000,118817.4218750000,132026.8750000000,148880.2968750000,,,
1.6319999974,12,175381.7031250000,201553.1250000000,163717.2812500000,161457.7656250000,129718.5937500000,118262.9843750000,131387.1093750000,152333.6093750000,,,
1.6359999974,12,175495.6250000000,209572.5312500000,163930.0156250000,161746.6406250000,130023.7500000000,118539.4140625000,131685.7500000000,152742.7031250000,,,
1.6399999973,12,175731.5468750000,202163.8125000000,164425.9531250000,162482.2968750000,130714.8984375000,119203.7656250000,132425.9687500000,150154.7812500000,,,
1.6439999973,12,175778.0000000000,187485.6562500000,164605.9843750000,162800.5625000000,130976.2265625000,119456.9453125000,132730.4531250000,147537.1250000000,,,
1.6479999975,12,175539.7343750000,186311.1406250000,164127.5312500000,162122.7343750000,130303.0468750000,118826.2500000000,132032.3281250000,148845.4218750000,,,
1.6519999974,12,175382.4531250000,201188.6406250000,163724.5312500000,161479.5468750000,129725.4609375000,118268.5625000000,131381.9062500000,152316.9843750000,,,
1.6559999974,12,175514.5781250000,209410.6250000000,163954.7656250000,161773.1093750000,130041.4765625000,118548.5312500000,131687.3125000000,152765.4843750000,,,
1.6599999974,12,175765.4687500000,202187.6718750000,164464.7968750000,162525.5468750000,130745.0234375000,119220.5312500000,132450.6875000000,150194.9531250000,,,
1.6639999973,13,175793.2968750000,187584.2500000000,164617.8437500000,162823.0937500000,130987.0390625000,119467.9687500000,132748.9218750000,147539.5468750000,,,
1.6679999973,13,175554.7343750000,186357.9843750000,164138.1250000000,162123.4062500000,130318.7890625000,118840.8671875000,132046.8281250000,148817.6406250000,,,
1.6719999972,13,175400.7031250000,201238.4531250000,163732.2343750000,161466.1562500000,129736.2656250000,118274.1718750000,131399.0312500000,152314.9687500000,,,
1.6759999972,13,175521.3437500000,209507.2343750000,163945.5468750000,161754.9062500000,130035.6015625000,118541.3437500000,131687.7968750000,152791.1250000000,,,
1.6799999971,13,175758.3125000000,202288.0156250000,164443.9531250000,162506.6250000000,130726.4296875000,119198.1640625000,132435.4062500000,150216.0156250000,,,
1.6839999971,13,175802.6718750000,187563.0156250000,164623.5781250000,162828.1093750000,130993.1015625000,119463.1406250000,132759.4062500000,147549.5781250000,,,
1.6879999973,13,175557.1718750000,186168.7812500000,164138.0937500000,162122.0937500000,130317.8281250000,118833.0078125000,132057.7187500000,148791.3750000000,,,
1.6919999972,13,175391.2343750000,201108.1093750000,163720.0468750000,161431.4843750000,129719.5078125000,118260.3281250000,131385.7812500000,152292.5468750000,,,
1.6959999972,13,175509.4531250000,209559.2500000000,163933.3437500000,161703.4062500000,130014.0937500000,118532.1171875000,131666.3281250000,152791.7343750000,,,
1.6999999972,13,175745.5468750000,202423.2343750000,164434.1406250000,162457.1875000000,130706.7734375000,119193.9218750000,132411.9375000000,150218.9062500000,,,
1.7039999971,13,175807.6093750000,187698.4375000000,164633.6875000000,162800.0781250000,130992.1093750000,119481.4062500000,132749.4687500000,147565.0000000000,,,
1.7079999973,13,175571.6875000000,186119.5625000000,164155.1250000000,162134.6562500000,130330.2734375000,118865.6484375000,132052.2500000000,148790.6250000000,,,
1.7119999973,13,175394.2031250000,200975.4843750000,163723.6718750000,161472.1093750000,129722.3515625000,118273.5781250000,131373.2968750000,152289.7031250000,,,
1.7159999972,13,175512.2968750000,209506.8906250000,163932.8750000000,161739.5312500000,130020.0703125000,118543.0312500000,131665.1250000000,152810.5156250000,,,
1.7199999972,13,175740.0000000000,202504.9062500000,164424.1562500000,162468.2343750000,130705.3203125000,119194.9140625000,132410.4531250000,150245.0312500000,,,
1.7239999971,13,175797.1562500000,187806.5781250000,164622.9687500000,162810.1875000000,130993.3359375000,119475.7421875000,132751.9062500000,147563.5937500000,,,
1.7279999971,13,175554.7031250000,186091.4531250000,164145.6875000000,162143.0937500000,130333.3281250000,118850.6562500000,132064.6406250000,148744.7656250000,,,
1.7319999973,13,175385.8125000000,200887.7500000000,163722.2187500000,161474.2656250000,129728.0312500000,118261.6718750000,131380.9531250000,152260.8750000000,,,
1.7359999972,13,175504.4218750000,209486.6406250000,163933.0937500000,161738.8125000000,130016.2343750000,118520.3437500000,131658.2656250000,152807.7812500000,,,
1.7399999972,13,175727.1718750000,202570.1406250000,164415.3906250000,162461.2343750000,130691.8359375000,119171.6093750000,132390.5000000000,150259.1093750000,,,
1.7439999972,13,175772.3125000000,187793.7656250000,164597.4843750000,162804.6875000000,130966.4609375000,119453.1093750000,132715.5937500000,147548.3437500000,,,
1.7479999971,13,175545.6406250000,185909.7031250000,164137.7031250000,162144.6250000000,130323.3515625000,118852.5625000000,132037.1250000000,148709.2031250000,,,
1.7519999973,13,175387.5468750000,200702.0000000000,163717.7187500000,161471.4687500000,129721.6484375000,118272.2109375000,131367.5312500000,152245.6718750000,,,
1.7559999973,13,175497.6093750000,209444.2968750000,163916.3906250000,161717.0000000000,130001.3750000000,118519.0312500000,131639.5937500000,152819.0937500000,,,
1.7599999972,13,175742.8906250000,202651.1718750000,164426.4687500000,162457.1562500000,130705.7812500000,119185.4765625000,132399.2656250000,150307.6406250000,,,
1.7639999972,13,175812.0625000000,187833.8593750000,164641.4218750000,162819.9218750000,131013.1640625000,119488.1093750000,132765.9062500000,147604.0937500000,,,
1.7679999971,13,175583.1406250000,185762.0156250000,164178.9218750000,162165.7968750000,130366.1015625000,118890.8125000000,132097.0625000000,148731.8906250000,,,
1.7719999971,13,175396.6406250000,200508.4531250000,163725.6562500000,161475.1250000000,129730.5312500000,118285.5390625000,131388.1093750000,152248.2343750000,,,
1.7759999973,13,175504.7968750000,209358.1562500000,163920.4843750000,161723.0312500000,130006.2031250000,118534.7734375000,131655.7968750000,152840.7968750000,,,
1.7799999972,13,175734.0156250000,202645.9687500000,164411.3593750000,162458.5000000000,130692.3125000000,119198.7031250000,132398.8437500000,150323.1875000000,,,
1.7839999972,13,175789.7031250000,187837.4843750000,164612.2343750000,162816.7343750000,130987.9218750000,119491.9218750000,132748.5312500000,147594.1562500000,,,
1.7879999971,13,175547.2031250000,185629.2968750000,164141.9375000000,162167.9062500000,130336.5703125000,118877.5312500000,132076.8125000000,148669.2343750000,,,
1.7919999971,14,175377.2812500000,200365.3593750000,163710.0156250000,161477.4531250000,129715.2109375000,118269.9296875000,131384.4375000000,152202.9843750000,,,
1.7959999971,14,175494.8437500000,209340.8437500000,163913.1406250000,161725.3125000000,129996.3906250000,118515.5156250000,131648.9218750000,152831.6250000000,,,
1.7999999970,14,175730.8750000000,202709.0937500000,164412.7343750000,162445.0937500000,130693.2265625000,119176.0312500000,132395.8437500000,150329.3281250000,,,
1.8039999970,14,175790.4687500000,187864.7031250000,164621.0781250000,162798.2500000000,130999.3203125000,119478.6953125000,132756.7812500000,147592.1718750000,,,
1.8079999969,14,175566.8593750000,185478.0781250000,164177.0937500000,162160.5000000000,130375.7890625000,118893.4140625000,132111.8750000000,148652.3593750000,,,
1.8119999969,14,175387.6562500000,200161.5156250000,163729.1093750000,161456.0781250000,129738.9765625000,118282.8593750000,131404.6562500000,152191.6718750000,,,
1.8159999971,14,175482.2343750000,209263.6718750000,163902.4687500000,161691.3281250000,129989.2578125000,118505.8046875000,131646.8125000000,152827.0625000000,,,
1.8199999970,14,175721.9687500000,202772.0781250000,164402.5156250000,162436.6718750000,130683.9765625000,119172.7656250000,132397.3906250000,150336.3281250000,,,
1.8239999970,14,175787.1718750000,187928.4375000000,164618.2656250000,162806.7031250000,130997.9531250000,119484.0078125000,132760.1406250000,147580.9843750000,,,
1.8279999970,14,175558.8437500000,185407.9062500000,164168.4062500000,162180.2187500000,130367.9296875000,118895.1796875000,132116.0312500000,148603.2500000000,,,
1.8319999969,14,175380.0156250000,200095.8437500000,163720.7187500000,161473.5156250000,129724.6796875000,118275.5390625000,131407.4218750000,152154.5156250000,,,
1.8359999971,14,175484.7812500000,209318.2187500000,163902.9531250000,161705.9531250000,129980.9921875000,118505.8046875000,131642.7812500000,152834.0625000000,,,
1.8399999971,14,175716.8281250000,202979.6093750000,164391.6406250000,162431.0000000000,130665.2812500000,119158.0937500000,132372.7187500000,150365.1406250000,,,
1.8439999970,14,175780.0156250000,188122.3281250000,164606.7031250000,162796.9687500000,130981.8593750000,119472.2812500000,132744.6406250000,147582.2968750000,,,
1.8479999970,14,175549.5312500000,185482.5312500000,164156.3906250000,162180.2500000000,130354.9218750000,118885.7890625000,132094.0156250000,148567.6093750000,,,
1.8519999969,14,175369.2656250000,200170.6250000000,163699.6093750000,161471.0781250000,129706.5234375000,118266.2031250000,131376.1250000000,152132.6562500000,,,
1.8559999969,14,175479.3125000000,209528.5312500000,163881.6250000000,161698.3906250000,129966.4296875000,118504.1953125000,131621.7812500000,152856.4062500000,,,
1.8599999971,14,175714.1093750000,203283.2031250000,164373.4375000000,162427.8906250000,130655.0078125000,119165.2265625000,132370.7656250000,150416.1875000000,,,
1.8639999970,14,175773.9843750000,188367.5937500000,164586.1093750000,162814.9062500000,130971.6406250000,119486.1484375000,132745.2500000000,147624.3593750000,,,
1.8679999970,14,175537.2968750000,185489.9062500000,164132.3906250000,162172.3593750000,130346.1484375000,118900.3046875000,132094.4687500000,148571.7812500000,,,
1.8719999969,14,175355.7968750000,200061.8125000000,163680.5625000000,161449.8593750000,129698.1015625000,118272.1015625000,131370.3281250000,152139.4687500000,,,
1.8759999969,14,175456.3593750000,209483.4218750000,163857.8281250000,161670.1093750000,129948.5156250000,118497.5156250000,131615.2031250000,152877.2500000000,,,
1.8799999971,14,175682.2500000000,203315.0312500000,164341.7031250000,162389.8125000000,130628.3984375000,119150.3906250000,132358.8593750000,150424.2500000000,,,
1.8839999971,14,175759.6562500000,188387.3125000000,164575.0312500000,162789.7500000000,130962.1171875000,119476.6875000000,132742.0000000000,147612.3281250000,,,
1.8879999970,14,175553.3125000000,185393.3281250000,164152.7187500000,162190.1406250000,130364.9531250000,118914.8437500000,132118.0468750000,148546.1406250000,,,
1.8919999970,14,175376.0468750000,199944.8437500000,163703.2343750000,161469.7031250000,129717.2265625000,118282.4531250000,131392.6093750000,152118.6562500000,,,
1.8959999969,14,175465.1562500000,209472.6093750000,163865.9843750000,161674.0937500000,129952.1093750000,118483.3828125000,131604.6406250000,152866.6562500000,,,
1.8999999969,14,175705.2656250000,203381.0468750000,164371.5781250000,162407.6250000000,130654.7109375000,119151.1718750000,132356.2968750000,150432.8906250000,,,
1.9039999971,14,175780.4375000000,188451.4687500000,164612.3125000000,162797.5312500000,131001.4687500000,119484.1640625000,132758.8437500000,147611.8593750000,,,
1.9079999970,14,175564.7968750000,185309.3906250000,164185.7031250000,162204.8750000000,130400.7343750000,118909.0234375000,132127.6250000000,148499.7968750000,,,
1.9119999970,14,175386.5625000000,199828.8437500000,163729.2500000000,161482.7187500000,129740.0000000000,118270.9531250000,131390.1406250000,152082.9375000000,,,
1.9159999969,14,175493.6875000000,209477.2500000000,163906.3593750000,161685.4843750000,129981.0234375000,118490.1171875000,131623.8125000000,152876.9218750000,,,
1.9199999969,15,175729.1562500000,203526.2656250000,164403.5625000000,162407.8593750000,130671.5312500000,119146.1796875000,132370.3906250000,150461.1093750000,,,
1.9239999969,15,175808.5312500000,188632.0000000000,164645.8750000000,162805.9531250000,131023.5703125000,119491.8359375000,132773.3593750000,147636.9843750000,,,
1.9279999968,15,175579.5156250000,185394.2031250000,164195.3593750000,162202.1406250000,130408.0546875000,118924.8437500000,132137.0625000000,148499.5312500000,,,
1.9319999968,15,175388.2500000000,199875.7968750000,163720.4843750000,161463.2968750000,129734.2031250000,118274.5468750000,131391.0781250000,152085.8281250000,,,
1.9359999967,15,175494.1718750000,209615.8125000000,163893.7500000000,161683.2343750000,129975.3906250000,118493.1718750000,131623.9531250000,152915.2500000000,,,
1.9399999967,15,175735.3750000000,203824.1718750000,164390.3593750000,162432.5156250000,130664.3906250000,119158.3046875000,132366.3125000000,150536.4843750000,,,
1.9439999969,15,175790.9375000000,188889.5781250000,164610.7031250000,162801.3437500000,130996.5078125000,119490.6328125000,132747.6093750000,147666.5468750000,,,
1.9479999968,15,175550.1406250000,185435.9687500000,164159.4218750000,162173.1093750000,130381.2031250000,118918.4062500000,132113.4531250000,148467.3750000000,,,
1.9519999968,15,175367.7343750000,199833.3906250000,163692.3906250000,161450.3593750000,129710.3593750000,118278.6250000000,131380.0625000000,152060.4375000000,,,
1.9559999967,15,175474.2343750000,209650.3593750000,163863.5000000000,161646.5156250000,129946.3359375000,118490.9218750000,131607.1406250000,152912.4687500000,,,
1.9599999967,15,175709.6250000000,203972.0781250000,164360.4062500000,162364.7031250000,130637.9765625000,119148.0078125000,132345.8906250000,150543.7968750000,,,
1.9639999969,15,175790.2031250000,189045.1562500000,164613.7812500000,162787.8437500000,131004.0390625000,119503.9609375000,132758.0468750000,147679.3906250000,,,
1.9679999969,15,175559.7968750000,185423.7968750000,164174.2500000000,162199.0156250000,130401.8359375000,118940.0781250000,132147.5468750000,148452.4843750000,,,
1.9719999968,15,175367.8437500000,199691.6406250000,163694.9218750000,161472.8750000000,129716.1015625000,118280.1484375000,131401.0937500000,152034.6875000000,,,
1.9759999968,15,175459.0625000000,209547.3906250000,163848.0156250000,161664.5156250000,129931.2109375000,118478.3125000000,131604.8593750000,152905.8437500000,,,
1.9799999967,15,175687.7656250000,203883.2968750000,164334.5468750000,162395.3281250000,130609.8906250000,119127.5937500000,132331.8906250000,150540.2968750000,,,
1.9839999967,15,175768.6875000000,188920.4843750000,164584.0937500000,162810.0781250000,130968.2890625000,119479.8515625000,132740.0156250000,147665.4218750000,,,
1.9879999969,15,175548.9687500000,185151.5468750000,164162.0000000000,162214.8125000000,130381.4218750000,118928.4687500000,132131.8281250000,148414.3906250000,,,
1.9919999968,15,175366.0468750000,199395.2656250000,163693.6250000000,161460.2343750000,129706.3906250000,118273.4687500000,131380.4843750000,152006.4375000000,,,
1.9959999968,15,175471.7968750000,209362.5156250000,163867.2500000000,161661.0781250000,129940.2265625000,118476.0312500000,131598.4687500000,152910.2031250000,,,
1.9999999967,15,175708.8593750000,203787.0468750000,164365.8125000000,162401.2812500000,130631.5625000000,119131.4062500000,132344.0000000000,150563.6562500000,,,
2.0039999967,15,175786.9531250000,188865.1718750000,164612.7187500000,162811.0781250000,130994.9765625000,119484.5156250000,132762.8125000000,147680.7812500000,,,
2.0079999969,15,175569.4843750000,185041.2812500000,164194.9375000000,162238.7500000000,130417.3046875000,118942.8203125000,132168.3125000000,148392.7187500000,,,
2.0119999968,15,175374.5937500000,199376.0000000000,163711.8125000000,161485.6406250000,129726.3750000000,118280.0390625000,131412.0000000000,151977.5468750000,,,
2.0159999968,15,175463.3750000000,209648.0781250000,163861.8281250000,161653.0312500000,129935.0234375000,118464.9296875000,131610.4843750000,152899.0312500000,,,
2.0199999968,15,175710.8906250000,204365.6562500000,164370.0000000000,162382.8906250000,130632.5859375000,119133.2500000000,132340.3750000000,150591.2500000000,,,
2.0239999967,15,175799.0781250000,189508.6093750000,164623.5781250000,162821.7968750000,131001.1484375000,119507.6093750000,132761.2031250000,147718.3437500000,,,
2.0279999967,15,175565.9687500000,185410.8281250000,164188.3125000000,162238.4843750000,130406.6328125000,118956.4687500000,132171.8437500000,148389.8281250000,,,
2.0319999969,15,175354.4843750000,199413.3906250000,163688.6875000000,161465.8125000000,129697.4609375000,118271.0312500000,131395.4843750000,151956.0625000000,,,
2.0359999968,15,175437.7031250000,209472.6718750000,163832.1093750000,161625.7343750000,129900.2890625000,118451.1406250000,131577.0937500000,152895.3437500000,,,
2.0399999968,15,175689.6562500000,204144.6250000000,164339.9375000000,162365.4531250000,130601.8750000000,119122.9843750000,132327.8750000000,150604.9375000000,,,
2.0439999967,15,175789.7031250000,189271.1250000000,164605.6093750000,162816.4062500000,130986.6875000000,119503.5859375000,132765.2656250000,147721.0000000000,,,
2.0479999967,16,175576.2187500000,185154.3593750000,164193.3593750000,162259.9375000000,130419.7734375000,118969.3203125000,132176.6250000000,148368.6875000000,,,
2.0519999966,16,175369.3906250000,199256.0468750000,163695.0000000000,161486.2812500000,129713.9296875000,118292.7812500000,131394.8437500000,151948.6093750000,,,
2.0559999966,16,175445.0000000000,209534.2968750000,163826.9687500000,161640.0156250000,129903.9062500000,118469.5390625000,131572.6718750000,152919.8437500000,,,
2.0599999966,16,175677.5000000000,204415.6875000000,164314.8593750000,162360.0156250000,130584.7343750000,119122.0937500000,132307.3750000000,150646.2656250000,,,
2.0639999965,16,175765.0781250000,189542.5937500000,164578.3281250000,162802.0625000000,130967.9687500000,119494.7109375000,132746.1875000000,147737.7812500000,,,
2.0679999965,16,175560.7656250000,185142.3437500000,164183.2968750000,162252.8281250000,130419.0234375000,118966.3906250000,132177.6406250000,148352.2968750000,,,
2.0719999967,16,175376.0468750000,199043.9218750000,163706.2656250000,161495.3750000000,129732.0859375000,118295.1718750000,131414.6093750000,151936.8593750000,,,
2.0759999966,16,175467.7187500000,209367.9843750000,163848.3593750000,161656.0937500000,129930.2968750000,118470.3984375000,131594.2031250000,152938.5312500000,,,
2.0799999966,16,175704.8906250000,204397.8750000000,164340.8437500000,162366.0625000000,130613.3281250000,119112.6250000000,132318.4375000000,150684.3437500000,,,
2.0839999965,16,175799.1875000000,189638.0781250000,164614.4531250000,162808.3437500000,131006.6953125000,119495.1640625000,132764.4062500000,147765.9531250000,,,
2.0879999965,16,175595.0781250000,185229.7031250000,164220.4375000000,162260.7187500000,130459.8203125000,118984.3906250000,132200.2343750000,148350.0781250000,,,
2.0919999967,16,175401.8281250000,199053.2812500000,163737.1562500000,161497.6250000000,129760.7578125000,118306.4375000000,131429.7031250000,151933.6406250000,,,
2.0959999966,16,175480.4687500000,209368.5781250000,163869.4218750000,161640.9843750000,129945.6406250000,118461.4687500000,131591.8281250000,152951.5937500000,,,
2.0999999966,16,175712.1562500000,204414.0156250000,164356.2187500000,162345.1562500000,130620.3515625000,119103.9375000000,132318.0312500000,150709.8281250000,,,
2.1039999966,16,175814.5625000000,189615.4062500000,164639.3437500000,162805.5468750000,131021.7968750000,119498.2500000000,132774.1093750000,147793.9531250000,,,
2.1079999965,16,175626.3437500000,185072.9531250000,164265.5000000000,162288.2343750000,130494.1562500000,119004.2109375000,132223.5156250000,148352.5468750000,,,
2.1119999965,16,175415.1718750000,198904.8125000000,163759.9843750000,161507.7343750000,129772.2343750000,118301.5234375000,131430.7500000000,151911.5937500000,,,
2.1159999967,16,175469.4375000000,209380.7968750000,163864.2656250000,161631.0625000000,129929.0156250000,118433.3828125000,131569.1562500000,152934.2968750000,,,
2.1199999966,16,175704.0000000000,204567.8125000000,164351.3281250000,162349.3125000000,130606.6171875000,119082.3984375000,132295.9843750000,150718.3281250000,,,
2.1239999966,16,175821.8593750000,189734.7968750000,164647.1562500000,162833.5312500000,131026.0390625000,119499.0000000000,132774.0625000000,147806.9531250000,,,
2.1279999965,16,175610.2812500000,184956.2031250000,164247.0000000000,162291.8750000000,130480.5000000000,118999.1406250000,132219.9218750000,148316.7968750000,,,
2.1319999965,16,175377.6875000000,198704.9687500000,163717.3906250000,161470.4062500000,129738.3593750000,118292.3281250000,131411.2500000000,151865.3593750000,,,
2.1359999967,16,175441.5468750000,209326.0781250000,163829.0781250000,161586.9687500000,129901.9218750000,118437.8906250000,131553.3593750000,152926.4062500000,,,
2.1399999966,16,175685.1250000000,204686.1093750000,164322.6875000000,162319.0781250000,130584.6796875000,119091.9218750000,132279.6406250000,150735.7968750000,,,
2.1439999966,16,175801.1250000000,190000.0156250000,164618.1093750000,162807.7187500000,131002.4062500000,119502.1093750000,132757.3437500000,147816.7812500000,,,
2.1479999966,16,175612.1562500000,185146.0156250000,164248.3437500000,162298.9062500000,130485.1406250000,119013.1953125000,132220.5625000000,148305.7343750000,,,
2.1519999965,16,175410.1562500000,198704.8281250000,163750.1718750000,161516.2968750000,129769.5546875000,118314.6718750000,131429.7031250000,151875.6562500000,,,
2.1559999965,16,175490.2343750000,209277.7812500000,163876.9531250000,161659.5468750000,129945.4531250000,118460.6093750000,131587.5312500000,152978.9531250000,,,
2.1599999967,16,175717.7812500000,204709.9218750000,164355.6250000000,162367.7031250000,130615.3906250000,119094.5781250000,132306.1250000000,150793.9218750000,,,
2.1639999966,16,175812.1250000000,189984.3437500000,164632.3281250000,162835.1562500000,131020.4531250000,119494.5234375000,132768.0000000000,147840.0781250000,,,
2.1679999966,16,175604.0937500000,184992.4843750000,164243.3437500000,162307.1406250000,130490.5078125000,119003.7265625000,132217.8437500000,148274.4375000000,,,
2.1719999965,16,175392.2500000000,198565.3593750000,163730.3437500000,161505.1875000000,129758.4218750000,118305.7109375000,131426.0312500000,151837.0625000000,,,
2.1759999965,17,175476.5468750000,209268.5781250000,163856.8750000000,161626.7968750000,129929.4375000000,118455.4062500000,131581.8125000000,152972.7031250000,,,
2.1799999964,17,175716.7968750000,204739.1875000000,164349.5937500000,162336.8593750000,130608.7343750000,119096.6406250000,132306.5468750000,150813.9062500000,,,
2.1839999964,17,175817.6406250000,189949.9062500000,164635.3281250000,162802.2187500000,131021.4531250000,119505.9453125000,132774.5468750000,147852.1250000000,,,
2.1879999964,17,175613.6093750000,184844.2187500000,164257.7187500000,162293.1718750000,130499.5468750000,119013.4687500000,132238.9375000000,148252.8281250000,,,
2.1919999963,17,175397.1562500000,198485.2656250000,163741.7187500000,161503.4218750000,129763.5468750000,118305.9765625000,131429.0937500000,151818.1718750000,,,
2.1959999963,17,175469.6250000000,209442.5468750000,163853.4687500000,161630.7187500000,129917.9375000000,118445.0546875000,131558.2968750000,152978.5781250000,,,
2.1999999965,17,175708.7968750000,205123.7031250000,164345.5625000000,162333.7500000000,130594.7890625000,119086.0703125000,132279.6718750000,150827.7656250000,,,
2.2039999964,17,175819.2500000000,190327.4062500000,164643.5000000000,162803.5156250000,131020.0546875000,119504.2265625000,132762.3593750000,147853.5468750000,,,
2.2079999964,17,175607.2812500000,184920.9531250000,164252.6562500000,162290.3750000000,130493.1875000000,119013.9453125000,132225.1250000000,148217.0468750000,,,
2.2119999963,17,175394.9843750000,198277.8437500000,163736.5156250000,161503.3437500000,129758.1562500000,118305.5234375000,131426.5625000000,151791.2656250000,,,
2.2159999963,17,175465.0625000000,209183.3593750000,163847.0468750000,161619.7500000000,129910.5625000000,118433.4687500000,131558.1093750000,152975.6562500000,,,
2.2199999965,17,175703.4375000000,204938.7187500000,164337.9843750000,162330.4218750000,130589.2343750000,119077.7031250000,132280.3906250000,150847.5625000000,,,
2.2239999964,17,175801.8125000000,190220.9687500000,164628.6250000000,162816.9531250000,131011.3671875000,119488.2187500000,132755.7968750000,147854.0625000000,,,
2.2279999964,17,175603.0156250000,184842.4218750000,164257.3281250000,162325.6718750000,130503.8125000000,119016.8984375000,132228.2031250000,148187.7968750000,,,
2.2319999964,17,175385.4531250000,198274.7187500000,163735.2031250000,161511.8906250000,129760.0078125000,118303.7031250000,131406.4218750000,151759.2968750000,,,
2.2359999963,17,175446.9062500000,209304.5156250000,163833.3125000000,161595.0468750000,129897.9765625000,118425.2343750000,131534.1875000000,152970.8281250000,,,
2.2399999963,17,175690.2343750000,205128.2343750000,164321.9843750000,162304.6250000000,130575.1328125000,119077.8359375000,132274.2500000000,150867.8437500000,,,
2.2439999965,17,175802.4375000000,190381.2968750000,164619.5312500000,162811.3906250000,131005.2500000000,119505.4921875000,132768.9843750000,147883.2968750000,,,
2.2479999964,17,175613.8750000000,184775.6875000000,164259.1718750000,162330.6406250000,130510.5703125000,119044.5781250000,132263.1562500000,148198.6406250000,,,
2.2519999964,17,175401.0937500000,198022.0781250000,163741.2656250000,161524.4687500000,129771.9453125000,118320.1953125000,131448.5312500000,151761.6875000000,,,
2.2559999963,17,175457.6718750000,209096.3281250000,163833.9375000000,161618.8593750000,129904.6015625000,118420.9140625000,131550.9218750000,152984.7968750000,,,
2.2599999963,17,175693.8593750000,205085.6406250000,164318.5625000000,162311.8281250000,130576.5234375000,119062.1718750000,132266.6875000000,150888.6250000000,,,
2.2639999965,17,175812.3125000000,190406.2968750000,164632.0781250000,162814.6718750000,131019.2500000000,119496.6640625000,132763.9531250000,147893.4843750000,,,
2.2679999964,17,175614.7031250000,184714.6093750000,164268.2343750000,162324.0625000000,130522.0468750000,119038.1406250000,132252.2656250000,148161.2187500000,,,
2.2719999964,17,175401.7656250000,197909.3906250000,163748.9687500000,161508.5937500000,129781.1406250000,118321.2109375000,131432.3906250000,151721.9687500000,,,
2.2759999963,17,175477.4062500000,209076.4531250000,163857.3750000000,161597.7187500000,129926.4375000000,118445.5859375000,131559.0468750000,152998.3125000000,,,
2.2799999963,17,175708.4843750000,205146.7187500000,164339.6406250000,162288.3125000000,130592.1640625000,119078.9687500000,132275.6718750000,150923.4687500000,,,
2.2839999963,17,175815.1250000000,190449.7187500000,164644.6875000000,162785.7343750000,131027.7812500000,119498.0312500000,132769.8437500000,147904.4218750000,,,
2.2879999964,17,175628.3593750000,184604.0468750000,164294.4375000000,162317.3281250000,130546.3515625000,119043.6640625000,132274.3125000000,148140.0625000000,,,
2.2919999964,17,175416.3281250000,197757.7968750000,163770.9531250000,161505.7031250000,129799.0625000000,118326.0390625000,131453.5781250000,151700.6875000000,,,
2.2959999964,17,175489.0000000000,209076.1250000000,163867.5937500000,161602.5000000000,129931.6640625000,118435.1015625000,131555.9062500000,153000.6875000000,,,
2.2999999963,17,175735.4843750000,205310.3593750000,164356.9062500000,162320.4218750000,130607.7421875000,119074.6171875000,132268.1875000000,150961.6875000000,,,
2.3039999963,18,175848.2187500000,190651.6875000000,164662.5468750000,162819.2031250000,131050.5234375000,119509.0859375000,132773.9531250000,147948.2343750000,,,
2.3079999962,18,175645.8281250000,184647.8281250000,164302.9218750000,162330.7656250000,130562.1484375000,119056.5156250000,132287.4062500000,148142.2656250000,,,
2.3119999962,18,175431.7343750000,197668.5312500000,163785.4687500000,161526.0312500000,129815.9609375000,118333.7656250000,131475.0156250000,151696.7500000000,,,
2.3159999961,18,175490.1718750000,209023.0000000000,163869.8750000000,161608.7500000000,129932.9531250000,118433.2265625000,131572.7187500000,153013.4687500000,,,
2.3199999961,18,175716.7968750000,205341.9375000000,164342.4062500000,162307.0312500000,130591.4140625000,119060.3515625000,132272.8125000000,150977.7031250000,,,
2.3239999961,18,175819.1250000000,190684.8593750000,164639.5156250000,162800.4843750000,131027.0312500000,119487.4140625000,132771.9687500000,147940.9375000000,,,
2.3279999963,18,175630.2656250000,184499.2656250000,164292.3750000000,162336.9375000000,130553.7265625000,119054.2343750000,132303.8906250000,148105.6718750000,,,
2.3319999962,18,175410.2187500000,197432.7187500000,163759.9843750000,161515.1093750000,129792.8593750000,118323.7109375000,131475.5156250000,151659.0937500000,,,
2.3359999962,18,175469.8906250000,208917.7968750000,163845.5156250000,161591.9843750000,129908.9218750000,118412.2734375000,131561.8281250000,153004.2968750000,,,
2.3399999961,18,175709.7343750000,205442.7812500000,164327.1875000000,162294.1406250000,130574.4843750000,119050.7500000000,132263.6406250000,151005.8750000000,,,
2.3439999961,18,175834.8593750000,190835.9218750000,164649.7812500000,162821.1406250000,131035.0468750000,119503.9921875000,132776.9062500000,147975.6875000000,,,
2.3479999963,18,175658.5156250000,184523.7500000000,164318.1875000000,162389.7812500000,130579.9843750000,119080.9765625000,132310.2187500000,148111.3593750000,,,
2.3519999962,18,175431.2656250000,197374.8593750000,163782.2500000000,161555.7812500000,129815.5000000000,118344.4687500000,131482.9218750000,151653.6718750000,,,
2.3559999962,18,175481.3437500000,208908.7343750000,163862.7968750000,161591.2812500000,129925.7656250000,118434.3203125000,131572.5156250000,153025.2500000000,,,
2.3599999961,18,175698.4687500000,205533.4687500000,164322.9843750000,162268.4687500000,130568.0781250000,119049.8671875000,132259.2343750000,151034.1093750000,,,
2.3639999961,18,175805.6250000000,190910.8437500000,164628.8906250000,162784.9218750000,131014.1796875000,119490.9765625000,132765.6093750000,147965.9375000000,,,
2.3679999961,18,175601.8593750000,184430.2500000000,164271.3437500000,162324.2343750000,130534.6796875000,119049.2187500000,132283.9687500000,148028.1250000000,,,
2.3719999962,18,175380.2343750000,197235.1718750000,163733.7343750000,161500.5156250000,129768.4531250000,118313.8359375000,131446.9218750000,151567.3906250000,,,
2.3759999962,18,175446.3750000000,208894.6562500000,163815.7968750000,161565.3281250000,129878.3203125000,118406.6171875000,131528.6562500000,152984.0000000000,,,
2.3799999962,18,175678.8437500000,205782.7187500000,164285.1875000000,162245.4531250000,130524.2734375000,119028.5156250000,132221.0625000000,151065.6250000000,,,
2.3839999961,18,175807.5937500000,191138.9062500000,164623.1562500000,162788.9687500000,131006.3750000000,119499.2421875000,132761.3125000000,147986.3437500000,,,
2.3879999961,18,175624.1562500000,184409.7031250000,164296.0312500000,162359.1562500000,130558.6640625000,119075.2656250000,132304.4843750000,148022.6406250000,,,
2.3919999963,18,175406.5468750000,197097.1406250000,163763.7187500000,161543.1406250000,129795.3593750000,118343.5546875000,131462.9687500000,151573.8593750000,,,
2.3959999962,18,175456.2656250000,208830.1250000000,163828.6718750000,161599.3906250000,129888.3515625000,118410.4531250000,131517.8750000000,152999.3906250000,,,
2.3999999962,18,175672.8593750000,205649.3437500000,164284.2500000000,162262.8125000000,130528.7265625000,119011.3437500000,132204.6562500000,151032.3125000000,,,
2.4039999961,18,175795.5937500000,191088.7968750000,164607.8906250000,162791.5468750000,130995.3281250000,119468.1015625000,132735.3750000000,147970.9687500000,,,
2.4079999961,18,175623.6406250000,184391.3593750000,164289.3437500000,162372.4062500000,130557.8828125000,119060.2968750000,132300.1875000000,148006.2968750000,,,
2.4119999961,18,175405.3125000000,197008.3125000000,163753.6093750000,161543.3750000000,129790.7734375000,118326.0390625000,131464.5000000000,151551.3281250000,,,
2.4159999962,18,175463.9687500000,208798.7031250000,163826.7500000000,161587.6718750000,129891.8671875000,118408.6562500000,131529.2968750000,153016.2031250000,,,
2.4199999962,18,175694.2656250000,205636.7343750000,164301.8281250000,162276.2968750000,130552.1406250000,119031.8671875000,132225.9218750000,151068.0937500000,,,
2.4239999962,18,175814.8281250000,191128.2031250000,164627.2500000000,162800.7500000000,131018.9843750000,119487.7343750000,132765.5312500000,148015.1250000000,,,
2.4279999961,18,175638.3906250000,184388.8593750000,164311.2812500000,162377.8125000000,130586.2578125000,119085.1328125000,132338.9531250000,148023.8750000000,,,
2.4319999961,19,175415.7968750000,196932.1093750000,163775.2500000000,161544.0781250000,129818.2343750000,118340.1796875000,131499.0937500000,151552.7500000000,,,
2.4359999960,19,175469.6562500000,208806.0625000000,163843.3281250000,161591.5781250000,129909.7031250000,118409.9140625000,131557.0937500000,153029.4531250000,,,
2.4399999960,19,175706.7968750000,205770.4062500000,164318.7500000000,162277.2812500000,130568.0234375000,119039.0000000000,132250.2968750000,151105.3281250000,,,
2.4439999959,19,175830.2500000000,191269.0781250000,164642.2187500000,162811.4843750000,131035.8828125000,119504.3906250000,132768.7968750000,148043.7187500000,,,
2.4479999959,19,175645.9062500000,184353.8593750000,164320.2812500000,162378.3750000000,130601.0390625000,119098.6562500000,132322.5156250000,148006.9218750000,,,
2.4519999959,19,175414.4531250000,196778.6250000000,163770.9843750000,161530.2187500000,129818.7734375000,118349.3203125000,131481.5625000000,151522.9218750000,,,
2.4559999960,19,175462.4687500000,208736.7187500000,163830.7187500000,161565.5625000000,129897.1484375000,118404.7109375000,131542.5156250000,153027.4218750000,,,
2.4599999960,19,175687.6875000000,205885.9843750000,164297.6406250000,162244.4062500000,130542.5703125000,119010.4609375000,132230.4531250000,151120.5781250000,,,
2.4639999960,19,175821.3125000000,191416.5937500000,164638.4375000000,162794.7187500000,131025.5546875000,119481.5390625000,132772.9843750000,148042.7500000000,,,
2.4679999959,19,175661.9687500000,184342.0625000000,164346.2187500000,162401.7968750000,130616.5703125000,119100.2656250000,132361.8281250000,147983.4687500000,,,
2.4719999959,19,175435.0000000000,196681.9062500000,163793.5625000000,161552.0468750000,129830.7656250000,118351.1718750000,131505.1875000000,151497.7031250000,,,
2.4759999961,19,175471.6718750000,208723.5312500000,163833.0000000000,161566.8750000000,129891.7031250000,118394.6250000000,131534.0781250000,153017.7656250000,,,
2.4799999960,19,175692.0625000000,206010.3437500000,164291.3281250000,162232.1250000000,130531.4375000000,119000.9375000000,132211.8906250000,151135.0156250000,,,
2.4839999960,19,175817.2968750000,191573.8281250000,164627.5000000000,162771.7031250000,131014.7734375000,119475.5546875000,132754.8593750000,148040.0156250000,,,
2.4879999959,19,175636.7812500000,184372.6875000000,164315.3125000000,162372.0000000000,130590.5234375000,119085.2968750000,132328.6250000000,147929.9687500000,,,
2.4919999959,19,175416.5156250000,196626.1406250000,163775.3593750000,161545.4531250000,129815.7656250000,118347.3125000000,131479.1875000000,151451.6562500000,,,
2.4959999959,19,175473.7031250000,208727.3281250000,163838.5468750000,161576.2968750000,129897.7343750000,118407.3671875000,131529.5937500000,153026.2656250000,,,
2.4999999960,19,175694.1250000000,206087.2343750000,164297.3750000000,162239.5468750000,130537.1250000000,119011.0000000000,132212.2187500000,151165.6406250000,,,
2.5039999960,19,175820.5625000000,191671.3281250000,164636.5937500000,162788.6718750000,131020.5937500000,119477.8671875000,132754.9062500000,148068.2656250000,,,
2.5079999960,19,175637.9062500000,184344.2031250000,164319.3593750000,162393.7187500000,130594.3359375000,119091.6562500000,132325.0312500000,147925.7500000000,,,
2.5119999959,19,175405.9843750000,196489.1718750000,163761.8125000000,161551.1093750000,129802.0078125000,118341.3828125000,131474.5625000000,151428.4687500000,,,
2.5159999959,19,175453.7500000000,208678.2500000000,163813.8750000000,161573.1562500000,129870.5937500000,118387.7890625000,131517.5000000000,153019.0781250000,,,
2.5199999961,19,175689.4062500000,206150.3437500000,164290.7500000000,162244.3437500000,130527.0937500000,118994.9062500000,132212.0781250000,151182.8125000000,,,
2.5239999960,19,175820.2968750000,191739.1875000000,164635.1093750000,162798.2812500000,131019.7031250000,119468.4218750000,132761.4218750000,148083.0312500000,,,
2.5279999960,19,175651.6093750000,184244.0781250000,164342.0781250000,162403.8593750000,130621.0234375000,119098.9765625000,132360.6562500000,147918.1093750000,,,
2.5319999959,19,175425.8281250000,196271.0937500000,163797.1093750000,161554.1406250000,129840.6093750000,118343.1250000000,131507.5000000000,151415.1718750000,,,
2.5359999959,19,175472.4375000000,208534.3750000000,163842.5781250000,161565.5937500000,129900.7421875000,118381.4609375000,131530.2031250000,153030.6718750000,,,
2.5399999958,19,175701.9687500000,206139.3281250000,164302.4062500000,162231.0468750000,130541.2265625000,118994.3671875000,132206.0000000000,151221.2500000000,,,
2.5439999960,19,175829.0468750000,191786.2656250000,164641.0156250000,162784.4375000000,131028.6875000000,119473.5468750000,132758.7500000000,148114.5000000000,,,
2.5479999960,19,175661.0000000000,184201.5937500000,164350.5312500000,162405.3125000000,130632.3671875000,119109.3828125000,132363.6875000000,147909.6250000000,,,
2.5519999960,19,175439.1562500000,196174.7500000000,163807.8437500000,161563.2812500000,129850.9843750000,118364.2343750000,131513.6562500000,151403.4531250000,,,
2.5559999959,19,175479.8281250000,208542.2656250000,163846.4843750000,161567.3281250000,129899.7734375000,118392.6718750000,131529.3281250000,153040.9062500000,,,
2.5599999959,20,175705.9843750000,206277.2500000000,164303.5937500000,162228.5781250000,130533.1015625000,118997.6171875000,132194.8906250000,151244.5312500000,,,
2.5639999958,20,175825.7500000000,191940.2656250000,164635.0625000000,162788.7031250000,131016.0312500000,119473.0078125000,132736.7500000000,148116.8593750000,,,
2.5679999958,20,175647.2500000000,184199.0156250000,164338.9218750000,162405.8750000000,130616.4375000000,119104.2890625000,132343.1875000000,147866.5312500000,,,
2.5719999957,20,175423.3593750000,196051.7500000000,163794.1875000000,161571.4062500000,129833.3671875000,118348.1171875000,131490.0625000000,151353.0312500000,,,
2.5759999957,20,175473.1093750000,208493.1250000000,163832.3281250000,161575.0937500000,129882.7421875000,118379.8203125000,131506.4687500000,153030.6093750000,,,
2.5799999957,20,175696.7343750000,206359.6875000000,164281.5937500000,162218.3906250000,130511.0234375000,118981.5468750000,132176.3593750000,151259.0937500000,,,
2.5839999958,20,175817.5937500000,192056.8906250000,164619.3750000000,162773.9062500000,131001.2812500000,119460.5937500000,132728.0781250000,148118.8125000000,,,
2.5879999958,20,175650.4062500000,184192.5781250000,164335.1875000000,162414.9375000000,130615.3125000000,119107.2890625000,132338.4687500000,147849.4218750000,,,
2.5919999958,20,175413.8437500000,195951.7031250000,163778.3125000000,161561.5156250000,129817.3515625000,118341.1953125000,131477.7187500000,151321.2968750000,,,
2.5959999957,20,175453.3281250000,208446.2343750000,163810.1406250000,161544.9687500000,129859.7343750000,118367.2656250000,131486.0312500000,153020.5625000000,,,
2.5999999957,20,175672.5312500000,206392.9218750000,164258.7500000000,162207.5312500000,130487.2343750000,118961.6718750000,132154.8437500000,151266.7187500000,,,
2.6039999959,20,175805.9843750000,192132.9062500000,164610.4843750000,162766.8750000000,130992.8046875000,119454.6328125000,132721.2656250000,148143.8906250000,,,
2.6079999958,20,175647.0625000000,184161.9218750000,164339.5625000000,162414.1875000000,130625.2031250000,119116.0312500000,132361.2968750000,147842.5000000000,,,
2.6119999958,20,175415.6562500000,195835.2343750000,163783.6718750000,161577.2656250000,129828.9687500000,118354.5312500000,131504.8125000000,151302.6562500000,,,
2.6159999957,20,175451.1250000000,208443.4218750000,163810.3593750000,161566.8593750000,129861.3906250000,118370.4062500000,131502.8593750000,153024.1250000000,,,
2.6199999957,20,175676.4218750000,206528.5937500000,164267.4375000000,162227.7500000000,130493.0546875000,118966.2031250000,132174.3906250000,151292.7500000000,,,
2.6239999956,20,175813.4062500000,192299.7343750000,164623.3906250000,162796.7187500000,131002.1406250000,119461.9843750000,132743.7500000000,148166.7500000000,,,
2.6279999958,20,175643.3750000000,184182.5937500000,164336.6406250000,162422.4531250000,130622.3359375000,119117.7734375000,132359.7968750000,147830.4531250000,,,
2.6319999958,20,175402.1250000000,195723.8750000000,163768.5937500000,161561.7500000000,129815.9296875000,118340.8750000000,131494.5937500000,151273.5312500000,,,
2.6359999957,20,175443.1562500000,208390.4531250000,163795.8750000000,161546.7343750000,129847.5000000000,118353.3437500000,131502.1250000000,153025.2031250000,,,
2.6399999957,20,175685.5468750000,206720.4843750000,164265.6875000000,162200.2500000000,130487.9062500000,118961.2187500000,132182.8750000000,151354.1250000000,,,
2.6439999957,20,175838.7343750000,192570.1406250000,164643.7812500000,162796.6250000000,131020.7812500000,119475.0234375000,132774.2656250000,148215.1562500000,,,
2.6479999959,20,175656.9843750000,184269.2031250000,164351.9531250000,162445.4375000000,130637.1171875000,119124.0000000000,132393.9375000000,147810.7656250000,,,
2.6519999958,20,175412.9218750000,195712.8750000000,163784.7187500000,161587.6093750000,129829.1796875000,118352.7578125000,131514.3906250000,151252.3281250000,,,
2.6559999958,20,175455.1718750000,208417.6718750000,163816.5625000000,161554.2656250000,129866.4062500000,118365.8984375000,131511.6250000000,153033.5937500000,,,
2.6599999957,20,175680.3906250000,206829.8281250000,164267.2500000000,162195.2343750000,130492.3281250000,118955.9609375000,132173.7031250000,151372.8437500000,,,
2.6639999957,20,175821.8281250000,192701.2968750000,164628.0625000000,162775.1406250000,131011.6328125000,119477.1093750000,132758.8750000000,148226.1562500000,,,
2.6679999956,20,175658.2343750000,184253.7812500000,164353.5625000000,162447.0156250000,130645.6953125000,119141.8359375000,132397.0000000000,147798.4218750000,,,
2.6719999958,20,175414.7968750000,195583.4062500000,163779.1718750000,161568.0625000000,129828.4062500000,118353.6406250000,131511.6562500000,151237.4687500000,,,
2.6759999958,20,175451.7187500000,208329.0468750000,163796.5156250000,161535.5000000000,129845.8125000000,118353.2109375000,131501.5156250000,153057.2812500000,,,
2.6799999957,20,175679.8593750000,206706.2031250000,164250.5312500000,162181.1093750000,130474.3593750000,118947.3203125000,132168.9531250000,151392.9687500000,,,
2.6839999957,20,175833.3437500000,192482.4218750000,164631.4062500000,162772.6875000000,131015.1718750000,119467.6171875000,132761.2968750000,148250.1718750000,,,
2.6879999957,21,175686.5312500000,183904.6718750000,164387.7656250000,162457.0312500000,130681.3984375000,119151.5468750000,132424.2500000000,147833.7031250000,,,
2.6919999956,21,175434.9687500000,195191.8281250000,163813.7343750000,161598.9843750000,129864.6093750000,118363.0859375000,131545.2812500000,151253.4843750000,,,
2.6959999956,21,175453.6718750000,208211.2812500000,163811.8593750000,161548.7812500000,129863.8046875000,118347.5546875000,131512.3281250000,153070.3593750000,,,
2.6999999955,21,175678.6875000000,206893.1406250000,164261.4531250000,162199.8750000000,130485.7031250000,118941.1562500000,132170.1093750000,151428.7187500000,,,
2.7039999955,21,175826.8437500000,192910.9062500000,164631.8125000000,162789.4375000000,131013.9687500000,119456.8046875000,132755.0468750000,148293.4843750000,,,
2.7079999954,21,175677.9531250000,184312.1562500000,164379.5312500000,162470.2968750000,130674.9062500000,119145.0546875000,132419.9218750000,147829.2656250000,,,
2.7119999956,21,175437.2812500000,195370.1250000000,163807.5937500000,161607.4375000000,129861.5000000000,118369.8125000000,131542.7656250000,151224.4062500000,,,
2.7159999956,21,175465.3125000000,208248.3750000000,163811.6250000000,161557.2031250000,129864.0781250000,118360.0781250000,131508.5625000000,153073.0156250000,,,
2.7199999955,21,175674.2031250000,207108.0312500000,164241.8437500000,162176.5156250000,130461.1875000000,118929.9921875000,132142.0156250000,151501.7343750000,,,
2.7239999955,21,175815.9062500000,193095.9062500000,164618.9843750000,162769.9531250000,131004.2265625000,119460.4843750000,132746.3281250000,148332.9062500000,,,
2.7279999955,21,175673.1562500000,184163.3593750000,164382.5000000000,162475.3437500000,130686.4921875000,119169.0625000000,132435.0000000000,147800.1718750000,,,
2.7319999957,21,175446.0000000000,195245.5625000000,163826.0781250000,161620.9843750000,129885.3984375000,118400.1796875000,131561.4843750000,151215.3437500000,,,
2.7359999956,21,175475.7968750000,208320.1718750000,163834.3906250000,161545.9375000000,129891.3515625000,118383.6562500000,131510.3906250000,153096.0312500000,,,
2.7399999956,21,175681.7968750000,207360.1562500000,164255.0625000000,162166.4375000000,130481.4921875000,118942.7343750000,132127.8281250000,151534.5781250000,,,
2.7439999955,21,175836.3593750000,193397.5625000000,164637.7343750000,162796.9062500000,131029.2578125000,119483.0156250000,132759.2031250000,148360.2187500000,,,
2.7479999955,21,175682.2812500000,184234.2343750000,164386.2812500000,162483.9843750000,130694.1640625000,119182.8203125000,132453.9062500000,147776.5468750000,,,
2.7519999954,21,175432.0000000000,195041.8437500000,163807.1875000000,161597.8906250000,129868.5312500000,118395.4609375000,131564.6250000000,151162.1093750000,,,
2.7559999956,21,175460.0468750000,208077.1406250000,163811.1875000000,161525.0312500000,129865.3125000000,118370.9453125000,131523.5781250000,153069.4218750000,,,
2.7599999956,21,175674.3593750000,207075.5468750000,164248.7968750000,162155.4375000000,130469.7968750000,118939.1953125000,132157.0468750000,151507.8906250000,,,
2.7639999955,21,175821.1875000000,193184.1718750000,164626.0781250000,162750.8281250000,131008.4921875000,119466.4140625000,132750.7812500000,148344.6875000000,,,
2.7679999955,21,175684.3906250000,184195.6093750000,164396.6562500000,162457.8750000000,130697.7031250000,119182.1250000000,132447.2031250000,147775.9843750000,,,
2.7719999955,21,175444.9531250000,195017.4375000000,163821.8437500000,161595.8125000000,129881.1328125000,118405.2734375000,131556.3906250000,151154.1093750000,,,
2.7759999956,21,175466.2968750000,208134.4531250000,163810.2031250000,161528.5000000000,129863.4609375000,118367.9921875000,131497.6718750000,153068.0625000000,,,
2.7799999956,21,175692.7656250000,206956.6406250000,164259.4687500000,162175.5468750000,130486.5937500000,118954.8828125000,132155.2500000000,151473.7187500000,,,
2.7839999956,21,175852.0625000000,192966.6250000000,164644.8281250000,162787.6562500000,131030.8671875000,119481.8359375000,132759.3281250000,148341.0937500000,,,
2.7879999955,21,175699.3125000000,184016.4062500000,164403.7500000000,162498.5156250000,130709.9609375000,119187.5390625000,132448.9218750000,147784.9843750000,,,
2.7919999955,21,175443.6875000000,194731.6406250000,163822.6093750000,161618.5312500000,129885.0000000000,118403.5546875000,131559.5781250000,151132.8125000000,,,
2.7959999954,21,175458.9843750000,207980.1562500000,163807.7500000000,161537.8906250000,129862.8984375000,118366.3828125000,131499.6093750000,153072.1562500000,,,
2.7999999956,21,175682.6562500000,206970.4062500000,164257.8906250000,162174.0468750000,130486.1875000000,118947.5625000000,132159.3437500000,151492.3906250000,,,
2.8039999956,21,175842.4531250000,193124.0625000000,164643.0000000000,162774.4687500000,131029.9218750000,119474.2968750000,132763.4843750000,148369.1718750000,,,
2.8079999955,21,175696.0937500000,184158.2500000000,164406.5000000000,162500.3437500000,130715.1640625000,119182.4687500000,132452.3281250000,147784.2187500000,,,
2.8119999955,21,175439.9687500000,194749.1406250000,163820.7343750000,161621.1093750000,129886.4218750000,118390.3593750000,131555.7187500000,151108.0000000000,,,
2.8159999955,22,175465.5312500000,208009.3906250000,163809.8750000000,161533.7343750000,129865.3671875000,118356.4062500000,131494.4531250000,153074.9531250000,,,
2.8199999954,22,175689.1718750000,207160.2031250000,164255.3437500000,162157.1562500000,130481.8984375000,118944.6406250000,132137.1718750000,151536.5468750000,,,
2.8239999954,22,175841.7031250000,193378.5312500000,164638.3906250000,162745.5468750000,131027.7265625000,119481.3203125000,132728.1406250000,148396.9375000000,,,
2.8279999953,22,175704.7812500000,184245.0468750000,164421.3437500000,162481.6250000000,130732.4921875000,119217.6640625000,132450.0781250000,147773.5156250000,,,
2.8319999953,22,175439.9687500000,194732.2968750000,163827.8281250000,161618.6250000000,129891.7812500000,118421.1250000000,131569.0468750000,151088.7812500000,,,
2.8359999952,22,175434.3281250000,208043.2656250000,163783.1562500000,161515.4687500000,129834.3046875000,118353.1093750000,131480.7500000000,153065.4843750000,,,
2.8399999954,22,175649.7187500000,207368.6562500000,164217.5468750000,162128.7187500000,130438.5000000000,118924.0937500000,132116.5937500000,151561.8593750000,,,
2.8439999954,22,175820.2500000000,193628.7031250000,164619.8437500000,162755.7656250000,131004.2031250000,119475.9296875000,132742.3593750000,148419.7343750000,,,
2.8479999953,22,175696.1406250000,184250.7031250000,164418.3593750000,162505.6718750000,130726.9140625000,119216.4296875000,132470.1093750000,147750.6562500000,,,
2.8519999953,22,175444.3281250000,194606.9218750000,163833.8750000000,161629.3281250000,129895.5390625000,118418.6328125000,131565.9375000000,151060.7187500000,,,
2.8559999953,22,175450.5000000000,208004.1093750000,163793.5156250000,161527.9062500000,129839.8046875000,118351.4453125000,131471.6093750000,153068.2656250000,,,
2.8599999954,22,175668.0781250000,207486.2968750000,164224.3906250000,162149.5625000000,130435.3046875000,118914.3593750000,132111.8437500000,151594.3125000000,,,
2.8639999954,22,175814.0312500000,193794.2968750000,164603.2968750000,162755.2343750000,130980.4687500000,119444.9296875000,132724.0156250000,148426.2031250000,,,
2.8679999954,22,175670.9531250000,184261.4843750000,164386.3906250000,162486.5000000000,130693.8437500000,119183.8125000000,132449.1093750000,147703.5781250000,,,
2.8719999953,22,175426.5781250000,194481.0156250000,163816.8437500000,161617.4375000000,129878.9062500000,118405.3593750000,131562.3125000000,151011.5781250000,,,
2.8759999953,22,175448.9531250000,207906.1562500000,163797.9687500000,161539.9218750000,129844.9765625000,118354.6328125000,131473.6718750000,153063.7343750000,,,
2.8799999952,22,175667.1250000000,207440.5468750000,164230.7656250000,162157.0937500000,130443.9687500000,118924.6328125000,132108.5781250000,151609.8750000000,,,
2.8839999954,22,175835.6718750000,193768.5468750000,164634.5000000000,162774.8125000000,131012.0625000000,119476.6015625000,132749.9687500000,148461.3593750000,,,
2.8879999954,22,175704.9687500000,184154.7500000000,164430.2500000000,162528.4218750000,130738.7421875000,119221.8203125000,132488.3437500000,147718.6875000000,,,
2.8919999953,22,175448.2187500000,194271.6406250000,163839.8906250000,161630.6562500000,129906.2656250000,118426.5468750000,131579.0312500000,151000.9062500000,,,
2.8959999953,22,175449.7031250000,207795.1875000000,163790.4843750000,161517.4531250000,129841.2265625000,118352.0312500000,131478.7343750000,153062.8750000000,,,
2.8999999953,22,175662.1562500000,207420.8593750000,164217.9218750000,162132.2031250000,130435.6015625000,118915.5625000000,132120.3281250000,151607.9687500000,,,
2.9039999954,22,175810.8125000000,193788.8750000000,164600.4531250000,162742.9531250000,130983.0937500000,119449.1093750000,132733.7500000000,148439.0468750000,,,
2.9079999954,22,175679.2500000000,184114.5000000000,164393.8281250000,162507.2656250000,130708.9687500000,119207.9765625000,132470.9687500000,147676.8750000000,,,
2.9119999954,22,175436.1875000000,194123.6406250000,163819.5312500000,161646.7343750000,129886.3671875000,118428.6093750000,131586.2656250000,150959.3281250000,,,
2.9159999953,22,175448.1718750000,207710.7812500000,163782.9218750000,161529.6250000000,129828.1328125000,118360.0234375000,131483.3281250000,153055.4218750000,,,
2.9199999953,22,175665.3281250000,207466.7031250000,164214.6718750000,162141.1093750000,130425.1406250000,118922.9453125000,132102.1406250000,151630.8750000000,,,
2.9239999952,22,175833.3906250000,193911.6406250000,164620.4062500000,162767.2187500000,130995.6484375000,119474.6171875000,132726.6875000000,148481.4531250000,,,
2.9279999954,22,175699.3906250000,184150.2187500000,164420.0781250000,162522.5000000000,130731.2109375000,119233.7812500000,132476.9531250000,147688.5156250000,,,
2.9319999954,22,175434.1406250000,194045.3750000000,163821.2812500000,161628.9375000000,129888.5937500000,118436.8750000000,131578.7656250000,150943.3750000000,,,
2.9359999953,22,175436.3125000000,207687.1718750000,163774.3906250000,161506.8437500000,129820.7578125000,118351.4453125000,131468.6875000000,153057.7500000000,,,
2.9399999953,22,175650.1093750000,207598.3593750000,164203.6562500000,162111.9531250000,130411.9140625000,118906.7656250000,132088.2968750000,151662.8750000000,,,
2.9439999952,23,175804.5781250000,194086.3125000000,164601.3437500000,162735.7812500000,130977.4843750000,119443.9843750000,132704.7500000000,148486.5468750000,,,
