Time:250Hz,Epoch,Channel 1,Channel 2,Channel 3,Channel 4,Channel 5,Channel 6,Channel 7,Channel 8,Event Id,Event Date,Event Duration
0.0000000000,0,177938.6562500000,207988.2812500000,163036.0312500000,160053.9531250000,129613.6406250000,117801.6718750000,130745.9296875000,151311.7656250000,,,
0.0040000000,0,177916.7187500000,197857.5468750000,163392.9531250000,160676.5156250000,130270.3203125000,118401.5234375000,131450.1406250000,148102.9687500000,,,
0.0079999999,0,177761.0156250000,182658.6718750000,163384.9062500000,160845.0468750000,130402.5859375000,118508.0312500000,131603.7812500000,145611.7500000000,,,
0.0119999999,0,177680.1718750000,184641.8125000000,162923.3281250000,160107.8593750000,129660.9765625000,117822.1875000000,130823.6640625000,147783.5625000000,,,
0.0159999998,0,177792.4218750000,201268.8906250000,162724.4375000000,159606.2031250000,129199.6093750000,117408.9687500000,130317.0781250000,151418.4218750000,,,
0.0199999998,0,177916.1250000000,208000.2343750000,163006.0937500000,159994.4843750000,129588.0781250000,117770.7187500000,130714.1484375000,151332.4062500000,,,
0.0240000000,0,177920.1718750000,198131.8281250000,163382.0312500000,160687.1718750000,130259.8906250000,118386.3906250000,131430.5625000000,148181.5781250000,,,
0.0279999999,0,177773.7031250000,182857.1093750000,163390.1875000000,160829.5937500000,130410.7343750000,118516.9062500000,131611.1562500000,145647.2656250000,,,
0.0319999999,0,177694.0156250000,184555.1250000000,162937.3750000000,160106.9062500000,129679.3515625000,117836.1640625000,130844.3671875000,147767.2031250000,,,
0.0359999998,0,177813.7656250000,201129.3593750000,162744.7500000000,159648.0312500000,129224.8281250000,117426.6171875000,130344.8593750000,151427.4062500000,,,
0.0399999998,0,177946.6250000000,207974.4375000000,163030.8281250000,160049.4687500000,129614.5781250000,117790.2421875000,130741.5078125000,151392.4218750000,,,
0.0440000000,0,177966.1562500000,198256.7968750000,163419.8593750000,160751.1718750000,130296.6328125000,118405.3828125000,131461.6562500000,148264.7031250000,,,
0.0480000000,0,177802.4062500000,182987.9218750000,163416.4218750000,160856.6250000000,130440.3515625000,118522.0078125000,131631.3281250000,145665.5625000000,,,
0.0519999999,0,177694.2500000000,184480.9375000000,162936.8750000000,160099.3906250000,129693.4609375000,117832.3515625000,130848.3906250000,147713.2343750000,,,
0.0559999999,0,177807.5468750000,200988.3906250000,162728.8437500000,159644.8281250000,129228.8750000000,117408.3750000000,130326.8359375000,151402.2187500000,,,
0.0599999998,0,177939.0000000000,208062.1250000000,163012.8281250000,160033.6406250000,129615.1406250000,117762.5937500000,130721.2265625000,151415.5781250000,,,
0.0639999998,0,177951.3437500000,198551.0312500000,163405.7812500000,160706.0000000000,130289.1250000000,118374.8828125000,131452.0312500000,148298.4375000000,,,
0.0680000000,0,177810.5312500000,183198.3281250000,163436.4375000000,160865.7968750000,130456.4453125000,118513.9296875000,131650.3750000000,145669.9062500000,,,
0.0719999999,0,177710.3750000000,184480.2500000000,162959.7500000000,160126.6406250000,129715.0781250000,117832.3046875000,130874.3281250000,147682.5781250000,,,
0.0759999999,0,177822.3750000000,201024.5156250000,162730.3750000000,159674.3593750000,129231.2890625000,117403.5468750000,130337.3281250000,151406.1093750000,,,
0.0799999998,0,177965.2968750000,208265.9375000000,163021.0156250000,160087.5000000000,129617.3359375000,117759.2890625000,130729.8125000000,151473.4843750000,,,
0.0839999998,0,177976.2656250000,198873.5937500000,163423.5000000000,160740.0937500000,130296.5859375000,118364.5078125000,131463.3750000000,148352.4375000000,,,
0.0880000000,0,177822.4687500000,183542.3750000000,163451.6718750000,160883.8593750000,130460.0078125000,118490.3828125000,131659.0937500000,145680.8281250000,,,
0.0919999999,0,177722.7343750000,184690.4218750000,162971.5468750000,160150.6406250000,129722.9140625000,117816.2343750000,130890.6406250000,147676.0625000000,,,
0.0959999999,0,177832.2500000000,201177.7812500000,162729.6406250000,159684.1562500000,129232.5234375000,117403.5468750000,130351.1093750000,151458.4062500000,,,
0.0999999999,0,177960.7812500000,208411.2031250000,163009.8593750000,160093.9218750000,129606.1562500000,117759.4296875000,130731.6093750000,151543.8906250000,,,
0.1039999998,0,177969.2343750000,199003.7656250000,163421.8906250000,160757.5781250000,130287.7343750000,118370.2734375000,131463.6406250000,148412.4375000000,,,
0.1079999998,0,177793.8750000000,183550.5937500000,163433.9375000000,160853.5468750000,130437.1328125000,118488.4765625000,131640.3125000000,145728.7500000000,,,
0.1120000000,0,177691.1093750000,184387.3593750000,162945.2656250000,160142.1093750000,129697.6953125000,117817.8437500000,130869.5859375000,147697.4375000000,,,
0.1159999999,0,177795.2968750000,200839.8437500000,162685.8750000000,159657.8750000000,129190.2812500000,117375.3046875000,130307.0390625000,151471.0625000000,,,
0.1199999999,0,177920.3437500000,208249.3437500000,162961.5937500000,160024.7187500000,129557.7968750000,117716.9921875000,130685.7734375000,151563.6875000000,,,
0.1239999998,0,177937.0781250000,199090.5625000000,163382.3906250000,160711.3125000000,130252.1953125000,118351.1250000000,131435.8281250000,148435.1562500000,,,
0.1279999998,1,177783.1093750000,183872.5000000000,163418.2968750000,160890.4218750000,130430.6093750000,118494.1640625000,131643.7968750000,145693.0781250000,,,
0.1319999998,1,177702.6406250000,184597.6718750000,162956.6093750000,160199.0312500000,129717.5234375000,117835.4687500000,130896.1093750000,147600.2656250000,,,
0.1359999997,1,177815.6250000000,200695.7812500000,162707.0625000000,159687.9687500000,129212.3281250000,117406.8750000000,130348.7500000000,151394.3906250000,,,
0.1399999997,1,177930.8437500000,207854.1406250000,162971.2031250000,160030.3750000000,129569.3828125000,117748.9921875000,130710.5781250000,151512.6093750000,,,
0.1439999996,1,177938.7343750000,198438.1093750000,163381.5000000000,160705.6718750000,130258.1171875000,118362.9765625000,131440.4687500000,148377.0937500000,,,
0.1479999996,1,177794.8281250000,182697.7812500000,163432.5937500000,160898.9218750000,130456.5468750000,118516.0781250000,131668.5000000000,145607.5937500000,,,
0.1519999998,1,177710.8750000000,183143.8125000000,162967.7656250000,160206.7031250000,129741.8750000000,117857.0546875000,130927.0625000000,147501.2187500000,,,
0.1559999997,1,177821.7187500000,199725.6562500000,162708.6718750000,159703.7343750000,129221.6875000000,117416.7187500000,130364.9218750000,151364.3750000000,,,
0.1599999997,1,177939.1875000000,207528.3906250000,162972.6562500000,160059.4218750000,129574.0781250000,117759.5859375000,130722.3828125000,151536.1718750000,,,
0.1639999996,1,177935.3906250000,198514.5000000000,163376.8906250000,160729.8437500000,130252.7812500000,118365.7968750000,131440.7343750000,148388.6406250000,,,
0.1679999996,1,177777.9062500000,182772.6875000000,163424.3906250000,160904.5625000000,130447.4062500000,118512.7265625000,131668.4531250000,145568.8906250000,,,
0.1719999998,1,177690.5781250000,182920.4062500000,162957.3906250000,160197.4218750000,129731.7656250000,117856.6015625000,130924.4375000000,147456.5781250000,,,
0.1759999997,1,177803.3906250000,199464.9218750000,162690.7187500000,159670.5000000000,129201.5703125000,117405.9609375000,130345.1875000000,151372.1250000000,,,
0.1799999997,1,177926.4218750000,207457.1718750000,162958.4062500000,160018.2187500000,129557.2578125000,117741.3750000000,130707.5000000000,151583.9687500000,,,
0.1839999997,1,177933.5312500000,198635.2500000000,163376.6406250000,160698.1718750000,130250.2031250000,118356.7265625000,131449.0781250000,148465.8750000000,,,
0.1879999996,1,177780.0625000000,183053.6875000000,163434.9843750000,160901.9062500000,130455.2109375000,118509.8281250000,131684.0625000000,145643.6718750000,,,
0.1919999996,1,177698.4843750000,183276.5156250000,162972.0937500000,160209.6875000000,129746.4609375000,117860.2734375000,130939.7734375000,147495.3125000000,,,
0.1959999998,1,177824.4218750000,199817.9218750000,162709.5312500000,159679.5468750000,129219.1953125000,117410.3125000000,130362.2968750000,151407.8750000000,,,
0.1999999997,1,177940.0468750000,207811.8437500000,162967.9843750000,160006.8593750000,129559.6718750000,117738.0234375000,130717.1250000000,151622.6406250000,,,
0.2039999997,1,177941.4531250000,199030.7500000000,163385.9062500000,160709.0312500000,130247.1484375000,118357.6093750000,131450.7656250000,148527.5625000000,,,
0.2079999996,1,177783.7656250000,183467.5156250000,163445.8125000000,160922.9843750000,130452.6093750000,118517.7421875000,131688.3750000000,145715.0000000000,,,
0.2119999996,1,177697.7187500000,183520.2187500000,162981.0000000000,160193.5625000000,129745.7109375000,117870.1718750000,130959.0312500000,147509.6093750000,,,
0.2159999998,1,177816.6093750000,199948.1406250000,162706.1718750000,159645.1250000000,129205.4062500000,117407.4140625000,130374.3671875000,151376.7031250000,,,
0.2199999997,1,177936.7812500000,208005.6875000000,162967.4531250000,159987.8281250000,129549.9375000000,117734.1875000000,130717.3125000000,151611.2343750000,,,
0.2239999997,1,177936.3281250000,199454.7968750000,163386.9687500000,160676.7343750000,130237.8671875000,118347.9531250000,131442.6093750000,148558.2656250000,,,
0.2279999997,1,177764.7968750000,184082.3906250000,163440.1093750000,160884.7968750000,130441.5312500000,118511.9218750000,131678.8281250000,145738.7343750000,,,
0.2319999996,1,177680.5781250000,184045.0000000000,162977.9062500000,160204.2031250000,129744.9062500000,117871.1953125000,130955.1953125000,147481.7656250000,,,
0.2359999996,1,177810.8437500000,200211.0312500000,162703.3281250000,159675.6875000000,129208.4062500000,117404.8906250000,130367.7968750000,151331.4062500000,,,
0.2399999998,1,177922.9375000000,208153.5625000000,162953.9062500000,159991.1562500000,129537.7343750000,117719.2187500000,130698.3515625000,151581.4218750000,,,
0.2439999997,1,177911.0781250000,199730.2656250000,163365.7812500000,160657.5781250000,130213.7812500000,118322.4218750000,131416.0781250000,148542.8750000000,,,
0.2479999997,1,177747.2812500000,184495.7968750000,163432.8437500000,160868.4062500000,130430.9609375000,118491.2421875000,131662.7343750000,145710.3750000000,,,
0.2519999996,1,177672.4531250000,184231.0156250000,162981.8750000000,160200.8593750000,129750.4843750000,117862.4765625000,130956.1875000000,147399.6406250000,,,
0.2559999996,2,177811.6250000000,200069.5312500000,162709.0937500000,159676.2500000000,129216.1875000000,117406.9843750000,130377.0781250000,151247.2187500000,,,
0.2599999995,2,177931.0156250000,207954.3281250000,162958.5937500000,159998.0312500000,129542.4765625000,117723.1875000000,130707.3125000000,151538.4531250000,,,
0.2639999995,2,177914.5625000000,199677.5937500000,163361.5937500000,160644.1250000000,130208.2578125000,118322.3984375000,131412.9375000000,148536.7812500000,,,
0.2679999995,2,177741.2500000000,184438.7812500000,163423.6875000000,160839.0625000000,130424.3359375000,118492.5312500000,131656.0625000000,145681.6562500000,,,
0.2719999994,2,177669.2343750000,183908.9843750000,162983.9375000000,160193.7968750000,129758.6953125000,117876.2343750000,130967.0546875000,147326.5781250000,,,
0.2759999994,2,177823.6093750000,199643.2500000000,162726.5781250000,159697.0000000000,129236.5468750000,117419.2656250000,130398.0468750000,151191.7656250000,,,
0.2799999996,2,177948.7968750000,207671.5312500000,162976.3281250000,160014.3281250000,129557.9843750000,117722.4140625000,130719.9140625000,151528.8437500000,,,
0.2839999995,2,177924.3906250000,199591.0937500000,163360.2031250000,160635.1093750000,130203.2421875000,118308.3125000000,131405.1718750000,148559.4843750000,,,
0.2879999995,2,177755.0781250000,184422.6562500000,163420.2812500000,160835.2812500000,130420.1796875000,118485.0937500000,131649.6250000000,145708.6093750000,,,
0.2919999994,2,177676.4218750000,183700.6562500000,162981.4687500000,160202.1093750000,129758.7421875000,117874.4921875000,130965.2812500000,147302.4062500000,,,
0.2959999994,2,177820.8281250000,199367.5000000000,162717.1250000000,159690.6250000000,129224.9062500000,117414.5468750000,130387.4843750000,151169.9687500000,,,
0.2999999996,2,177943.8593750000,207597.4843750000,162962.3593750000,159995.2343750000,129536.8750000000,117712.7578125000,130701.4062500000,151559.3125000000,,,
0.3039999995,2,177935.6718750000,199766.0000000000,163362.8593750000,160638.0000000000,130197.1562500000,118302.2265625000,131401.4375000000,148645.6250000000,,,
0.3079999995,2,177769.3593750000,184704.6562500000,163430.0468750000,160854.4843750000,130422.6484375000,118479.8671875000,131656.5156250000,145797.1718750000,,,
0.3119999995,2,177688.4531250000,183796.5000000000,163002.1562500000,160223.5468750000,129776.6328125000,117881.7890625000,130985.1562500000,147327.6718750000,,,
0.3159999994,2,177822.1093750000,199355.5625000000,162727.6093750000,159688.8750000000,129234.2656250000,117414.1484375000,130396.6015625000,151173.4531250000,,,
0.3199999994,2,177943.2500000000,207739.3437500000,162963.8593750000,159988.2656250000,129535.5078125000,117704.1484375000,130704.6250000000,151598.1562500000,,,
0.3239999996,2,177936.5937500000,200168.9375000000,163361.6250000000,160622.4687500000,130187.2578125000,118286.3437500000,131399.2343750000,148722.3906250000,,,
0.3279999995,2,177769.4375000000,185216.3750000000,163435.0625000000,160846.0937500000,130418.4062500000,118468.4687500000,131660.6250000000,145861.3593750000,,,
0.3319999995,2,177677.2187500000,184054.4687500000,163006.8750000000,160222.9062500000,129780.8203125000,117878.5703125000,130997.4687500000,147312.0625000000,,,
0.3359999994,2,177806.0781250000,199287.6406250000,162724.4375000000,159688.0468750000,129234.9921875000,117408.0546875000,130405.6953125000,151110.6093750000,,,
0.3399999994,2,177937.4531250000,207625.2968750000,162960.6875000000,159981.2968750000,129532.5781250000,117695.8828125000,130706.8515625000,151566.4218750000,,,
0.3439999996,2,177950.3750000000,200250.7812500000,163370.4531250000,160640.5000000000,130192.6484375000,118286.3203125000,131401.3593750000,148755.5937500000,,,
0.3479999995,2,177788.3125000000,185405.4218750000,163451.9062500000,160856.9843750000,130434.8203125000,118479.3593750000,131665.7656250000,145899.4218750000,,,
0.3519999995,2,177686.5625000000,184113.6406250000,163022.7812500000,160224.7812500000,129803.0000000000,117896.1406250000,131012.9218750000,147282.1093750000,,,
0.3559999994,2,177828.5468750000,199218.4531250000,162752.7656250000,159696.9531250000,129268.4921875000,117440.0312500000,130439.4062500000,151087.8906250000,,,
0.3599999994,2,177960.1093750000,207613.1718750000,162980.6406250000,159980.4062500000,129553.3671875000,117720.0546875000,130729.1718750000,151588.8437500000,,,
0.3639999994,2,177964.9218750000,200461.3750000000,163378.5781250000,160623.9218750000,130196.8046875000,118293.8046875000,131410.5312500000,148804.6250000000,,,
0.3679999996,2,177801.1406250000,185749.0156250000,163462.4218750000,160854.2187500000,130439.5468750000,118490.1953125000,131683.0937500000,145940.8125000000,,,
0.3719999995,2,177718.0781250000,184214.9687500000,163057.1093750000,160269.6875000000,129833.5781250000,117935.8906250000,131051.9453125000,147295.5156250000,,,
0.3759999995,2,177851.3437500000,199139.3750000000,162775.3281250000,159744.4218750000,129286.9453125000,117466.5000000000,130457.2968750000,151086.7968750000,,,
0.3799999994,2,177977.7031250000,207632.8906250000,162995.0000000000,160020.1093750000,129564.4218750000,117732.7890625000,130736.6250000000,151603.4062500000,,,
0.3839999994,3,177976.4687500000,200605.8750000000,163383.1562500000,160638.8281250000,130199.4296875000,118296.5937500000,131409.8593750000,148835.6406250000,,,
0.3879999993,3,177821.1718750000,185850.0468750000,163478.0000000000,160895.9843750000,130455.5000000000,118498.1562500000,131695.1718750000,145962.9687500000,,,
0.3919999993,3,177726.7343750000,184091.7187500000,163067.4218750000,160302.9687500000,129846.6171875000,117935.2421875000,131065.7890625000,147270.0312500000,,,
0.3959999993,3,177850.7343750000,198927.3437500000,162775.7968750000,159755.3750000000,129287.0234375000,117457.4609375000,130462.6953125000,151050.6093750000,,,
0.3999999992,3,177968.2343750000,207527.2812500000,162984.7812500000,160003.7656250000,129550.5234375000,117720.3203125000,130729.5156250000,151588.9531250000,,,
0.4039999992,3,177966.6250000000,200641.5781250000,163371.9531250000,160628.5312500000,130184.6250000000,118283.2578125000,131401.8593750000,148839.6562500000,,,
0.4079999994,3,177815.2187500000,185960.6875000000,163472.9687500000,160917.5625000000,130450.4375000000,118493.8671875000,131694.8437500000,145957.3906250000,,,
0.4119999993,3,177707.1875000000,184122.3593750000,163055.1093750000,160297.0937500000,129838.2734375000,117928.8593750000,131062.4843750000,147216.3906250000,,,
0.4159999993,3,177815.9687500000,198930.1093750000,162746.3750000000,159695.6406250000,129261.0312500000,117435.7109375000,130440.9687500000,151000.0781250000,,,
0.4199999992,3,177924.3593750000,207577.0625000000,162939.3437500000,159915.9843750000,129505.4921875000,117679.2812500000,130682.7109375000,151561.7343750000,,,
0.4239999992,3,177941.0937500000,200775.3281250000,163342.9062500000,160573.6875000000,130154.4531250000,118253.0859375000,131369.6250000000,148842.5312500000,,,
0.4279999994,3,177800.9218750000,186087.2656250000,163462.0000000000,160859.9843750000,130441.0156250000,118481.0781250000,131686.2031250000,145956.1250000000,,,
0.4319999993,3,177703.5625000000,184104.2968750000,163057.6250000000,160268.3906250000,129844.4687500000,117931.6796875000,131070.3437500000,147193.2343750000,,,
0.4359999993,3,177843.9687500000,198849.9062500000,162772.1093750000,159739.4687500000,129287.0781250000,117455.7734375000,130469.2109375000,151004.5000000000,,,
0.4399999992,3,177979.5000000000,207619.3125000000,162986.4062500000,160014.5781250000,129550.9296875000,117713.1562500000,130729.5156250000,151619.3125000000,,,
0.4439999992,3,177977.0156250000,200993.7500000000,163369.4375000000,160618.0156250000,130178.7265625000,118272.5078125000,131389.1250000000,148916.4531250000,,,
0.4479999992,3,177794.6718750000,186434.8437500000,163453.6562500000,160843.0625000000,130432.0312500000,118474.4531250000,131668.1250000000,145986.1093750000,,,
0.4519999993,3,177686.3437500000,184402.3281250000,163049.6093750000,160261.8437500000,129839.1328125000,117927.9218750000,131058.6796875000,147171.1875000000,,,
0.4559999993,3,177815.8125000000,199040.0000000000,162751.7968750000,159702.4687500000,129269.4843750000,117440.6953125000,130449.7343750000,150974.7031250000,,,
0.4599999993,3,177944.2812500000,207797.5468750000,162955.0625000000,159957.3437500000,129520.8359375000,117689.3359375000,130699.2656250000,151609.9843750000,,,
0.4639999992,3,177941.1250000000,201289.0781250000,163334.7187500000,160580.4687500000,130143.9375000000,118247.2421875000,131354.7968750000,148927.8281250000,,,
0.4679999992,3,177768.1250000000,186806.4687500000,163427.3593750000,160832.1406250000,130406.3906250000,118456.1015625000,131643.6093750000,145996.5156250000,,,
0.4719999994,3,177674.5937500000,184621.8593750000,163034.6718750000,160265.6875000000,129827.4062500000,117920.8984375000,131042.7968750000,147154.2656250000,,,
0.4759999993,3,177823.1875000000,199085.5937500000,162749.6250000000,159716.5625000000,129270.0468750000,117444.8281250000,130445.6562500000,150961.1250000000,,,
0.4799999993,3,177954.0781250000,207844.9687500000,162956.3906250000,159966.5312500000,129521.3437500000,117690.3046875000,130692.4531250000,151619.6406250000,,,
0.4839999992,3,177943.3437500000,201444.9531250000,163332.9531250000,160579.4218750000,130139.1640625000,118243.0312500000,131343.7968750000,148964.0312500000,,,
0.4879999992,3,177768.8750000000,186992.4062500000,163434.2031250000,160838.2343750000,130412.3437500000,118466.7500000000,131646.4062500000,146026.0781250000,,,
0.4919999992,3,177682.5781250000,184643.0000000000,163056.2812500000,160291.0312500000,129851.2265625000,117949.4062500000,131065.3046875000,147148.0468750000,,,
0.4959999993,3,177832.3125000000,198970.7968750000,162764.4843750000,159742.2187500000,129286.0859375000,117465.7812500000,130461.0312500000,150961.0781250000,,,
0.4999999993,3,177967.5625000000,207768.0468750000,162966.0781250000,159983.7343750000,129531.9375000000,117706.9609375000,130706.3203125000,151648.5468750000,,,
0.5039999993,3,177969.6093750000,201514.7343750000,163353.3437500000,160602.4843750000,130158.3125000000,118269.5859375000,131368.0781250000,149026.7968750000,,,
0.5079999992,3,177801.6718750000,187204.1562500000,163459.2812500000,160877.6875000000,130434.1562500000,118497.4921875000,131672.0468750000,146100.1093750000,,,
0.5119999992,4,177692.4218750000,184724.7187500000,163058.7031250000,160314.7500000000,129855.4921875000,117965.2031250000,131076.9218750000,147156.2031250000,,,
0.5159999991,4,177823.2187500000,198868.6093750000,162744.9375000000,159733.7968750000,129270.7421875000,117458.9375000000,130449.0937500000,150921.6250000000,,,
0.5199999991,4,177953.7343750000,207666.4375000000,162935.5000000000,159956.7187500000,129502.9140625000,117683.6562500000,130675.0156250000,151630.7656250000,,,
0.5239999990,4,177962.1562500000,201543.0312500000,163331.2031250000,160572.5625000000,130135.3046875000,118248.8984375000,131339.5625000000,149049.2500000000,,,
0.5279999990,4,177798.6406250000,187277.4375000000,163453.2031250000,160863.1250000000,130428.7578125000,118494.7500000000,131661.5625000000,146120.2812500000,,,
0.5319999990,4,177694.9843750000,184559.0156250000,163067.9843750000,160318.5312500000,129865.5546875000,117975.9375000000,131082.9218750000,147130.0156250000,,,
0.5359999991,4,177830.0781250000,198476.2031250000,162757.1562500000,159744.2031250000,129282.0625000000,117464.4375000000,130458.1875000000,150883.4218750000,,,
0.5399999991,4,177961.2656250000,207338.2500000000,162947.1406250000,159968.6562500000,129511.6875000000,117688.2968750000,130683.6250000000,151626.4218750000,,,
0.5439999991,4,177965.5781250000,201355.5000000000,163335.3125000000,160577.5000000000,130134.8984375000,118250.2187500000,131340.1718750000,149071.8593750000,,,
0.5479999990,4,177795.9062500000,187128.3593750000,163447.7812500000,160857.9687500000,130421.7578125000,118496.6875000000,131653.6406250000,146136.3125000000,,,
0.5519999990,4,177689.3437500000,184285.3281250000,163062.4843750000,160309.8593750000,129865.4140625000,117980.5703125000,131083.3750000000,147090.9218750000,,,
0.5559999992,4,177833.1718750000,198147.3125000000,162757.5156250000,159740.4843750000,129284.7421875000,117464.0078125000,130464.2500000000,150832.8125000000,,,
0.5599999991,4,177968.1093750000,207109.1562500000,162944.7343750000,159963.2343750000,129509.9687500000,117674.9062500000,130686.3359375000,151607.6250000000,,,
0.5639999991,4,177969.6406250000,201286.8125000000,163324.7187500000,160568.8750000000,130126.7734375000,118228.8671875000,131335.5937500000,149087.9062500000,,,
0.5679999990,4,177799.4687500000,187090.2187500000,163441.9375000000,160861.4375000000,130420.9062500000,118480.4062500000,131653.3281250000,146148.5000000000,,,
0.5719999990,4,177688.1718750000,184046.3437500000,163065.7031250000,160340.2812500000,129876.9531250000,117981.2187500000,131092.7187500000,147055.6093750000,,,
0.5759999990,4,177820.3906250000,197823.4843750000,162755.1250000000,159748.8437500000,129287.8046875000,117457.3046875000,130461.9921875000,150788.5312500000,,,
0.5799999991,4,177951.8281250000,206912.3437500000,162935.4687500000,159944.3281250000,129500.1796875000,117659.2968750000,130671.2343750000,151597.4843750000,,,
0.5839999991,4,177962.5468750000,201300.6406250000,163317.9375000000,160560.8906250000,130117.7890625000,118218.2421875000,131319.4687500000,149111.5312500000,,,
0.5879999991,4,177813.7500000000,187136.9218750000,163454.9687500000,160883.8750000000,130437.3437500000,118489.8437500000,131666.0937500000,146171.0781250000,,,
0.5919999990,4,177701.7031250000,183935.6250000000,163085.3281250000,160363.0468750000,129901.6250000000,117988.1953125000,131106.4218750000,147035.1250000000,,,
0.5959999990,4,177828.9062500000,197670.3281250000,162769.8437500000,159766.9843750000,129303.0937500000,117452.3125000000,130468.3203125000,150764.2031250000,,,
0.5999999992,4,177957.7031250000,206905.0937500000,162946.7656250000,159945.5312500000,129509.6484375000,117648.3828125000,130679.8984375000,151603.3593750000,,,
0.6039999991,4,177967.5937500000,201419.2031250000,163324.9843750000,160548.9843750000,130123.3906250000,118207.6484375000,131327.8593750000,149142.8593750000,,,
0.6079999991,4,177804.8125000000,187235.3593750000,163447.2343750000,160852.2656250000,130431.3906250000,118477.1562500000,131667.4062500000,146191.2968750000,,,
0.6119999990,4,177690.5312500000,183842.5468750000,163076.6093750000,160328.9375000000,129900.3359375000,117990.0937500000,131122.5468750000,147022.7343750000,,,
0.6159999990,4,177811.0156250000,197578.7812500000,162756.4062500000,159729.0625000000,129292.5234375000,117453.9765625000,130475.4843750000,150749.7500000000,,,
0.6199999989,4,177937.9843750000,207005.2500000000,162930.8593750000,159923.3593750000,129491.0625000000,117641.4375000000,130667.6640625000,151615.0312500000,,,
0.6239999991,4,177956.9531250000,201678.4375000000,163313.0781250000,160538.0312500000,130107.2187500000,118201.7734375000,131311.8750000000,149187.4843750000,,,
0.6279999991,4,177808.9218750000,187535.2812500000,163446.1718750000,160851.6406250000,130426.8828125000,118484.6171875000,131662.3593750000,146239.3593750000,,,
0.6319999991,4,177687.8125000000,184011.1562500000,163078.1718750000,160336.5156250000,129899.1093750000,117999.0546875000,131125.5937500000,147026.9375000000,,,
0.6359999990,4,177805.9687500000,197625.6093750000,162756.0312500000,159743.3750000000,129287.5625000000,117449.3359375000,130473.7968750000,150741.2187500000,,,
0.6399999990,5,177947.2343750000,207073.7812500000,162936.6562500000,159945.2187500000,129490.7109375000,117637.8671875000,130663.4296875000,151634.7656250000,,,
0.6439999989,5,177964.9687500000,201850.5468750000,163313.9843750000,160553.9218750000,130102.3906250000,118199.1484375000,131298.0156250000,149223.8593750000,,,
0.6479999989,5,177803.3437500000,187759.1406250000,163442.6562500000,160852.4687500000,130424.5234375000,118485.8203125000,131654.0000000000,146257.4687500000,,,
0.6519999988,5,177671.4062500000,184143.5781250000,163071.7343750000,160331.9843750000,129899.8593750000,118000.7421875000,131129.9687500000,146992.8750000000,,,
0.6559999988,5,177785.5312500000,197673.5156250000,162737.2343750000,159717.4218750000,129274.7968750000,117437.2656250000,130468.5156250000,150688.2968750000,,,
0.6599999988,5,177925.7031250000,207078.1718750000,162903.1562500000,159901.0156250000,129458.3906250000,117606.0312500000,130642.5078125000,151586.5156250000,,,
0.6639999989,5,177950.0781250000,201847.8437500000,163289.5781250000,160523.9218750000,130076.9062500000,118172.8046875000,131291.4687500000,149200.9531250000,,,
0.6679999989,5,177791.4843750000,187673.5000000000,163428.0156250000,160851.7968750000,130409.8281250000,118472.0625000000,131654.3437500000,146222.6250000000,,,
0.6719999989,5,177683.2500000000,183896.3593750000,163081.5468750000,160390.7500000000,129909.4296875000,118009.0078125000,131139.6250000000,146942.8281250000,,,
0.6759999988,5,177808.1406250000,197468.1250000000,162757.4062500000,159781.6250000000,129290.1640625000,117449.8203125000,130477.9296875000,150654.1562500000,,,
0.6799999988,5,177937.8750000000,207120.4531250000,162915.5937500000,159915.2343750000,129466.1718750000,117617.4531250000,130646.6093750000,151586.4843750000,,,
0.6839999990,5,177958.9843750000,202091.5156250000,163293.5468750000,160522.4218750000,130077.8984375000,118172.3515625000,131288.8906250000,149212.2812500000,,,
0.6879999989,5,177806.5000000000,188014.8906250000,163437.6406250000,160866.7187500000,130418.2734375000,118468.3593750000,131658.1562500000,146227.8281250000,,,
0.6919999989,5,177685.7968750000,184109.8281250000,163088.1718750000,160388.1875000000,129920.0546875000,118008.5781250000,131151.5156250000,146898.8125000000,,,
0.6959999988,5,177802.4531250000,197504.2500000000,162756.2812500000,159779.5156250000,129292.9531250000,117445.0703125000,130481.7656250000,150602.0312500000,,,
0.6999999988,5,177923.5781250000,207144.2343750000,162896.9531250000,159908.9531250000,129447.7421875000,117594.6875000000,130629.7656250000,151559.1250000000,,,
0.7039999987,5,177923.8750000000,202202.1562500000,163251.6875000000,160457.8125000000,130035.4921875000,118134.5312500000,131248.0937500000,149194.5937500000,,,
0.7079999989,5,177773.8593750000,188140.1250000000,163402.7656250000,160810.4218750000,130384.5625000000,118450.2812500000,131625.6093750000,146214.0156250000,,,
0.7119999989,5,177682.0781250000,184014.7968750000,163088.2500000000,160370.8281250000,129921.9843750000,118023.4062500000,131152.5000000000,146870.2187500000,,,
0.7159999989,5,177811.5781250000,197270.6875000000,162762.7187500000,159759.3593750000,129296.8437500000,117456.4140625000,130488.7890625000,150576.6093750000,,,
0.7199999988,5,177951.4843750000,206998.2500000000,162916.1093750000,159934.4843750000,129459.9453125000,117609.1718750000,130645.8593750000,151572.0781250000,,,
0.7239999988,5,177988.8437500000,202177.7343750000,163307.0937500000,160542.3750000000,130082.5937500000,118176.7500000000,131299.9218750000,149257.7031250000,,,
0.7279999990,5,177829.8906250000,188156.0000000000,163452.2500000000,160869.3906250000,130426.2968750000,118482.1171875000,131676.7968750000,146268.5000000000,,,
0.7319999989,5,177691.8906250000,183911.3125000000,163100.0000000000,160380.4062500000,129931.2890625000,118027.0312500000,131170.3906250000,146847.8281250000,,,
0.7359999989,5,177815.1875000000,197046.0781250000,162770.5000000000,159753.3593750000,129301.7500000000,117457.5937500000,130499.0078125000,150539.5937500000,,,
0.7399999988,5,177967.4375000000,206835.0312500000,162932.0468750000,159915.6875000000,129471.7500000000,117616.5468750000,130658.5703125000,151586.5156250000,,,
0.7439999988,5,177993.4062500000,202138.9687500000,163307.1562500000,160511.7500000000,130079.1328125000,118173.2656250000,131292.8593750000,149302.2031250000,,,
0.7479999987,5,177832.4062500000,188146.9062500000,163450.8906250000,160865.5312500000,130423.1250000000,118479.3046875000,131667.2968750000,146302.5000000000,,,
0.7519999989,5,177698.3281250000,183750.0156250000,163106.8750000000,160406.9062500000,129939.4453125000,118026.8437500000,131173.3437500000,146837.5312500000,,,
0.7559999989,5,177820.0468750000,196809.5312500000,162777.6875000000,159784.7343750000,129309.1250000000,117456.7656250000,130504.9609375000,150517.5156250000,,,
0.7599999988,5,177958.3906250000,206727.0000000000,162922.7968750000,159902.0781250000,129459.9453125000,117601.1718750000,130649.2109375000,151586.7812500000,,,
0.7639999988,5,177974.2187500000,202302.7968750000,163282.0781250000,160475.1406250000,130049.4140625000,118140.8593750000,131265.5625000000,149344.6406250000,,,
0.7679999988,6,177826.9687500000,188308.9687500000,163446.4375000000,160858.7500000000,130421.1718750000,118474.6875000000,131666.4062500000,146326.0781250000,,,
0.7719999987,6,177696.9687500000,183645.4843750000,163112.6093750000,160396.4687500000,129951.4609375000,118041.0078125000,131192.1718750000,146812.0937500000,,,
0.7759999987,6,177806.6875000000,196538.1718750000,162775.2343750000,159746.1875000000,129310.0390625000,117460.0937500000,130513.0390625000,150473.5312500000,,,
0.7799999986,6,177948.2656250000,206508.4843750000,162921.0468750000,159876.5000000000,129458.0156250000,117598.5703125000,130648.9140625000,151580.6718750000,,,
0.7839999986,6,177977.2187500000,202212.8437500000,163286.6250000000,160464.9531250000,130052.9296875000,118144.8828125000,131270.8906250000,149382.6718750000,,,
0.7879999985,6,177829.0312500000,188215.2968750000,163447.4531250000,160831.0625000000,130422.8359375000,118477.1875000000,131678.8125000000,146345.9531250000,,,
0.7919999987,6,177693.5312500000,183357.1406250000,163115.2343750000,160375.8437500000,129955.1875000000,118046.6640625000,131205.7968750000,146770.8437500000,,,
0.7959999987,6,177799.2656250000,196195.1875000000,162772.0468750000,159742.3281250000,129305.6093750000,117465.6953125000,130513.6250000000,150427.6562500000,,,
0.7999999986,6,177935.8437500000,206347.2187500000,162905.8593750000,159880.7343750000,129439.1875000000,117591.0390625000,130636.1796875000,151566.9062500000,,,
0.8039999986,6,177960.0000000000,202151.9218750000,163262.3906250000,160459.9531250000,130024.8203125000,118121.3906250000,131246.8906250000,149366.3437500000,,,
0.8079999986,6,177805.2500000000,188124.0468750000,163416.1250000000,160801.5937500000,130389.4687500000,118444.9687500000,131643.1250000000,146315.4062500000,,,
0.8119999988,6,177657.9843750000,183049.7343750000,163080.4531250000,160344.6562500000,129924.1015625000,118017.5859375000,131171.7656250000,146690.5625000000,,,
0.8159999987,6,177751.7031250000,195834.3281250000,162729.6406250000,159706.0937500000,129268.1171875000,117427.9609375000,130473.6875000000,150347.0312500000,,,
0.8199999987,6,177903.3906250000,206134.9531250000,162878.1250000000,159861.4531250000,129413.9765625000,117565.2109375000,130606.3203125000,151544.4218750000,,,
0.8239999986,6,177961.2343750000,202000.6250000000,163267.8750000000,160489.0312500000,130031.6875000000,118125.6796875000,131252.6250000000,149381.2812500000,,,
0.8279999986,6,177833.2968750000,187969.1250000000,163442.4375000000,160859.9843750000,130412.1875000000,118460.8203125000,131664.2968750000,146329.1718750000,,,
0.8319999985,6,177692.3281250000,182756.8125000000,163114.2968750000,160384.4062500000,129956.5546875000,118040.7109375000,131207.6250000000,146665.4375000000,,,
0.8359999987,6,177779.1406250000,195505.8125000000,162757.8125000000,159743.6406250000,129295.5312500000,117449.5781250000,130503.9453125000,150337.0625000000,,,
0.8399999987,6,177931.2187500000,206052.7656250000,162904.8125000000,159918.9062500000,129436.2109375000,117580.1718750000,130623.8359375000,151586.2187500000,,,
0.8439999986,6,177975.7500000000,202120.0625000000,163279.2031250000,160486.7031250000,130039.9218750000,118121.9296875000,131254.4843750000,149422.7500000000,,,
0.8479999986,6,177828.8125000000,188048.8750000000,163438.6093750000,160802.1250000000,130412.7500000000,118451.7578125000,131666.9531250000,146318.2187500000,,,
0.8519999986,6,177682.5625000000,182639.3593750000,163113.4062500000,160374.7187500000,129963.8281250000,118034.8359375000,131216.9218750000,146600.7968750000,,,
0.8559999987,6,177778.6875000000,195386.7187500000,162765.6093750000,159757.2500000000,129309.5312500000,117455.2343750000,130526.8750000000,150312.4843750000,,,
0.8599999987,6,177909.1250000000,206097.7031250000,162887.4843750000,159854.8281250000,129425.5078125000,117578.9687500000,130631.5390625000,151602.2812500000,,,
0.8639999987,6,177946.6718750000,202342.2031250000,163251.5000000000,160434.4531250000,130012.5390625000,118112.7031250000,131239.0625000000,149452.6562500000,,,
0.8679999986,6,177818.2812500000,188226.4375000000,163434.0937500000,160832.4375000000,130404.6250000000,118456.7187500000,131662.0625000000,146312.3437500000,,,
0.8719999986,6,177676.3125000000,182602.3437500000,163114.5468750000,160406.4687500000,129964.5546875000,118050.8750000000,131219.0781250000,146553.5312500000,,,
0.8759999985,6,177772.7031250000,195320.3593750000,162761.8281250000,159764.2500000000,129304.9687500000,117464.0859375000,130516.2265625000,150290.8437500000,,,
0.8799999987,6,177917.3593750000,206173.6875000000,162891.5468750000,159856.1718750000,129425.4531250000,117581.4062500000,130627.1875000000,151627.6562500000,,,
0.8839999987,6,177966.3125000000,202518.2343750000,163268.0156250000,160445.6406250000,130022.7265625000,118113.6640625000,131254.1093750000,149487.9531250000,,,
0.8879999986,6,177835.2500000000,188326.8593750000,163453.9218750000,160836.3281250000,130419.5078125000,118453.7187500000,131686.3906250000,146309.2187500000,,,
0.8919999986,6,177694.9218750000,182460.0625000000,163142.1093750000,160419.0781250000,129993.0390625000,118058.9765625000,131254.1562500000,146511.9062500000,,,
0.8959999986,7,177784.6093750000,195115.6562500000,162775.3281250000,159775.1093750000,129319.8828125000,117466.8515625000,130537.7421875000,150273.2968750000,,,
0.8999999985,7,177919.5312500000,206166.9218750000,162891.8593750000,159871.8593750000,129424.3828125000,117584.7890625000,130629.1250000000,151661.3437500000,,,
0.9039999985,7,177961.9843750000,202635.5312500000,163261.4218750000,160471.7812500000,130014.2812500000,118122.1953125000,131240.9375000000,149528.0781250000,,,
0.9079999984,7,177838.6093750000,188388.9218750000,163455.4531250000,160879.4062500000,130423.0468750000,118477.8593750000,131683.0937500000,146328.3593750000,,,
0.9119999984,7,177705.1093750000,182355.3906250000,163149.4375000000,160462.4062500000,130004.8359375000,118090.0078125000,131265.3750000000,146497.3906250000,,,
0.9159999983,7,177783.5937500000,195001.7187500000,162766.2031250000,159767.7031250000,129315.4296875000,117485.9765625000,130534.8671875000,150265.7968750000,,,
0.9199999985,7,177912.6406250000,206213.4375000000,162875.1250000000,159818.7968750000,129412.9531250000,117589.9140625000,130618.8750000000,151693.4218750000,,,
0.9239999985,7,177961.8593750000,202824.8906250000,163257.1250000000,160423.4531250000,130014.8671875000,118124.8750000000,131250.9062500000,149585.9062500000,,,
0.9279999984,7,177831.7500000000,188617.0625000000,163450.1093750000,160817.3593750000,130423.1250000000,118469.6718750000,131690.2656250000,146366.7968750000,,,
0.9319999984,7,177678.7968750000,182449.0625000000,163131.1406250000,160393.5156250000,129994.2421875000,118065.5468750000,131258.1875000000,146480.9843750000,,,
0.9359999984,7,177756.9375000000,194988.8125000000,162748.8437500000,159729.2500000000,129302.9062500000,117456.3906250000,130528.8046875000,150238.1093750000,,,
0.9399999985,7,177904.5937500000,206258.6562500000,162872.2500000000,159838.9687500000,129409.2031250000,117570.6250000000,130618.9843750000,151701.1562500000,,,
0.9439999985,7,177953.7031250000,203092.3125000000,163245.0000000000,160429.9375000000,129996.5234375000,118104.8671875000,131229.6093750000,149641.3437500000,,,
0.9479999985,7,177819.1093750000,188944.0625000000,163437.7500000000,160818.1875000000,130406.0937500000,118461.4921875000,131672.2343750000,146402.2500000000,,,
0.9519999984,7,177677.4062500000,182602.3437500000,163132.1093750000,160410.7343750000,129994.1328125000,118071.7421875000,131254.2656250000,146468.7187500000,,,
0.9559999984,7,177766.4062500000,194996.4375000000,162754.1250000000,159746.8125000000,129307.5703125000,117467.0390625000,130528.1640625000,150221.9062500000,,,
0.9599999983,7,177910.5781250000,206305.5625000000,162867.7968750000,159848.3281250000,129400.3515625000,117571.9140625000,130606.6718750000,151713.6718750000,,,
0.9639999985,7,177958.1093750000,203233.9062500000,163240.5312500000,160426.6718750000,129986.2812500000,118096.0156250000,131222.7031250000,149671.1406250000,,,
0.9679999985,7,177827.2968750000,189182.1875000000,163441.9375000000,160826.7812500000,130404.2968750000,118450.6328125000,131678.4843750000,146435.4062500000,,,
0.9719999984,7,177687.8437500000,182727.9062500000,163144.3437500000,160426.4062500000,130003.0390625000,118070.6406250000,131271.9062500000,146461.8593750000,,,
0.9759999984,7,177777.5937500000,194981.1718750000,162764.8281250000,159768.9062500000,129316.7734375000,117470.7109375000,130541.4921875000,150199.3593750000,,,
0.9799999984,7,177917.2031250000,206312.3281250000,162873.2500000000,159855.3593750000,129405.5546875000,117574.9453125000,130610.6953125000,151715.8281250000,,,
0.9839999985,7,177953.2187500000,203368.3593750000,163234.7343750000,160417.6875000000,129979.3046875000,118086.7343750000,131210.1406250000,149697.2968750000,,,
0.9879999985,7,177821.1250000000,189330.9687500000,163440.4531250000,160826.0468750000,130404.9687500000,118450.5234375000,131670.9531250000,146449.5937500000,,,
0.9919999985,7,177684.0937500000,182717.6250000000,163147.9375000000,160439.1406250000,130014.8125000000,118089.5781250000,131278.6250000000,146436.2968750000,,,
0.9959999984,7,177777.7187500000,194833.9687500000,162767.4843750000,159769.2031250000,129329.6484375000,117487.7187500000,130549.0078125000,150158.7656250000,,,
0.9999999984,7,177923.0468750000,206220.2812500000,162876.2500000000,159854.3125000000,129415.6093750000,117581.5937500000,130616.6250000000,151704.5000000000,,,
1.0039999983,7,177965.3750000000,203283.6562500000,163243.8437500000,160429.5468750000,129994.7031250000,118102.4531250000,131219.9375000000,149691.7968750000,,,
1.0079999985,7,177832.5781250000,189309.5000000000,163446.9218750000,160829.7500000000,130413.0703125000,118455.5937500000,131674.1093750000,146460.2968750000,,,
1.0119999985,7,177687.0937500000,182657.0625000000,163153.4062500000,160436.9218750000,130022.8593750000,118087.4062500000,131285.3750000000,146417.7031250000,,,
1.0159999984,7,177776.0937500000,194695.2187500000,162770.3906250000,159763.6093750000,129333.1562500000,117480.6875000000,130556.7031250000,150124.9531250000,,,
1.0199999984,7,177932.8906250000,206156.5156250000,162887.2031250000,159856.0625000000,129423.4140625000,117577.8125000000,130627.7265625000,151705.4375000000,,,
1.0239999983,8,177975.2187500000,203332.2812500000,163256.5312500000,160429.4843750000,130002.6093750000,118102.3984375000,131229.8593750000,149722.8281250000,,,
1.0279999983,8,177836.4062500000,189407.8125000000,163457.1718750000,160827.4687500000,130421.2500000000,118465.3046875000,131681.2187500000,146496.8906250000,,,
1.0319999983,8,177694.3593750000,182653.4375000000,163169.6406250000,160453.8906250000,130038.8750000000,118103.2343750000,131299.7500000000,146421.0937500000,,,
1.0359999982,8,177789.5312500000,194589.4843750000,162788.7343750000,159785.9531250000,129351.3750000000,117501.2656250000,130573.9218750000,150115.5625000000,,,
1.0399999982,8,177930.8437500000,206136.7812500000,162883.3906250000,159862.2031250000,129416.3906250000,117579.1015625000,130617.5859375000,151719.7968750000,,,
1.0439999981,8,177973.0937500000,203485.4062500000,163249.9687500000,160425.8437500000,129988.9843750000,118092.6875000000,131214.9218750000,149774.2812500000,,,
1.0479999983,8,177844.5312500000,189671.3437500000,163462.1875000000,160838.3593750000,130418.8906250000,118462.2734375000,131684.5781250000,146558.4218750000,,,
1.0519999983,8,177701.0312500000,182825.9375000000,163175.5625000000,160466.8750000000,130041.9062500000,118113.5546875000,131312.0625000000,146447.2656250000,33029,1.0528629823,0.0000000000
1.0559999982,8,177790.1406250000,194638.3906250000,162782.4531250000,159787.2031250000,129342.6562500000,117504.6718750000,130574.1640625000,150117.1406250000,,,
1.0599999982,8,177931.7031250000,206198.8437500000,162875.6093750000,159855.4218750000,129405.4687500000,117580.8984375000,130618.6093750000,151736.9843750000,,,
1.0639999982,8,177976.1562500000,203727.0781250000,163247.1250000000,160429.2968750000,129981.6406250000,118102.6718750000,131217.6875000000,149831.2812500000,,,
1.0679999983,8,177848.7812500000,190070.2343750000,163469.6875000000,160865.2968750000,130420.8203125000,118478.6875000000,131687.9843750000,146619.0312500000,,,
1.0719999983,8,177710.8593750000,183117.9531250000,163198.2031250000,160509.8750000000,130060.7109375000,118130.4843750000,131326.6562500000,146461.5000000000,,,
1.0759999983,8,177795.9687500000,194751.0468750000,162798.5781250000,159809.6250000000,129357.2734375000,117512.2031250000,130582.8828125000,150094.4843750000,,,
1.0799999982,8,177942.9218750000,206295.8281250000,162890.1718750000,159867.6718750000,129417.2500000000,117588.7578125000,130621.0781250000,151732.9531250000,,,
1.0839999982,8,177992.2500000000,203853.9218750000,163265.3593750000,160457.5156250000,129994.9375000000,118111.2500000000,131223.0156250000,149848.0937500000,,,
1.0879999981,8,177858.8906250000,190256.4843750000,163485.2812500000,160887.6562500000,130431.0937500000,118488.2890625000,131694.7031250000,146652.6718750000,,,
1.0919999983,8,177695.0781250000,183251.5000000000,163192.0781250000,160484.3437500000,130054.9140625000,118135.8984375000,131319.1250000000,146454.5937500000,,,
1.0959999983,8,177781.9062500000,194720.4687500000,162788.9218750000,159793.8593750000,129349.7109375000,117519.2109375000,130576.9531250000,150060.7968750000,,,
1.0999999982,8,177934.1718750000,206266.2187500000,162877.8593750000,159851.6562500000,129406.4609375000,117590.1015625000,130616.5156250000,151725.9062500000,,,
1.1039999982,8,177976.6093750000,203849.5000000000,163247.6875000000,160421.7968750000,129979.2265625000,118104.8437500000,131209.7656250000,149847.3750000000,,,
1.1079999981,8,177845.3125000000,190308.4218750000,163469.0000000000,160860.2187500000,130416.2343750000,118477.4296875000,131674.5625000000,146662.4843750000,,,
1.1119999983,8,177702.8437500000,183236.1875000000,163198.8437500000,160527.1406250000,130064.1953125000,118144.3203125000,131318.7968750000,146452.4218750000,,,
1.1159999983,8,177791.2656250000,194583.9843750000,162798.0625000000,159832.7500000000,129360.0078125000,117517.6484375000,130578.8281250000,150040.5937500000,,,
1.1199999982,8,177946.0312500000,206184.4062500000,162885.5000000000,159865.5781250000,129412.3359375000,117577.9453125000,130613.9375000000,151727.4843750000,,,
1.1239999982,8,177987.5000000000,203870.2031250000,163251.0937500000,160422.9375000000,129981.1250000000,118091.6718750000,131204.7187500000,149870.6250000000,,,
1.1279999982,8,177851.8906250000,190383.8125000000,163469.3906250000,160868.3437500000,130417.8203125000,118474.2109375000,131671.2343750000,146691.0468750000,,,
1.1319999981,8,177702.2968750000,183203.4375000000,163197.5625000000,160531.5468750000,130069.0000000000,118152.5859375000,131318.9062500000,146449.0312500000,,,
1.1359999983,8,177794.4843750000,194440.4062500000,162798.8437500000,159829.1875000000,129366.1250000000,117532.5078125000,130578.3515625000,150029.1406250000,,,
1.1399999983,8,177942.4375000000,206134.7343750000,162874.7812500000,159853.8906250000,129402.8125000000,117579.5000000000,130599.9687500000,151740.7343750000,,,
1.1439999982,8,177984.2343750000,203983.9218750000,163239.3750000000,160410.3125000000,129968.9765625000,118086.8125000000,131191.5781250000,149913.4375000000,,,
1.1479999982,8,177843.5781250000,190546.5156250000,163456.9531250000,160842.8125000000,130407.3046875000,118472.3281250000,131659.7812500000,146723.0468750000,,,
1.1519999981,9,177686.2343750000,183227.6250000000,163183.7187500000,160508.1875000000,130061.1093750000,118150.0859375000,131315.9843750000,146432.4375000000,,,
1.1559999981,9,177781.8593750000,194363.4843750000,162790.0937500000,159818.4062500000,129363.2265625000,117530.8984375000,130586.5859375000,149999.0937500000,,,
1.1599999981,9,177936.2656250000,206123.7187500000,162869.8750000000,159846.6718750000,129399.4062500000,117579.0703125000,130605.3828125000,151740.2812500000,,,
1.1639999980,9,177977.1406250000,204124.3437500000,163228.4843750000,160401.4531250000,129956.7968750000,118082.5000000000,131184.8281250000,149940.5468750000,,,
1.1679999980,9,177843.5468750000,190793.8906250000,163457.0312500000,160847.4843750000,130407.1953125000,118475.4453125000,131668.2031250000,146751.7187500000,,,
1.1719999979,9,177681.5937500000,183385.5781250000,163189.5937500000,160512.6875000000,130069.1328125000,118159.7421875000,131325.6406250000,146419.2968750000,,,
1.1759999981,9,177770.1250000000,194411.3125000000,162788.8906250000,159817.4687500000,129361.7812500000,117528.8593750000,130577.9453125000,149963.1093750000,,,
1.1799999981,9,177925.5937500000,206226.5781250000,162864.1093750000,159850.1875000000,129388.2812500000,117562.3125000000,130584.9765625000,151724.2187500000,,,
1.1839999980,9,177958.7968750000,204346.6093750000,163213.4062500000,160401.7812500000,129935.0234375000,118062.3046875000,131154.6718750000,149942.2968750000,,,
1.1879999980,9,177815.6718750000,191067.6093750000,163434.6406250000,160833.3437500000,130379.5390625000,118458.3046875000,131639.8281250000,146749.1718750000,,,
1.1919999979,9,177663.7343750000,183562.2343750000,163180.1406250000,160525.1875000000,130055.1796875000,118148.5312500000,131316.5000000000,146390.9062500000,,,
1.1959999981,9,177771.0937500000,194451.7343750000,162791.7968750000,159846.4843750000,129356.5468750000,117520.4921875000,130580.8671875000,149920.8281250000,,,
1.1999999981,9,177928.2500000000,206278.8750000000,162862.2500000000,159839.1875000000,129376.3437500000,117547.5859375000,130584.6484375000,151702.8906250000,,,
1.2039999980,9,177963.3593750000,204488.7187500000,163214.4218750000,160373.7500000000,129925.5000000000,118047.5468750000,131153.6093750000,149949.7500000000,,,
1.2079999980,9,177824.8750000000,191297.9375000000,163445.6562500000,160835.2812500000,130383.5625000000,118461.6015625000,131643.5625000000,146771.8125000000,,,
1.2119999980,9,177675.9062500000,183676.3281250000,163198.4687500000,160543.8593750000,130073.7187500000,118173.6953125000,131331.1406250000,146384.1718750000,,,
1.2159999979,9,177778.9375000000,194382.5625000000,162800.5000000000,159853.2656250000,129369.9609375000,117535.9687500000,130586.0156250000,149895.1093750000,,,
1.2199999981,9,177946.8906250000,206202.2031250000,162875.2343750000,159835.2968750000,129395.3828125000,117568.0468750000,130595.6484375000,151709.8906250000,,,
1.2239999981,9,177992.7500000000,204508.6562500000,163236.7343750000,160372.1093750000,129952.2421875000,118075.6328125000,131175.4375000000,149996.9531250000,,,
1.2279999980,9,177837.5156250000,191385.0312500000,163455.2812500000,160806.2031250000,130397.1640625000,118470.2890625000,131652.5156250000,146810.1875000000,,,
1.2319999980,9,177676.6875000000,183658.3593750000,163200.8593750000,160502.5000000000,130082.8359375000,118175.7031250000,131336.5312500000,146374.6875000000,,,
1.2359999979,9,177780.9375000000,194218.2187500000,162804.0000000000,159811.7500000000,129378.4921875000,117539.1093750000,130595.8593750000,149858.3437500000,,,
1.2399999981,9,177944.0468750000,206064.0312500000,162866.7812500000,159823.9843750000,129386.8593750000,117554.3984375000,130587.1171875000,151688.1718750000,,,
1.2439999981,9,177990.3750000000,204464.5468750000,163230.1093750000,160383.0312500000,129943.1484375000,118061.3359375000,131164.1093750000,149999.0781250000,,,
1.2479999980,9,177850.9531250000,191406.7812500000,163468.5156250000,160842.3281250000,130406.6875000000,118472.0625000000,131659.4062500000,146828.8281250000,,,
1.2519999980,9,177689.6875000000,183600.4531250000,163221.2656250000,160545.1406250000,130103.0312500000,118184.9296875000,131353.2343750000,146364.8437500000,,,
1.2559999980,9,177779.9687500000,194028.9375000000,162810.6718750000,159842.1406250000,129387.4765625000,117538.8671875000,130597.8984375000,149822.1875000000,,,
1.2599999979,9,177945.6093750000,205904.7187500000,162872.3437500000,159836.9843750000,129392.4921875000,117553.5390625000,130583.3125000000,151676.4218750000,,,
1.2639999981,9,177985.5468750000,204431.5937500000,163224.5625000000,160378.9531250000,129936.6562500000,118050.7421875000,131148.6875000000,150011.8125000000,,,
1.2679999981,9,177845.0781250000,191454.9062500000,163464.6562500000,160850.4375000000,130404.5156250000,118466.4843750000,131649.1406250000,146847.5625000000,,,
1.2719999980,9,177680.6562500000,183542.8125000000,163218.9531250000,160553.8125000000,130106.1953125000,118188.3125000000,131352.5937500000,146350.4843750000,,,
1.2759999980,9,177779.0156250000,193827.1250000000,162813.0625000000,159841.1406250000,129393.8828125000,117545.7109375000,130601.7656250000,149789.9218750000,,,
1.2799999979,10,177945.8750000000,205759.1250000000,162870.4531250000,159828.4375000000,129391.9531250000,117551.7421875000,130580.8984375000,151672.3906250000,,,
1.2839999979,10,177990.1562500000,204378.2968750000,163227.8906250000,160366.5156250000,129941.4062500000,118052.7500000000,131155.6718750000,150034.0000000000,,,
1.2879999978,10,177847.2968750000,191412.2187500000,163469.2343750000,160827.8437500000,130411.0078125000,118469.4609375000,131659.8750000000,146865.6093750000,,,
1.2919999978,10,177681.7031250000,183343.8125000000,163227.6718750000,160543.9843750000,130119.7968750000,118195.0156250000,131370.3437500000,146324.4218750000,,,
1.2959999978,10,177770.1250000000,193530.4687500000,162812.6875000000,159840.3750000000,129399.7343750000,117546.9375000000,130608.8203125000,149747.2968750000,,,
1.2999999977,10,177931.7031250000,205590.2187500000,162860.9375000000,159811.4843750000,129385.3281250000,117546.6484375000,130574.1875000000,151667.5937500000,,,
1.3039999979,10,177972.5000000000,204351.5312500000,163210.5937500000,160333.5468750000,129924.9375000000,118044.7578125000,131140.0312500000,150047.9218750000,,,
1.3079999979,10,177833.4531250000,191465.0312500000,163452.8437500000,160809.1250000000,130398.2343750000,118470.0000000000,131648.8125000000,146877.2031250000,,,
1.3119999978,10,177676.3593750000,183307.1250000000,163224.7500000000,160552.5781250000,130124.3281250000,118211.4609375000,131375.8281250000,146307.7968750000,,,
1.3159999978,10,177773.0625000000,193353.5312500000,162818.3125000000,159863.4375000000,129409.5234375000,117561.3437500000,130621.4218750000,149718.8906250000,,,
1.3199999977,10,177939.8593750000,205467.0000000000,162866.0625000000,159844.8125000000,129387.7968750000,117548.9765625000,130580.6250000000,151668.2968750000,,,
1.3239999979,10,177982.1093750000,204353.9687500000,163215.9843750000,160366.9062500000,129926.5156250000,118041.0546875000,131141.1875000000,150073.3437500000,,,
1.3279999979,10,177845.2812500000,191547.1406250000,163461.8281250000,160829.1406250000,130404.3515625000,118470.4296875000,131650.9062500000,146906.8906250000,,,
1.3319999978,10,177685.4843750000,183287.9687500000,163232.9062500000,160544.3437500000,130132.8593750000,118215.0781250000,131378.6718750000,146299.1562500000,,,
1.3359999978,10,177775.9531250000,193196.5312500000,162815.5000000000,159827.8437500000,129407.8593750000,117555.7656250000,130604.7968750000,149684.0156250000,,,
1.3399999978,10,177943.0781250000,205371.9218750000,162857.6875000000,159801.6406250000,129378.7265625000,117535.4843750000,130553.8593750000,151659.1250000000,,,
1.3439999977,10,177988.2812500000,204397.8125000000,163208.0468750000,160335.9531250000,129914.1562500000,118026.2265625000,131119.2187500000,150092.9531250000,,,
1.3479999979,10,177845.1875000000,191638.2343750000,163452.6562500000,160808.0625000000,130389.0390625000,118449.4218750000,131632.0312500000,146910.9843750000,,,
1.3519999979,10,177684.1093750000,183236.6875000000,163230.1093750000,160553.9375000000,130124.5468750000,118199.5468750000,131368.7968750000,146257.9062500000,,,
1.3559999978,10,177768.4375000000,193037.2187500000,162809.6562500000,159836.2656250000,129397.2656250000,117544.7187500000,130607.8828125000,149633.4375000000,,,
1.3599999978,10,177935.7812500000,205293.4062500000,162850.3437500000,159794.6093750000,129365.1875000000,117527.1171875000,130560.1875000000,151645.5937500000,,,
1.3639999977,10,177979.5000000000,204434.5625000000,163196.0312500000,160329.8750000000,129893.4453125000,118013.8906250000,131109.4531250000,150103.0625000000,,,
1.3679999979,10,177841.1875000000,191714.5156250000,163447.3281250000,160810.2343750000,130377.1796875000,118447.3359375000,131624.5468750000,146924.6718750000,,,
1.3719999979,10,177681.7812500000,183183.8437500000,163236.2031250000,160568.5937500000,130129.9609375000,118208.6171875000,131377.7812500000,146242.8593750000,,,
1.3759999978,10,177776.8125000000,192860.4843750000,162824.8281250000,159865.2343750000,129414.3515625000,117561.6640625000,130624.3203125000,149616.2968750000,,,
1.3799999978,10,177940.9062500000,205219.8125000000,162856.0000000000,159808.4531250000,129371.2500000000,117529.8046875000,130557.9062500000,151663.5468750000,,,
1.3839999977,10,177979.6875000000,204500.9843750000,163196.7031250000,160329.8125000000,129894.4687500000,118009.1953125000,131101.9375000000,150141.8125000000,,,
1.3879999977,10,177837.2187500000,191815.2812500000,163444.1562500000,160802.0468750000,130376.6484375000,118444.3046875000,131619.3125000000,146955.5937500000,,,
1.3919999979,10,177675.0781250000,183164.8125000000,163228.8906250000,160560.5625000000,130130.2890625000,118209.9843750000,131378.2968750000,146235.5625000000,,,
1.3959999979,10,177772.2031250000,192724.0625000000,162817.2968750000,159855.6250000000,129413.6250000000,117564.0234375000,130624.9375000000,149591.8125000000,,,
1.3999999978,10,177949.4062500000,205153.0156250000,162853.5156250000,159807.7812500000,129370.1718750000,117537.3125000000,130561.2890625000,151672.2031250000,,,
1.4039999978,10,177997.0781250000,204549.9062500000,163199.8593750000,160338.9843750000,129897.6328125000,118023.1640625000,131113.8750000000,150178.8281250000,,,
1.4079999977,11,177859.4218750000,191924.5781250000,163456.0937500000,160834.0781250000,130388.5312500000,118464.3906250000,131640.3750000000,146992.8750000000,,,
1.4119999977,11,177689.0781250000,183153.6250000000,163243.9375000000,160596.8281250000,130146.2734375000,118233.5078125000,131401.1093750000,146228.7500000000,,,
1.4159999976,11,177765.9218750000,192583.3906250000,162817.2968750000,159870.7500000000,129414.4843750000,117573.3359375000,130631.6953125000,149557.9843750000,,,
1.4199999976,11,177939.2187500000,205096.5156250000,162849.0781250000,159820.5781250000,129365.6953125000,117538.6015625000,130557.5078125000,151670.5781250000,,,
1.4239999976,11,177977.6562500000,204638.6093750000,163184.5000000000,160309.8125000000,129882.5859375000,118013.4062500000,131095.4531250000,150197.8593750000,,,
1.4279999975,11,177843.6562500000,192049.2031250000,163446.3593750000,160799.4375000000,130380.7265625000,118462.3515625000,131628.9687500000,147007.0156250000,,,
1.4319999977,11,177682.5781250000,183125.3750000000,163247.3593750000,160581.8125000000,130154.6953125000,118244.1562500000,131403.6093750000,146208.9531250000,,,
1.4359999977,11,177772.1718750000,192421.7343750000,162830.1250000000,159868.5000000000,129430.2578125000,117586.2656250000,130643.0703125000,149527.2656250000,,,
1.4399999976,11,177941.3437500000,205025.1875000000,162851.1406250000,159802.7031250000,129363.2500000000,117535.6250000000,130555.6562500000,151667.3593750000,,,
1.4439999976,11,177985.9375000000,204721.5937500000,163192.1406250000,160312.1875000000,129878.9375000000,118012.9218750000,131092.5312500000,150229.8281250000,,,
1.4479999975,11,177846.6250000000,192202.1406250000,163451.3125000000,160799.0468750000,130374.9843750000,118460.5312500000,131622.3125000000,147030.7031250000,,,
1.4519999977,11,177677.4687500000,183126.3437500000,163249.6718750000,160582.5312500000,130151.4218750000,118242.8671875000,131403.2031250000,146180.2968750000,,,
1.4559999977,11,177769.4062500000,192304.3750000000,162833.5312500000,159878.2968750000,129429.6406250000,117585.6484375000,130644.4609375000,149491.6250000000,,,
1.4599999976,11,177946.1875000000,204979.6406250000,162855.7031250000,159808.0156250000,129365.9921875000,117539.0546875000,130561.8828125000,151672.8593750000,,,
1.4639999976,11,177992.8906250000,204826.4062500000,163191.4062500000,160309.3281250000,129878.1875000000,118008.6875000000,131097.2500000000,150269.2812500000,,,
1.4679999975,11,177860.7031250000,192366.5781250000,163457.4843750000,160816.6093750000,130382.6562500000,118464.5000000000,131637.7656250000,147069.2343750000,,,
1.4719999975,11,177692.7187500000,183132.1875000000,163261.5312500000,160623.5156250000,130166.4375000000,118255.7656250000,131424.5312500000,146174.7812500000,,,
1.4759999977,11,177783.9687500000,192159.9375000000,162844.6875000000,159929.5781250000,129442.8046875000,117594.0156250000,130659.3515625000,149463.8593750000,,,
1.4799999977,11,177957.8593750000,204907.8750000000,162858.9062500000,159822.0000000000,129369.2109375000,117533.6406250000,130559.3828125000,151671.5937500000,,,
1.4839999976,11,178003.4375000000,204874.1250000000,163194.0625000000,160314.2812500000,129881.2656250000,117995.1093750000,131086.6562500000,150284.4062500000,,,
1.4879999976,11,177871.2812500000,192471.4218750000,163465.6093750000,160807.2812500000,130392.3125000000,118451.0859375000,131630.1718750000,147082.0312500000,,,
1.4919999975,11,177691.7031250000,183149.3906250000,163266.6250000000,160575.3750000000,130178.4062500000,118253.6796875000,131427.1562500000,146154.2031250000,,,
1.4959999977,11,177767.8281250000,192045.8125000000,162837.2343750000,159857.7812500000,129443.2656250000,117593.7421875000,130658.0390625000,149421.6250000000,,,
1.4999999977,11,177937.3437500000,204855.1093750000,162842.5312500000,159776.2968750000,129352.7421875000,117526.9609375000,130544.6875000000,151660.3593750000,,,
1.5039999976,11,177980.3593750000,204894.3750000000,163172.4531250000,160284.6562500000,129854.1015625000,117989.1328125000,131066.7265625000,150288.2343750000,,,
1.5079999976,11,177841.4531250000,192517.3437500000,163434.2656250000,160789.3593750000,130353.3359375000,118438.0781250000,131602.0468750000,147083.3437500000,,,
1.5119999975,11,177667.1562500000,183137.3437500000,163242.7500000000,160590.5625000000,130148.6015625000,118240.3984375000,131406.5625000000,146136.1250000000,,,
1.5159999975,11,177744.1718750000,191910.6875000000,162816.0937500000,159864.8906250000,129418.5625000000,117570.9218750000,130637.3281250000,149380.8281250000,,,
1.5199999977,11,177932.8281250000,204795.3281250000,162840.4687500000,159782.2500000000,129347.6718750000,117509.6328125000,130538.4140625000,151655.4375000000,,,
1.5239999976,11,178003.0625000000,204952.0468750000,163197.2343750000,160308.7031250000,129878.6406250000,117995.0546875000,131087.8281250000,150327.1406250000,,,
1.5279999976,11,177876.7968750000,192647.0937500000,163472.3281250000,160826.7031250000,130395.7968750000,118457.7656250000,131635.9218750000,147134.8281250000,,,
1.5319999976,11,177701.3593750000,183172.1875000000,163282.3125000000,160626.0625000000,130198.1484375000,118265.5625000000,131444.6406250000,146149.3281250000,,,
1.5359999975,12,177771.1718750000,191787.4375000000,162850.4531250000,159900.9531250000,129463.9687500000,117600.6640625000,130674.7500000000,149364.3281250000,,,
1.5399999975,12,177943.1406250000,204727.2187500000,162853.0468750000,159797.3750000000,129366.5546875000,117522.1562500000,130553.2187500000,151657.6406250000,,,
1.5439999974,12,177998.2343750000,205025.6250000000,163189.2968750000,160298.0625000000,129872.2031250000,117993.2890625000,131080.9375000000,150345.9062500000,,,
1.5479999974,12,177872.1562500000,192778.5156250000,163464.9218750000,160806.2656250000,130386.1171875000,118459.2109375000,131631.2031250000,147151.9843750000,,,
1.5519999973,12,177692.7812500000,183181.7812500000,163276.8906250000,160616.6250000000,130190.5546875000,118272.1875000000,131441.8906250000,146133.1562500000,,,
1.5559999973,12,177763.0000000000,191661.5625000000,162844.0468750000,159902.4062500000,129455.0156250000,117606.4062500000,130672.2812500000,149334.6406250000,,,
1.5599999975,12,177942.7031250000,204664.8906250000,162845.2968750000,159784.0625000000,129353.8359375000,117523.8984375000,130545.7031250000,151664.8906250000,,,
1.5639999975,12,178006.1093750000,205106.1406250000,163188.2500000000,160282.6093750000,129863.8906250000,117989.3437500000,131070.6953125000,150389.9218750000,,,
1.5679999974,12,177879.1718750000,192934.8281250000,163466.4687500000,160789.0625000000,130386.0078125000,118456.9375000000,131626.4687500000,147195.7031250000,,,
1.5719999974,12,177699.7500000000,183189.7187500000,163287.9687500000,160612.6093750000,130205.3906250000,118282.5078125000,131452.3437500000,146131.0000000000,,,
1.5759999973,12,177763.9843750000,191516.1875000000,162853.3750000000,159892.9687500000,129468.5000000000,117618.3984375000,130683.1171875000,149307.3593750000,,,
1.5799999975,12,177934.5000000000,204591.9375000000,162843.2656250000,159782.4375000000,129350.4609375000,117524.0625000000,130541.4687500000,151660.2968750000,,,
1.5839999975,12,177989.8125000000,205178.2656250000,163172.4218750000,160270.9687500000,129846.7187500000,117981.9453125000,131056.8828125000,150404.8593750000,,,
1.5879999974,12,177868.1406250000,193064.3281250000,163455.4531250000,160788.0781250000,130372.6250000000,118456.5625000000,131618.9843750000,147208.1250000000,,,
1.5919999974,12,177691.5468750000,183179.9687500000,163284.3750000000,160627.0312500000,130199.3828125000,118286.6406250000,131451.4375000000,146102.4375000000,,,
1.5959999973,12,177757.9531250000,191361.0000000000,162853.5156250000,159917.2343750000,129462.4687500000,117616.5468750000,130679.5468750000,149259.8593750000,,,
1.5999999973,12,177935.3906250000,204516.7500000000,162846.9687500000,159788.3593750000,129345.2031250000,117515.5312500000,130537.8203125000,151651.6406250000,,,
1.6039999975,12,178001.2343750000,205222.7656250000,163186.0468750000,160283.8437500000,129851.9218750000,117977.4062500000,131059.5625000000,150429.1718750000,,,
1.6079999974,12,177876.5937500000,193171.4062500000,163464.5156250000,160809.7500000000,130377.6640625000,118452.3203125000,131618.9843750000,147232.5937500000,,,
1.6119999974,12,177697.2031250000,183176.5000000000,163292.2031250000,160642.0468750000,130211.5859375000,118291.4140625000,131463.0781250000,146093.2187500000,,,
1.6159999974,12,177755.1718750000,191199.9531250000,162851.3125000000,159900.1250000000,129468.5546875000,117616.7031250000,130689.9531250000,149224.0468750000,,,
1.6199999973,12,177929.4218750000,204421.0000000000,162832.0468750000,159755.7968750000,129335.2265625000,117505.9843750000,130535.6171875000,151642.5625000000,,,
1.6239999975,12,177995.9218750000,205248.0000000000,163168.1250000000,160259.0312500000,129834.6484375000,117968.2890625000,131053.1015625000,150443.1875000000,,,
1.6279999975,12,177880.0468750000,193238.6562500000,163459.6406250000,160806.5000000000,130370.2343750000,118449.0781250000,131618.4843750000,147248.0937500000,,,
1.6319999974,12,177711.2656250000,183154.1250000000,163305.7500000000,160660.0781250000,130223.2265625000,118301.8750000000,131477.1562500000,146086.1562500000,,,
1.6359999974,12,177759.3437500000,191039.2343750000,162855.8750000000,159893.9531250000,129472.2890625000,117623.5703125000,130697.1171875000,149189.6093750000,,,
1.6399999973,12,177927.0937500000,204331.4687500000,162825.1093750000,159758.0000000000,129326.0000000000,117498.1796875000,130525.8281250000,151632.3437500000,,,
1.6439999973,12,177989.5625000000,205307.1093750000,163156.4375000000,160248.8125000000,129820.8906250000,117952.1953125000,131034.1093750000,150459.4687500000,,,
1.6479999975,12,177875.1718750000,193381.5000000000,163450.2968750000,160766.9062500000,130360.8984375000,118442.6953125000,131608.0468750000,147272.4687500000,,,
1.6519999974,12,177702.6718750000,183191.9218750000,163294.6250000000,160623.8750000000,130216.5703125000,118303.5390625000,131467.3437500000,146077.6562500000,,,
1.6559999974,12,177757.2343750000,190933.4843750000,162852.1093750000,159891.0625000000,129473.7109375000,117631.4843750000,130688.2890625000,149167.3125000000,,,
1.6599999974,12,177933.8593750000,204280.2343750000,162827.6562500000,159729.8906250000,129330.9296875000,117510.4609375000,130519.7968750000,151647.2656250000,,,
1.6639999973,13,178005.3125000000,205371.6250000000,163167.5625000000,160227.2968750000,129832.9921875000,117966.8125000000,131036.5468750000,150505.3437500000,,,
1.6679999973,13,177884.6093750000,193501.4531250000,163459.0937500000,160769.6250000000,130371.7109375000,118451.1406250000,131609.4375000000,147310.8593750000,,,
1.6719999972,13,177701.5000000000,183168.9687500000,163303.7187500000,160635.3750000000,130230.8437500000,118310.5390625000,131476.6406250000,146064.8281250000,,,
1.6759999972,13,177750.7656250000,190736.5000000000,162861.8750000000,159916.0937500000,129488.7265625000,117634.5390625000,130702.1328125000,149123.4062500000,,,
1.6799999971,13,177921.0625000000,204154.5781250000,162827.6250000000,159760.4375000000,129331.0703125000,117503.4062500000,130519.9531250000,151633.1250000000,,,
1.6839999971,13,177981.5781250000,205390.4531250000,163153.1093750000,160240.5468750000,129814.5078125000,117953.5625000000,131020.7812500000,150514.5625000000,,,
1.6879999973,13,177863.4531250000,193579.9531250000,163447.1562500000,160780.2968750000,130354.6015625000,118440.4375000000,131598.5000000000,147315.6093750000,,,
1.6919999972,13,177684.1875000000,183129.4843750000,163298.0312500000,160648.8437500000,130221.9921875000,118304.1015625000,131478.7187500000,146028.7656250000,,,
1.6959999972,13,177737.0625000000,190560.7343750000,162856.7500000000,159923.7343750000,129483.8984375000,117633.6015625000,130707.0156250000,149073.6562500000,,,
1.6999999972,13,177915.1562500000,204042.5312500000,162822.6875000000,159759.8281250000,129326.8593750000,117502.2265625000,130523.0390625000,151619.9531250000,,,
1.7039999971,13,177980.2031250000,205400.3281250000,163148.0468750000,160239.4218750000,129812.1718750000,117946.9140625000,131026.7031250000,150523.7968750000,,,
1.7079999973,13,177860.5781250000,193662.3281250000,163439.4687500000,160767.8281250000,130350.2500000000,118431.6718750000,131601.5625000000,147324.7031250000,,,
1.7119999973,13,177671.3750000000,183137.7187500000,163286.9843750000,160621.1562500000,130216.8906250000,118302.2500000000,131476.6406250000,146005.0156250000,,,
1.7159999972,13,177718.5312500000,190421.8125000000,162846.0312500000,159899.8593750000,129477.7578125000,117632.7421875000,130705.2421875000,149021.1875000000,,,
1.7199999972,13,177898.9375000000,203988.8125000000,162808.3437500000,159738.6093750000,129311.2968750000,117490.3437500000,130511.0546875000,151601.8593750000,,,
1.7239999971,13,177981.4062500000,205477.2500000000,163148.0625000000,160244.9218750000,129806.3046875000,117940.5859375000,131017.5859375000,150542.1875000000,,,
1.7279999971,13,177874.2500000000,193799.5000000000,163453.0625000000,160794.1875000000,130355.6718750000,118430.8359375000,131598.8437500000,147353.0156250000,,,
1.7319999973,13,177690.2031250000,183197.7500000000,163306.7968750000,160657.6406250000,130232.3671875000,118306.5703125000,131485.1562500000,146009.3125000000,,,
1.7359999972,13,177729.9218750000,190328.2968750000,162856.4062500000,159912.2968750000,129487.8437500000,117630.0859375000,130709.1328125000,148992.2812500000,,,
1.7399999972,13,177904.1093750000,203927.5781250000,162807.8281250000,159720.3125000000,129309.8750000000,117475.3515625000,130509.2812500000,151590.9375000000,,,
1.7439999972,13,177983.9843750000,205540.5468750000,163138.8750000000,160218.5625000000,129794.6875000000,117918.6718750000,131014.4765625000,150558.8437500000,,,
1.7479999971,13,177882.1406250000,193959.5937500000,163445.8125000000,160763.4218750000,130350.1718750000,118418.6328125000,131602.0468750000,147385.7500000000,,,
1.7519999973,13,177705.2968750000,183252.9375000000,163310.7187500000,160646.5000000000,130241.8125000000,118309.4921875000,131500.1093750000,146013.6875000000,,,
1.7559999973,13,177748.1718750000,190217.9687500000,162868.1250000000,159932.3906250000,129504.6562500000,117645.6718750000,130730.8593750000,148977.8437500000,,,
1.7599999972,13,177926.9375000000,203855.8281250000,162821.4843750000,159751.7500000000,129323.6406250000,117494.9296875000,130524.1640625000,151609.6093750000,,,
1.7639999972,13,178000.5312500000,205652.9843750000,163144.0781250000,160222.3906250000,129796.4296875000,117927.3828125000,131010.8515625000,150615.5312500000,,,
1.7679999971,13,177888.7187500000,194218.5937500000,163444.3125000000,160760.0781250000,130345.3750000000,118422.7343750000,131595.6562500000,147437.8281250000,,,
1.7719999971,13,177705.3906250000,183322.5000000000,163315.8125000000,160665.3593750000,130247.6562500000,118322.0703125000,131507.2812500000,145997.1562500000,,,
1.7759999973,13,177743.8750000000,190089.3906250000,162873.6562500000,159948.5156250000,129511.5546875000,117652.6484375000,130743.8437500000,148924.6875000000,,,
1.7799999972,13,177923.6406250000,203741.5156250000,162828.5937500000,159758.8750000000,129330.1250000000,117494.3984375000,130540.0703125000,151580.2031250000,,,
1.7839999972,13,177997.9375000000,205652.5781250000,163149.6250000000,160221.8593750000,129802.0078125000,117926.3359375000,131025.6093750000,150620.5468750000,,,
1.7879999971,13,177888.9062500000,194287.6875000000,163453.0156250000,160762.1875000000,130356.8515625000,118429.7109375000,131608.7968750000,147458.4843750000,,,
1.7919999971,14,177704.2500000000,183286.4375000000,163327.0781250000,160673.3593750000,130267.2109375000,118341.8437500000,131531.3593750000,145994.2343750000,,,
1.7959999971,14,177740.1718750000,189906.0000000000,162881.2343750000,159944.4687500000,129529.6015625000,117675.3125000000,130763.0703125000,148906.2812500000,,,
1.7999999970,14,177916.0468750000,203620.4843750000,162824.7031250000,159734.7187500000,129334.2578125000,117509.4140625000,130541.8437500000,151591.6093750000,,,
1.8039999970,14,177987.2343750000,205635.2812500000,163141.7187500000,160201.2812500000,129799.8671875000,117938.5937500000,131021.8750000000,150648.7812500000,,,
1.8079999969,14,177877.0937500000,194318.2343750000,163441.8437500000,160749.0000000000,130349.1796875000,118434.1640625000,131602.4218750000,147486.7500000000,,,
1.8119999969,14,177692.4218750000,183319.7031250000,163314.8281250000,160665.7031250000,130256.7265625000,118337.5468750000,131519.4843750000,146000.8906250000,,,
1.8159999971,14,177731.0000000000,189785.7656250000,162880.3906250000,159966.5312500000,129528.3437500000,117678.0468750000,130758.0546875000,148873.8593750000,,,
1.8199999970,14,177906.6250000000,203544.7500000000,162820.0625000000,159767.5468750000,129322.1640625000,117502.3359375000,130523.0390625000,151576.9843750000,,,
1.8239999970,14,177974.4375000000,205663.4531250000,163127.7656250000,160205.0156250000,129776.1796875000,117921.4062500000,130991.4921875000,150643.0156250000,,,
1.8279999970,14,177876.9687500000,194400.7968750000,163436.0781250000,160744.0000000000,130334.0781250000,118418.9296875000,131580.8281250000,147481.9218750000,,,
1.8319999969,14,177705.4062500000,183364.0468750000,163321.4687500000,160667.8593750000,130258.3593750000,118335.3750000000,131516.0000000000,145982.9531250000,,,
1.8359999971,14,177748.7500000000,189686.4375000000,162889.3437500000,159959.1406250000,129537.2500000000,117679.6328125000,130763.1796875000,148830.9687500000,,,
1.8399999971,14,177936.2656250000,203483.3437500000,162832.8281250000,159753.1093750000,129333.3203125000,117507.5156250000,130528.1875000000,151574.6875000000,,,
1.8439999970,14,178009.9218750000,205752.3125000000,163142.1406250000,160202.3281250000,129788.9218750000,117924.5390625000,130995.9687500000,150689.8281250000,,,
1.8479999970,14,177902.7343750000,194613.4218750000,163444.0156250000,160742.3437500000,130342.8750000000,118421.9843750000,131579.8281250000,147543.8906250000,,,
1.8519999969,14,177717.2187500000,183484.3593750000,163328.2656250000,160671.9531250000,130270.8046875000,118350.7734375000,131518.6718750000,146008.1093750000,,,
1.8559999969,14,177735.4218750000,189618.8125000000,162879.1562500000,159955.6718750000,129533.1718750000,117687.1171875000,130759.9375000000,148806.9062500000,,,
1.8599999971,14,177905.5000000000,203414.4218750000,162805.3281250000,159727.1250000000,129310.1484375000,117491.8515625000,130514.7500000000,151546.8125000000,,,
1.8639999970,14,177985.2656250000,205799.9687500000,163119.7500000000,160185.6718750000,129768.7265625000,117911.1328125000,130985.7187500000,150689.6093750000,,,
1.8679999970,14,177891.0781250000,194776.7031250000,163437.3125000000,160747.9531250000,130334.6171875000,118415.6250000000,131580.9062500000,147561.7968750000,,,
1.8719999969,14,177706.5156250000,183552.2187500000,163330.6718750000,160681.6718750000,130273.2734375000,118344.4687500000,131532.7031250000,145983.7031250000,,,
1.8759999969,14,177732.9531250000,189505.8125000000,162895.5156250000,159971.0781250000,129553.2109375000,117688.6171875000,130786.5156250000,148753.1406250000,,,
1.8799999971,14,177902.5312500000,203299.1406250000,162818.0468750000,159742.2812500000,129324.7656250000,117491.2343750000,130532.1875000000,151517.1562500000,,,
1.8839999971,14,177984.6093750000,205808.4218750000,163129.8593750000,160189.4843750000,129778.2734375000,117904.0468750000,130995.2968750000,150696.0156250000,,,
1.8879999970,14,177895.7343750000,194887.7500000000,163448.6875000000,160747.6562500000,130347.7343750000,118411.5234375000,131592.0312500000,147589.6250000000,,,
1.8919999970,14,177708.8906250000,183606.7812500000,163342.6875000000,160686.0468750000,130289.6640625000,118348.5703125000,131542.2812500000,145992.5781250000,,,
1.8959999969,14,177731.5156250000,189404.2968750000,162902.2187500000,159976.9218750000,129565.4375000000,117693.5781250000,130792.3359375000,148730.2031250000,,,
1.8999999969,14,177914.6718750000,203223.4218750000,162830.1250000000,159756.7656250000,129339.0859375000,117498.2890625000,130543.7187500000,151527.2812500000,,,
1.9039999971,14,177993.4062500000,205842.2968750000,163132.0781250000,160198.7968750000,129781.7578125000,117906.9453125000,130999.7734375000,150733.4375000000,,,
1.9079999970,14,177891.9843750000,194990.0312500000,163436.5937500000,160739.8125000000,130335.4453125000,118411.6562500000,131583.7812500000,147623.0156250000,,,
1.9119999970,14,177700.7500000000,183660.2343750000,163329.4375000000,160684.8281250000,130275.5234375000,118351.8750000000,131534.5625000000,145994.3750000000,,,
1.9159999969,14,177725.9375000000,189298.4531250000,162895.8593750000,159983.9218750000,129558.5156250000,117704.4375000000,130788.8203125000,148698.1406250000,,,
1.9199999969,15,177901.6875000000,203150.8281250000,162811.4843750000,159731.2812500000,129316.9296875000,117494.7421875000,130518.4843750000,151510.3906250000,,,
1.9239999969,15,177988.6250000000,205898.1093750000,163120.0156250000,160171.2187500000,129760.9453125000,117894.8750000000,130972.6562500000,150745.1093750000,,,
1.9279999968,15,177906.7343750000,195137.5937500000,163448.3125000000,160747.9687500000,130336.4687500000,118404.3906250000,131577.5000000000,147653.7187500000,,,
1.9319999968,15,177724.6093750000,183722.6562500000,163354.3281250000,160710.6875000000,130295.8828125000,118356.7265625000,131553.0312500000,146000.8593750000,,,
1.9359999967,15,177745.2968750000,189194.7031250000,162917.0781250000,160004.0156250000,129578.9843750000,117706.1875000000,130807.7343750000,148676.9062500000,,,
1.9399999967,15,177922.4531250000,203092.4375000000,162830.2031250000,159749.9218750000,129331.9765625000,117493.7265625000,130529.5625000000,151518.7812500000,,,
1.9439999969,15,177996.9062500000,206008.9687500000,163119.8437500000,160171.0000000000,129754.3750000000,117887.1562500000,130964.3750000000,150788.5781250000,,,
1.9479999968,15,177905.0156250000,195401.2343750000,163435.9687500000,160735.3750000000,130319.5156250000,118400.6875000000,131563.8750000000,147709.4062500000,,,
1.9519999968,15,177719.6562500000,183810.6875000000,163347.5937500000,160708.6250000000,130291.1093750000,118366.7890625000,131547.6406250000,146000.4062500000,,,
1.9559999967,15,177735.6875000000,189084.7968750000,162908.0312500000,159995.7812500000,129574.3984375000,117719.1093750000,130803.6015625000,148642.4375000000,,,
1.9599999967,15,177909.8281250000,203008.1406250000,162815.6406250000,159731.0625000000,129320.7968750000,117501.1562500000,130524.7812500000,151509.7968750000,,,
1.9639999969,15,177991.7031250000,206070.2812500000,163112.0468750000,160156.9531250000,129750.3750000000,117895.8125000000,130966.8125000000,150817.9843750000,,,
1.9679999969,15,177907.4375000000,195568.2343750000,163436.0781250000,160730.2968750000,130324.3437500000,118409.1875000000,131572.5312500000,147747.9218750000,,,
1.9719999968,15,177721.7968750000,183843.2968750000,163354.4375000000,160722.0937500000,130304.4687500000,118375.7187500000,131563.4687500000,145987.4531250000,,,
1.9759999968,15,177738.9062500000,188935.2031250000,162921.5000000000,160034.7500000000,129592.6093750000,117726.8906250000,130825.1406250000,148593.6250000000,,,
1.9799999967,15,177908.0781250000,202873.8125000000,162818.5312500000,159732.4687500000,129324.5781250000,117495.9765625000,130531.3593750000,151479.1406250000,,,
1.9839999967,15,177983.2343750000,206023.5625000000,163105.3906250000,160127.6562500000,129743.2656250000,117883.0468750000,130960.9687500000,150803.4375000000,,,
1.9879999969,15,177897.6406250000,195557.9218750000,163428.9218750000,160711.2031250000,130316.3203125000,118399.5859375000,131563.4218750000,147741.4843750000,,,
1.9919999968,15,177710.3437500000,183862.6093750000,163345.7812500000,160700.5781250000,130295.2656250000,118372.3671875000,131552.8281250000,145984.6562500000,,,
1.9959999968,15,177732.6875000000,188808.7968750000,162922.3125000000,160017.6406250000,129594.4609375000,117736.1953125000,130826.5859375000,148560.9531250000,,,
1.9999999967,15,177909.5000000000,202770.1718750000,162825.5312500000,159737.9375000000,129327.5234375000,117500.2968750000,130532.8046875000,151468.8125000000,,,
2.0039999967,15,177985.6718750000,206017.5000000000,163109.6875000000,160152.3906250000,129741.2343750000,117879.6953125000,130959.0312500000,150813.1562500000,,,
2.0079999969,15,177904.3437500000,195609.5000000000,163434.5000000000,160721.4218750000,130317.9062500000,118395.8046875000,131568.8125000000,147757.1406250000,,,
2.0119999968,15,177720.2656250000,183903.5937500000,163355.9375000000,160704.7343750000,130303.1796875000,118367.8046875000,131568.1562500000,145984.4218750000,,,
2.0159999968,15,177732.8750000000,188694.9843750000,162922.8906250000,160014.9843750000,129593.7890625000,117725.0156250000,130827.5546875000,148520.8750000000,,,
2.0199999968,15,177911.6718750000,202682.7656250000,162818.0156250000,159738.5312500000,129316.9843750000,117485.2265625000,130516.6328125000,151453.0468750000,,,
2.0239999967,15,177999.0000000000,206059.5625000000,163111.4531250000,160154.7968750000,129740.2109375000,117873.2890625000,130948.8437500000,150842.4375000000,,,
2.0279999967,15,177917.0937500000,195756.7031250000,163437.9843750000,160729.1406250000,130317.0781250000,118392.8593750000,131560.5000000000,147803.7968750000,,,
2.0319999969,15,177735.7500000000,183990.9218750000,163366.9687500000,160732.1562500000,130313.1875000000,118380.3828125000,131573.1875000000,146009.4531250000,,,
2.0359999968,15,177746.2031250000,188605.9375000000,162936.8906250000,160042.6093750000,129610.0156250000,117743.1718750000,130848.4218750000,148510.9531250000,,,
2.0399999968,15,177921.2500000000,202600.6250000000,162823.7656250000,159751.4843750000,129322.3203125000,117493.8046875000,130530.5546875000,151458.4843750000,,,
2.0439999967,15,178009.5937500000,206107.0625000000,163113.7656250000,160158.6875000000,129739.2734375000,117874.7890625000,130952.2734375000,150878.9218750000,,,
2.0479999967,16,177929.0312500000,195921.8750000000,163441.0937500000,160726.4687500000,130318.2265625000,118397.8437500000,131561.7812500000,147854.4531250000,,,
2.0519999966,16,177740.5937500000,184065.6562500000,163369.5937500000,160720.1562500000,130318.7109375000,118391.3828125000,131577.0468750000,146022.1875000000,,,
2.0559999966,16,177740.8906250000,188493.5000000000,162932.3593750000,160028.8750000000,129611.7578125000,117754.4609375000,130844.2656250000,148478.2031250000,,,
2.0599999966,16,177917.4687500000,202498.3281250000,162816.4375000000,159751.4531250000,129319.1875000000,117502.3125000000,130521.5156250000,151444.6562500000,,,
2.0639999965,16,178003.2656250000,206124.3281250000,163100.3593750000,160151.5781250000,129728.3593750000,117876.0234375000,130935.5078125000,150893.2968750000,,,
2.0679999965,16,177915.6093750000,196031.7656250000,163419.4531250000,160699.7187500000,130299.9062500000,118389.1796875000,131538.1718750000,147870.9843750000,,,
2.0719999967,16,177729.5781250000,184090.0156250000,163356.0000000000,160703.3125000000,130311.4453125000,118388.0000000000,131572.9375000000,146006.0468750000,,,
2.0759999966,16,177732.5000000000,188350.2343750000,162924.9843750000,160023.0000000000,129609.9921875000,117747.8671875000,130852.1250000000,148427.0000000000,,,
2.0799999966,16,177902.5312500000,202381.4375000000,162802.3593750000,159718.1406250000,129305.3437500000,117479.7812500000,130520.4375000000,151406.9062500000,,,
2.0839999965,16,177986.2187500000,206160.8125000000,163083.7500000000,160119.5625000000,129707.1093750000,117847.6406250000,130931.0312500000,150889.9687500000,,,
2.0879999965,16,177910.0156250000,196183.6562500000,163416.6093750000,160688.5625000000,130291.7265625000,118372.2812500000,131542.6093750000,147890.9062500000,,,
2.0919999967,16,177725.2812500000,184133.1406250000,163360.7968750000,160710.6406250000,130315.9765625000,118384.9687500000,131578.5468750000,145989.2500000000,,,
2.0959999966,16,177732.5312500000,188199.5781250000,162934.2656250000,160033.8281250000,129622.4062500000,117753.9296875000,130854.8593750000,148383.2031250000,,,
2.0999999966,16,177916.5468750000,202284.6875000000,162816.1718750000,159733.2968750000,129320.1796875000,117487.2890625000,130517.1953125000,151409.8906250000,,,
2.1039999966,16,178014.3750000000,206205.4687500000,163107.7812500000,160137.3906250000,129730.8203125000,117861.6484375000,130939.1015625000,150933.0937500000,,,
2.1079999965,16,177936.2968750000,196309.8593750000,163438.3593750000,160712.0625000000,130311.6796875000,118385.8593750000,131557.8906250000,147936.1562500000,,,
2.1119999965,16,177744.8906250000,184169.0468750000,163383.7812500000,160736.3125000000,130336.4375000000,118401.7343750000,131604.0312500000,146000.3281250000,,,
2.1159999967,16,177733.6875000000,188066.2812500000,162945.1875000000,160045.4531250000,129632.4140625000,117762.9140625000,130872.6171875000,148355.7656250000,,,
2.1199999966,16,177910.6250000000,202200.3593750000,162813.5937500000,159727.9062500000,129313.8750000000,117485.8906250000,130519.8515625000,151407.5625000000,,,
2.1239999966,16,178007.8906250000,206276.5781250000,163098.8281250000,160133.0468750000,129715.9140625000,117854.1093750000,130928.0781250000,150962.6093750000,,,
2.1279999965,16,177930.4218750000,196446.9687500000,163432.2187500000,160714.5781250000,130302.4531250000,118385.2890625000,131549.3125000000,147969.0625000000,,,
2.1319999965,16,177737.2500000000,184215.2187500000,163375.7343750000,160738.3437500000,130331.7421875000,118403.9062500000,131597.6406250000,145999.5156250000,,,
2.1359999967,16,177735.9687500000,187930.1250000000,162945.9843750000,160059.3906250000,129640.4843750000,117774.4218750000,130881.0625000000,148327.8437500000,,,
2.1399999966,16,177914.0625000000,202108.7187500000,162812.0937500000,159733.9375000000,129315.9375000000,117488.4140625000,130521.5156250000,151409.2968750000,,,
2.1439999966,16,178007.7187500000,206326.7343750000,163091.1718750000,160122.7500000000,129709.0468750000,117851.6171875000,130923.2265625000,150989.4218750000,,,
2.1479999966,16,177923.3125000000,196579.6093750000,163420.7187500000,160688.2656250000,130290.1484375000,118382.1562500000,131541.5781250000,147995.2187500000,,,
2.1519999965,16,177732.0781250000,184271.1093750000,163378.1250000000,160729.2812500000,130335.5546875000,118413.8046875000,131607.6406250000,145997.0000000000,,,
2.1559999965,16,177732.1250000000,187830.8125000000,162951.2968750000,160061.1406250000,129648.9609375000,117781.9531250000,130900.2421875000,148293.9375000000,,,
2.1599999967,16,177913.3593750000,202047.0468750000,162812.6875000000,159728.2812500000,129316.7968750000,117487.4765625000,130533.4765625000,151398.8906250000,,,
2.1639999966,16,178007.1093750000,206404.8437500000,163089.9375000000,160115.0000000000,129705.7421875000,117847.1875000000,130928.6718750000,151010.6093750000,,,
2.1679999966,16,177932.5625000000,196767.6093750000,163428.2500000000,160704.6093750000,130295.5078125000,118382.7421875000,131550.9375000000,148031.5312500000,,,
2.1719999965,16,177735.5312500000,184335.2187500000,163381.0468750000,160743.3281250000,130338.9375000000,118416.5703125000,131614.0312500000,145988.7968750000,,,
2.1759999965,17,177719.9218750000,187701.2812500000,162941.3437500000,160048.9843750000,129639.7109375000,117777.0234375000,130891.6875000000,148242.7656250000,,,
2.1799999964,17,177901.1562500000,201941.9687500000,162797.7968750000,159708.6406250000,129299.5000000000,117473.2343750000,130514.3750000000,151372.5781250000,,,
2.1839999964,17,177993.9375000000,206455.5625000000,163071.3593750000,160101.7187500000,129680.3750000000,117818.7265625000,130892.4375000000,151018.4218750000,,,
2.1879999964,17,177910.8437500000,196936.3906250000,163406.7656250000,160684.8906250000,130266.3515625000,118344.6562500000,131503.5781250000,148042.8281250000,,,
2.1919999963,17,177714.0937500000,184381.2187500000,163366.9843750000,160739.8437500000,130322.8671875000,118388.6718750000,131582.7812500000,145957.5937500000,,,
2.1959999963,17,177716.5937500000,187566.0468750000,162947.8437500000,160075.0312500000,129644.2968750000,117766.8593750000,130886.4843750000,148196.6093750000,,,
2.1999999965,17,177904.4843750000,201859.2656250000,162805.3906250000,159725.5468750000,129299.2265625000,117460.7890625000,130509.0937500000,151365.1250000000,,,
2.2039999964,17,178003.4843750000,206536.9062500000,163081.6250000000,160103.0625000000,129681.9531250000,117816.5859375000,130896.7812500000,151050.6562500000,,,
2.2079999964,17,177935.1093750000,197142.3593750000,163431.5781250000,160704.1406250000,130283.4921875000,118366.2500000000,131533.5937500000,148099.2343750000,,,
2.2119999963,17,177738.2343750000,184456.1093750000,163400.8593750000,160775.3593750000,130352.8046875000,118421.6328125000,131624.0312500000,145972.7500000000,,,
2.2159999963,17,177726.1250000000,187447.9531250000,162964.9531250000,160099.5781250000,129663.0703125000,117788.8515625000,130905.1250000000,148166.6875000000,,,
2.2199999965,17,177918.4843750000,201757.1093750000,162815.3437500000,159745.2343750000,129312.0234375000,117477.2578125000,130517.4062500000,151360.5937500000,,,
2.2239999964,17,178023.9531250000,206553.6718750000,163092.0312500000,160115.3281250000,129697.0000000000,117830.8828125000,130907.7500000000,151086.7343750000,,,
2.2279999964,17,177951.5625000000,197228.1718750000,163436.3750000000,160706.1562500000,130294.3593750000,118374.5625000000,131538.5312500000,148141.1406250000,,,
2.2319999964,17,177757.0468750000,184524.2500000000,163412.8750000000,160787.2656250000,130371.0937500000,118433.2265625000,131632.4843750000,146001.0781250000,,,
2.2359999963,17,177736.0468750000,187344.5000000000,162974.7656250000,160094.2968750000,129679.1406250000,117803.5781250000,130915.3671875000,148154.8125000000,,,
2.2399999963,17,177918.3281250000,201660.2812500000,162812.4218750000,159722.4375000000,129311.6250000000,117486.6953125000,130513.5156250000,151362.9218750000,,,
2.2439999965,17,178019.2500000000,206571.6718750000,163081.7343750000,160088.9843750000,129685.3906250000,117837.0468750000,130894.4218750000,151108.5468750000,,,
2.2479999964,17,177946.8437500000,197290.5625000000,163428.8750000000,160673.1718750000,130287.0859375000,118379.8984375000,131531.7343750000,148160.2343750000,,,
2.2519999964,17,177746.2812500000,184559.5625000000,163404.2968750000,160750.9218750000,130367.7421875000,118441.8046875000,131634.1718750000,145998.1875000000,,,
2.2559999963,17,177719.3906250000,187210.3906250000,162967.4531250000,160082.4375000000,129681.0156250000,117816.3671875000,130927.0625000000,148109.8281250000,,,
2.2599999963,17,177901.0000000000,201526.4062500000,162800.2343750000,159712.1562500000,129304.4843750000,117483.9609375000,130512.2031250000,151331.8125000000,,,
2.2639999965,17,178000.0000000000,206544.8437500000,163067.3125000000,160075.4843750000,129672.5156250000,117821.9453125000,130886.6171875000,151098.3281250000,,,
2.2679999964,17,177930.8750000000,197352.8906250000,163418.1406250000,160673.0000000000,130275.1796875000,118363.7578125000,131522.9687500000,148163.6093750000,,,
2.2719999964,17,177732.4218750000,184577.1250000000,163395.1875000000,160748.8593750000,130358.2500000000,118430.2187500000,131623.6250000000,145982.0312500000,,,
2.2759999963,17,177719.5781250000,187040.0312500000,162973.8125000000,160091.5312500000,129687.6171875000,117815.5937500000,130925.5859375000,148062.9687500000,,,
2.2799999963,17,177908.7031250000,201342.9218750000,162810.8281250000,159708.2343750000,129314.2265625000,117485.6250000000,130516.1484375000,151308.1562500000,,,
2.2839999963,17,178008.9375000000,206481.1250000000,163075.7343750000,160065.1875000000,129680.3437500000,117827.4218750000,130892.2187500000,151113.3437500000,,,
2.2879999964,17,177939.5156250000,197416.8906250000,163424.9843750000,160665.6250000000,130281.3203125000,118373.2265625000,131529.2187500000,148201.4843750000,,,
2.2919999964,17,177736.8750000000,184599.1718750000,163403.8750000000,160755.0000000000,130368.6015625000,118444.4609375000,131636.2968750000,145992.5156250000,,,
2.2959999964,17,177714.4531250000,186886.7968750000,162976.8437500000,160101.0468750000,129693.9140625000,117827.9843750000,130938.1640625000,148027.0937500000,,,
2.2999999963,17,177903.2812500000,201162.6406250000,162809.4375000000,159725.8906250000,129312.9921875000,117488.9765625000,130526.7421875000,151280.1718750000,,,
2.3039999963,18,178011.3437500000,206423.4531250000,163076.3125000000,160084.6875000000,129678.0390625000,117827.1796875000,130899.7343750000,151120.7500000000,,,
2.3079999962,18,177945.7968750000,197525.4062500000,163424.7968750000,160679.1718750000,130275.3906250000,118367.3203125000,131525.2968750000,148236.4375000000,,,
2.3119999962,18,177751.7812500000,184691.7031250000,163415.5156250000,160779.4843750000,130377.0781250000,118449.9609375000,131640.9062500000,146012.6093750000,,,
2.3159999961,18,177723.2500000000,186800.6562500000,162989.8125000000,160118.5156250000,129710.0078125000,117837.7187500000,130946.6718750000,148004.6875000000,,,
2.3199999961,18,177909.6875000000,201048.2031250000,162819.2343750000,159727.0937500000,129324.3906250000,117492.0078125000,130529.7187500000,151268.7031250000,,,
2.3239999961,18,178018.6875000000,206429.1406250000,163083.9843750000,160083.8906250000,129684.9609375000,117823.1015625000,130898.9531250000,151149.2812500000,,,
2.3279999963,18,177952.8906250000,197661.0468750000,163428.7031250000,160665.6562500000,130280.1171875000,118367.6406250000,131525.9687500000,148289.9375000000,,,
2.3319999962,18,177755.3593750000,184795.7187500000,163416.5000000000,160764.8125000000,130382.2265625000,118455.7812500000,131644.5312500000,146038.5468750000,,,
2.3359999962,18,177729.8750000000,186722.0312500000,162996.9531250000,160123.0468750000,129723.1250000000,117849.7890625000,130960.5625000000,147987.2031250000,,,
2.3399999961,18,177911.8281250000,200929.2187500000,162819.9843750000,159732.3593750000,129326.3203125000,117490.5859375000,130525.8281250000,151252.0468750000,,,
2.3439999961,18,178010.1562500000,206397.5156250000,163070.5781250000,160060.3906250000,129670.7656250000,117809.4218750000,130876.6640625000,151144.6250000000,,,
2.3479999963,18,177948.9062500000,197738.3437500000,163418.1406250000,160657.5781250000,130271.2890625000,118355.9218750000,131514.9218750000,148301.9531250000,,,
2.3519999962,18,177762.5468750000,184871.8437500000,163423.0156250000,160782.7031250000,130393.6796875000,118454.4375000000,131657.7812500000,146040.8906250000,,,
2.3559999962,18,177724.7968750000,186626.4062500000,163002.1875000000,160120.6562500000,129733.5859375000,117849.3906250000,130978.6171875000,147944.6406250000,,,
2.3599999961,18,177903.7343750000,200797.5156250000,162822.6875000000,159708.8906250000,129330.9296875000,117489.5156250000,130541.4687500000,151223.3125000000,,,
2.3639999961,18,178007.2187500000,206389.3281250000,163072.5937500000,160046.2500000000,129671.2500000000,117804.6718750000,130887.3125000000,151156.0781250000,,,
2.3679999961,18,177945.3593750000,197861.1718750000,163414.8906250000,160638.1562500000,130262.2500000000,118343.7421875000,131512.7187500000,148330.4218750000,,,
2.3719999962,18,177752.5312500000,184934.6562500000,163416.0000000000,160766.9843750000,130381.0703125000,118445.9140625000,131649.0312500000,146035.0625000000,,,
2.3759999962,18,177715.6875000000,186512.7968750000,162996.2500000000,160127.7968750000,129725.8359375000,117843.9687500000,130970.2968750000,147894.5312500000,,,
2.3799999962,18,177899.3281250000,200666.2187500000,162813.0000000000,159716.2656250000,129320.8203125000,117479.5937500000,130530.3125000000,151186.2968750000,,,
2.3839999961,18,178013.0312500000,206367.4218750000,163069.0000000000,160049.3125000000,129665.6718750000,117795.7187500000,130877.3046875000,151157.3906250000,,,
2.3879999961,18,177960.7343750000,197970.5468750000,163422.8125000000,160643.1250000000,130266.4609375000,118336.7421875000,131508.8906250000,148360.5312500000,,,
2.3919999963,18,177766.7187500000,185025.2656250000,163427.7656250000,160775.8125000000,130392.3671875000,118443.2578125000,131657.7031250000,146046.4062500000,,,
2.3959999962,18,177719.5000000000,186399.6875000000,163003.7968750000,160137.1875000000,129735.0859375000,117846.1953125000,130982.2343750000,147858.5312500000,,,
2.3999999962,18,177892.9531250000,200493.8437500000,162809.4687500000,159711.5625000000,129315.9375000000,117474.9765625000,130530.6015625000,151157.8437500000,,,
2.4039999961,18,178005.8750000000,206301.0625000000,163060.0625000000,160045.4531250000,129653.2031250000,117788.2578125000,130869.4218750000,151162.8281250000,,,
2.4079999961,18,177958.9531250000,198001.8437500000,163417.4687500000,160653.2968750000,130257.0703125000,118335.5390625000,131505.2656250000,148389.3125000000,,,
2.4119999961,18,177763.7812500000,185028.5937500000,163427.7968750000,160792.1250000000,130390.5390625000,118447.1953125000,131667.0312500000,146057.1406250000,,,
2.4159999962,18,177712.4687500000,186225.2812500000,163008.2500000000,160156.6875000000,129741.8437500000,117856.0390625000,131000.5312500000,147824.1718750000,,,
2.4199999962,18,177890.2656250000,200278.7187500000,162817.2500000000,159731.7656250000,129325.0625000000,117483.0781250000,130549.5937500000,151131.3906250000,,,
2.4239999962,18,178000.4218750000,206176.0156250000,163060.5156250000,160057.8906250000,129655.8281250000,117790.0546875000,130878.2500000000,151161.9687500000,,,
2.4279999961,18,177938.1718750000,197973.7187500000,163401.4843750000,160639.7500000000,130247.5000000000,118331.5156250000,131497.4843750000,148397.1250000000,,,
2.4319999961,19,177743.2812500000,185005.5468750000,163415.1093750000,160775.0312500000,130387.0546875000,118451.5156250000,131662.4218750000,146054.1093750000,,,
2.4359999960,19,177696.5625000000,186069.4531250000,163001.5468750000,160147.1562500000,129743.4296875000,117867.1171875000,131003.7734375000,147793.0625000000,,,
2.4399999960,19,177874.0937500000,200166.4531250000,162800.3437500000,159724.8750000000,129310.1171875000,117480.1250000000,130536.0234375000,151119.7500000000,,,
2.4439999959,19,177995.2031250000,206241.3281250000,163048.5781250000,160050.0937500000,129641.1875000000,117782.0078125000,130867.7031250000,151188.0625000000,,,
2.4479999959,19,177948.4687500000,198154.2031250000,163400.9687500000,160641.4375000000,130241.6796875000,118321.7812500000,131498.3125000000,148435.5000000000,,,
2.4519999959,19,177763.9843750000,185107.8750000000,163426.4218750000,160792.2500000000,130398.3750000000,118450.2812500000,131675.1250000000,146064.1875000000,,,
2.4559999960,19,177727.3281250000,185982.1718750000,163026.9375000000,160180.3125000000,129774.8359375000,117877.3125000000,131031.3437500000,147780.0312500000,,,
2.4599999960,19,177901.6718750000,200141.0156250000,162817.6406250000,159732.1406250000,129329.2734375000,117475.4296875000,130551.0156250000,151140.9218750000,,,
2.4639999960,19,178001.5468750000,206396.3125000000,163044.3437500000,160022.0625000000,129634.4218750000,117763.1796875000,130851.7187500000,151230.7656250000,,,
2.4679999959,19,177954.3437500000,198435.5156250000,163399.5468750000,160623.3281250000,130238.9140625000,118318.2656250000,131489.9218750000,148483.8906250000,,,
2.4719999959,19,177772.0312500000,185260.0156250000,163434.3437500000,160796.9218750000,130407.4921875000,118461.0937500000,131685.6250000000,146068.4531250000,,,
2.4759999961,19,177720.4062500000,185914.1718750000,163021.4218750000,160170.8906250000,129768.3203125000,117873.1250000000,131027.7812500000,147730.8906250000,,,
2.4799999960,19,177899.0468750000,200070.1250000000,162811.3906250000,159724.8125000000,129318.7265625000,117472.1640625000,130544.3671875000,151115.4843750000,,,
2.4839999960,19,178018.9375000000,206457.2968750000,163054.4062500000,160040.0000000000,129638.3437500000,117765.1640625000,130867.0078125000,151252.5000000000,,,
2.4879999959,19,177973.7343750000,198593.4375000000,163412.1562500000,160644.4687500000,130245.1093750000,118314.9687500000,131499.4531250000,148524.0156250000,,,
2.4919999959,19,177780.9687500000,185364.4062500000,163443.8593750000,160800.4687500000,130417.1171875000,118463.8828125000,131691.4375000000,146086.2187500000,,,
2.4959999959,19,177725.4218750000,185836.9531250000,163034.9375000000,160185.2500000000,129790.7734375000,117886.2421875000,131045.6953125000,147714.5312500000,,,
2.4999999960,19,177888.7656250000,199965.7343750000,162810.1875000000,159735.2500000000,129326.1875000000,117472.6953125000,130540.9609375000,151103.7968750000,,,
2.5039999960,19,177998.5000000000,206475.2656250000,163040.5937500000,160031.6875000000,129632.9531250000,117762.8046875000,130848.5781250000,151267.9687500000,,,
2.5079999960,19,177953.3593750000,198735.1406250000,163396.2812500000,160617.9062500000,130236.3125000000,118315.7187500000,131487.9687500000,148556.1562500000,,,
2.5119999959,19,177765.5000000000,185494.8750000000,163434.3437500000,160791.1093750000,130412.0546875000,118468.1484375000,131687.4375000000,146097.2656250000,,,
2.5159999959,19,177701.7656250000,185808.2031250000,163021.2031250000,160175.3281250000,129780.4687500000,117887.3671875000,131032.6640625000,147678.7812500000,,,
2.5199999961,19,177873.1093750000,199913.9687500000,162802.5937500000,159718.2968750000,129318.1406250000,117473.3437500000,130537.9296875000,151084.7031250000,,,
2.5239999960,19,177988.2812500000,206543.6875000000,163033.5625000000,160015.5156250000,129622.5703125000,117752.5859375000,130841.5546875000,151281.5937500000,,,
2.5279999960,19,177945.3593750000,198918.6250000000,163388.5625000000,160612.3281250000,130226.8984375000,118300.0234375000,131476.7031250000,148583.8906250000,,,
2.5319999959,19,177764.2343750000,185667.0156250000,163433.4218750000,160798.3750000000,130412.7734375000,118460.2343750000,131687.3281250000,146113.4375000000,,,
2.5359999959,19,177706.9375000000,185806.5468750000,163028.4375000000,160192.7500000000,129792.6250000000,117898.5234375000,131048.4062500000,147661.8437500000,,,
2.5399999958,19,177877.8750000000,199865.3437500000,162802.6562500000,159725.2812500000,129321.9453125000,117479.9140625000,130541.3359375000,151073.1093750000,,,
2.5439999960,19,178001.5781250000,206591.3593750000,163039.6562500000,160026.5468750000,129627.9609375000,117762.0546875000,130847.2656250000,151304.0781250000,,,
2.5479999960,19,177967.4375000000,199090.8750000000,163400.6250000000,160631.5156250000,130233.9531250000,118309.9218750000,131482.6250000000,148634.2500000000,,,
2.5519999960,19,177781.3125000000,185793.2656250000,163444.7500000000,160813.2812500000,130420.5781250000,118471.4687500000,131690.0156250000,146134.9218750000,,,
2.5559999959,19,177717.2343750000,185718.7031250000,163042.0468750000,160211.1250000000,129803.9140625000,117901.7187500000,131053.3671875000,147629.3437500000,,,
2.5599999959,20,177890.1093750000,199746.2187500000,162815.4531250000,159746.8437500000,129328.4375000000,117474.6562500000,130541.7109375000,151046.4218750000,,,
2.5639999958,20,178015.7968750000,206617.7187500000,163047.5937500000,160042.6406250000,129628.3906250000,117746.0703125000,130843.3203125000,151307.8906250000,,,
2.5679999958,20,177981.6718750000,199259.3437500000,163406.9218750000,160639.4843750000,130233.5000000000,118292.2734375000,131475.5468750000,148654.3281250000,,,
2.5719999957,20,177791.8281250000,185989.9843750000,163452.4531250000,160815.5625000000,130427.5546875000,118461.4375000000,131687.5781250000,146139.1093750000,,,
2.5759999957,20,177726.9687500000,185759.9531250000,163054.0312500000,160215.9531250000,129822.0703125000,117909.0156250000,131064.2578125000,147595.7031250000,,,
2.5799999957,20,177900.8593750000,199720.7187500000,162826.0156250000,159740.6093750000,129344.6640625000,117485.0625000000,130551.9531250000,151030.1406250000,,,
2.5839999958,20,178015.3906250000,206691.9062500000,163043.9687500000,160021.2500000000,129626.2968750000,117744.8359375000,130830.7421875000,151326.1718750000,,,
2.5879999958,20,177973.9218750000,199490.0468750000,163397.4062500000,160616.8906250000,130225.4765625000,118290.1015625000,131461.5937500000,148699.2500000000,,,
2.5919999958,20,177785.2031250000,186271.3437500000,163449.3125000000,160807.6718750000,130427.6875000000,118468.1171875000,131689.4062500000,146171.0000000000,,,
2.5959999957,20,177716.3281250000,185926.0312500000,163054.4531250000,160210.1406250000,129826.9531250000,117913.8906250000,131076.4843750000,147576.9375000000,,,
2.5999999957,20,177884.0156250000,199818.2500000000,162816.0312500000,159729.0000000000,129334.5000000000,117470.8750000000,130544.3671875000,150999.6406250000,,,
2.6039999959,20,178000.5625000000,206845.7656250000,163032.4375000000,160007.0937500000,129612.4296875000,117730.9921875000,130819.8281250000,151326.3906250000,,,
2.6079999958,20,177967.0625000000,199746.1718750000,163390.7031250000,160607.5312500000,130213.6484375000,118277.0937500000,131452.0312500000,148725.6406250000,,,
2.6119999958,20,177784.8593750000,186532.3437500000,163452.0468750000,160815.3281250000,130424.0703125000,118460.7421875000,131685.0312500000,146186.7968750000,,,
2.6159999957,20,177721.5312500000,185978.9843750000,163067.3125000000,160234.3281250000,129838.3281250000,117925.5859375000,131077.9062500000,147554.8906250000,,,
2.6199999957,20,177897.9687500000,199744.5156250000,162832.9375000000,159756.1718750000,129351.7734375000,117482.8906250000,130553.7812500000,150982.0781250000,,,
2.6239999956,20,178014.8281250000,206833.6875000000,163041.2968750000,160015.1718750000,129620.5312500000,117732.8750000000,130817.2265625000,151337.3125000000,,,
2.6279999958,20,177973.2500000000,199852.5156250000,163392.7187500000,160587.6093750000,130213.1406250000,118274.0078125000,131439.6250000000,148759.5156250000,,,
2.6319999958,20,177787.8281250000,186695.2968750000,163459.3593750000,160798.2187500000,130429.4843750000,118463.4765625000,131685.5937500000,146220.4062500000,,,
2.6359999957,20,177728.3125000000,185988.5000000000,163081.5156250000,160240.1250000000,129853.4531250000,117929.3437500000,131094.7343750000,147543.6406250000,,,
2.6399999957,20,177910.8906250000,199653.0781250000,162847.0937500000,159763.1718750000,129366.5781250000,117489.2734375000,130569.3359375000,150966.3593750000,,,
2.6439999957,20,178033.7656250000,206788.3593750000,163057.0937500000,160025.5937500000,129631.7734375000,117741.6406250000,130824.0625000000,151343.9531250000,,,
2.6479999959,20,177992.7343750000,199908.4375000000,163405.4531250000,160606.7031250000,130219.8671875000,118281.1953125000,131444.8593750000,148784.1718750000,,,
2.6519999958,20,177799.6093750000,186662.8437500000,163467.6875000000,160818.5625000000,130434.9843750000,118469.5390625000,131690.9218750000,146214.7656250000,,,
2.6559999958,20,177735.0781250000,185672.8906250000,163088.3593750000,160254.0781250000,129859.8906250000,117947.3671875000,131100.7031250000,147487.4218750000,,,
2.6599999957,20,177912.9843750000,199260.0156250000,162846.1562500000,159761.6718750000,129359.4687500000,117495.6328125000,130562.8984375000,150913.2187500000,,,
2.6639999957,20,178035.0312500000,206572.6093750000,163052.9062500000,160024.7187500000,129622.1406250000,117737.5625000000,130824.0625000000,151339.2656250000,,,
2.6679999956,20,177993.4062500000,199873.6093750000,163399.0156250000,160604.9062500000,130211.5546875000,118279.3750000000,131445.8593750000,148818.0625000000,,,
2.6719999958,20,177801.5937500000,186670.9375000000,163464.6562500000,160832.7656250000,130434.9062500000,118474.0703125000,131694.8125000000,146239.0156250000,,,
2.6759999958,20,177731.9687500000,185587.8593750000,163088.9531250000,160268.1562500000,129862.1484375000,117945.6484375000,131107.1406250000,147466.7656250000,,,
2.6799999957,20,177903.6562500000,199135.0312500000,162842.5937500000,159742.3125000000,129354.3750000000,117493.7265625000,130559.0625000000,150896.0625000000,,,
2.6839999957,20,178023.3593750000,206538.2031250000,163044.1875000000,159991.0468750000,129609.0234375000,117731.3125000000,130808.0234375000,151350.8281250000,,,
2.6879999957,21,177984.7968750000,199933.0468750000,163391.4531250000,160592.0000000000,130195.7812500000,118271.8906250000,131422.0625000000,148853.5781250000,,,
2.6919999956,21,177792.8281250000,186676.1093750000,163459.8437500000,160821.2812500000,130424.0703125000,118478.3671875000,131675.0468750000,146271.1562500000,,,
2.6959999956,21,177723.0937500000,185444.6250000000,163086.3281250000,160260.4062500000,129861.3906250000,117954.7734375000,131102.7500000000,147452.5312500000,,,
2.6999999955,21,177898.6093750000,199079.0312500000,162837.8437500000,159744.5781250000,129352.4140625000,117490.3203125000,130559.2500000000,150871.0000000000,,,
2.7039999955,21,178022.1250000000,206650.6093750000,163036.1718750000,159990.8125000000,129602.6171875000,117724.9843750000,130810.1718750000,151355.6250000000,,,
2.7079999954,21,177986.8281250000,200225.0000000000,163386.2968750000,160588.8125000000,130190.6093750000,118269.0156250000,131428.7500000000,148894.7500000000,,,
2.7119999956,21,177794.3593750000,186997.2812500000,163460.0312500000,160831.2812500000,130424.2578125000,118484.0781250000,131686.3906250000,146292.1562500000,,,
2.7159999956,21,177712.5781250000,185516.1875000000,163082.0625000000,160284.3750000000,129856.6171875000,117962.4453125000,131102.8593750000,147414.7968750000,,,
2.7199999955,21,177883.7500000000,198945.9062500000,162823.5468750000,159760.0625000000,129336.8906250000,117491.7109375000,130544.9296875000,150821.2031250000,,,
2.7239999955,21,178008.5781250000,206574.2656250000,163020.7968750000,159996.9843750000,129586.2812500000,117721.3125000000,130788.2578125000,151335.3750000000,,,
2.7279999955,21,177981.7343750000,200243.7968750000,163382.7812500000,160595.7031250000,130185.2734375000,118268.5625000000,131414.2031250000,148898.5625000000,,,
2.7319999957,21,177804.3593750000,187042.8281250000,163477.3593750000,160864.6718750000,130437.1328125000,118492.3359375000,131691.2968750000,146293.3593750000,,,
2.7359999956,21,177724.6406250000,185475.4218750000,163102.2031250000,160305.8125000000,129879.0156250000,117977.8671875000,131122.8437500000,147376.7812500000,,,
2.7399999956,21,177884.5000000000,198875.0937500000,162824.2968750000,159743.0781250000,129340.8593750000,117491.6093750000,130546.8593750000,150789.2812500000,,,
2.7439999955,21,178007.4062500000,206581.3281250000,163015.5156250000,159962.5937500000,129578.8203125000,117713.0234375000,130781.5234375000,151337.2500000000,,,
2.7479999955,21,177972.3125000000,200368.7656250000,163365.8906250000,160548.5468750000,130163.7031250000,118248.5000000000,131393.5468750000,148918.6562500000,,,
2.7519999954,21,177782.2812500000,187173.3750000000,163451.6875000000,160793.4375000000,130408.0781250000,118472.6250000000,131663.7343750000,146298.7031250000,,,
2.7559999956,21,177704.5000000000,185408.7500000000,163087.0781250000,160254.6406250000,129864.3671875000,117973.4375000000,131107.1406250000,147343.2343750000,,,
2.7599999956,21,177879.8593750000,198755.2812500000,162824.6406250000,159725.3750000000,129340.2968750000,117496.4062500000,130547.2343750000,150766.0312500000,,,
2.7639999955,21,178012.3593750000,206601.8125000000,163019.2656250000,159957.5468750000,129579.1718750000,117718.0937500000,130780.2109375000,151356.7500000000,,,
2.7679999955,21,177993.0000000000,200606.0937500000,163381.6562500000,160556.6718750000,130171.6171875000,118260.4609375000,131395.5312500000,148985.5000000000,,,
2.7719999955,21,177807.9531250000,187366.9687500000,163480.8750000000,160823.2031250000,130437.5625000000,118498.1328125000,131690.0156250000,146333.7343750000,,,
2.7759999956,21,177724.7812500000,185383.7968750000,163114.0781250000,160290.6875000000,129897.1718750000,118003.1015625000,131140.2656250000,147331.1406250000,,,
2.7799999956,21,177894.6718750000,198641.7187500000,162840.7187500000,159757.2500000000,129362.1796875000,117520.9765625000,130564.6953125000,150755.3437500000,,,
2.7839999956,21,178020.0000000000,206590.5781250000,163022.2187500000,159969.2187500000,129585.1796875000,117729.4375000000,130785.9218750000,151373.9687500000,,,
2.7879999955,21,177989.9062500000,200715.5156250000,163372.8125000000,160554.8750000000,130165.5546875000,118266.1718750000,131397.6250000000,149014.5156250000,,,
2.7919999955,21,177803.7656250000,187456.9062500000,163471.5625000000,160835.0937500000,130430.5078125000,118506.6093750000,131689.1093750000,146342.5000000000,,,
2.7959999954,21,177715.6093750000,185298.1093750000,163103.8906250000,160300.7968750000,129890.2578125000,118010.0000000000,131138.5312500000,147289.3750000000,,,
2.7999999956,21,177883.2656250000,198510.1093750000,162825.2968750000,159746.4375000000,129346.7578125000,117519.9062500000,130557.4531250000,150719.7500000000,,,
2.8039999956,21,178013.7500000000,206570.0312500000,163012.1562500000,159963.3125000000,129571.5546875000,117732.4687500000,130775.3281250000,151377.7031250000,,,
2.8079999955,21,177987.8437500000,200729.7343750000,163369.5156250000,160550.0781250000,130160.6171875000,118276.1250000000,131391.8593750000,149023.3437500000,,,
2.8119999955,21,177799.0000000000,187479.9218750000,163467.9531250000,160808.0312500000,130428.1484375000,118519.1328125000,131692.9062500000,146349.6562500000,,,
2.8159999955,22,177708.1250000000,185178.0937500000,163105.6406250000,160292.6718750000,129893.2578125000,118029.7656250000,131149.9062500000,147260.4843750000,,,
2.8199999954,22,177874.6875000000,198374.8437500000,162824.0781250000,159745.9843750000,129340.7734375000,117530.5781250000,130555.3359375000,150697.0937500000,,,
2.8239999954,22,178008.8750000000,206574.6250000000,163008.3593750000,159949.2187500000,129560.9609375000,117736.6015625000,130767.6562500000,151383.5468750000,,,
2.8279999953,22,177988.0625000000,200825.9687500000,163370.9375000000,160547.5625000000,130153.7031250000,118280.1796875000,131391.8593750000,149040.9687500000,,,
2.8319999953,22,177812.3281250000,187601.5625000000,163483.7187500000,160828.1718750000,130435.5781250000,118533.7500000000,131701.2500000000,146366.7656250000,,,
2.8359999952,22,177720.1875000000,185141.1406250000,163124.2500000000,160293.9531250000,129910.6406250000,118046.9609375000,131165.7031250000,147237.4375000000,,,
2.8399999954,22,177876.3750000000,198263.5781250000,162828.7031250000,159737.2656250000,129344.1328125000,117531.9218750000,130561.3671875000,150673.9375000000,,,
2.8439999954,22,177994.7968750000,206571.4843750000,162993.2031250000,159936.6875000000,129541.3281250000,117713.3750000000,130750.5703125000,151375.0156250000,,,
2.8479999953,22,177971.0000000000,200942.8906250000,163350.3281250000,160529.1250000000,130129.1015625000,118253.1953125000,131366.0625000000,149040.0781250000,,,
2.8519999953,22,177780.5156250000,187670.9218750000,163451.3437500000,160800.0156250000,130403.2265625000,118507.5468750000,131669.1562500000,146328.7343750000,,,
2.8559999953,22,177682.7656250000,185025.1875000000,163093.1875000000,160294.5000000000,129881.8359375000,118029.8750000000,131139.3906250000,147160.7812500000,,,
2.8599999954,22,177843.5937500000,198123.8125000000,162801.5468750000,159733.6093750000,129318.1953125000,117516.7656250000,130536.4531250000,150618.5312500000,,,
2.8639999954,22,177979.9062500000,206566.5156250000,162979.9687500000,159937.7656250000,129527.1406250000,117709.0000000000,130731.3671875000,151373.5156250000,,,
2.8679999954,22,177974.3281250000,201088.6406250000,163349.5312500000,160540.9843750000,130125.4062500000,118261.2656250000,131354.4687500000,149080.3437500000,,,
2.8719999953,22,177793.9531250000,187758.2031250000,163465.7187500000,160829.5156250000,130418.8906250000,118531.6093750000,131679.8437500000,146351.3750000000,,,
2.8759999953,22,177696.6093750000,184905.9375000000,163111.9687500000,160320.9062500000,129907.6093750000,118059.8593750000,131160.8906250000,147147.2343750000,,,
2.8799999952,22,177865.2656250000,197958.0781250000,162824.2187500000,159761.9062500000,129344.9609375000,117542.4609375000,130558.8750000000,150619.2343750000,,,
2.8839999954,22,178002.3125000000,206562.9843750000,162996.2500000000,159950.0468750000,129542.8828125000,117724.5546875000,130746.0703125000,151414.6093750000,,,
2.8879999954,22,177985.2187500000,201410.5625000000,163347.2187500000,160523.2031250000,130119.8750000000,118255.6875000000,131348.8437500000,149165.7968750000,,,
2.8919999953,22,177792.0000000000,187965.3125000000,163460.8437500000,160821.6875000000,130420.3906250000,118526.0781250000,131677.2187500000,146355.7187500000,,,
2.8959999953,22,177686.8437500000,184821.2343750000,163103.9531250000,160317.7968750000,129906.7734375000,118054.6562500000,131154.6250000000,147085.5468750000,,,
2.8999999953,22,177853.1250000000,197828.6406250000,162812.2812500000,159744.9843750000,129335.2265625000,117540.7968750000,130545.4921875000,150577.1718750000,,,
2.9039999954,22,177995.2812500000,206561.4531250000,162988.3750000000,159926.8125000000,129535.2343750000,117730.5937500000,130736.1718750000,151417.4062500000,,,
2.9079999954,22,177982.3750000000,201468.5000000000,163344.8281250000,160513.3906250000,130117.4375000000,118268.8828125000,131343.8750000000,149178.5000000000,,,
2.9119999954,22,177798.6250000000,188014.0468750000,163470.3593750000,160833.4218750000,130429.7031250000,118552.0703125000,131682.7968750000,146370.3437500000,,,
2.9159999953,22,177695.6250000000,184724.6718750000,163120.5000000000,160331.1562500000,129927.6718750000,118086.7890625000,131167.4375000000,147073.9687500000,,,
2.9199999953,22,177855.6093750000,197701.8750000000,162817.8593750000,159740.9687500000,129344.3437500000,117556.1406250000,130545.2734375000,150571.3750000000,,,
2.9239999952,22,177998.0468750000,206551.9062500000,162989.1718750000,159925.8750000000,129535.3203125000,117733.2187500000,130728.0937500000,151432.4218750000,,,
2.9279999954,22,177986.8750000000,201437.5000000000,163347.2031250000,160513.6875000000,130119.3984375000,118270.6562500000,131340.8437500000,149171.3125000000,,,
2.9319999954,22,177807.8437500000,188037.3125000000,163472.9687500000,160831.1562500000,130430.2890625000,118556.5781250000,131680.9531250000,146375.8437500000,,,
2.9359999953,22,177706.3750000000,184656.5937500000,163132.1406250000,160354.1250000000,129937.7812500000,118102.2421875000,131173.5625000000,147050.2031250000,,,
2.9399999953,22,177863.5312500000,197576.1562500000,162829.1875000000,159771.4375000000,129350.2187500000,117567.4296875000,130544.4687500000,150549.0312500000,,,
2.9439999952,23,177999.9687500000,206538.2500000000,162989.7656250000,159941.0625000000,129530.0312500000,117733.5703125000,130712.1406250000,151433.2812500000,,,
